%OpenBCI Raw EEG Data
%
%Sample Rate = 250.0 Hz
%First Column = SampleIndex
%5 Columns before Timestamp are Frequency Power factors DELTA THETA ALPHA BETA GAMMA
%Last Column = Timestamp 
%Other Columns = EEG data in microvolts followed by Accel Data (in G) interleaved with Aux Data
0.000000, 0.000000, 0.000000, 0.000000, 0.000000, 0.000000, 0.000000, 0.000000, 0.176, 0.266, 0.936,0.0,0.0,0.0,0.0,0.0, 13:14:16.965
81574.031250, 76944.179688, 120686.250000, 99228.351563, 103004.789063, 93444.484375, 113566.617188, 134655.375000, 0.000, 0.000, 0.000,0.0,0.0,0.0,0.0,0.0, 13:14:17.447
81636.703125, 77010.406250, 120702.414063, 99264.406250, 103085.460938, 93484.601563, 113658.039063, 134734.609375, 0.000, 0.000, 0.000,0.0,0.0,0.0,0.0,0.0, 13:14:17.448
81506.953125, 76876.968750, 120781.757813, 99512.687500, 103039.703125, 93668.023438, 113591.828125, 134624.390625, 0.000, 0.000, 0.000,0.0,0.0,0.0,0.0,0.0, 13:14:17.448
81433.593750, 76797.484375, 120778.007813, 99514.054688, 102958.929688, 93660.492188, 113502.687500, 134543.265625, 0.000, 0.000, 0.000,0.0,0.0,0.0,0.0,0.0, 13:14:17.449
81561.984375, 76922.093750, 120699.125000, 99270.445313, 102998.664063, 93477.046875, 113559.304688, 134638.500000, 0.000, 0.000, 0.000,0.0,0.0,0.0,0.0,0.0, 13:14:17.449
81657.828125, 77019.437500, 120696.015625, 99241.117188, 103089.906250, 93465.406250, 113660.984375, 134742.171875, 0.000, 0.000, 0.000,0.0,0.0,0.0,0.0,0.0, 13:14:17.450
81545.109375, 76903.859375, 120773.648438, 99484.640625, 103063.351563, 93649.289063, 113618.695313, 134657.984375, 0.176, 0.282, 0.932,0.0,0.0,0.0,0.0,0.0, 13:14:17.450
81442.421875, 76799.117188, 120781.914063, 99547.046875, 102966.703125, 93677.632813, 113502.039063, 134542.750000, 0.000, 0.000, 0.000,0.0,0.0,0.0,0.0,0.0, 13:14:17.451
81534.156250, 76891.382813, 120712.734375, 99318.765625, 102985.882813, 93506.062500, 113533.914063, 134611.500000, 0.000, 0.000, 0.000,0.0,0.0,0.0,0.0,0.0, 13:14:17.452
81643.585938, 77010.117188, 120690.343750, 99217.851563, 103079.515625, 93439.359375, 113645.476563, 134720.578125, 0.000, 0.000, 0.000,0.0,0.0,0.0,0.0,0.0, 13:14:17.453
81560.257813, 76926.859375, 120758.890625, 99432.539063, 103073.054688, 93608.117188, 113631.953125, 134665.281250, 0.000, 0.000, 0.000,0.0,0.0,0.0,0.0,0.0, 13:14:17.453
81437.617188, 76796.906250, 120791.234375, 99552.718750, 102976.312500, 93693.476563, 113526.453125, 134553.406250, 0.000, 0.000, 0.000,0.0,0.0,0.0,0.0,0.0, 13:14:17.453
81497.117188, 76858.976563, 120726.710938, 99346.882813, 102965.695313, 93538.132813, 113518.695313, 134593.015625, 0.000, 0.000, 0.000,0.0,0.0,0.0,0.0,0.0, 13:14:17.454
81633.484375, 76994.492188, 120683.007813, 99191.250000, 103056.421875, 93428.921875, 113615.859375, 134709.531250, 0.000, 0.000, 0.000,0.0,0.0,0.0,0.0,0.0, 13:14:17.454
81584.218750, 76943.109375, 120747.093750, 99377.148438, 103072.742188, 93575.304688, 113626.851563, 134687.140625, 0.000, 0.000, 0.000,0.0,0.0,0.0,0.0,0.0, 13:14:17.455
81442.468750, 76801.039063, 120791.726563, 99551.648438, 102980.476563, 93696.070313, 113529.851563, 134564.218750, 0.000, 0.000, 0.000,0.0,0.0,0.0,0.0,0.0, 13:14:17.455
81469.085938, 76831.304688, 120738.132813, 99393.156250, 102952.960938, 93566.390625, 113502.335938, 134564.296875, 0.176, 0.290, 0.936,0.0,0.0,0.0,0.0,0.0, 13:14:17.455
81613.656250, 76978.757813, 120678.671875, 99193.554688, 103045.804688, 93421.078125, 113607.765625, 134686.953125, 0.000, 0.000, 0.000,0.0,0.0,0.0,0.0,0.0, 13:14:17.456
81598.437500, 76969.328125, 120725.906250, 99330.546875, 103084.296875, 93532.882813, 113643.906250, 134701.109375, 0.000, 0.000, 0.000,0.0,0.0,0.0,0.0,0.0, 13:14:17.456
81452.390625, 76822.921875, 120783.007813, 99543.554688, 103001.554688, 93689.945313, 113545.984375, 134580.093750, 0.000, 0.000, 0.000,0.0,0.0,0.0,0.0,0.0, 13:14:17.456
81445.375000, 76811.703125, 120749.171875, 99437.070313, 102954.054688, 93602.375000, 113494.976563, 134549.765625, 0.000, 0.000, 0.000,0.0,0.0,0.0,0.0,0.0, 13:14:17.457
81597.210938, 76966.710938, 120685.179688, 99209.914063, 103038.476563, 93438.539063, 113598.289063, 134682.640625, 0.000, 0.000, 0.000,0.0,0.0,0.0,0.0,0.0, 13:14:17.457
81628.882813, 77000.148438, 120723.804688, 99295.632813, 103102.937500, 93514.914063, 113673.281250, 134738.968750, 0.000, 0.000, 0.000,0.0,0.0,0.0,0.0,0.0, 13:14:17.457
81484.937500, 76855.171875, 120791.640625, 99531.953125, 103027.367188, 93689.789063, 113578.953125, 134614.968750, 0.000, 0.000, 0.000,0.0,0.0,0.0,0.0,0.0, 13:14:17.458
81437.328125, 76804.390625, 120768.593750, 99482.562500, 102953.203125, 93640.820313, 113506.132813, 134552.953125, 0.000, 0.000, 0.000,0.0,0.0,0.0,0.0,0.0, 13:14:17.459
81571.328125, 76938.882813, 120694.835938, 99237.429688, 103010.851563, 93456.062500, 113570.820313, 134655.375000, 0.180, 0.292, 0.934,0.0,0.0,0.0,0.0,0.0, 13:14:17.459
81641.710938, 77009.867188, 120703.710938, 99252.406250, 103095.320313, 93478.750000, 113660.648438, 134733.828125, 0.000, 0.000, 0.000,0.0,0.0,0.0,0.0,0.0, 13:14:17.459
81507.664063, 76875.695313, 120783.835938, 99502.140625, 103050.187500, 93666.054688, 113603.476563, 134634.312500, 0.000, 0.000, 0.000,0.0,0.0,0.0,0.0,0.0, 13:14:17.460
81429.859375, 76793.218750, 120779.164063, 99515.125000, 102962.437500, 93664.984375, 113509.773438, 134549.703125, 0.000, 0.000, 0.000,0.0,0.0,0.0,0.0,0.0, 13:14:17.460
81549.375000, 76912.101563, 120703.710938, 99272.765625, 102999.609375, 93483.929688, 113553.875000, 134641.218750, 0.000, 0.000, 0.000,0.0,0.0,0.0,0.0,0.0, 13:14:17.461
81641.976563, 77010.695313, 120691.187500, 99218.742188, 103083.914063, 93452.062500, 113648.757813, 134736.125000, 0.000, 0.000, 0.000,0.0,0.0,0.0,0.0,0.0, 13:14:17.461
81532.656250, 76901.445313, 120763.585938, 99453.054688, 103050.281250, 93629.085938, 113602.265625, 134656.156250, 0.000, 0.000, 0.000,0.0,0.0,0.0,0.0,0.0, 13:14:17.461
81427.804688, 76788.406250, 120779.632813, 99533.742188, 102959.687500, 93677.476563, 113505.101563, 134544.906250, 0.000, 0.000, 0.000,0.0,0.0,0.0,0.0,0.0, 13:14:17.462
81519.335938, 76883.273438, 120711.304688, 99312.929688, 102979.828125, 93508.296875, 113544.195313, 134610.562500, 0.000, 0.000, 0.000,0.0,0.0,0.0,0.0,0.0, 13:14:17.462
81644.367188, 77014.968750, 120678.984375, 99202.109375, 103074.257813, 93434.109375, 113650.007813, 134727.171875, 0.000, 0.000, 0.000,0.0,0.0,0.0,0.0,0.0, 13:14:17.462
81563.234375, 76933.789063, 120746.195313, 99417.335938, 103072.960938, 93605.664063, 113632.507813, 134682.062500, 0.188, 0.290, 0.936,0.0,0.0,0.0,0.0,0.0, 13:14:17.463
81429.773438, 76797.750000, 120786.539063, 99555.875000, 102976.765625, 93699.156250, 113524.929688, 134560.781250, 0.000, 0.000, 0.000,0.0,0.0,0.0,0.0,0.0, 13:14:17.463
81488.804688, 76853.250000, 120722.414063, 99358.554688, 102970.101563, 93548.218750, 113530.453125, 134592.703125, 0.000, 0.000, 0.000,0.0,0.0,0.0,0.0,0.0, 13:14:17.463
81633.734375, 76999.765625, 120675.078125, 99192.812500, 103064.562500, 93431.476563, 113639.664063, 134716.656250, 0.000, 0.000, 0.000,0.0,0.0,0.0,0.0,0.0, 13:14:17.464
81592.250000, 76958.773438, 120735.781250, 99370.640625, 103084.367188, 93572.468750, 113635.976563, 134701.625000, 0.000, 0.000, 0.000,0.0,0.0,0.0,0.0,0.0, 13:14:17.464
81435.828125, 76804.210938, 120791.664063, 99556.835938, 102988.367188, 93700.429688, 113527.453125, 134569.765625, 0.000, 0.000, 0.000,0.0,0.0,0.0,0.0,0.0, 13:14:17.464
81455.875000, 76825.851563, 120737.460938, 99402.492188, 102950.296875, 93576.445313, 113497.843750, 134564.000000, 0.000, 0.000, 0.000,0.0,0.0,0.0,0.0,0.0, 13:14:17.464
81606.437500, 76981.328125, 120678.117188, 99192.765625, 103039.726563, 93427.648438, 113606.179688, 134693.656250, 0.000, 0.000, 0.000,0.0,0.0,0.0,0.0,0.0, 13:14:17.465
81611.828125, 76988.703125, 120718.015625, 99310.609375, 103084.031250, 93531.992188, 113653.382813, 134716.265625, 0.000, 0.000, 0.000,0.0,0.0,0.0,0.0,0.0, 13:14:17.465
81471.257813, 76842.656250, 120778.476563, 99530.171875, 103004.320313, 93694.265625, 113558.031250, 134595.109375, 0.000, 0.000, 0.000,0.0,0.0,0.0,0.0,0.0, 13:14:17.465
81452.343750, 76819.117188, 120750.984375, 99443.335938, 102953.851563, 93614.554688, 113503.203125, 134554.968750, 0.170, 0.288, 0.942,0.0,0.0,0.0,0.0,0.0, 13:14:17.466
81596.132813, 76961.234375, 120683.929688, 99209.890625, 103026.164063, 93440.859375, 113583.421875, 134671.640625, 0.000, 0.000, 0.000,0.0,0.0,0.0,0.0,0.0, 13:14:17.466
81635.742188, 77002.851563, 120709.718750, 99277.437500, 103095.453125, 93501.765625, 113656.875000, 134728.843750, 0.000, 0.000, 0.000,5.7189645E-6,7.575547E-6,9.311783E-6,2.929436E-5,3.720856E-5, 13:14:17.467
81497.007813, 76860.289063, 120781.984375, 99523.195313, 103026.921875, 93683.351563, 113577.523438, 134618.562500, 0.000, 0.000, 0.000,5.7189645E-6,7.575547E-6,9.311783E-6,2.929436E-5,3.720856E-5, 13:14:17.474
81436.429688, 76800.546875, 120762.671875, 99491.257813, 102952.265625, 93643.929688, 113501.390625, 134547.265625, 0.000, 0.000, 0.000,5.7189645E-6,7.575547E-6,9.311783E-6,2.929436E-5,3.720856E-5, 13:14:17.474
81561.648438, 76928.171875, 120693.718750, 99247.820313, 103009.437500, 93456.375000, 113562.257813, 134640.000000, 0.000, 0.000, 0.000,5.7189645E-6,7.575547E-6,9.311783E-6,2.929436E-5,3.720856E-5, 13:14:17.474
81635.406250, 77003.679688, 120703.976563, 99250.210938, 103086.484375, 93464.085938, 113649.359375, 134721.984375, 0.000, 0.000, 0.000,5.7189645E-6,7.575547E-6,9.311783E-6,2.929436E-5,3.720856E-5, 13:14:17.475
81513.414063, 76878.015625, 120770.921875, 99490.625000, 103039.820313, 93645.156250, 113589.257813, 134628.890625, 0.000, 0.000, 0.000,5.7189645E-6,7.575547E-6,9.311783E-6,2.929436E-5,3.720856E-5, 13:14:17.475
81426.929688, 76788.031250, 120767.945313, 99520.289063, 102955.460938, 93661.789063, 113496.656250, 134541.296875, 0.000, 0.000, 0.000,5.7189645E-6,7.575547E-6,9.311783E-6,2.929436E-5,3.720856E-5, 13:14:17.476
81534.039063, 76898.960938, 120692.289063, 99275.960938, 102988.500000, 93483.281250, 113537.625000, 134620.890625, 0.178, 0.286, 0.942,5.7189645E-6,7.575547E-6,9.311783E-6,2.929436E-5,3.720856E-5, 13:14:17.476
81642.429688, 77008.148438, 120675.632813, 99204.148438, 103082.445313, 93445.757813, 113640.578125, 134722.968750, 0.000, 0.000, 0.000,5.7189645E-6,7.575547E-6,9.311783E-6,2.929436E-5,3.720856E-5, 13:14:17.477
81541.710938, 76905.218750, 120749.507813, 99435.507813, 103056.312500, 93624.882813, 113601.578125, 134646.593750, 0.000, 0.000, 0.000,5.7189645E-6,7.575547E-6,9.311783E-6,2.929436E-5,3.720856E-5, 13:14:17.477
81424.695313, 76785.976563, 120768.390625, 99528.226563, 102959.484375, 93679.039063, 113495.828125, 134528.437500, 0.000, 0.000, 0.000,5.7189645E-6,7.575547E-6,9.311783E-6,2.929436E-5,3.720856E-5, 13:14:17.478
81508.117188, 76867.828125, 120704.218750, 99313.734375, 102969.718750, 93511.312500, 113517.171875, 134585.921875, 0.000, 0.000, 0.000,5.7189645E-6,7.575547E-6,9.311783E-6,2.929436E-5,3.720856E-5, 13:14:17.478
81639.812500, 77002.804688, 120675.523438, 99195.164063, 103068.625000, 93434.421875, 113628.445313, 134718.359375, 0.000, 0.000, 0.000,5.7189645E-6,7.575547E-6,9.311783E-6,2.929436E-5,3.720856E-5, 13:14:17.479
81573.914063, 76938.296875, 120741.101563, 99405.492188, 103083.421875, 93599.132813, 113636.843750, 134682.234375, 0.000, 0.000, 0.000,5.7189645E-6,7.575547E-6,9.311783E-6,2.929436E-5,3.720856E-5, 13:14:17.479
81433.234375, 76794.843750, 120784.757813, 99558.492188, 102981.054688, 93697.031250, 113514.046875, 134544.000000, 0.000, 0.000, 0.000,5.7189645E-6,7.575547E-6,9.311783E-6,2.929436E-5,3.720856E-5, 13:14:17.480
81487.218750, 76844.710938, 120721.296875, 99371.515625, 102964.109375, 93551.500000, 113501.867188, 134569.500000, 0.000, 0.000, 0.000,5.7189645E-6,7.575547E-6,9.311783E-6,2.929436E-5,3.720856E-5, 13:14:17.480
81629.328125, 76989.148438, 120667.742188, 99196.945313, 103059.218750, 93422.976563, 113614.718750, 134700.562500, 0.000, 0.000, 0.000,5.7189645E-6,7.575547E-6,9.311783E-6,2.929436E-5,3.720856E-5, 13:14:17.481
81598.546875, 76967.625000, 120721.859375, 99365.367188, 103092.789063, 93561.382813, 113640.375000, 134707.250000, 0.184, 0.290, 0.936,5.7189645E-6,7.575547E-6,9.311783E-6,2.929436E-5,3.720856E-5, 13:14:17.481
81452.835938, 76815.898438, 120777.914063, 99561.710938, 102997.015625, 93704.140625, 113534.273438, 134580.093750, 0.000, 0.000, 0.000,5.7189645E-6,7.575547E-6,9.311783E-6,2.929436E-5,3.720856E-5, 13:14:17.482
81464.218750, 76824.890625, 120739.515625, 99425.632813, 102961.164063, 93599.046875, 113498.781250, 134569.250000, 0.000, 0.000, 0.000,5.7189645E-6,7.575547E-6,9.311783E-6,2.929436E-5,3.720856E-5, 13:14:17.482
81616.296875, 76976.859375, 120679.476563, 99210.781250, 103040.757813, 93439.695313, 113591.335938, 134687.890625, 0.000, 0.000, 0.000,5.7189645E-6,7.575547E-6,9.311783E-6,2.929436E-5,3.720856E-5, 13:14:17.483
81625.617188, 76988.390625, 120718.101563, 99324.687500, 103097.125000, 93533.578125, 113650.281250, 134722.765625, 0.000, 0.000, 0.000,5.7189645E-6,7.575547E-6,9.311783E-6,2.929436E-5,3.720856E-5, 13:14:17.483
81471.703125, 76838.234375, 120786.992188, 99554.265625, 103022.695313, 93695.046875, 113559.421875, 134592.078125, 0.000, 0.000, 0.000,5.7189645E-6,7.575547E-6,9.311783E-6,2.929436E-5,3.720856E-5, 13:14:17.483
81440.968750, 76803.968750, 120751.179688, 99467.070313, 102950.476563, 93616.343750, 113480.117188, 134534.750000, 0.000, 0.000, 0.000,5.7189645E-6,7.575547E-6,9.311783E-6,2.929436E-5,3.720856E-5, 13:14:17.484
81589.695313, 76948.382813, 120676.054688, 99227.640625, 103018.382813, 93438.851563, 113562.187500, 134649.250000, 0.000, 0.000, 0.000,5.7189645E-6,7.575547E-6,9.311783E-6,2.929436E-5,3.720856E-5, 13:14:17.484
81644.617188, 77004.078125, 120698.500000, 99284.750000, 103100.390625, 93490.906250, 113646.570313, 134714.984375, 0.000, 0.000, 0.000,5.7189645E-6,7.575547E-6,9.311783E-6,2.929436E-5,3.720856E-5, 13:14:17.484
81501.562500, 76859.937500, 120775.789063, 99532.585938, 103041.492188, 93675.398438, 113576.226563, 134603.875000, 0.180, 0.290, 0.928,5.7189645E-6,7.575547E-6,9.311783E-6,2.929436E-5,3.720856E-5, 13:14:17.485
81433.507813, 76790.375000, 120757.109375, 99509.093750, 102958.164063, 93647.812500, 113487.984375, 134527.406250, 0.000, 0.000, 0.000,5.7189645E-6,7.575547E-6,9.311783E-6,2.929436E-5,3.720856E-5, 13:14:17.485
81563.101563, 76918.093750, 120681.734375, 99265.257813, 103006.023438, 93467.906250, 113549.406250, 134628.031250, 0.000, 0.000, 0.000,5.7189645E-6,7.575547E-6,9.311783E-6,2.929436E-5,3.720856E-5, 13:14:17.486
81649.664063, 77006.476563, 120688.843750, 99254.257813, 103095.539063, 93468.375000, 113643.687500, 134717.015625, 0.000, 0.000, 0.000,5.7189645E-6,7.575547E-6,9.311783E-6,2.929436E-5,3.720856E-5, 13:14:17.486
81528.187500, 76884.945313, 120767.250000, 99501.000000, 103055.484375, 93653.179688, 113589.367188, 134624.156250, 0.000, 0.000, 0.000,5.7189645E-6,7.575547E-6,9.311783E-6,2.929436E-5,3.720856E-5, 13:14:17.487
81430.289063, 76783.851563, 120774.000000, 99542.796875, 102959.929688, 93675.242188, 113482.062500, 134526.250000, 0.000, 0.000, 0.000,5.7189645E-6,7.575547E-6,9.311783E-6,2.929436E-5,3.720856E-5, 13:14:17.487
81537.398438, 76894.000000, 120700.242188, 99301.640625, 102984.765625, 93498.218750, 113519.945313, 134607.156250, 0.000, 0.000, 0.000,5.7189645E-6,7.575547E-6,9.311783E-6,2.929436E-5,3.720856E-5, 13:14:17.487
81644.640625, 77001.648438, 120684.039063, 99222.226563, 103076.875000, 93445.914063, 113625.890625, 134708.687500, 0.000, 0.000, 0.000,5.7189645E-6,7.575547E-6,9.311783E-6,2.929436E-5,3.720856E-5, 13:14:17.488
81555.343750, 76909.039063, 120753.710938, 99448.632813, 103061.562500, 93618.359375, 113603.382813, 134643.234375, 0.000, 0.000, 0.000,5.7189645E-6,7.575547E-6,9.311783E-6,2.929436E-5,3.720856E-5, 13:14:17.488
81434.351563, 76786.109375, 120779.945313, 99555.914063, 102963.820313, 93691.671875, 113499.492188, 134533.171875, 0.000, 0.000, 0.000,5.7189645E-6,7.575547E-6,9.311783E-6,2.929436E-5,3.720856E-5, 13:14:17.488
81506.125000, 76855.640625, 120709.226563, 99338.968750, 102960.890625, 93523.671875, 113504.593750, 134572.453125, 0.180, 0.292, 0.936,5.7189645E-6,7.575547E-6,9.311783E-6,2.929436E-5,3.720856E-5, 13:14:17.488
81641.843750, 76992.101563, 120669.773438, 99203.585938, 103061.718750, 93432.609375, 113619.234375, 134702.578125, 0.000, 0.000, 0.000,5.7189645E-6,7.575547E-6,9.311783E-6,2.929436E-5,3.720856E-5, 13:14:17.489
81583.593750, 76937.515625, 120727.335938, 99398.945313, 103078.734375, 93586.210938, 113621.734375, 134668.000000, 0.000, 0.000, 0.000,5.7189645E-6,7.575547E-6,9.311783E-6,2.929436E-5,3.720856E-5, 13:14:17.489
81446.710938, 76796.140625, 120773.828125, 99564.453125, 102985.546875, 93696.187500, 113517.625000, 134541.890625, 0.000, 0.000, 0.000,5.7189645E-6,7.575547E-6,9.311783E-6,2.929436E-5,3.720856E-5, 13:14:17.489
81483.367188, 76830.226563, 120722.507813, 99393.195313, 102963.976563, 93559.210938, 113507.898438, 134556.406250, 0.000, 0.000, 0.000,5.7189645E-6,7.575547E-6,9.311783E-6,2.929436E-5,3.720856E-5, 13:14:17.490
81627.875000, 76979.000000, 120670.289063, 99207.007813, 103055.039063, 93426.398438, 113608.546875, 134688.796875, 0.000, 0.000, 0.000,5.7189645E-6,7.575547E-6,9.311783E-6,2.929436E-5,3.720856E-5, 13:14:17.490
81605.945313, 76957.429688, 120720.875000, 99359.062500, 103089.304688, 93547.921875, 113635.234375, 134690.218750, 0.000, 0.000, 0.000,5.7189645E-6,7.575547E-6,9.311783E-6,2.929436E-5,3.720856E-5, 13:14:17.491
81453.421875, 76802.226563, 120787.484375, 99564.007813, 102998.554688, 93694.351563, 113524.460938, 134557.406250, 0.000, 0.000, 0.000,5.7189645E-6,7.575547E-6,9.311783E-6,2.929436E-5,3.720856E-5, 13:14:17.491
81457.328125, 76806.179688, 120741.257813, 99434.078125, 102947.859375, 93588.562500, 113480.046875, 134541.156250, 0.000, 0.000, 0.000,5.7189645E-6,7.575547E-6,9.311783E-6,2.929436E-5,3.720856E-5, 13:14:17.492
81608.812500, 76967.382813, 120676.640625, 99215.343750, 103034.632813, 93427.648438, 113588.500000, 134669.500000, 0.182, 0.286, 0.934,5.7189645E-6,7.575547E-6,9.311783E-6,2.929436E-5,3.720856E-5, 13:14:17.492
81631.335938, 76988.679688, 120716.265625, 99318.968750, 103102.648438, 93513.796875, 113662.328125, 134716.062500, 0.000, 0.000, 0.000,5.7189645E-6,7.575547E-6,9.311783E-6,2.929436E-5,3.720856E-5, 13:14:17.493
81488.843750, 76835.039063, 120781.539063, 99550.554688, 103023.453125, 93680.335938, 113564.289063, 134586.375000, 0.000, 0.000, 0.000,5.7189645E-6,7.575547E-6,9.311783E-6,2.929436E-5,3.720856E-5, 13:14:17.493
81448.789063, 76793.195313, 120749.687500, 99480.078125, 102952.710938, 93620.593750, 113483.085938, 134532.390625, 0.000, 0.000, 0.000,5.7189645E-6,7.575547E-6,9.311783E-6,2.929436E-5,3.720856E-5, 13:14:17.493
81591.507813, 76936.468750, 120680.570313, 99241.093750, 103016.859375, 93452.554688, 113564.132813, 134656.000000, 0.000, 0.000, 0.000,5.7189645E-6,7.575547E-6,9.311783E-6,2.929436E-5,3.720856E-5, 13:14:17.494
81641.445313, 76986.468750, 120710.437500, 99284.476563, 103102.554688, 93498.820313, 113656.960938, 134729.359375, 0.000, 0.000, 0.000,5.7189645E-6,7.575547E-6,9.311783E-6,2.929436E-5,3.720856E-5, 13:14:17.494
81503.218750, 76851.710938, 120784.843750, 99525.070313, 103048.335938, 93681.429688, 113592.812500, 134622.421875, 0.000, 0.000, 0.000,5.7189645E-6,7.575547E-6,9.311783E-6,2.929436E-5,3.720856E-5, 13:14:17.495
81428.093750, 76779.085938, 120773.757813, 99512.156250, 102954.320313, 93657.453125, 113488.656250, 134529.484375, 0.000, 0.000, 0.000,5.7189645E-6,7.575547E-6,9.311783E-6,2.929436E-5,3.720856E-5, 13:14:17.495
81542.890625, 76899.296875, 120693.359375, 99260.226563, 102992.718750, 93468.710938, 113541.718750, 134618.046875, 0.000, 0.000, 0.000,5.7189645E-6,7.575547E-6,9.311783E-6,2.929436E-5,3.720856E-5, 13:14:17.496
81635.789063, 76997.195313, 120679.367188, 99227.750000, 103082.265625, 93453.132813, 113644.625000, 134714.468750, 0.000, 0.000, 0.000,5.7189645E-6,7.575547E-6,9.311783E-6,2.929436E-5,3.720856E-5, 13:14:17.496
81518.351563, 76880.992188, 120753.640625, 99470.804688, 103044.664063, 93638.226563, 113594.445313, 134629.218750, 0.182, 0.288, 0.938,5.7189645E-6,7.575547E-6,9.311783E-6,2.929436E-5,3.720856E-5, 13:14:17.496
81413.078125, 76776.429688, 120758.070313, 99530.054688, 102942.875000, 93670.703125, 113488.164063, 134523.796875, 0.000, 0.000, 0.000,5.7189645E-6,7.575547E-6,9.311783E-6,2.929436E-5,3.720856E-5, 13:14:17.497
81505.898438, 76875.492188, 120679.921875, 99296.750000, 102961.406250, 93495.398438, 113514.695313, 134589.890625, 0.000, 0.000, 0.000,5.7189645E-6,7.575547E-6,9.311783E-6,2.929436E-5,3.720856E-5, 13:14:17.497
81616.898438, 76992.523438, 120655.273438, 99206.070313, 103056.445313, 93429.843750, 113620.687500, 134696.093750, 0.000, 0.000, 0.000,5.7189645E-6,7.575547E-6,9.311783E-6,2.929436E-5,3.720856E-5, 13:14:17.497
81526.578125, 76903.789063, 120724.046875, 99429.429688, 103049.164063, 93601.007813, 113598.531250, 134641.343750, 0.000, 0.000, 0.000,5.7189645E-6,7.575547E-6,9.311783E-6,2.929436E-5,3.720856E-5, 13:14:17.498
81389.781250, 76764.539063, 120760.812500, 99547.671875, 102950.632813, 93680.203125, 113487.156250, 134513.546875, 0.000, 0.000, 0.000,5.7189645E-6,7.575547E-6,9.311783E-6,2.929436E-5,3.720856E-5, 13:14:17.498
81452.343750, 76827.281250, 120686.382813, 99333.093750, 102940.218750, 93517.234375, 113483.468750, 134549.468750, 0.000, 0.000, 0.000,5.7189645E-6,7.575547E-6,9.311783E-6,2.929436E-5,3.720856E-5, 13:14:17.498
81589.500000, 76966.109375, 120645.703125, 99184.546875, 103035.835938, 93414.062500, 113594.671875, 134677.171875, 0.000, 0.000, 0.000,5.7189645E-6,7.575547E-6,9.311783E-6,2.929436E-5,3.720856E-5, 13:14:17.499
81541.218750, 76914.296875, 120711.398438, 99376.500000, 103055.195313, 93565.828125, 113606.734375, 134652.921875, 0.000, 0.000, 0.000,5.7189645E-6,7.575547E-6,9.311783E-6,2.929436E-5,3.720856E-5, 13:14:17.500
81395.304688, 76769.632813, 120760.679688, 99549.953125, 102967.507813, 93686.195313, 113508.148438, 134527.812500, 0.000, 0.000, 0.000,5.7189645E-6,7.575547E-6,9.311783E-6,2.929436E-5,3.720856E-5, 13:14:17.500
81426.890625, 76799.984375, 120704.468750, 99384.281250, 102939.031250, 93555.257813, 113487.890625, 134536.484375, 0.178, 0.290, 0.934,5.7189645E-6,7.575547E-6,9.311783E-6,2.929436E-5,3.720856E-5, 13:14:17.501
81577.742188, 76952.718750, 120647.312500, 99189.617188, 103030.515625, 93421.546875, 113591.765625, 134668.031250, 0.000, 0.000, 0.000,5.7189645E-6,7.575547E-6,9.311783E-6,2.929436E-5,3.720856E-5, 13:14:17.501
81564.242188, 76939.906250, 120692.304688, 99328.820313, 103070.414063, 93538.429688, 113628.218750, 134684.093750, 0.000, 0.000, 0.000,5.7189645E-6,7.575547E-6,9.311783E-6,2.929436E-5,3.720856E-5, 13:14:17.502
81413.390625, 76786.687500, 120749.796875, 99544.007813, 102983.289063, 93692.789063, 113522.851563, 134559.421875, 0.000, 0.000, 0.000,5.7189645E-6,7.575547E-6,9.311783E-6,2.929436E-5,3.720856E-5, 13:14:17.502
81397.609375, 76770.640625, 120714.484375, 99434.234375, 102930.335938, 93596.007813, 113466.281250, 134525.625000, 0.000, 0.000, 0.000,5.7189645E-6,7.575547E-6,9.311783E-6,2.929436E-5,3.720856E-5, 13:14:17.502
81548.664063, 76922.562500, 120643.085938, 99202.851563, 103007.539063, 93424.859375, 113564.382813, 134650.125000, 0.000, 0.000, 0.000,5.7189645E-6,7.575547E-6,9.311783E-6,2.929436E-5,3.720856E-5, 13:14:17.502
81581.648438, 76953.187500, 120674.179688, 99284.609375, 103076.921875, 93495.976563, 113640.421875, 134701.750000, 0.000, 0.000, 0.000,5.7189645E-6,7.575547E-6,9.311783E-6,2.929436E-5,3.720856E-5, 13:14:17.503
81441.148438, 76809.937500, 120749.976563, 99526.992188, 103014.742188, 93672.734375, 113562.484375, 134590.890625, 0.000, 0.000, 0.000,5.7189645E-6,7.575547E-6,9.311783E-6,2.929436E-5,3.720856E-5, 13:14:17.503
81394.835938, 76758.570313, 120733.367188, 99476.343750, 102941.828125, 93620.007813, 113483.132813, 134525.562500, 0.000, 0.000, 0.000,0.0,0.0,0.0,0.0,0.0, 13:14:17.927
81534.289063, 76901.757813, 120664.054688, 99236.132813, 103002.984375, 93438.648438, 113558.343750, 134635.765625, 0.178, 0.290, 0.934,0.0,0.0,0.0,0.0,0.0, 13:14:17.928
81603.843750, 76976.632813, 120677.843750, 99258.195313, 103083.718750, 93464.578125, 113648.023438, 134711.953125, 0.000, 0.000, 0.000,0.0,0.0,0.0,0.0,0.0, 13:14:17.928
81479.992188, 76848.226563, 120749.375000, 99502.718750, 103030.007813, 93650.695313, 113573.390625, 134610.359375, 0.000, 0.000, 0.000,0.0,0.0,0.0,0.0,0.0, 13:14:17.928
81393.492188, 76758.320313, 120749.882813, 99515.304688, 102946.789063, 93650.539063, 113488.679688, 134525.421875, 0.000, 0.000, 0.000,0.0,0.0,0.0,0.0,0.0, 13:14:17.929
81509.296875, 76875.226563, 120672.796875, 99269.031250, 102991.648438, 93468.085938, 113553.226563, 134617.421875, 0.000, 0.000, 0.000,0.0,0.0,0.0,0.0,0.0, 13:14:17.929
81603.625000, 76978.062500, 120662.984375, 99224.554688, 103078.375000, 93449.218750, 113645.898438, 134718.140625, 0.000, 0.000, 0.000,0.0,0.0,0.0,0.0,0.0, 13:14:17.929
81496.804688, 76874.125000, 120736.765625, 99462.625000, 103049.296875, 93631.835938, 113609.531250, 134639.390625, 0.000, 0.000, 0.000,0.0,0.0,0.0,0.0,0.0, 13:14:17.930
81383.992188, 76758.593750, 120749.078125, 99532.132813, 102951.882813, 93674.367188, 113492.679688, 134525.015625, 0.000, 0.000, 0.000,0.0,0.0,0.0,0.0,0.0, 13:14:17.930
81468.617188, 76844.375000, 120677.625000, 99302.921875, 102963.820313, 93499.000000, 113507.203125, 134583.765625, 0.000, 0.000, 0.000,0.0,0.0,0.0,0.0,0.0, 13:14:17.930
81583.773438, 76964.226563, 120652.210938, 99198.578125, 103063.890625, 93430.554688, 113621.062500, 134707.546875, 0.000, 0.000, 0.000,0.0,0.0,0.0,0.0,0.0, 13:14:17.930
81502.820313, 76886.179688, 120720.718750, 99415.507813, 103061.562500, 93597.164063, 113610.585938, 134652.734375, 0.182, 0.292, 0.934,0.0,0.0,0.0,0.0,0.0, 13:14:17.931
81380.617188, 76758.617188, 120754.375000, 99546.265625, 102964.781250, 93685.523438, 113498.890625, 134523.328125, 0.000, 0.000, 0.000,0.0,0.0,0.0,0.0,0.0, 13:14:17.931
81439.898438, 76818.296875, 120690.007813, 99345.859375, 102956.648438, 93536.460938, 113497.210938, 134558.296875, 0.000, 0.000, 0.000,0.0,0.0,0.0,0.0,0.0, 13:14:17.931
81576.578125, 76957.257813, 120646.757813, 99188.632813, 103051.773438, 93424.742188, 113607.921875, 134688.500000, 0.000, 0.000, 0.000,0.0,0.0,0.0,0.0,0.0, 13:14:17.931
81532.296875, 76914.382813, 120704.039063, 99370.171875, 103073.257813, 93567.015625, 113620.085938, 134672.765625, 0.000, 0.000, 0.000,0.0,0.0,0.0,0.0,0.0, 13:14:17.932
81391.664063, 76769.210938, 120758.625000, 99556.367188, 102982.398438, 93697.054688, 113521.242188, 134545.406250, 0.000, 0.000, 0.000,0.0,0.0,0.0,0.0,0.0, 13:14:17.932
81412.781250, 76791.117188, 120702.429688, 99396.054688, 102938.656250, 93567.546875, 113479.000000, 134535.296875, 0.000, 0.000, 0.000,0.0,0.0,0.0,0.0,0.0, 13:14:17.932
81557.289063, 76939.304688, 120641.546875, 99189.906250, 103025.960938, 93420.296875, 113577.703125, 134665.953125, 0.000, 0.000, 0.000,0.0,0.0,0.0,0.0,0.0, 13:14:17.932
81558.804688, 76940.421875, 120692.890625, 99328.265625, 103083.492188, 93531.812500, 113632.375000, 134696.140625, 0.000, 0.000, 0.000,0.0,0.0,0.0,0.0,0.0, 13:14:17.932
81414.976563, 76791.898438, 120762.421875, 99548.656250, 103003.718750, 93689.281250, 113541.585938, 134567.781250, 0.192, 0.306, 0.934,0.0,0.0,0.0,0.0,0.0, 13:14:17.933
81408.109375, 76779.890625, 120724.960938, 99449.835938, 102947.484375, 93607.515625, 113486.757813, 134537.000000, 0.000, 0.000, 0.000,0.0,0.0,0.0,0.0,0.0, 13:14:17.933
81561.085938, 76933.492188, 120661.015625, 99221.085938, 103032.460938, 93445.484375, 113588.789063, 134669.812500, 0.000, 0.000, 0.000,0.0,0.0,0.0,0.0,0.0, 13:14:17.933
81589.609375, 76966.085938, 120699.687500, 99293.281250, 103096.906250, 93504.968750, 113652.718750, 134709.734375, 0.000, 0.000, 0.000,0.0,0.0,0.0,0.0,0.0, 13:14:17.933
81449.062500, 76822.023438, 120771.882813, 99529.812500, 103023.117188, 93676.289063, 113562.148438, 134588.140625, 0.000, 0.000, 0.000,0.0,0.0,0.0,0.0,0.0, 13:14:17.933
81397.718750, 76770.195313, 120751.960938, 99490.453125, 102945.226563, 93632.437500, 113470.546875, 134517.484375, 0.000, 0.000, 0.000,0.0,0.0,0.0,0.0,0.0, 13:14:17.934
81531.960938, 76907.742188, 120675.031250, 99248.492188, 103000.703125, 93455.835938, 113539.820313, 134624.531250, 0.000, 0.000, 0.000,0.0,0.0,0.0,0.0,0.0, 13:14:17.934
81601.726563, 76982.109375, 120680.843750, 99254.171875, 103084.875000, 93472.015625, 113635.640625, 134708.390625, 0.000, 0.000, 0.000,0.0,0.0,0.0,0.0,0.0, 13:14:17.934
81471.750000, 76849.632813, 120760.054688, 99501.851563, 103037.539063, 93658.210938, 113571.867188, 134612.890625, 0.000, 0.000, 0.000,0.0,0.0,0.0,0.0,0.0, 13:14:17.935
81383.835938, 76764.289063, 120765.218750, 99532.718750, 102953.945313, 93667.929688, 113481.570313, 134524.953125, 0.000, 0.000, 0.000,0.0,0.0,0.0,0.0,0.0, 13:14:17.935
81496.718750, 76882.039063, 120694.656250, 99292.437500, 102992.718750, 93490.390625, 113540.734375, 134614.031250, 0.190, 0.316, 0.930,0.0,0.0,0.0,0.0,0.0, 13:14:17.935
81604.789063, 76986.828125, 120679.273438, 99231.640625, 103083.250000, 93454.585938, 113647.531250, 134720.375000, 0.000, 0.000, 0.000,0.0,0.0,0.0,0.0,0.0, 13:14:17.936
81507.312500, 76884.546875, 120748.414063, 99468.101563, 103056.781250, 93631.898438, 113597.710938, 134641.359375, 0.000, 0.000, 0.000,0.0,0.0,0.0,0.0,0.0, 13:14:17.936
81389.562500, 76767.062500, 120769.531250, 99557.617188, 102960.312500, 93689.257813, 113493.570313, 134531.171875, 0.000, 0.000, 0.000,0.0,0.0,0.0,0.0,0.0, 13:14:17.936
81471.859375, 76853.921875, 120700.601563, 99336.445313, 102976.671875, 93524.835938, 113523.703125, 134592.390625, 0.000, 0.000, 0.000,0.0,0.0,0.0,0.0,0.0, 13:14:17.936
81593.992188, 76976.765625, 120671.367188, 99216.687500, 103070.062500, 93444.328125, 113622.515625, 134707.343750, 0.000, 0.000, 0.000,0.0,0.0,0.0,0.0,0.0, 13:14:17.936
81527.515625, 76906.515625, 120732.632813, 99421.406250, 103064.921875, 93601.617188, 113613.820313, 134666.125000, 0.000, 0.000, 0.000,0.0,0.0,0.0,0.0,0.0, 13:14:17.936
81388.484375, 76764.273438, 120770.429688, 99563.539063, 102968.601563, 93698.640625, 113506.781250, 134541.531250, 0.000, 0.000, 0.000,0.0,0.0,0.0,0.0,0.0, 13:14:17.937
81433.031250, 76812.484375, 120700.375000, 99367.179688, 102950.210938, 93546.718750, 113495.562500, 134559.484375, 0.000, 0.000, 0.000,0.0,0.0,0.0,0.0,0.0, 13:14:17.937
81567.523438, 76953.742188, 120648.679688, 99190.734375, 103041.671875, 93426.195313, 113600.859375, 134685.703125, 0.000, 0.000, 0.000,0.0,0.0,0.0,0.0,0.0, 13:14:17.937
81537.195313, 76923.656250, 120696.195313, 99354.820313, 103073.320313, 93564.710938, 113629.000000, 134686.828125, 0.188, 0.314, 0.934,0.0,0.0,0.0,0.0,0.0, 13:14:17.937
81398.140625, 76781.390625, 120752.078125, 99548.992188, 102990.328125, 93704.078125, 113530.296875, 134562.796875, 0.000, 0.000, 0.000,0.0,0.0,0.0,0.0,0.0, 13:14:17.938
81411.398438, 76796.390625, 120705.320313, 99408.796875, 102952.195313, 93584.359375, 113498.820313, 134548.250000, 0.000, 0.000, 0.000,0.0,0.0,0.0,0.0,0.0, 13:14:17.938
81564.507813, 76949.585938, 120649.640625, 99204.210938, 103037.226563, 93434.109375, 113600.414063, 134677.796875, 0.000, 0.000, 0.000,0.0,0.0,0.0,0.0,0.0, 13:14:17.938
81564.640625, 76949.765625, 120689.671875, 99316.554688, 103082.617188, 93526.710938, 113643.304688, 134698.156250, 0.000, 0.000, 0.000,0.0,0.0,0.0,0.0,0.0, 13:14:17.938
81415.062500, 76800.906250, 120750.781250, 99537.257813, 102993.507813, 93681.429688, 113527.343750, 134561.468750, 0.000, 0.000, 0.000,0.0,0.0,0.0,0.0,0.0, 13:14:17.938
81387.390625, 76772.140625, 120721.187500, 99452.203125, 102931.273438, 93607.828125, 113468.382813, 134520.484375, 0.000, 0.000, 0.000,0.0,0.0,0.0,0.0,0.0, 13:14:17.939
81530.531250, 76915.546875, 120648.765625, 99211.812500, 103003.117188, 93432.414063, 113559.640625, 134641.734375, 0.000, 0.000, 0.000,0.0,0.0,0.0,0.0,0.0, 13:14:17.939
81573.625000, 76955.960938, 120672.976563, 99266.531250, 103075.867188, 93488.539063, 113636.601563, 134704.953125, 0.000, 0.000, 0.000,0.0,0.0,0.0,0.0,0.0, 13:14:17.939
81444.726563, 76826.789063, 120746.890625, 99512.687500, 103022.070313, 93675.109375, 113573.609375, 134602.421875, 0.182, 0.318, 0.940,0.0,0.0,0.0,0.0,0.0, 13:14:17.940
81376.148438, 76764.359375, 120731.109375, 99489.242188, 102934.789063, 93645.179688, 113472.179688, 134522.312500, 0.000, 0.000, 0.000,0.0,0.0,0.0,0.0,0.0, 13:14:17.940
81506.054688, 76892.164063, 120662.937500, 99248.671875, 102989.414063, 93464.304688, 113543.351563, 134626.859375, 0.000, 0.000, 0.000,0.0,0.0,0.0,0.0,0.0, 13:14:17.940
81586.773438, 76972.343750, 120672.257813, 99242.929688, 103079.578125, 93469.250000, 113639.906250, 134714.609375, 0.000, 0.000, 0.000,0.0,0.0,0.0,0.0,0.0, 13:14:17.941
81470.476563, 76856.718750, 120742.218750, 99483.070313, 103037.156250, 93648.484375, 113582.109375, 134620.218750, 0.000, 0.000, 0.000,0.0,0.0,0.0,0.0,0.0, 13:14:17.941
81373.687500, 76760.289063, 120743.429688, 99521.179688, 102944.781250, 93663.640625, 113483.757813, 134522.046875, 0.000, 0.000, 0.000,0.0,0.0,0.0,0.0,0.0, 13:14:17.942
81474.273438, 76865.453125, 120664.906250, 99274.976563, 102968.109375, 93481.023438, 113522.648438, 134594.468750, 0.000, 0.000, 0.000,0.0,0.0,0.0,0.0,0.0, 13:14:17.942
81576.312500, 76971.406250, 120653.039063, 99203.500000, 103060.335938, 93431.718750, 113623.296875, 134696.015625, 0.000, 0.000, 0.000,0.0,0.0,0.0,0.0,0.0, 13:14:17.942
81484.085938, 76879.406250, 120725.765625, 99435.734375, 103046.609375, 93607.804688, 113599.046875, 134632.437500, 0.000, 0.000, 0.000,0.0,0.0,0.0,0.0,0.0, 13:14:17.943
81367.406250, 76758.078125, 120750.828125, 99539.156250, 102951.078125, 93675.734375, 113487.828125, 134516.140625, 0.000, 0.000, 0.000,0.0,0.0,0.0,0.0,0.0, 13:14:17.943
81441.414063, 76830.250000, 120682.320313, 99319.992188, 102949.765625, 93509.640625, 113492.476563, 134567.625000, 0.170, 0.308, 0.936,0.0,0.0,0.0,0.0,0.0, 13:14:17.943
81587.218750, 76975.937500, 120645.390625, 99190.914063, 103050.125000, 93422.421875, 113611.968750, 134703.609375, 0.000, 0.000, 0.000,0.0,0.0,0.0,0.0,0.0, 13:14:17.944
81517.617188, 76907.968750, 120717.835938, 99397.335938, 103062.210938, 93583.328125, 113614.296875, 134667.109375, 0.000, 0.000, 0.000,0.0,0.0,0.0,0.0,0.0, 13:14:17.944
81369.085938, 76759.304688, 120761.304688, 99552.187500, 102964.781250, 93687.039063, 113501.234375, 134534.234375, 0.000, 0.000, 0.000,0.0,0.0,0.0,0.0,0.0, 13:14:17.945
81408.156250, 76801.843750, 120701.625000, 99372.656250, 102941.851563, 93545.312500, 113486.640625, 134547.859375, 0.000, 0.000, 0.000,0.0,0.0,0.0,0.0,0.0, 13:14:17.945
81552.015625, 76951.710938, 120645.367188, 99187.695313, 103029.851563, 93415.179688, 113593.195313, 134675.890625, 0.000, 0.000, 0.000,0.0,0.0,0.0,0.0,0.0, 13:14:17.945
81532.257813, 76927.414063, 120690.226563, 99339.664063, 103062.703125, 93538.625000, 113615.585938, 134677.484375, 0.000, 0.000, 0.000,0.0,0.0,0.0,0.0,0.0, 13:14:17.946
81378.500000, 76768.718750, 120748.296875, 99535.890625, 102973.453125, 93682.437500, 113512.164063, 134541.875000, 0.000, 0.000, 0.000,0.0,0.0,0.0,0.0,0.0, 13:14:17.946
81385.023438, 76777.320313, 120703.414063, 99405.445313, 102931.546875, 93581.523438, 113472.132813, 134529.875000, 0.000, 0.000, 0.000,0.0,0.0,0.0,0.0,0.0, 13:14:17.946
81539.742188, 76936.132813, 120641.773438, 99192.031250, 103022.781250, 93432.593750, 113579.070313, 134667.718750, 0.176, 0.310, 0.934,0.0,0.0,0.0,0.0,0.0, 13:14:17.947
81558.632813, 76956.539063, 120675.054688, 99293.265625, 103079.515625, 93521.929688, 113640.351563, 134704.531250, 0.000, 0.000, 0.000,0.0,0.0,0.0,0.0,0.0, 13:14:17.947
81411.710938, 76806.046875, 120741.523438, 99525.812500, 103005.531250, 93688.203125, 113554.367188, 134579.531250, 0.000, 0.000, 0.000,0.0,0.0,0.0,0.0,0.0, 13:14:17.947
81372.171875, 76761.343750, 120717.453125, 99455.109375, 102937.203125, 93620.882813, 113481.835938, 134521.593750, 0.000, 0.000, 0.000,0.0,0.0,0.0,0.0,0.0, 13:14:17.948
81510.687500, 76906.117188, 120644.453125, 99213.781250, 103000.859375, 93443.875000, 113557.609375, 134636.312500, 0.000, 0.000, 0.000,0.0,0.0,0.0,0.0,0.0, 13:14:17.948
81559.296875, 76959.531250, 120656.906250, 99251.781250, 103072.476563, 93484.226563, 113635.015625, 134706.187500, 0.000, 0.000, 0.000,0.0,0.0,0.0,0.0,0.0, 13:14:17.948
81426.218750, 76824.101563, 120726.148438, 99495.234375, 103016.593750, 93668.156250, 113567.218750, 134603.359375, 0.000, 0.000, 0.000,0.0,0.0,0.0,0.0,0.0, 13:14:17.948
81353.101563, 76745.296875, 120721.078125, 99485.710938, 102933.265625, 93651.328125, 113476.468750, 134523.031250, 0.000, 0.000, 0.000,0.0,0.0,0.0,0.0,0.0, 13:14:17.949
81476.734375, 76868.070313, 120655.742188, 99239.015625, 102974.546875, 93469.117188, 113529.109375, 134619.203125, 0.000, 0.000, 0.000,0.0,0.0,0.0,0.0,0.0, 13:14:17.949
81571.546875, 76965.210938, 120657.976563, 99217.531250, 103062.390625, 93457.914063, 113628.125000, 134709.875000, 0.000, 0.000, 0.000,0.0,0.0,0.0,0.0,0.0, 13:14:17.952
81454.937500, 76848.000000, 120732.070313, 99460.656250, 103028.773438, 93638.828125, 113579.960938, 134619.234375, 0.176, 0.302, 0.932,0.0,0.0,0.0,0.0,0.0, 13:14:17.953
81356.906250, 76747.078125, 120741.820313, 99514.367188, 102939.054688, 93668.359375, 113483.515625, 134517.421875, 0.000, 0.000, 0.000,0.0,0.0,0.0,0.0,0.0, 13:14:17.953
81456.210938, 76848.062500, 120670.265625, 99282.218750, 102968.421875, 93494.015625, 113523.164063, 134590.375000, 0.000, 0.000, 0.000,0.0,0.0,0.0,0.0,0.0, 13:14:17.953
81569.085938, 76963.734375, 120650.289063, 99192.546875, 103060.445313, 93433.843750, 113620.484375, 134700.593750, 0.000, 0.000, 0.000,0.0,0.0,0.0,0.0,0.0, 13:14:17.954
81486.390625, 76880.656250, 120721.812500, 99418.117188, 103052.960938, 93613.976563, 113602.984375, 134655.531250, 0.000, 0.000, 0.000,0.0,0.0,0.0,0.0,0.0, 13:14:17.954
81357.281250, 76745.960938, 120760.437500, 99537.812500, 102957.023438, 93691.312500, 113497.054688, 134536.203125, 0.000, 0.000, 0.000,0.0,0.0,0.0,0.0,0.0, 13:14:17.954
81433.796875, 76819.296875, 120690.500000, 99329.515625, 102954.257813, 93532.414063, 113499.046875, 134580.828125, 0.000, 0.000, 0.000,0.0,0.0,0.0,0.0,0.0, 13:14:17.955
81567.796875, 76960.515625, 120658.156250, 99188.703125, 103050.500000, 93432.992188, 113603.562500, 134698.921875, 0.000, 0.000, 0.000,0.0,0.0,0.0,0.0,0.0, 13:14:17.955
81516.789063, 76910.312500, 120723.601563, 99379.648438, 103064.382813, 93584.601563, 113611.882813, 134673.343750, 0.000, 0.000, 0.000,0.0,0.0,0.0,0.0,0.0, 13:14:17.955
81376.398438, 76766.976563, 120764.281250, 99546.976563, 102964.132813, 93696.367188, 113504.882813, 134542.093750, 0.184, 0.298, 0.930,0.0,0.0,0.0,0.0,0.0, 13:14:17.956
81409.968750, 76799.093750, 120710.164063, 99384.210938, 102943.281250, 93561.468750, 113489.773438, 134552.625000, 0.000, 0.000, 0.000,0.0,0.0,0.0,0.0,0.0, 13:14:17.956
81558.648438, 76952.023438, 120662.757813, 99200.101563, 103038.164063, 93427.765625, 113595.828125, 134683.500000, 0.000, 0.000, 0.000,0.0,0.0,0.0,0.0,0.0, 13:14:17.956
81545.125000, 76940.937500, 120712.156250, 99343.148438, 103081.859375, 93538.781250, 113634.812500, 134686.781250, 0.000, 0.000, 0.000,0.0,0.0,0.0,0.0,0.0, 13:14:17.957
81399.375000, 76793.039063, 120771.765625, 99551.601563, 102999.789063, 93691.851563, 113537.492188, 134562.921875, 0.000, 0.000, 0.000,0.0,0.0,0.0,0.0,0.0, 13:14:17.957
81389.671875, 76782.328125, 120735.398438, 99435.953125, 102942.851563, 93594.593750, 113482.906250, 134530.468750, 0.000, 0.000, 0.000,0.0,0.0,0.0,0.0,0.0, 13:14:17.957
81539.851563, 76937.539063, 120665.351563, 99208.546875, 103019.273438, 93431.273438, 113573.257813, 134653.562500, 0.000, 0.000, 0.000,0.0,0.0,0.0,0.0,0.0, 13:14:17.958
81564.507813, 76964.187500, 120697.492188, 99298.312500, 103085.390625, 93505.257813, 113644.671875, 134697.531250, 0.000, 0.000, 0.000,0.0,0.0,0.0,0.0,0.0, 13:14:17.958
81421.140625, 76814.132813, 120766.671875, 99534.125000, 103007.718750, 93678.906250, 113554.546875, 134581.453125, 0.000, 0.000, 0.000,0.0,0.0,0.0,0.0,0.0, 13:14:17.958
81382.562500, 76775.492188, 120741.859375, 99476.101563, 102932.148438, 93627.382813, 113475.531250, 134527.500000, 0.000, 0.000, 0.000,0.0,0.0,0.0,0.0,0.0, 13:14:17.959
81521.304688, 76915.054688, 120672.679688, 99235.750000, 103000.859375, 93451.835938, 113557.609375, 134636.734375, 0.178, 0.298, 0.934,0.0,0.0,0.0,0.0,0.0, 13:14:17.959
81575.390625, 76971.875000, 120694.585938, 99262.484375, 103075.421875, 93479.554688, 113633.468750, 134699.921875, 0.000, 0.000, 0.000,0.0,0.0,0.0,0.0,0.0, 13:14:17.959
81444.367188, 76841.921875, 120767.882813, 99507.304688, 103021.687500, 93663.125000, 113569.570313, 134603.296875, 0.000, 0.000, 0.000,0.0,0.0,0.0,0.0,0.0, 13:14:17.960
81371.703125, 76768.273438, 120756.656250, 99514.257813, 102943.726563, 93659.976563, 113487.757813, 134528.953125, 0.000, 0.000, 0.000,0.0,0.0,0.0,0.0,0.0, 13:14:17.962
81494.437500, 76889.773438, 120677.312500, 99269.437500, 102987.875000, 93477.718750, 113537.718750, 134616.031250, 0.000, 0.000, 0.000,0.0,0.0,0.0,0.0,0.0, 13:14:17.963
81588.710938, 76981.195313, 120673.867188, 99231.281250, 103076.164063, 93458.476563, 113631.953125, 134704.437500, 0.000, 0.000, 0.000,0.0,0.0,0.0,0.0,0.0, 13:14:17.963
81477.781250, 76868.476563, 120752.500000, 99469.687500, 103048.218750, 93642.609375, 113587.179688, 134621.781250, 0.000, 0.000, 0.000,0.0,0.0,0.0,0.0,0.0, 13:14:17.963
81375.679688, 76764.132813, 120767.117188, 99538.929688, 102956.398438, 93685.859375, 113489.523438, 134527.015625, 0.000, 0.000, 0.000,0.0,0.0,0.0,0.0,0.0, 13:14:17.964
81464.414063, 76857.234375, 120692.304688, 99311.234375, 102974.171875, 93507.804688, 113523.742188, 134590.125000, 0.000, 0.000, 0.000,0.0,0.0,0.0,0.0,0.0, 13:14:17.964
81583.375000, 76984.234375, 120669.218750, 99211.117188, 103073.523438, 93441.976563, 113640.085938, 134706.265625, 0.000, 0.000, 0.000,0.0,0.0,0.0,0.0,0.0, 13:14:17.964
81504.757813, 76904.054688, 120741.976563, 99431.484375, 103068.671875, 93616.390625, 113618.898438, 134663.281250, 0.178, 0.292, 0.938,0.0,0.0,0.0,0.0,0.0, 13:14:17.964
81374.476563, 76773.414063, 120776.460938, 99563.179688, 102966.703125, 93701.507813, 113500.906250, 134539.687500, 0.000, 0.000, 0.000,0.0,0.0,0.0,0.0,0.0, 13:14:17.965
81436.093750, 76836.398438, 120710.476563, 99360.187500, 102957.765625, 93540.843750, 113493.820313, 134565.406250, 0.000, 0.000, 0.000,0.0,0.0,0.0,0.0,0.0, 13:14:17.965
81575.484375, 76978.085938, 120671.859375, 99203.765625, 103056.914063, 93433.242188, 113606.671875, 134694.093750, 0.000, 0.000, 0.000,0.0,0.0,0.0,0.0,0.0, 13:14:17.965
81531.179688, 76933.742188, 120733.304688, 99384.656250, 103081.570313, 93582.031250, 113625.289063, 134682.078125, 0.000, 0.000, 0.000,0.0,0.0,0.0,0.0,0.0, 13:14:17.966
81390.570313, 76786.601563, 120781.960938, 99562.937500, 102987.203125, 93704.742188, 113519.742188, 134550.765625, 0.000, 0.000, 0.000,0.0,0.0,0.0,0.0,0.0, 13:14:17.966
81408.023438, 76806.851563, 120730.125000, 99405.179688, 102946.875000, 93573.117188, 113479.039063, 134541.375000, 0.000, 0.000, 0.000,0.0,0.0,0.0,0.0,0.0, 13:14:17.966
81562.609375, 76960.046875, 120669.937500, 99203.093750, 103038.875000, 93430.867188, 113590.937500, 134676.203125, 0.000, 0.000, 0.000,0.0,0.0,0.0,0.0,0.0, 13:14:17.966
81564.195313, 76961.234375, 120708.398438, 99335.398438, 103088.562500, 93538.406250, 113637.984375, 134694.406250, 0.000, 0.000, 0.000,0.0,0.0,0.0,0.0,0.0, 13:14:17.966
81413.523438, 76807.226563, 120776.507813, 99558.171875, 103002.398438, 93694.640625, 113532.664063, 134569.171875, 0.182, 0.286, 0.936,0.0,0.0,0.0,0.0,0.0, 13:14:17.967
81391.054688, 76787.289063, 120743.898438, 99455.132813, 102943.210938, 93605.703125, 113473.117188, 134530.890625, 0.000, 0.000, 0.000,0.0,0.0,0.0,0.0,0.0, 13:14:17.967
81536.968750, 76936.960938, 120675.765625, 99220.906250, 103019.882813, 93440.523438, 113569.968750, 134653.984375, 0.000, 0.000, 0.000,0.0,0.0,0.0,0.0,0.0, 13:14:17.967
81573.984375, 76974.468750, 120702.546875, 99293.328125, 103089.906250, 93509.953125, 113646.367188, 134708.640625, 0.000, 0.000, 0.000,0.0,0.0,0.0,0.0,0.0, 13:14:17.967
81432.742188, 76828.914063, 120775.257813, 99530.953125, 103022.625000, 93687.265625, 113562.148438, 134591.140625, 0.000, 0.000, 0.000,0.0,0.0,0.0,0.0,0.0, 13:14:18.407
81386.765625, 76773.703125, 120755.789063, 99486.585938, 102941.359375, 93642.179688, 113466.523438, 134519.250000, 0.000, 0.000, 0.000,0.0,0.0,0.0,0.0,0.0, 13:14:18.407
81521.164063, 76909.890625, 120684.101563, 99244.265625, 103003.093750, 93459.882813, 113540.445313, 134630.765625, 0.000, 0.000, 0.000,0.0,0.0,0.0,0.0,0.0, 13:14:18.407
81589.164063, 76981.882813, 120696.039063, 99256.609375, 103082.460938, 93474.054688, 113631.101563, 134707.640625, 0.000, 0.000, 0.000,0.0,0.0,0.0,0.0,0.0, 13:14:18.408
81461.062500, 76852.984375, 120771.765625, 99503.054688, 103037.265625, 93653.445313, 113567.781250, 134606.421875, 0.000, 0.000, 0.000,0.0,0.0,0.0,0.0,0.0, 13:14:18.408
81374.515625, 76763.085938, 120769.914063, 99522.523438, 102947.460938, 93658.476563, 113476.539063, 134515.281250, 0.000, 0.000, 0.000,0.0,0.0,0.0,0.0,0.0, 13:14:18.408
81489.070313, 76875.335938, 120691.054688, 99279.429688, 102985.632813, 93483.085938, 113531.906250, 134605.281250, 0.184, 0.290, 0.934,0.0,0.0,0.0,0.0,0.0, 13:14:18.408
81591.796875, 76980.882813, 120683.414063, 99228.421875, 103085.171875, 93457.781250, 113642.210938, 134721.796875, 0.000, 0.000, 0.000,0.0,0.0,0.0,0.0,0.0, 13:14:18.408
81484.734375, 76874.820313, 120761.601563, 99465.460938, 103064.671875, 93635.789063, 113599.828125, 134638.875000, 0.000, 0.000, 0.000,0.0,0.0,0.0,0.0,0.0, 13:14:18.408
81371.429688, 76758.703125, 120773.335938, 99542.507813, 102959.531250, 93677.320313, 113487.828125, 134514.765625, 0.000, 0.000, 0.000,0.0,0.0,0.0,0.0,0.0, 13:14:18.409
81456.726563, 76849.718750, 120698.429688, 99313.984375, 102970.328125, 93510.617188, 113517.265625, 134580.984375, 0.000, 0.000, 0.000,0.0,0.0,0.0,0.0,0.0, 13:14:18.409
81580.531250, 76978.195313, 120672.507813, 99201.171875, 103069.945313, 93433.796875, 113622.453125, 134701.156250, 0.000, 0.000, 0.000,0.0,0.0,0.0,0.0,0.0, 13:14:18.410
81511.554688, 76907.429688, 120744.632813, 99416.890625, 103075.554688, 93595.515625, 113612.882813, 134657.609375, 0.000, 0.000, 0.000,0.0,0.0,0.0,0.0,0.0, 13:14:18.410
81371.390625, 76765.273438, 120777.359375, 99556.390625, 102970.437500, 93689.296875, 113499.406250, 134533.218750, 0.000, 0.000, 0.000,0.0,0.0,0.0,0.0,0.0, 13:14:18.410
81425.437500, 76814.070313, 120710.281250, 99360.695313, 102951.820313, 93542.585938, 113496.031250, 134562.218750, 0.000, 0.000, 0.000,0.0,0.0,0.0,0.0,0.0, 13:14:18.410
81563.656250, 76953.406250, 120660.570313, 99191.476563, 103045.875000, 93419.914063, 113599.406250, 134684.953125, 0.186, 0.288, 0.934,0.0,0.0,0.0,0.0,0.0, 13:14:18.410
81535.179688, 76924.734375, 120710.367188, 99362.578125, 103078.976563, 93559.593750, 113629.804688, 134682.890625, 0.000, 0.000, 0.000,0.0,0.0,0.0,0.0,0.0, 13:14:18.410
81389.382813, 76771.804688, 120763.859375, 99549.007813, 102988.609375, 93694.507813, 113523.257813, 134550.140625, 0.000, 0.000, 0.000,0.0,0.0,0.0,0.0,0.0, 13:14:18.411
81403.867188, 76782.242188, 120710.148438, 99402.585938, 102949.765625, 93577.718750, 113489.523438, 134543.890625, 0.000, 0.000, 0.000,0.0,0.0,0.0,0.0,0.0, 13:14:18.411
81545.890625, 76933.335938, 120649.953125, 99196.210938, 103032.757813, 93427.273438, 113591.429688, 134667.515625, 0.000, 0.000, 0.000,0.0,0.0,0.0,0.0,0.0, 13:14:18.411
81546.070313, 76936.289063, 120696.867188, 99314.320313, 103078.015625, 93522.671875, 113634.632813, 134687.156250, 0.000, 0.000, 0.000,0.0,0.0,0.0,0.0,0.0, 13:14:18.411
81404.046875, 76786.328125, 120762.828125, 99534.507813, 102996.656250, 93679.937500, 113533.875000, 134565.125000, 0.000, 0.000, 0.000,0.0,0.0,0.0,0.0,0.0, 13:14:18.411
81377.914063, 76756.875000, 120730.062500, 99442.617188, 102937.648438, 93597.726563, 113469.343750, 134515.718750, 0.000, 0.000, 0.000,0.0,0.0,0.0,0.0,0.0, 13:14:18.411
81526.468750, 76911.429688, 120654.960938, 99207.898438, 103011.765625, 93426.015625, 113557.187500, 134635.859375, 0.000, 0.000, 0.000,0.0,0.0,0.0,0.0,0.0, 13:14:18.412
81571.148438, 76961.320313, 120682.585938, 99273.054688, 103086.531250, 93485.007813, 113631.390625, 134695.875000, 0.000, 0.000, 0.000,0.0,0.0,0.0,0.0,0.0, 13:14:18.412
81432.875000, 76820.218750, 120759.359375, 99517.492188, 103027.031250, 93663.148438, 113559.734375, 134577.531250, 0.178, 0.288, 0.938,0.0,0.0,0.0,0.0,0.0, 13:14:18.412
81374.539063, 76755.148438, 120738.062500, 99483.945313, 102945.312500, 93624.210938, 113480.742188, 134505.328125, 0.000, 0.000, 0.000,0.0,0.0,0.0,0.0,0.0, 13:14:18.412
81501.210938, 76887.468750, 120661.554688, 99241.296875, 102995.156250, 93442.742188, 113536.484375, 134605.265625, 0.000, 0.000, 0.000,0.0,0.0,0.0,0.0,0.0, 13:14:18.412
81574.390625, 76971.023438, 120662.734375, 99237.406250, 103073.054688, 93446.429688, 113610.914063, 134692.640625, 0.000, 0.000, 0.000,0.0,0.0,0.0,0.0,0.0, 13:14:18.412
81454.578125, 76849.382813, 120735.398438, 99481.398438, 103038.367188, 93635.234375, 113571.687500, 134611.796875, 0.000, 0.000, 0.000,0.0,0.0,0.0,0.0,0.0, 13:14:18.413
81364.015625, 76751.687500, 120744.210938, 99521.453125, 102945.421875, 93651.773438, 113472.781250, 134509.312500, 0.000, 0.000, 0.000,0.0,0.0,0.0,0.0,0.0, 13:14:18.413
81471.523438, 76856.648438, 120677.687500, 99287.984375, 102971.445313, 93472.625000, 113510.398438, 134586.515625, 0.000, 0.000, 0.000,0.0,0.0,0.0,0.0,0.0, 13:14:18.413
81576.312500, 76962.398438, 120669.867188, 99222.632813, 103066.882813, 93437.976563, 113620.617188, 134705.359375, 0.000, 0.000, 0.000,0.0,0.0,0.0,0.0,0.0, 13:14:18.413
81482.476563, 76874.218750, 120734.820313, 99451.757813, 103046.992188, 93611.609375, 113595.226563, 134632.234375, 0.000, 0.000, 0.000,0.0,0.0,0.0,0.0,0.0, 13:14:18.413
81359.031250, 76752.000000, 120756.945313, 99545.632813, 102943.031250, 93666.632813, 113480.226563, 134501.640625, 0.180, 0.290, 0.936,0.0,0.0,0.0,0.0,0.0, 13:14:18.414
81436.296875, 76825.984375, 120685.695313, 99324.000000, 102943.726563, 93498.617188, 113480.164063, 134550.046875, 0.000, 0.000, 0.000,0.0,0.0,0.0,0.0,0.0, 13:14:18.414
81570.429688, 76959.156250, 120653.328125, 99196.859375, 103046.007813, 93412.343750, 113598.023438, 134676.312500, 0.000, 0.000, 0.000,0.0,0.0,0.0,0.0,0.0, 13:14:18.414
81502.101563, 76895.382813, 120717.453125, 99398.671875, 103058.390625, 93574.992188, 113600.476563, 134641.921875, 0.000, 0.000, 0.000,0.0,0.0,0.0,0.0,0.0, 13:14:18.414
81362.539063, 76751.484375, 120758.601563, 99546.750000, 102955.437500, 93678.078125, 113485.773438, 134515.359375, 0.000, 0.000, 0.000,0.0,0.0,0.0,0.0,0.0, 13:14:18.414
81412.695313, 76797.328125, 120700.507813, 99368.898438, 102939.968750, 93540.906250, 113480.632813, 134541.265625, 0.000, 0.000, 0.000,0.0,0.0,0.0,0.0,0.0, 13:14:18.414
81561.445313, 76948.695313, 120649.281250, 99191.648438, 103034.296875, 93413.164063, 113585.015625, 134668.781250, 0.000, 0.000, 0.000,0.0,0.0,0.0,0.0,0.0, 13:14:18.415
81536.546875, 76926.343750, 120706.320313, 99352.406250, 103070.078125, 93538.742188, 113612.328125, 134664.562500, 0.000, 0.000, 0.000,0.0,0.0,0.0,0.0,0.0, 13:14:18.415
81386.093750, 76773.570313, 120765.937500, 99552.921875, 102977.429688, 93682.617188, 113510.000000, 134541.453125, 0.000, 0.000, 0.000,0.0,0.0,0.0,0.0,0.0, 13:14:18.415
81388.328125, 76771.843750, 120725.031250, 99419.234375, 102932.820313, 93569.851563, 113466.656250, 134518.609375, 0.000, 0.000, 0.000,0.0,0.0,0.0,0.0,0.0, 13:14:18.415
81534.554688, 76921.023438, 120669.507813, 99201.773438, 103020.882813, 93411.265625, 113571.671875, 134645.656250, 0.182, 0.294, 0.934,0.0,0.0,0.0,0.0,0.0, 13:14:18.415
81550.984375, 76943.578125, 120696.156250, 99301.398438, 103075.601563, 93498.953125, 113627.812500, 134685.328125, 0.000, 0.000, 0.000,0.0,0.0,0.0,0.0,0.0, 13:14:18.415
81405.679688, 76797.617188, 120766.023438, 99534.281250, 103001.710938, 93671.062500, 113536.062500, 134563.890625, 0.000, 0.000, 0.000,0.0,0.0,0.0,0.0,0.0, 13:14:18.416
81379.343750, 76764.289063, 120735.312500, 99458.242188, 102940.109375, 93608.343750, 113475.492188, 134520.140625, 0.000, 0.000, 0.000,0.0,0.0,0.0,0.0,0.0, 13:14:18.416
81523.046875, 76911.296875, 120663.164063, 99220.593750, 103011.742188, 93436.859375, 113562.773438, 134637.718750, 0.000, 0.000, 0.000,0.0,0.0,0.0,0.0,0.0, 13:14:18.416
81577.960938, 76971.023438, 120682.828125, 99268.359375, 103086.328125, 93479.664063, 113636.914063, 134698.531250, 0.000, 0.000, 0.000,0.0,0.0,0.0,0.0,0.0, 13:14:18.416
81441.328125, 76834.234375, 120758.851563, 99517.476563, 103025.421875, 93662.164063, 113562.328125, 134593.171875, 0.000, 0.000, 0.000,0.0,0.0,0.0,0.0,0.0, 13:14:18.416
81373.781250, 76761.632813, 120750.937500, 99507.054688, 102943.343750, 93640.257813, 113480.406250, 134515.593750, 0.000, 0.000, 0.000,0.0,0.0,0.0,0.0,0.0, 13:14:18.417
81504.273438, 76891.429688, 120676.015625, 99258.953125, 102989.328125, 93455.343750, 113540.914063, 134607.671875, 0.000, 0.000, 0.000,0.0,0.0,0.0,0.0,0.0, 13:14:18.417
81588.382813, 76978.445313, 120679.210938, 99240.851563, 103078.507813, 93446.406250, 113636.804688, 134695.031250, 0.000, 0.000, 0.000,0.0,0.0,0.0,0.0,0.0, 13:14:18.417
81480.398438, 76867.828125, 120751.585938, 99484.328125, 103040.937500, 93632.195313, 113588.164063, 134614.375000, 0.174, 0.296, 0.936,0.0,0.0,0.0,0.0,0.0, 13:14:18.417
81386.656250, 76770.328125, 120761.375000, 99536.609375, 102945.382813, 93660.648438, 113486.375000, 134512.921875, 0.000, 0.000, 0.000,0.0,0.0,0.0,0.0,0.0, 13:14:18.417
81494.210938, 76878.460938, 120684.351563, 99301.578125, 102972.273438, 93483.125000, 113520.640625, 134587.812500, 0.000, 0.000, 0.000,0.0,0.0,0.0,0.0,0.0, 13:14:18.417
81610.906250, 76996.414063, 120662.757813, 99217.109375, 103067.375000, 93427.515625, 113623.617188, 134699.562500, 0.000, 0.000, 0.000,0.0,0.0,0.0,0.0,0.0, 13:14:18.418
81532.320313, 76916.906250, 120733.367188, 99446.015625, 103054.859375, 93603.468750, 113596.570313, 134640.328125, 0.000, 0.000, 0.000,0.0,0.0,0.0,0.0,0.0, 13:14:18.418
81417.585938, 76795.765625, 120766.156250, 99562.062500, 102955.078125, 93678.882813, 113482.890625, 134518.921875, 0.000, 0.000, 0.000,0.0,0.0,0.0,0.0,0.0, 13:14:18.418
81496.828125, 76878.843750, 120700.914063, 99353.210938, 102951.195313, 93515.335938, 113488.679688, 134562.578125, 0.000, 0.000, 0.000,0.0,0.0,0.0,0.0,0.0, 13:14:18.418
81642.695313, 77025.921875, 120667.273438, 99214.960938, 103050.789063, 93419.132813, 113604.546875, 134682.750000, 0.000, 0.000, 0.000,0.0,0.0,0.0,0.0,0.0, 13:14:18.418
81601.500000, 76985.953125, 120728.851563, 99408.843750, 103067.625000, 93574.906250, 113619.101563, 134658.484375, 0.000, 0.000, 0.000,0.0,0.0,0.0,0.0,0.0, 13:14:18.418
81474.500000, 76857.250000, 120775.343750, 99574.695313, 102975.109375, 93689.992188, 113510.625000, 134530.859375, 0.168, 0.300, 0.938,0.0,0.0,0.0,0.0,0.0, 13:14:18.419
81523.960938, 76906.695313, 120722.703125, 99406.718750, 102950.585938, 93556.265625, 113485.078125, 134544.906250, 0.000, 0.000, 0.000,0.0,0.0,0.0,0.0,0.0, 13:14:18.419
81689.273438, 77070.335938, 120664.992188, 99216.750000, 103042.093750, 93418.914063, 113594.218750, 134671.625000, 0.000, 0.000, 0.000,0.0,0.0,0.0,0.0,0.0, 13:14:18.419
81681.070313, 77064.992188, 120728.335938, 99369.304688, 103080.679688, 93536.414063, 113626.296875, 134669.078125, 0.000, 0.000, 0.000,0.0,0.0,0.0,0.0,0.0, 13:14:18.419
81549.937500, 76927.929688, 120789.757813, 99574.984375, 102993.953125, 93683.867188, 113528.773438, 134552.328125, 0.000, 0.000, 0.000,0.0,0.0,0.0,0.0,0.0, 13:14:18.419
81558.453125, 76933.898438, 120746.375000, 99459.914063, 102948.421875, 93583.757813, 113479.843750, 134528.265625, 0.000, 0.000, 0.000,0.0,0.0,0.0,0.0,0.0, 13:14:18.419
81701.968750, 77093.625000, 120693.179688, 99245.187500, 103032.148438, 93426.757813, 113581.078125, 134649.234375, 0.000, 0.000, 0.000,0.0,0.0,0.0,0.0,0.0, 13:14:18.420
81729.867188, 77127.640625, 120724.406250, 99336.601563, 103089.546875, 93504.539063, 113645.671875, 134694.875000, 0.000, 0.000, 0.000,0.0,0.0,0.0,0.0,0.0, 13:14:18.420
81585.718750, 76986.335938, 120790.273438, 99569.015625, 103013.734375, 93673.562500, 113552.914063, 134575.875000, 0.000, 0.000, 0.000,0.0,0.0,0.0,0.0,0.0, 13:14:18.420
81534.828125, 76939.375000, 120767.703125, 99504.890625, 102937.867188, 93615.984375, 113478.148438, 134517.078125, 0.000, 0.000, 0.000,0.0,0.0,0.0,0.0,0.0, 13:14:18.420
81669.609375, 77070.289063, 120695.882813, 99257.992188, 103001.953125, 93439.539063, 113564.695313, 134632.515625, 0.174, 0.296, 0.936,0.0,0.0,0.0,0.0,0.0, 13:14:18.420
81730.335938, 77134.210938, 120714.484375, 99289.218750, 103084.609375, 93475.796875, 113649.359375, 134704.750000, 0.000, 0.000, 0.000,0.0,0.0,0.0,0.0,0.0, 13:14:18.420
81584.554688, 76985.484375, 120785.023438, 99533.882813, 103024.750000, 93655.570313, 113564.585938, 134595.546875, 0.000, 0.000, 0.000,0.0,0.0,0.0,0.0,0.0, 13:14:18.421
81498.148438, 76901.640625, 120777.000000, 99539.023438, 102941.359375, 93646.453125, 113478.437500, 134514.218750, 0.000, 0.000, 0.000,0.0,0.0,0.0,0.0,0.0, 13:14:18.421
81603.687500, 77011.476563, 120702.414063, 99291.695313, 102985.125000, 93460.062500, 113535.929688, 134600.843750, 0.000, 0.000, 0.000,0.0,0.0,0.0,0.0,0.0, 13:14:18.421
81688.562500, 77096.484375, 120694.812500, 99251.664063, 103074.953125, 93441.304688, 113636.015625, 134699.234375, 0.000, 0.000, 0.000,0.0,0.0,0.0,0.0,0.0, 13:14:18.422
81569.203125, 76978.000000, 120765.265625, 99489.445313, 103044.351563, 93625.125000, 113598.781250, 134618.312500, 0.000, 0.000, 0.000,0.0,0.0,0.0,0.0,0.0, 13:14:18.422
81459.406250, 76864.335938, 120770.765625, 99548.898438, 102942.742188, 93663.078125, 113495.132813, 134512.953125, 0.000, 0.000, 0.000,0.0,0.0,0.0,0.0,0.0, 13:14:18.423
81554.515625, 76952.898438, 120696.820313, 99317.109375, 102957.492188, 93490.148438, 113502.734375, 134577.171875, 0.000, 0.000, 0.000,0.0,0.0,0.0,0.0,0.0, 13:14:18.423
81663.031250, 77065.617188, 120683.187500, 99224.734375, 103057.117188, 93427.226563, 113610.156250, 134685.062500, 0.178, 0.288, 0.934,0.0,0.0,0.0,0.0,0.0, 13:14:18.423
81577.648438, 76979.250000, 120750.960938, 99441.093750, 103055.351563, 93596.226563, 113599.898438, 134637.421875, 0.000, 0.000, 0.000,0.0,0.0,0.0,0.0,0.0, 13:14:18.424
81445.617188, 76842.921875, 120776.976563, 99563.406250, 102959.976563, 93678.460938, 113493.835938, 134521.312500, 0.000, 0.000, 0.000,0.0,0.0,0.0,0.0,0.0, 13:14:18.424
81508.382813, 76902.601563, 120714.328125, 99366.039063, 102960.203125, 93523.921875, 113504.765625, 134557.140625, 0.000, 0.000, 0.000,0.0,0.0,0.0,0.0,0.0, 13:14:18.424
81646.898438, 77041.968750, 120673.914063, 99218.406250, 103060.671875, 93420.250000, 113619.234375, 134689.687500, 0.000, 0.000, 0.000,0.0,0.0,0.0,0.0,0.0, 13:14:18.425
81587.773438, 76983.164063, 120739.179688, 99407.187500, 103071.109375, 93568.265625, 113616.171875, 134663.000000, 0.000, 0.000, 0.000,0.0,0.0,0.0,0.0,0.0, 13:14:18.425
81443.648438, 76836.867188, 120782.609375, 99576.125000, 102976.429688, 93689.632813, 113513.914063, 134539.531250, 0.000, 0.000, 0.000,0.0,0.0,0.0,0.0,0.0, 13:14:18.425
81462.625000, 76856.406250, 120728.429688, 99414.562500, 102943.414063, 93562.835938, 113482.195313, 134544.062500, 0.000, 0.000, 0.000,0.0,0.0,0.0,0.0,0.0, 13:14:18.426
81611.398438, 77005.578125, 120667.429688, 99212.078125, 103033.492188, 93422.218750, 113590.351563, 134674.484375, 0.000, 0.000, 0.000,0.0,0.0,0.0,0.0,0.0, 13:14:18.426
81599.710938, 76997.312500, 120718.507813, 99350.351563, 103079.828125, 93532.570313, 113631.101563, 134687.718750, 0.000, 0.000, 0.000,0.0,0.0,0.0,0.0,0.0, 13:14:18.426
81456.953125, 76853.632813, 120778.984375, 99565.437500, 102995.179688, 93682.328125, 113526.765625, 134562.031250, 0.178, 0.288, 0.934,0.0,0.0,0.0,0.0,0.0, 13:14:18.427
81438.578125, 76838.117188, 120743.921875, 99460.187500, 102946.296875, 93592.359375, 113483.757813, 134529.406250, 0.000, 0.000, 0.000,0.0,0.0,0.0,0.0,0.0, 13:14:18.427
81586.632813, 76987.117188, 120678.984375, 99230.140625, 103027.906250, 93423.406250, 113583.226563, 134650.140625, 0.000, 0.000, 0.000,0.0,0.0,0.0,0.0,0.0, 13:14:18.427
81621.726563, 77022.140625, 120710.367188, 99310.429688, 103091.781250, 93493.742188, 113645.921875, 134699.656250, 0.000, 0.000, 0.000,0.0,0.0,0.0,0.0,0.0, 13:14:18.427
81472.734375, 76874.375000, 120779.234375, 99545.437500, 103012.726563, 93664.578125, 113547.593750, 134574.750000, 0.000, 0.000, 0.000,0.0,0.0,0.0,0.0,0.0, 13:14:18.427
81418.750000, 76818.742188, 120761.265625, 99498.812500, 102940.484375, 93615.335938, 113467.062500, 134504.640625, 0.000, 0.000, 0.000,0.0,0.0,0.0,0.0,0.0, 13:14:18.427
81557.000000, 76953.406250, 120691.054688, 99254.015625, 103001.750000, 93433.734375, 113539.906250, 134608.328125, 0.000, 0.000, 0.000,0.0,0.0,0.0,0.0,0.0, 13:14:18.428
81634.203125, 77032.515625, 120703.351563, 99273.976563, 103087.937500, 93460.507813, 113637.781250, 134691.578125, 0.000, 0.000, 0.000,0.0,0.0,0.0,0.0,0.0, 13:14:18.428
81502.976563, 76900.054688, 120768.171875, 99514.921875, 103030.742188, 93646.007813, 113574.710938, 134597.000000, 0.000, 0.000, 0.000,0.0,0.0,0.0,0.0,0.0, 13:14:18.428
81411.328125, 76806.359375, 120769.062500, 99528.804688, 102937.867188, 93650.320313, 113473.523438, 134508.031250, 0.182, 0.284, 0.936,0.0,0.0,0.0,0.0,0.0, 13:14:18.429
81528.562500, 76926.250000, 120687.835938, 99279.851563, 102984.023438, 93471.125000, 113535.617188, 134604.500000, 0.000, 0.000, 0.000,0.0,0.0,0.0,0.0,0.0, 13:14:18.429
81621.281250, 77022.742188, 120677.648438, 99232.687500, 103079.492188, 93445.781250, 113646.125000, 134707.171875, 0.000, 0.000, 0.000,0.0,0.0,0.0,0.0,0.0, 13:14:18.429
81514.437500, 76915.007813, 120750.867188, 99470.468750, 103049.671875, 93623.992188, 113598.531250, 134628.203125, 0.000, 0.000, 0.000,0.0,0.0,0.0,0.0,0.0, 13:14:18.430
81413.320313, 76810.359375, 120771.140625, 99551.851563, 102954.523438, 93675.757813, 113493.679688, 134526.656250, 0.000, 0.000, 0.000,0.0,0.0,0.0,0.0,0.0, 13:14:18.430
81500.046875, 76896.632813, 120703.570313, 99330.078125, 102973.453125, 93504.429688, 113521.445313, 134584.515625, 0.000, 0.000, 0.000,0.0,0.0,0.0,0.0,0.0, 13:14:18.430
81619.046875, 77014.992188, 120676.640625, 99215.187500, 103065.609375, 93421.679688, 113617.554688, 134686.781250, 0.000, 0.000, 0.000,0.0,0.0,0.0,0.0,0.0, 13:14:18.430
81547.476563, 76944.781250, 120746.312500, 99430.164063, 103064.695313, 93588.585938, 113609.148438, 134641.781250, 0.000, 0.000, 0.000,0.0,0.0,0.0,0.0,0.0, 13:14:18.431
81415.937500, 76812.679688, 120783.164063, 99569.437500, 102962.164063, 93683.085938, 113508.437500, 134527.718750, 0.000, 0.000, 0.000,0.0,0.0,0.0,0.0,0.0, 13:14:18.431
81467.570313, 76864.117188, 120718.171875, 99375.226563, 102952.914063, 93534.421875, 113502.062500, 134557.359375, 0.000, 0.000, 0.000,0.0,0.0,0.0,0.0,0.0, 13:14:18.431
81603.554688, 77004.328125, 120669.937500, 99208.015625, 103044.421875, 93417.656250, 113599.851563, 134680.562500, 0.188, 0.284, 0.932,0.0,0.0,0.0,0.0,0.0, 13:14:18.431
81560.867188, 76966.125000, 120727.375000, 99382.398438, 103071.625000, 93556.929688, 113622.828125, 134671.984375, 0.000, 0.000, 0.000,0.0,0.0,0.0,0.0,0.0, 13:14:18.432
81409.718750, 76812.281250, 120778.117188, 99566.062500, 102977.414063, 93685.593750, 113513.242188, 134540.734375, 0.000, 0.000, 0.000,0.0,0.0,0.0,0.0,0.0, 13:14:18.432
81425.546875, 76824.890625, 120717.992188, 99411.640625, 102940.398438, 93561.914063, 113479.843750, 134533.406250, 0.000, 0.000, 0.000,0.0,0.0,0.0,0.0,0.0, 13:14:18.433
81578.992188, 76976.992188, 120653.171875, 99201.773438, 103033.875000, 93414.281250, 113586.781250, 134662.265625, 0.000, 0.000, 0.000,0.0,0.0,0.0,0.0,0.0, 13:14:18.433
81582.945313, 76984.007813, 120695.523438, 99329.000000, 103085.281250, 93517.281250, 113640.085938, 134687.656250, 0.000, 0.000, 0.000,0.0,0.0,0.0,0.0,0.0, 13:14:18.433
81436.250000, 76834.523438, 120761.304688, 99550.890625, 103000.117188, 93680.156250, 113543.703125, 134566.734375, 0.000, 0.000, 0.000,0.0,0.0,0.0,0.0,0.0, 13:14:18.433
81413.609375, 76809.578125, 120731.710938, 99456.203125, 102943.773438, 93598.554688, 113485.906250, 134525.750000, 0.000, 0.000, 0.000,0.0,0.0,0.0,0.0,0.0, 13:14:18.433
81563.632813, 76961.234375, 120668.750000, 99224.039063, 103018.070313, 93425.906250, 113578.039063, 134637.468750, 0.000, 0.000, 0.000,0.0,0.0,0.0,0.0,0.0, 13:14:18.433
81611.851563, 77009.109375, 120692.062500, 99289.148438, 103083.718750, 93482.726563, 113637.648438, 134688.500000, 0.000, 0.000, 0.000,0.0,0.0,0.0,0.0,0.0, 13:14:18.887
81470.203125, 76865.906250, 120761.195313, 99529.968750, 103014.718750, 93664.937500, 113547.171875, 134584.140625, 0.192, 0.284, 0.928,0.0,0.0,0.0,0.0,0.0, 13:14:18.887
81410.906250, 76807.070313, 120747.625000, 99500.242188, 102935.054688, 93632.929688, 113472.851563, 134520.187500, 0.000, 0.000, 0.000,0.0,0.0,0.0,0.0,0.0, 13:14:18.887
81539.828125, 76939.773438, 120674.203125, 99254.726563, 102992.343750, 93452.039063, 113550.125000, 134623.437500, 0.000, 0.000, 0.000,0.0,0.0,0.0,0.0,0.0, 13:14:18.888
81623.023438, 77023.078125, 120677.265625, 99259.375000, 103079.359375, 93464.687500, 113641.875000, 134712.968750, 0.000, 0.000, 0.000,0.0,0.0,0.0,0.0,0.0, 13:14:18.888
81501.031250, 76902.132813, 120752.726563, 99508.867188, 103038.742188, 93651.546875, 113585.367188, 134621.328125, 0.000, 0.000, 0.000,0.0,0.0,0.0,0.0,0.0, 13:14:18.889
81407.554688, 76806.000000, 120759.031250, 99540.789063, 102947.460938, 93660.398438, 113485.187500, 134526.140625, 0.000, 0.000, 0.000,0.0,0.0,0.0,0.0,0.0, 13:14:18.889
81516.382813, 76916.507813, 120691.343750, 99300.257813, 102980.273438, 93478.320313, 113529.109375, 134599.234375, 0.000, 0.000, 0.000,0.0,0.0,0.0,0.0,0.0, 13:14:18.889
81621.234375, 77021.757813, 120676.210938, 99232.531250, 103070.062500, 93435.585938, 113631.187500, 134700.015625, 0.000, 0.000, 0.000,0.0,0.0,0.0,0.0,0.0, 13:14:18.889
81522.640625, 76920.617188, 120747.000000, 99464.234375, 103052.804688, 93618.062500, 113603.789063, 134635.859375, 0.000, 0.000, 0.000,0.0,0.0,0.0,0.0,0.0, 13:14:18.889
81403.773438, 76801.593750, 120766.179688, 99555.875000, 102957.382813, 93679.601563, 113498.757813, 134524.500000, 0.186, 0.292, 0.936,0.0,0.0,0.0,0.0,0.0, 13:14:18.889
81485.312500, 76884.140625, 120699.390625, 99335.554688, 102968.757813, 93514.265625, 113516.929688, 134578.265625, 0.000, 0.000, 0.000,0.0,0.0,0.0,0.0,0.0, 13:14:18.890
81611.468750, 77015.257813, 120666.937500, 99211.476563, 103068.625000, 93429.078125, 113630.765625, 134704.031250, 0.000, 0.000, 0.000,0.0,0.0,0.0,0.0,0.0, 13:14:18.890
81549.195313, 76950.367188, 120732.562500, 99418.789063, 103075.421875, 93591.601563, 113631.835938, 134669.953125, 0.000, 0.000, 0.000,0.0,0.0,0.0,0.0,0.0, 13:14:18.890
81410.281250, 76805.085938, 120775.234375, 99566.000000, 102975.757813, 93689.945313, 113515.789063, 134534.625000, 0.000, 0.000, 0.000,0.0,0.0,0.0,0.0,0.0, 13:14:18.890
81457.601563, 76852.539063, 120721.859375, 99387.093750, 102959.015625, 93547.054688, 113501.171875, 134554.906250, 0.000, 0.000, 0.000,0.0,0.0,0.0,0.0,0.0, 13:14:18.891
81593.210938, 76994.625000, 120673.109375, 99212.148438, 103045.609375, 93421.679688, 113612.460938, 134683.625000, 0.000, 0.000, 0.000,0.0,0.0,0.0,0.0,0.0, 13:14:18.891
81563.281250, 76967.421875, 120721.898438, 99372.164063, 103071.757813, 93550.585938, 113624.890625, 134676.437500, 0.000, 0.000, 0.000,0.0,0.0,0.0,0.0,0.0, 13:14:18.891
81424.718750, 76822.406250, 120771.078125, 99566.218750, 102978.304688, 93687.203125, 113514.648438, 134548.484375, 0.000, 0.000, 0.000,0.0,0.0,0.0,0.0,0.0, 13:14:18.891
81435.804688, 76836.109375, 120722.531250, 99432.445313, 102942.476563, 93575.281250, 113483.445313, 134537.937500, 0.000, 0.000, 0.000,0.0,0.0,0.0,0.0,0.0, 13:14:18.892
81590.101563, 76992.882813, 120662.781250, 99223.500000, 103035.187500, 93423.023438, 113595.203125, 134669.125000, 0.194, 0.298, 0.934,0.0,0.0,0.0,0.0,0.0, 13:14:18.892
81597.476563, 77001.062500, 120701.671875, 99338.882813, 103087.562500, 93518.000000, 113647.773438, 134699.812500, 0.000, 0.000, 0.000,0.0,0.0,0.0,0.0,0.0, 13:14:18.892
81449.328125, 76848.828125, 120773.109375, 99569.617188, 103010.398438, 93685.968750, 113547.078125, 134573.171875, 0.000, 0.000, 0.000,0.0,0.0,0.0,0.0,0.0, 13:14:18.893
81424.320313, 76820.398438, 120742.687500, 99487.296875, 102951.171875, 93619.789063, 113491.000000, 134532.703125, 0.000, 0.000, 0.000,0.0,0.0,0.0,0.0,0.0, 13:14:18.893
81565.226563, 76960.093750, 120675.093750, 99250.437500, 103018.781250, 93442.070313, 113573.882813, 134639.484375, 0.000, 0.000, 0.000,0.0,0.0,0.0,0.0,0.0, 13:14:18.893
81610.375000, 77012.460938, 120699.210938, 99300.820313, 103087.429688, 93485.835938, 113648.539063, 134700.812500, 0.000, 0.000, 0.000,0.0,0.0,0.0,0.0,0.0, 13:14:18.893
81468.437500, 76869.125000, 120776.257813, 99546.554688, 103020.171875, 93662.453125, 113570.750000, 134587.250000, 0.000, 0.000, 0.000,0.0,0.0,0.0,0.0,0.0, 13:14:18.894
81401.007813, 76801.867188, 120760.187500, 99526.328125, 102937.781250, 93633.601563, 113484.179688, 134515.343750, 0.000, 0.000, 0.000,0.0,0.0,0.0,0.0,0.0, 13:14:18.894
81529.414063, 76932.507813, 120682.789063, 99276.523438, 102984.476563, 93448.953125, 113544.820313, 134611.515625, 0.000, 0.000, 0.000,0.0,0.0,0.0,0.0,0.0, 13:14:18.894
81612.992188, 77016.820313, 120685.046875, 99261.570313, 103073.187500, 93451.414063, 113643.351563, 134705.265625, 0.194, 0.296, 0.936,0.0,0.0,0.0,0.0,0.0, 13:14:18.894
81484.171875, 76888.656250, 120754.046875, 99500.171875, 103031.812500, 93634.453125, 113586.398438, 134610.046875, 0.000, 0.000, 0.000,0.0,0.0,0.0,0.0,0.0, 13:14:18.895
81387.078125, 76791.179688, 120755.671875, 99539.335938, 102935.125000, 93657.851563, 113474.882813, 134511.234375, 0.000, 0.000, 0.000,0.0,0.0,0.0,0.0,0.0, 13:14:18.895
81493.046875, 76897.265625, 120681.554688, 99301.156250, 102966.750000, 93480.156250, 113514.875000, 134586.468750, 0.000, 0.000, 0.000,0.0,0.0,0.0,0.0,0.0, 13:14:18.895
81606.328125, 77013.289063, 120662.867188, 99222.070313, 103064.984375, 93429.593750, 113629.421875, 134697.390625, 0.000, 0.000, 0.000,0.0,0.0,0.0,0.0,0.0, 13:14:18.895
81516.562500, 76921.804688, 120733.414063, 99453.632813, 103053.273438, 93607.289063, 113608.906250, 134636.890625, 0.000, 0.000, 0.000,0.0,0.0,0.0,0.0,0.0, 13:14:18.896
81391.664063, 76792.703125, 120768.843750, 99564.453125, 102957.875000, 93677.742188, 113502.398438, 134517.796875, 0.000, 0.000, 0.000,0.0,0.0,0.0,0.0,0.0, 13:14:18.896
81469.515625, 76873.953125, 120697.492188, 99347.445313, 102964.757813, 93512.585938, 113515.585938, 134568.359375, 0.000, 0.000, 0.000,0.0,0.0,0.0,0.0,0.0, 13:14:18.896
81601.585938, 77011.390625, 120662.156250, 99211.429688, 103062.460938, 93419.421875, 113621.445313, 134688.718750, 0.000, 0.000, 0.000,0.0,0.0,0.0,0.0,0.0, 13:14:18.896
81551.429688, 76958.773438, 120727.757813, 99407.007813, 103076.562500, 93576.828125, 113626.359375, 134660.562500, 0.000, 0.000, 0.000,0.0,0.0,0.0,0.0,0.0, 13:14:18.896
81408.000000, 76808.796875, 120778.023438, 99568.320313, 102970.101563, 93684.765625, 113506.757813, 134530.421875, 0.188, 0.306, 0.934,0.0,0.0,0.0,0.0,0.0, 13:14:18.897
81445.554688, 76844.671875, 120723.781250, 99393.554688, 102943.015625, 93542.921875, 113490.328125, 134542.671875, 0.000, 0.000, 0.000,0.0,0.0,0.0,0.0,0.0, 13:14:18.897
81596.226563, 77001.218750, 120672.351563, 99212.101563, 103046.343750, 93418.757813, 113608.679688, 134681.031250, 0.000, 0.000, 0.000,0.0,0.0,0.0,0.0,0.0, 13:14:18.897
81575.015625, 76981.171875, 120729.679688, 99372.921875, 103093.039063, 93551.187500, 113652.335938, 134691.406250, 0.000, 0.000, 0.000,0.0,0.0,0.0,0.0,0.0, 13:14:18.897
81418.593750, 76817.218750, 120781.828125, 99573.640625, 102996.078125, 93695.179688, 113542.078125, 134555.328125, 0.000, 0.000, 0.000,0.0,0.0,0.0,0.0,0.0, 13:14:18.897
81422.304688, 76820.554688, 120735.914063, 99441.921875, 102942.164063, 93586.039063, 113493.210938, 134531.812500, 0.000, 0.000, 0.000,0.0,0.0,0.0,0.0,0.0, 13:14:18.898
81575.726563, 76978.914063, 120672.171875, 99217.515625, 103025.156250, 93421.953125, 113591.648438, 134656.671875, 0.000, 0.000, 0.000,0.0,0.0,0.0,0.0,0.0, 13:14:18.898
81587.421875, 76994.203125, 120708.757813, 99315.031250, 103080.406250, 93504.296875, 113632.953125, 134691.703125, 0.000, 0.000, 0.000,0.0,0.0,0.0,0.0,0.0, 13:14:18.898
81443.023438, 76844.218750, 120770.742188, 99547.242188, 103007.585938, 93671.085938, 113546.585938, 134567.000000, 0.000, 0.000, 0.000,0.0,0.0,0.0,0.0,0.0, 13:14:18.898
81399.460938, 76802.070313, 120744.429688, 99478.804688, 102933.578125, 93607.671875, 113474.820313, 134507.968750, 0.000, 0.000, 0.000,0.0,0.0,0.0,0.0,0.0, 13:14:18.898
81541.085938, 76952.289063, 120676.437500, 99239.078125, 103000.632813, 93433.015625, 113551.843750, 134626.937500, 0.184, 0.306, 0.924,0.0,0.0,0.0,0.0,0.0, 13:14:18.898
81591.281250, 77006.335938, 120696.289063, 99276.070313, 103075.914063, 93472.820313, 113633.851563, 134698.218750, 0.000, 0.000, 0.000,0.0,0.0,0.0,0.0,0.0, 13:14:18.899
81459.234375, 76866.726563, 120767.609375, 99517.804688, 103017.820313, 93659.664063, 113564.406250, 134600.687500, 0.000, 0.000, 0.000,0.0,0.0,0.0,0.0,0.0, 13:14:18.899
81382.718750, 76784.320313, 120761.398438, 99513.070313, 102940.757813, 93649.203125, 113484.070313, 134515.281250, 0.000, 0.000, 0.000,0.0,0.0,0.0,0.0,0.0, 13:14:18.899
81502.343750, 76909.421875, 120682.406250, 99260.718750, 102988.140625, 93459.656250, 113540.132813, 134601.328125, 0.000, 0.000, 0.000,0.0,0.0,0.0,0.0,0.0, 13:14:18.899
81599.375000, 77005.421875, 120677.531250, 99232.867188, 103080.007813, 93451.570313, 113631.882813, 134706.250000, 0.000, 0.000, 0.000,0.0,0.0,0.0,0.0,0.0, 13:14:18.899
81488.289063, 76893.687500, 120753.554688, 99480.656250, 103049.359375, 93636.843750, 113585.992188, 134618.406250, 0.000, 0.000, 0.000,0.0,0.0,0.0,0.0,0.0, 13:14:18.899
81380.421875, 76784.968750, 120768.054688, 99541.101563, 102949.117188, 93666.703125, 113478.437500, 134509.640625, 0.000, 0.000, 0.000,0.0,0.0,0.0,0.0,0.0, 13:14:18.899
81486.656250, 76885.687500, 120696.640625, 99304.570313, 102970.640625, 93489.539063, 113515.585938, 134578.750000, 0.000, 0.000, 0.000,0.0,0.0,0.0,0.0,0.0, 13:14:18.900
81612.609375, 77012.351563, 120676.234375, 99216.531250, 103075.085938, 93436.789063, 113631.367188, 134698.265625, 0.182, 0.300, 0.930,0.0,0.0,0.0,0.0,0.0, 13:14:18.900
81526.890625, 76922.765625, 120745.820313, 99441.703125, 103070.882813, 93613.437500, 113614.453125, 134643.031250, 0.000, 0.000, 0.000,0.0,0.0,0.0,0.0,0.0, 13:14:18.900
81396.265625, 76789.640625, 120781.265625, 99565.257813, 102972.382813, 93694.843750, 113499.898438, 134523.656250, 0.000, 0.000, 0.000,0.0,0.0,0.0,0.0,0.0, 13:14:18.900
81457.132813, 76855.664063, 120712.625000, 99357.773438, 102969.585938, 93530.578125, 113505.304688, 134561.468750, 0.000, 0.000, 0.000,0.0,0.0,0.0,0.0,0.0, 13:14:18.900
81588.421875, 76992.968750, 120665.218750, 99201.531250, 103056.226563, 93420.210938, 113604.812500, 134682.484375, 0.000, 0.000, 0.000,0.0,0.0,0.0,0.0,0.0, 13:14:18.901
81538.984375, 76942.773438, 120720.335938, 99390.914063, 103071.554688, 93566.054688, 113612.039063, 134655.937500, 0.000, 0.000, 0.000,0.0,0.0,0.0,0.0,0.0, 13:14:18.901
81392.976563, 76791.312500, 120772.773438, 99568.906250, 102979.132813, 93687.937500, 113504.210938, 134525.171875, 0.000, 0.000, 0.000,0.0,0.0,0.0,0.0,0.0, 13:14:18.901
81424.812500, 76822.140625, 120717.679688, 99401.984375, 102944.687500, 93556.218750, 113481.234375, 134530.937500, 0.000, 0.000, 0.000,0.0,0.0,0.0,0.0,0.0, 13:14:18.901
81572.445313, 76969.773438, 120660.570313, 99205.664063, 103033.875000, 93418.375000, 113580.203125, 134661.484375, 0.000, 0.000, 0.000,0.0,0.0,0.0,0.0,0.0, 13:14:18.902
81562.093750, 76963.085938, 120707.507813, 99348.359375, 103080.250000, 93534.757813, 113622.320313, 134675.765625, 0.000, 0.000, 0.000,0.0,0.0,0.0,0.0,0.0, 13:14:18.902
81412.562500, 76814.875000, 120771.257813, 99563.203125, 102997.101563, 93690.171875, 113526.406250, 134552.890625, 0.196, 0.294, 0.932,0.0,0.0,0.0,0.0,0.0, 13:14:18.903
81410.929688, 76810.625000, 120733.437500, 99456.031250, 102947.015625, 93598.750000, 113479.710938, 134523.250000, 0.000, 0.000, 0.000,0.0,0.0,0.0,0.0,0.0, 13:14:18.903
81563.437500, 76963.382813, 120669.890625, 99230.859375, 103029.398438, 93433.484375, 113572.851563, 134641.500000, 0.000, 0.000, 0.000,0.0,0.0,0.0,0.0,0.0, 13:14:18.904
81588.875000, 76990.601563, 120709.296875, 99318.406250, 103091.609375, 93504.046875, 113637.695313, 134681.546875, 0.000, 0.000, 0.000,0.0,0.0,0.0,0.0,0.7597016, 13:14:18.904
81446.757813, 76845.453125, 120777.359375, 99555.648438, 103015.226563, 93680.921875, 113542.140625, 134568.656250, 0.000, 0.000, 0.000,0.0,0.0,0.0,0.0,0.7597016, 13:14:18.904
81402.281250, 76794.375000, 120752.765625, 99503.281250, 102936.710938, 93627.992188, 113462.968750, 134505.546875, 0.000, 0.000, 0.000,0.0,0.0,0.0,0.0,0.7597016, 13:14:18.905
81537.398438, 76930.367188, 120683.726563, 99261.101563, 102999.671875, 93448.125000, 113544.578125, 134619.796875, 0.000, 0.000, 0.000,0.0,0.0,0.0,0.0,0.7597016, 13:14:18.905
81599.804688, 76996.906250, 120688.773438, 99277.257813, 103082.218750, 93472.335938, 113634.453125, 134697.437500, 0.000, 0.000, 0.000,0.0,0.0,0.0,0.0,0.7597016, 13:14:18.905
81466.632813, 76857.703125, 120765.015625, 99525.812500, 103030.296875, 93651.992188, 113565.031250, 134581.953125, 0.000, 0.000, 0.000,0.0,0.0,0.0,0.0,0.7597016, 13:14:18.905
81381.875000, 76771.625000, 120763.320313, 99531.015625, 102936.171875, 93643.835938, 113466.234375, 134490.421875, 0.196, 0.294, 0.942,0.0,0.0,0.0,0.0,0.7597016, 13:14:18.906
81505.273438, 76901.554688, 120688.039063, 99283.429688, 102981.437500, 93464.914063, 113526.898438, 134585.906250, 0.000, 0.000, 0.000,0.0,0.0,0.0,0.0,0.7597016, 13:14:18.906
81606.351563, 77005.156250, 120681.781250, 99242.101563, 103077.570313, 93443.898438, 113634.945313, 134690.468750, 0.000, 0.000, 0.000,0.0,0.0,0.0,0.0,0.7597016, 13:14:18.907
81492.242188, 76889.867188, 120751.765625, 99481.937500, 103042.343750, 93623.320313, 113581.257813, 134608.578125, 0.000, 0.000, 0.000,0.0,0.0,0.0,0.0,0.7597016, 13:14:18.907
81382.367188, 76771.781250, 120763.812500, 99553.210938, 102941.468750, 93665.093750, 113465.140625, 134502.265625, 0.000, 0.000, 0.000,0.0,0.0,0.0,0.0,0.7597016, 13:14:18.907
81475.257813, 76864.789063, 120695.992188, 99324.867188, 102964.890625, 93493.406250, 113500.414063, 134565.750000, 0.000, 0.000, 0.000,0.0,0.0,0.0,0.0,0.7597016, 13:14:18.907
81598.210938, 76997.375000, 120667.765625, 99217.085938, 103061.273438, 93419.468750, 113607.679688, 134678.234375, 0.000, 0.000, 0.000,0.0,0.0,0.0,0.0,0.7597016, 13:14:18.908
81520.343750, 76918.539063, 120734.265625, 99431.351563, 103054.992188, 93584.312500, 113584.476563, 134619.015625, 0.000, 0.000, 0.000,0.0,0.0,0.0,0.0,0.7597016, 13:14:18.908
81387.437500, 76784.031250, 120773.195313, 99564.117188, 102957.812500, 93678.328125, 113476.117188, 134504.609375, 0.000, 0.000, 0.000,0.0,0.0,0.0,0.0,0.7597016, 13:14:18.908
81449.218750, 76845.875000, 120706.054688, 99362.242188, 102949.515625, 93527.828125, 113478.726563, 134538.250000, 0.000, 0.000, 0.000,0.0,0.0,0.0,0.0,0.7597016, 13:14:18.908
81585.320313, 76980.007813, 120664.812500, 99202.000000, 103046.789063, 93411.085938, 113589.750000, 134659.781250, 0.194, 0.296, 0.936,0.0,0.0,0.0,0.0,0.7597016, 13:14:18.909
81545.171875, 76938.140625, 120717.226563, 99379.093750, 103065.882813, 93550.335938, 113604.390625, 134646.703125, 0.000, 0.000, 0.000,0.0,0.0,0.0,0.0,0.7597016, 13:14:18.909
81398.078125, 76789.460938, 120765.710938, 99561.796875, 102969.140625, 93676.203125, 113496.273438, 134520.234375, 0.000, 0.000, 0.000,0.0,0.0,0.0,0.0,0.7597016, 13:14:18.909
81422.171875, 76805.914063, 120712.023438, 99406.968750, 102936.773438, 93554.789063, 113467.304688, 134519.515625, 0.000, 0.000, 0.000,0.0,0.0,0.0,0.0,0.7597016, 13:14:18.909
81568.242188, 76956.312500, 120657.710938, 99206.093750, 103025.492188, 93404.960938, 113571.710938, 134637.031250, 0.000, 0.000, 0.000,0.0,0.0,0.0,0.0,0.7597016, 13:14:18.909
81572.085938, 76961.453125, 120699.953125, 99337.046875, 103068.695313, 93512.718750, 113622.203125, 134658.015625, 0.000, 0.000, 0.000,0.0,0.0,0.0,0.0,0.7597016, 13:14:18.910
81419.781250, 76804.796875, 120768.687500, 99562.398438, 102986.218750, 93677.859375, 113523.835938, 134541.062500, 0.000, 0.000, 0.000,0.0,0.0,0.0,0.0,0.7597016, 13:14:18.910
81399.398438, 76779.554688, 120736.632813, 99461.437500, 102925.242188, 93592.203125, 113458.773438, 134505.703125, 0.000, 0.000, 0.000,0.0,0.0,0.0,0.0,0.7597016, 13:14:18.910
81553.554688, 76936.000000, 120667.296875, 99230.117188, 103006.203125, 93424.765625, 113560.203125, 134630.406250, 0.000, 0.000, 0.000,0.0,0.0,0.0,0.0,0.7597016, 13:14:18.911
81592.562500, 76980.906250, 120693.898438, 99300.796875, 103080.875000, 93487.531250, 113642.054688, 134682.671875, 0.188, 0.298, 0.932,0.0,0.0,0.0,0.0,0.7597016, 13:14:18.911
81439.851563, 76827.906250, 120763.562500, 99541.632813, 103009.085938, 93666.140625, 113538.226563, 134563.015625, 0.000, 0.000, 0.000,0.0,0.0,0.0,0.0,0.7597016, 13:14:18.911
81382.875000, 76767.109375, 120743.875000, 99500.171875, 102928.039063, 93619.945313, 113447.773438, 134489.531250, 0.000, 0.000, 0.000,0.0,0.0,0.0,0.0,0.7597016, 13:14:18.911
81523.070313, 76909.179688, 120671.429688, 99255.000000, 102982.218750, 93434.445313, 113521.976563, 134593.734375, 0.000, 0.000, 0.000,0.0,0.0,0.0,0.0,0.7597016, 13:14:18.912
81603.687500, 76992.304688, 120679.882813, 99260.562500, 103067.265625, 93448.640625, 113615.414063, 134680.406250, 0.000, 0.000, 0.000,0.0,0.0,0.0,0.0,0.7597016, 13:14:18.912
81480.218750, 76870.578125, 120756.500000, 99509.937500, 103025.398438, 93635.117188, 113562.148438, 134585.343750, 0.000, 0.000, 0.000,0.0,0.0,0.0,0.0,0.7597016, 13:14:18.912
81390.234375, 76777.835938, 120764.460938, 99536.429688, 102939.546875, 93643.054688, 113463.015625, 134488.968750, 0.000, 0.000, 0.000,0.0,0.0,0.0,0.0,0.7597016, 13:14:18.912
81500.625000, 76890.132813, 120685.359375, 99290.734375, 102975.914063, 93460.039063, 113512.593750, 134574.812500, 0.000, 0.000, 0.000,0.0,0.0,0.0,0.0,0.7597016, 13:14:18.913
81603.398438, 76995.968750, 120675.054688, 99240.218750, 103078.820313, 93433.437500, 113622.718750, 134688.296875, 0.000, 0.000, 0.000,0.0,0.0,0.0,0.0,0.7597016, 13:14:18.913
81502.976563, 76893.085938, 120742.976563, 99474.937500, 103057.679688, 93614.960938, 113588.296875, 134617.828125, 0.000, 0.000, 0.000,0.0,0.0,0.0,0.0,0.7597016, 13:14:18.913
81379.773438, 76768.023438, 120762.734375, 99560.570313, 102947.015625, 93667.015625, 113476.046875, 134495.265625, 0.186, 0.290, 0.930,0.0,0.0,0.0,0.0,0.7597016, 13:14:18.913
81470.429688, 76855.171875, 120690.562500, 99331.867188, 102952.843750, 93497.765625, 113497.234375, 134555.578125, 0.000, 0.000, 0.000,0.0,0.0,0.0,0.0,0.7597016, 13:14:18.914
81594.234375, 76983.250000, 120654.914063, 99209.468750, 103047.437500, 93415.601563, 113598.398438, 134673.750000, 0.000, 0.000, 0.000,0.0,0.0,0.0,0.0,0.7597016, 13:14:18.914
81519.539063, 76908.796875, 120724.359375, 99421.648438, 103058.500000, 93582.210938, 113605.242188, 134636.046875, 0.000, 0.000, 0.000,0.0,0.0,0.0,0.0,0.7597016, 13:14:18.914
81385.539063, 76770.617188, 120757.171875, 99563.179688, 102960.085938, 93676.132813, 113489.234375, 134507.984375, 0.000, 0.000, 0.000,0.0,0.0,0.0,0.0,0.7597016, 13:14:18.915
81434.039063, 76818.671875, 120691.523438, 99370.531250, 102941.421875, 93527.945313, 113471.398438, 134528.390625, 0.000, 0.000, 0.000,0.0,0.0,0.0,0.0,0.7597016, 13:14:18.915
81575.859375, 76960.164063, 120648.656250, 99202.070313, 103038.343750, 93413.570313, 113586.109375, 134660.875000, 0.000, 0.000, 0.000,0.0,0.0,0.0,0.0,0.7597016, 13:14:18.915
81546.539063, 76933.023438, 120703.148438, 99373.039063, 103068.921875, 93551.789063, 113614.070313, 134655.859375, 0.000, 0.000, 0.000,0.0,0.0,0.0,0.0,0.7597016, 13:14:18.915
81399.375000, 76782.796875, 120753.328125, 99561.351563, 102980.609375, 93685.570313, 113512.125000, 134531.921875, 0.000, 0.000, 0.000,0.0,0.0,0.0,0.0,0.7597016, 13:14:18.915
81403.687500, 76788.390625, 120702.945313, 99418.007813, 102934.539063, 93568.023438, 113467.890625, 134518.843750, 0.000, 0.000, 0.000,0.0,0.0,0.0,0.0,0.7597016, 13:14:18.916
81554.429688, 76943.664063, 120640.382813, 99203.453125, 103020.125000, 93412.140625, 113570.531250, 134645.265625, 0.182, 0.290, 0.938,0.0,0.0,0.0,0.0,0.7597016, 13:14:18.916
81557.398438, 76945.742188, 120686.007813, 99320.843750, 103069.031250, 93507.757813, 113619.140625, 134667.953125, 0.000, 0.000, 0.000,0.0,0.0,0.0,0.0,0.7597016, 13:14:18.916
81408.671875, 76791.046875, 120748.343750, 99544.609375, 102988.046875, 93666.031250, 113518.156250, 134537.843750, 0.000, 0.000, 0.000,0.0,0.0,0.0,0.0,0.7597016, 13:14:18.916
81381.890625, 76761.859375, 120718.992188, 99460.093750, 102923.632813, 93592.609375, 113457.406250, 134494.156250, 0.000, 0.000, 0.000,0.0,0.0,0.0,0.0,0.7597016, 13:14:18.917
81525.726563, 76910.312500, 120648.164063, 99220.578125, 102994.242188, 93422.398438, 113548.109375, 134611.500000, 0.000, 0.000, 0.000,0.13316664,0.24757063,0.09389246,0.0569248,0.029864712, 13:14:19.367
81572.484375, 76964.718750, 120672.726563, 99276.031250, 103067.843750, 93478.007813, 113623.992188, 134681.890625, 0.000, 0.000, 0.000,0.13316664,0.24757063,0.09389246,0.0569248,0.029864712, 13:14:19.368
81432.812500, 76825.648438, 120736.585938, 99515.195313, 103000.257813, 93650.117188, 113545.296875, 134567.687500, 0.000, 0.000, 0.000,0.13316664,0.24757063,0.09389246,0.0569248,0.029864712, 13:14:19.368
81373.359375, 76758.054688, 120724.382813, 99498.453125, 102920.859375, 93618.867188, 113460.132813, 134487.140625, 0.000, 0.000, 0.000,0.13316664,0.24757063,0.09389246,0.0569248,0.029864712, 13:14:19.368
81500.179688, 76884.898438, 120656.414063, 99253.296875, 102974.039063, 93435.453125, 113525.601563, 134585.078125, 0.000, 0.000, 0.000,0.13316664,0.24757063,0.09389246,0.0569248,0.029864712, 13:14:19.368
81584.984375, 76972.382813, 120661.437500, 99240.984375, 103070.015625, 93441.937500, 113638.343750, 134682.906250, 0.178, 0.286, 0.930,0.13316664,0.24757063,0.09389246,0.0569248,0.029864712, 13:14:19.368
81469.398438, 76857.453125, 120737.234375, 99491.992188, 103029.492188, 93636.281250, 113572.984375, 134598.468750, 0.000, 0.000, 0.000,0.13316664,0.24757063,0.09389246,0.0569248,0.029864712, 13:14:19.369
81372.218750, 76760.804688, 120743.093750, 99535.820313, 102934.335938, 93653.828125, 113461.296875, 134498.875000, 0.000, 0.000, 0.000,0.13316664,0.24757063,0.09389246,0.0569248,0.029864712, 13:14:19.369
81479.750000, 76870.257813, 120675.093750, 99301.062500, 102976.203125, 93477.828125, 113523.187500, 134578.734375, 0.000, 0.000, 0.000,0.13316664,0.24757063,0.09389246,0.0569248,0.029864712, 13:14:19.369
81588.578125, 76982.375000, 120653.281250, 99225.648438, 103069.078125, 93430.132813, 113626.609375, 134684.562500, 0.000, 0.000, 0.000,0.13316664,0.24757063,0.09389246,0.0569248,0.029864712, 13:14:19.369
81494.320313, 76885.664063, 120724.023438, 99455.734375, 103056.085938, 93607.937500, 113604.546875, 134618.546875, 0.000, 0.000, 0.000,0.13316664,0.24757063,0.09389246,0.0569248,0.029864712, 13:14:19.369
81377.828125, 76764.250000, 120744.210938, 99555.601563, 102950.992188, 93673.210938, 113481.390625, 134507.031250, 0.000, 0.000, 0.000,0.13316664,0.24757063,0.09389246,0.0569248,0.029864712, 13:14:19.369
81451.679688, 76836.687500, 120674.648438, 99337.500000, 102951.484375, 93510.953125, 113488.476563, 134559.984375, 0.000, 0.000, 0.000,0.13316664,0.24757063,0.09389246,0.0569248,0.029864712, 13:14:19.370
81583.460938, 76975.359375, 120637.367188, 99205.148438, 103049.335938, 93418.820313, 113598.335938, 134679.218750, 0.000, 0.000, 0.000,0.13316664,0.24757063,0.09389246,0.0569248,0.029864712, 13:14:19.370
81512.828125, 76905.484375, 120702.750000, 99406.382813, 103055.484375, 93575.218750, 113596.078125, 134644.093750, 0.000, 0.000, 0.000,0.13316664,0.24757063,0.09389246,0.0569248,0.029864712, 13:14:19.370
81368.375000, 76762.750000, 120751.515625, 99565.773438, 102960.000000, 93684.093750, 113486.375000, 134517.890625, 0.176, 0.288, 0.936,0.13316664,0.24757063,0.09389246,0.0569248,0.029864712, 13:14:19.370
81415.937500, 76806.648438, 120692.218750, 99384.367188, 102943.101563, 93540.148438, 113476.804688, 134533.328125, 0.000, 0.000, 0.000,0.13316664,0.24757063,0.09389246,0.0569248,0.029864712, 13:14:19.370
81569.109375, 76959.515625, 120641.476563, 99203.718750, 103040.757813, 93412.046875, 113591.765625, 134666.843750, 0.000, 0.000, 0.000,0.13316664,0.24757063,0.09389246,0.0569248,0.029864712, 13:14:19.370
81535.046875, 76933.179688, 120702.296875, 99367.562500, 103077.234375, 93541.601563, 113616.976563, 134659.281250, 0.000, 0.000, 0.000,0.13316664,0.24757063,0.09389246,0.0569248,0.029864712, 13:14:19.371
81388.976563, 76789.843750, 120755.250000, 99567.179688, 102988.226563, 93683.179688, 113512.414063, 134532.625000, 0.000, 0.000, 0.000,0.13316664,0.24757063,0.09389246,0.0569248,0.029864712, 13:14:19.371
81401.632813, 76794.937500, 120713.117188, 99441.164063, 102949.648438, 93581.031250, 113476.093750, 134518.515625, 0.000, 0.000, 0.000,0.13316664,0.24757063,0.09389246,0.0569248,0.029864712, 13:14:19.371
81549.953125, 76938.812500, 120654.804688, 99223.726563, 103028.890625, 93424.632813, 113576.500000, 134639.546875, 0.000, 0.000, 0.000,0.13316664,0.24757063,0.09389246,0.0569248,0.029864712, 13:14:19.371
81564.148438, 76958.687500, 120686.164063, 99324.398438, 103083.539063, 93504.789063, 113626.851563, 134671.140625, 0.000, 0.000, 0.000,0.13316664,0.24757063,0.09389246,0.0569248,0.029864712, 13:14:19.371
81422.554688, 76818.312500, 120755.359375, 99560.523438, 103012.187500, 93674.078125, 113534.968750, 134553.625000, 0.000, 0.000, 0.000,0.13316664,0.24757063,0.09389246,0.0569248,0.029864712, 13:14:19.372
81388.156250, 76780.515625, 120732.585938, 99489.156250, 102944.109375, 93611.000000, 113471.015625, 134504.656250, 0.184, 0.288, 0.938,0.13316664,0.24757063,0.09389246,0.0569248,0.029864712, 13:14:19.372
81531.468750, 76922.500000, 120653.531250, 99240.937500, 103006.156250, 93433.281250, 113550.007813, 134620.421875, 0.000, 0.000, 0.000,0.13316664,0.24757063,0.09389246,0.0569248,0.029864712, 13:14:19.372
81586.656250, 76980.273438, 120671.320313, 99283.093750, 103082.843750, 93471.039063, 113626.117188, 134678.578125, 0.000, 0.000, 0.000,0.13316664,0.24757063,0.09389246,0.0569248,0.029864712, 13:14:19.372
81451.695313, 76842.476563, 120748.476563, 99531.085938, 103022.625000, 93649.562500, 113553.335938, 134567.515625, 0.000, 0.000, 0.000,0.13316664,0.24757063,0.09389246,0.0569248,0.029864712, 13:14:19.372
81377.492188, 76769.164063, 120741.437500, 99523.398438, 102943.054688, 93631.523438, 113474.125000, 134493.500000, 0.000, 0.000, 0.000,0.13316664,0.24757063,0.09389246,0.0569248,0.029864712, 13:14:19.372
81501.609375, 76897.398438, 120663.140625, 99274.843750, 102989.703125, 93451.343750, 113539.328125, 134595.703125, 0.000, 0.000, 0.000,0.13316664,0.24757063,0.09389246,0.0569248,0.029864712, 13:14:19.372
81585.273438, 76987.273438, 120659.539063, 99251.625000, 103075.515625, 93447.562500, 113624.578125, 134690.921875, 0.000, 0.000, 0.000,0.13316664,0.24757063,0.09389246,0.0569248,0.029864712, 13:14:19.373
81472.929688, 76872.851563, 120738.617188, 99497.890625, 103038.875000, 93631.546875, 113573.007813, 134600.875000, 0.000, 0.000, 0.000,0.13316664,0.24757063,0.09389246,0.0569248,0.029864712, 13:14:19.373
81375.789063, 76772.921875, 120747.718750, 99552.054688, 102941.109375, 93657.203125, 113474.906250, 134502.375000, 0.000, 0.000, 0.000,0.13316664,0.24757063,0.09389246,0.0569248,0.029864712, 13:14:19.373
81478.117188, 76876.046875, 120677.890625, 99320.109375, 102971.132813, 93482.679688, 113510.359375, 134575.921875, 0.000, 0.000, 0.000,0.13316664,0.24757063,0.09389246,0.0569248,0.029864712, 13:14:19.373
81588.468750, 76988.812500, 120661.015625, 99230.500000, 103068.742188, 93423.648438, 113615.273438, 134687.890625, 0.182, 0.288, 0.942,0.13316664,0.24757063,0.09389246,0.0569248,0.029864712, 13:14:19.373
81501.054688, 76900.304688, 120737.281250, 99458.304688, 103063.085938, 93601.210938, 113607.585938, 134636.203125, 0.000, 0.000, 0.000,0.13316664,0.24757063,0.09389246,0.0569248,0.029864712, 13:14:19.373
81378.406250, 76773.726563, 120763.921875, 99572.640625, 102963.460938, 93675.039063, 113489.656250, 134513.625000, 0.000, 0.000, 0.000,0.13316664,0.24757063,0.09389246,0.0569248,0.029864712, 13:14:19.373
81448.234375, 76843.484375, 120701.156250, 99363.468750, 102964.578125, 93512.476563, 113494.843750, 134551.421875, 0.000, 0.000, 0.000,0.13316664,0.24757063,0.09389246,0.0569248,0.029864712, 13:14:19.374
81586.593750, 76984.632813, 120662.914063, 99219.617188, 103062.015625, 93415.960938, 113607.296875, 134679.468750, 0.000, 0.000, 0.000,0.13316664,0.24757063,0.09389246,0.0569248,0.029864712, 13:14:19.374
81535.140625, 76934.054688, 120721.765625, 99411.992188, 103071.242188, 93569.453125, 113610.289063, 134656.843750, 0.000, 0.000, 0.000,0.13316664,0.24757063,0.09389246,0.0569248,0.029864712, 13:14:19.374
81391.195313, 76784.812500, 120764.796875, 99576.171875, 102969.898438, 93681.812500, 113496.992188, 134525.359375, 0.000, 0.000, 0.000,0.13316664,0.24757063,0.09389246,0.0569248,0.029864712, 13:14:19.374
81429.703125, 76822.945313, 120712.984375, 99411.656250, 102948.085938, 93554.382813, 113484.476563, 134540.171875, 0.000, 0.000, 0.000,0.13316664,0.24757063,0.09389246,0.0569248,0.029864712, 13:14:19.374
81578.093750, 76975.742188, 120665.109375, 99228.265625, 103045.406250, 93418.484375, 113596.765625, 134667.062500, 0.000, 0.000, 0.000,0.13316664,0.24757063,0.09389246,0.0569248,0.029864712, 13:14:19.374
81557.109375, 76953.609375, 120717.296875, 99372.031250, 103085.210938, 93536.750000, 113630.476563, 134673.218750, 0.190, 0.290, 0.940,0.13316664,0.24757063,0.09389246,0.0569248,0.029864712, 13:14:19.374
81413.234375, 76804.593750, 120771.476563, 99574.828125, 102995.765625, 93687.492188, 113522.023438, 134545.781250, 0.000, 0.000, 0.000,0.13316664,0.24757063,0.09389246,0.0569248,0.029864712, 13:14:19.375
81407.039063, 76798.156250, 120728.828125, 99455.109375, 102945.468750, 93584.093750, 113471.171875, 134512.921875, 0.000, 0.000, 0.000,0.13316664,0.24757063,0.09389246,0.0569248,0.029864712, 13:14:19.375
81557.710938, 76955.398438, 120657.554688, 99227.257813, 103030.179688, 93424.476563, 113566.078125, 134646.812500, 0.000, 0.000, 0.000,0.13316664,0.24757063,0.09389246,0.0569248,0.029864712, 13:14:19.375
81580.039063, 76977.929688, 120698.921875, 99321.000000, 103098.867188, 93505.570313, 113627.546875, 134686.156250, 0.000, 0.000, 0.000,0.13316664,0.24757063,0.09389246,0.0569248,0.029864712, 13:14:19.375
81430.843750, 76827.726563, 120765.375000, 99554.820313, 103009.757813, 93670.726563, 113537.445313, 134563.687500, 0.000, 0.000, 0.000,0.13316664,0.24757063,0.09389246,0.0569248,0.029864712, 13:14:19.375
81388.039063, 76788.500000, 120737.484375, 99496.148438, 102936.304688, 93614.601563, 113467.445313, 134511.546875, 0.000, 0.000, 0.000,0.13316664,0.24757063,0.09389246,0.0569248,0.029864712, 13:14:19.375
81526.265625, 76930.742188, 120666.023438, 99256.312500, 103002.687500, 93436.320313, 113543.820313, 134616.796875, 0.000, 0.000, 0.000,0.13316664,0.24757063,0.09389246,0.0569248,0.029864712, 13:14:19.375
81596.250000, 76998.718750, 120684.976563, 99289.929688, 103089.484375, 93471.546875, 113636.289063, 134697.328125, 0.000, 0.000, 0.000,0.13316664,0.24757063,0.09389246,0.0569248,0.029864712, 13:14:19.376
81472.218750, 76871.226563, 120762.046875, 99540.117188, 103040.781250, 93657.335938, 113571.375000, 134597.312500, 0.000, 0.000, 0.000,0.13316664,0.24757063,0.09389246,0.0569248,0.029864712, 13:14:19.376
81386.031250, 76780.500000, 120764.031250, 99545.304688, 102946.609375, 93648.375000, 113469.656250, 134501.109375, 0.182, 0.284, 0.940,0.13316664,0.24757063,0.09389246,0.0569248,0.029864712, 13:14:19.376
81506.390625, 76904.773438, 120685.734375, 99297.421875, 102991.289063, 93462.382813, 113538.296875, 134594.125000, 0.000, 0.000, 0.000,0.13316664,0.24757063,0.09389246,0.0569248,0.029864712, 13:14:19.376
81599.484375, 77003.234375, 120676.546875, 99261.789063, 103081.773438, 93439.921875, 113625.804688, 134692.531250, 0.000, 0.000, 0.000,0.13316664,0.24757063,0.09389246,0.0569248,0.029864712, 13:14:19.376
81484.757813, 76888.523438, 120751.539063, 99503.367188, 103046.414063, 93618.734375, 113572.023438, 134602.625000, 0.000, 0.000, 0.000,0.13316664,0.24757063,0.09389246,0.0569248,0.029864712, 13:14:19.376
81381.445313, 76786.039063, 120768.125000, 99574.468750, 102955.796875, 93660.554688, 113477.968750, 134501.703125, 0.000, 0.000, 0.000,0.13316664,0.24757063,0.09389246,0.0569248,0.029864712, 13:14:19.376
81478.632813, 76883.539063, 120700.867188, 99348.742188, 102981.882813, 93494.570313, 113522.359375, 134579.046875, 0.000, 0.000, 0.000,0.13316664,0.24757063,0.09389246,0.0569248,0.029864712, 13:14:19.377
81596.179688, 77003.453125, 120676.148438, 99246.929688, 103070.820313, 93426.289063, 113614.921875, 134689.859375, 0.000, 0.000, 0.000,0.13316664,0.24757063,0.09389246,0.0569248,0.029864712, 13:14:19.377
81514.062500, 76925.250000, 120747.382813, 99466.804688, 103060.132813, 93592.093750, 113593.460938, 134632.625000, 0.000, 0.000, 0.000,0.13316664,0.24757063,0.09389246,0.0569248,0.029864712, 13:14:19.377
81387.437500, 76796.835938, 120778.453125, 99593.179688, 102965.789063, 93678.507813, 113491.804688, 134518.921875, 0.000, 0.000, 0.000,0.13316664,0.24757063,0.09389246,0.0569248,0.029864712, 13:14:19.377
81454.156250, 76859.625000, 120718.328125, 99398.789063, 102968.984375, 93529.843750, 113508.054688, 134560.156250, 0.000, 0.000, 0.000,0.13316664,0.24757063,0.09389246,0.0569248,0.029864712, 13:14:19.377
81596.515625, 76999.835938, 120681.648438, 99251.375000, 103068.117188, 93425.195313, 113618.476563, 134687.109375, 0.180, 0.282, 0.932,0.13316664,0.24757063,0.09389246,0.0569248,0.029864712, 13:14:19.377
81551.031250, 76956.070313, 120738.484375, 99432.960938, 103084.382813, 93566.007813, 113618.140625, 134662.343750, 0.000, 0.000, 0.000,0.13316664,0.24757063,0.09389246,0.0569248,0.029864712, 13:14:19.377
81399.929688, 76801.195313, 120792.375000, 99610.296875, 102985.054688, 93688.539063, 113507.343750, 134529.468750, 0.000, 0.000, 0.000,0.13316664,0.24757063,0.09389246,0.0569248,0.029864712, 13:14:19.378
81429.484375, 76826.359375, 120736.226563, 99446.687500, 102952.937500, 93561.273438, 113479.039063, 134531.531250, 0.000, 0.000, 0.000,0.13316664,0.24757063,0.09389246,0.0569248,0.029864712, 13:14:19.378
81577.851563, 76980.320313, 120681.710938, 99246.750000, 103048.625000, 93422.421875, 113597.125000, 134665.671875, 0.000, 0.000, 0.000,0.13316664,0.24757063,0.09389246,0.0569248,0.029864712, 13:14:19.378
81572.843750, 76975.515625, 120720.804688, 99377.015625, 103092.968750, 93534.539063, 113644.851563, 134685.968750, 0.000, 0.000, 0.000,0.13316664,0.24757063,0.09389246,0.0569248,0.029864712, 13:14:19.378
81427.203125, 76823.726563, 120782.632813, 99593.265625, 103008.992188, 93687.445313, 113543.257813, 134559.437500, 0.000, 0.000, 0.000,0.13316664,0.24757063,0.09389246,0.0569248,0.029864712, 13:14:19.378
81410.750000, 76806.421875, 120748.390625, 99490.429688, 102951.531250, 93601.257813, 113479.468750, 134525.906250, 0.000, 0.000, 0.000,0.13316664,0.24757063,0.09389246,0.0569248,0.029864712, 13:14:19.378
81554.406250, 76953.343750, 120679.117188, 99257.187500, 103022.093750, 93432.703125, 113563.484375, 134645.937500, 0.000, 0.000, 0.000,0.13316664,0.24757063,0.09389246,0.0569248,0.029864712, 13:14:19.378
81585.632813, 76992.640625, 120706.835938, 99331.281250, 103085.992188, 93500.070313, 113633.046875, 134698.453125, 0.176, 0.286, 0.932,0.13316664,0.24757063,0.09389246,0.0569248,0.029864712, 13:14:19.379
81447.875000, 76853.562500, 120776.687500, 99573.664063, 103023.476563, 93676.601563, 113553.226563, 134584.453125, 0.000, 0.000, 0.000,0.13316664,0.24757063,0.09389246,0.0569248,0.029864712, 13:14:19.379
81395.437500, 76795.898438, 120762.023438, 99529.343750, 102953.695313, 93629.398438, 113473.703125, 134512.765625, 0.000, 0.000, 0.000,0.13316664,0.24757063,0.09389246,0.0569248,0.029864712, 13:14:19.379
81532.812500, 76933.898438, 120687.656250, 99281.218750, 103011.273438, 93451.546875, 113556.578125, 134626.500000, 0.000, 0.000, 0.000,0.13316664,0.24757063,0.09389246,0.0569248,0.029864712, 13:14:19.379
81594.125000, 76997.531250, 120695.078125, 99291.070313, 103093.218750, 93466.296875, 113642.679688, 134697.078125, 0.000, 0.000, 0.000,0.13316664,0.24757063,0.09389246,0.0569248,0.029864712, 13:14:19.379
81466.562500, 76867.710938, 120764.726563, 99534.171875, 103039.859375, 93648.125000, 113573.257813, 134597.593750, 0.000, 0.000, 0.000,0.13316664,0.24757063,0.09389246,0.0569248,0.029864712, 13:14:19.379
81385.828125, 76782.710938, 120762.960938, 99554.328125, 102958.437500, 93653.250000, 113482.906250, 134514.562500, 0.000, 0.000, 0.000,0.13316664,0.24757063,0.09389246,0.0569248,0.029864712, 13:14:19.379
81499.421875, 76892.835938, 120685.023438, 99305.023438, 102991.406250, 93470.320313, 113524.414063, 134593.578125, 0.000, 0.000, 0.000,0.13316664,0.24757063,0.09389246,0.0569248,0.029864712, 13:14:19.380
81596.250000, 76989.867188, 120671.703125, 99245.296875, 103080.609375, 93442.562500, 113621.335938, 134699.453125, 0.000, 0.000, 0.000,0.13316664,0.24757063,0.09389246,0.0569248,0.029864712, 13:14:19.380
81496.554688, 76891.429688, 120744.945313, 99482.898438, 103055.039063, 93620.773438, 113587.585938, 134625.000000, 0.000, 0.000, 0.000,0.13316664,0.24757063,0.09389246,0.0569248,0.029864712, 13:14:19.380
81381.671875, 76778.375000, 120762.421875, 99568.812500, 102956.531250, 93667.710938, 113486.039063, 134510.531250, 0.182, 0.290, 0.930,0.13316664,0.24757063,0.09389246,0.0569248,0.029864712, 13:14:19.380
81462.296875, 76862.820313, 120688.664063, 99343.781250, 102966.593750, 93490.328125, 113501.195313, 134560.093750, 0.000, 0.000, 0.000,0.13316664,0.24757063,0.09389246,0.0569248,0.029864712, 13:14:19.380
81589.070313, 76993.171875, 120662.265625, 99233.539063, 103056.226563, 93414.773438, 113601.015625, 134681.734375, 0.000, 0.000, 0.000,0.13316664,0.24757063,0.09389246,0.0569248,0.029864712, 13:14:19.381
81521.484375, 76925.046875, 120733.437500, 99447.804688, 103062.593750, 93582.054688, 113602.492188, 134638.328125, 0.000, 0.000, 0.000,0.13316664,0.24757063,0.09389246,0.0569248,0.029864712, 13:14:19.381
81391.726563, 76787.937500, 120771.140625, 99585.132813, 102970.820313, 93680.250000, 113493.546875, 134518.812500, 0.000, 0.000, 0.000,0.13316664,0.24757063,0.09389246,0.0569248,0.029864712, 13:14:19.381
81448.460938, 76839.593750, 120712.421875, 99389.820313, 102964.734375, 93534.445313, 113496.140625, 134550.093750, 0.000, 0.000, 0.000,0.13316664,0.24757063,0.09389246,0.0569248,0.029864712, 13:14:19.381
81587.578125, 76981.882813, 120672.460938, 99222.851563, 103067.085938, 93418.195313, 113615.726563, 134678.828125, 0.000, 0.000, 0.000,0.13316664,0.24757063,0.09389246,0.0569248,0.029864712, 13:14:19.381
81544.390625, 76943.281250, 120721.835938, 99391.429688, 103082.578125, 93553.875000, 113616.281250, 134666.109375, 0.000, 0.000, 0.000,0.13316664,0.24757063,0.09389246,0.0569248,0.029864712, 13:14:19.382
81400.492188, 76799.296875, 120774.093750, 99583.414063, 102988.453125, 93685.523438, 113506.265625, 134534.343750, 0.000, 0.000, 0.000,0.13316664,0.24757063,0.09389246,0.0569248,0.029864712, 13:14:19.382
81416.140625, 76815.343750, 120728.429688, 99439.531250, 102956.578125, 93572.359375, 113481.679688, 134536.312500, 0.184, 0.292, 0.932,0.13316664,0.24757063,0.09389246,0.0569248,0.029864712, 13:14:19.382
81563.617188, 76969.078125, 120662.625000, 99228.484375, 103042.296875, 93420.476563, 113582.265625, 134660.250000, 0.000, 0.000, 0.000,0.13316664,0.24757063,0.09389246,0.0569248,0.029864712, 13:14:19.382
81563.882813, 76973.171875, 120709.406250, 99353.234375, 103091.429688, 93517.726563, 113637.203125, 134679.765625, 0.000, 0.000, 0.000,0.13316664,0.24757063,0.09389246,0.0569248,0.029864712, 13:14:19.382
81415.710938, 76819.632813, 120771.812500, 99573.507813, 102999.921875, 93674.906250, 113524.375000, 134550.125000, 0.000, 0.000, 0.000,0.13316664,0.24757063,0.09389246,0.0569248,0.029864712, 13:14:19.382
81397.273438, 76797.507813, 120733.726563, 99476.679688, 102941.226563, 93597.945313, 113467.914063, 134514.296875, 0.000, 0.000, 0.000,0.13316664,0.24757063,0.09389246,0.0569248,0.029864712, 13:14:19.383
81542.132813, 76945.343750, 120664.812500, 99240.515625, 103022.273438, 93428.570313, 113565.054688, 134635.031250, 0.000, 0.000, 0.000,0.13316664,0.24757063,0.09389246,0.0569248,0.029864712, 13:14:19.383
81582.140625, 76987.320313, 120690.117188, 99303.250000, 103095.632813, 93481.320313, 113638.210938, 134687.500000, 0.000, 0.000, 0.000,0.13316664,0.24757063,0.09389246,0.0569248,0.029864712, 13:14:19.383
81441.195313, 76846.257813, 120759.585938, 99546.109375, 103030.789063, 93654.679688, 113557.164063, 134577.218750, 0.000, 0.000, 0.000,0.13316664,0.24757063,0.09389246,0.0569248,0.029864712, 13:14:19.383
81380.929688, 76781.640625, 120745.593750, 99520.000000, 102949.609375, 93620.460938, 113472.671875, 134503.453125, 0.000, 0.000, 0.000,0.13316664,0.24757063,0.09389246,0.0569248,0.029864712, 13:14:19.383
81517.835938, 76918.609375, 120664.968750, 99270.734375, 103002.492188, 93443.164063, 113547.171875, 134611.281250, 0.000, 0.000, 0.000,0.13316664,0.24757063,0.09389246,0.0569248,0.029864712, 13:14:19.383
81597.406250, 77002.804688, 120670.335938, 99274.976563, 103094.578125, 93457.046875, 113647.304688, 134700.890625, 0.188, 0.292, 0.932,0.13316664,0.24757063,0.09389246,0.0569248,0.029864712, 13:14:19.384
81468.507813, 76874.460938, 120751.140625, 99524.804688, 103051.195313, 93645.062500, 113588.007813, 134605.203125, 0.000, 0.000, 0.000,0.11869073,0.2241245,0.08255842,0.05095463,0.025855178, 13:14:19.384
81374.296875, 76775.242188, 120749.531250, 99553.101563, 102950.250000, 93655.679688, 113474.617188, 134505.218750, 0.000, 0.000, 0.000,0.11869073,0.2241245,0.08255842,0.05095463,0.025855178, 13:14:19.384
81481.203125, 76882.734375, 120678.117188, 99311.679688, 102987.828125, 93477.828125, 113513.867188, 134582.687500, 0.000, 0.000, 0.000,0.11869073,0.2241245,0.08255842,0.05095463,0.025855178, 13:14:19.384
81588.648438, 76997.218750, 120660.789063, 99240.218750, 103083.406250, 93434.984375, 113626.851563, 134692.859375, 0.000, 0.000, 0.000,0.11869073,0.2241245,0.08255842,0.05095463,0.025855178, 13:14:19.384
81505.343750, 76914.070313, 120733.414063, 99474.578125, 103068.046875, 93612.320313, 113604.187500, 134630.609375, 0.000, 0.000, 0.000,0.11869073,0.2241245,0.08255842,0.05095463,0.025855178, 13:14:19.384
81389.312500, 76795.492188, 120760.078125, 99573.914063, 102963.914063, 93671.109375, 113482.281250, 134504.515625, 0.000, 0.000, 0.000,0.11869073,0.2241245,0.08255842,0.05095463,0.025855178, 13:14:19.385
81479.125000, 76886.531250, 120687.054688, 99355.156250, 102971.960938, 93504.851563, 113497.664063, 134561.312500, 0.000, 0.000, 0.000,0.11869073,0.2241245,0.08255842,0.05095463,0.025855178, 13:14:19.385
81624.078125, 77029.742188, 120653.195313, 99229.289063, 103075.000000, 93417.367188, 113616.593750, 134684.500000, 0.000, 0.000, 0.000,0.11869073,0.2241245,0.08255842,0.05095463,0.025855178, 13:14:19.385
81557.062500, 76960.273438, 120723.820313, 99439.195313, 103081.343750, 93578.257813, 113609.468750, 134648.531250, 0.188, 0.304, 0.930,0.11869073,0.2241245,0.08255842,0.05095463,0.025855178, 13:14:19.385
81416.226563, 76819.921875, 120770.132813, 99592.484375, 102983.132813, 93678.367188, 113497.593750, 134519.968750, 0.000, 0.000, 0.000,0.11869073,0.2241245,0.08255842,0.05095463,0.025855178, 13:14:19.385
81465.289063, 76871.203125, 120709.898438, 99406.609375, 102968.250000, 93535.562500, 113492.031250, 134542.671875, 0.000, 0.000, 0.000,0.11869073,0.2241245,0.08255842,0.05095463,0.025855178, 13:14:19.386
81603.828125, 77013.648438, 120659.945313, 99226.968750, 103058.679688, 93412.632813, 113600.546875, 134674.421875, 0.000, 0.000, 0.000,0.11869073,0.2241245,0.08255842,0.05095463,0.025855178, 13:14:19.386
81570.992188, 76979.492188, 120719.625000, 99390.226563, 103090.242188, 93548.281250, 113632.445313, 134676.609375, 0.000, 0.000, 0.000,0.11869073,0.2241245,0.08255842,0.05095463,0.025855178, 13:14:19.386
81413.921875, 76819.296875, 120777.960938, 99588.375000, 102990.617188, 93683.867188, 113514.023438, 134532.593750, 0.000, 0.000, 0.000,0.11869073,0.2241245,0.08255842,0.05095463,0.025855178, 13:14:19.387
81419.757813, 76822.226563, 120729.031250, 99448.742188, 102942.656250, 93568.335938, 113468.023438, 134513.281250, 0.000, 0.000, 0.000,0.11869073,0.2241245,0.08255842,0.05095463,0.025855178, 13:14:19.387
81571.726563, 76977.015625, 120663.359375, 99232.328125, 103032.710938, 93416.226563, 113574.531250, 134648.625000, 0.000, 0.000, 0.000,0.11869073,0.2241245,0.08255842,0.05095463,0.025855178, 13:14:19.387
81592.601563, 76995.210938, 120704.757813, 99342.976563, 103089.281250, 93508.789063, 113630.875000, 134680.234375, 0.000, 0.000, 0.000,0.11869073,0.2241245,0.08255842,0.05095463,0.025855178, 13:14:19.387
81447.453125, 76846.835938, 120762.093750, 99567.117188, 103008.750000, 93670.617188, 113536.062500, 134557.453125, 0.000, 0.000, 0.000,0.11869073,0.2241245,0.08255842,0.05095463,0.025855178, 13:14:19.387
81415.687500, 76813.914063, 120733.617188, 99491.273438, 102949.695313, 93604.164063, 113472.289063, 134515.234375, 0.180, 0.300, 0.928,0.11869073,0.2241245,0.08255842,0.05095463,0.025855178, 13:14:19.388
81557.757813, 76956.804688, 120667.273438, 99253.273438, 103019.164063, 93432.054688, 113564.312500, 134632.218750, 0.000, 0.000, 0.000,0.011466593,0.020700645,0.016676283,0.022869552,0.008743711, 13:14:19.847
81613.523438, 77014.968750, 120686.273438, 99300.523438, 103096.281250, 93475.234375, 113640.890625, 134695.937500, 0.000, 0.000, 0.000,0.011466593,0.020700645,0.016676283,0.022869552,0.008743711, 13:14:19.847
81472.460938, 76877.343750, 120757.062500, 99546.328125, 103041.000000, 93656.000000, 113573.117188, 134588.250000, 0.000, 0.000, 0.000,0.011466593,0.020700645,0.016676283,0.022869552,0.008743711, 13:14:19.847
81402.617188, 76802.179688, 120745.460938, 99532.515625, 102955.460938, 93630.585938, 113476.921875, 134502.984375, 0.000, 0.000, 0.000,0.011466593,0.020700645,0.016676283,0.022869552,0.008743711, 13:14:19.847
81530.601563, 76935.507813, 120672.976563, 99289.398438, 103002.468750, 93450.406250, 113536.015625, 134601.500000, 0.000, 0.000, 0.000,0.011466593,0.020700645,0.016676283,0.022869552,0.008743711, 13:14:19.848
81619.781250, 77025.093750, 120668.031250, 99272.656250, 103092.414063, 93449.867188, 113633.960938, 134697.312500, 0.000, 0.000, 0.000,0.011466593,0.020700645,0.016676283,0.022869552,0.008743711, 13:14:19.848
81493.609375, 76901.375000, 120747.625000, 99519.976563, 103056.804688, 93636.906250, 113586.304688, 134606.578125, 0.000, 0.000, 0.000,0.011466593,0.020700645,0.016676283,0.022869552,0.008743711, 13:14:19.848
81394.679688, 76793.640625, 120752.031250, 99563.023438, 102957.609375, 93658.250000, 113481.500000, 134502.062500, 0.000, 0.000, 0.000,0.011466593,0.020700645,0.016676283,0.022869552,0.008743711, 13:14:19.848
81505.765625, 76900.343750, 120673.531250, 99324.039063, 102985.882813, 93481.500000, 113518.960938, 134583.484375, 0.000, 0.000, 0.000,0.011466593,0.020700645,0.016676283,0.022869552,0.008743711, 13:14:19.848
81617.976563, 77019.031250, 120650.218750, 99243.843750, 103084.093750, 93430.671875, 113625.695313, 134694.406250, 0.186, 0.296, 0.934,0.011466593,0.020700645,0.016676283,0.022869552,0.008743711, 13:14:19.848
81527.625000, 76925.742188, 120722.820313, 99476.078125, 103075.265625, 93609.328125, 113606.156250, 134633.921875, 0.000, 0.000, 0.000,0.011466593,0.020700645,0.016676283,0.022869552,0.008743711, 13:14:19.848
81406.031250, 76795.804688, 120753.039063, 99591.617188, 102974.414063, 93682.148438, 113497.773438, 134518.093750, 0.000, 0.000, 0.000,0.011466593,0.020700645,0.016676283,0.022869552,0.008743711, 13:14:19.849
81475.164063, 76867.710938, 120691.906250, 99378.828125, 102974.125000, 93522.312500, 113506.781250, 134562.843750, 0.000, 0.000, 0.000,0.011466593,0.020700645,0.016676283,0.022869552,0.008743711, 13:14:19.849
81616.320313, 77013.984375, 120648.546875, 99237.226563, 103069.296875, 93428.117188, 113611.164063, 134690.921875, 0.000, 0.000, 0.000,0.011466593,0.020700645,0.016676283,0.022869552,0.008743711, 13:14:19.849
81556.976563, 76956.250000, 120718.437500, 99440.828125, 103085.664063, 93585.296875, 113612.523438, 134661.093750, 0.000, 0.000, 0.000,0.011466593,0.020700645,0.016676283,0.022869552,0.008743711, 13:14:19.849
81410.101563, 76806.421875, 120762.539063, 99599.992188, 102984.851563, 93689.882813, 113500.429688, 134526.625000, 0.000, 0.000, 0.000,0.011466593,0.020700645,0.016676283,0.022869552,0.008743711, 13:14:19.849
81448.125000, 76840.687500, 120703.554688, 99421.046875, 102960.648438, 93546.632813, 113481.007813, 134531.953125, 0.000, 0.000, 0.000,0.011466593,0.020700645,0.016676283,0.022869552,0.008743711, 13:14:19.849
81596.914063, 76991.453125, 120646.351563, 99227.859375, 103053.070313, 93409.257813, 113587.492188, 134659.000000, 0.000, 0.000, 0.000,0.011466593,0.020700645,0.016676283,0.022869552,0.008743711, 13:14:19.849
81578.742188, 76974.625000, 120698.250000, 99381.375000, 103097.906250, 93536.328125, 113623.281250, 134671.718750, 0.190, 0.296, 0.934,0.011466593,0.020700645,0.016676283,0.022869552,0.008743711, 13:14:19.850
81430.617188, 76826.718750, 120756.835938, 99586.179688, 103013.375000, 93682.460938, 113519.812500, 134545.500000, 0.000, 0.000, 0.000,0.011466593,0.020700645,0.016676283,0.022869552,0.008743711, 13:14:19.850
81424.789063, 76817.554688, 120720.515625, 99467.585938, 102964.960938, 93587.601563, 113479.554688, 134529.125000, 0.000, 0.000, 0.000,0.011466593,0.020700645,0.016676283,0.022869552,0.008743711, 13:14:19.850
81571.367188, 76965.148438, 120654.976563, 99244.242188, 103039.304688, 93423.000000, 113567.531250, 134643.015625, 0.000, 0.000, 0.000,0.011466593,0.020700645,0.016676283,0.022869552,0.008743711, 13:14:19.850
81598.101563, 76996.210938, 120684.460938, 99339.843750, 103102.578125, 93503.218750, 113632.820313, 134684.812500, 0.000, 0.000, 0.000,0.011466593,0.020700645,0.016676283,0.022869552,0.008743711, 13:14:19.850
81446.710938, 76845.515625, 120753.375000, 99578.226563, 103025.601563, 93667.929688, 113538.164063, 134551.906250, 0.000, 0.000, 0.000,0.011466593,0.020700645,0.016676283,0.022869552,0.008743711, 13:14:19.850
81404.734375, 76801.617188, 120729.437500, 99514.679688, 102956.085938, 93613.171875, 113470.992188, 134505.687500, 0.000, 0.000, 0.000,0.011466593,0.020700645,0.016676283,0.022869552,0.008743711, 13:14:19.850
81544.992188, 76941.609375, 120664.078125, 99270.328125, 103026.046875, 93441.195313, 113556.445313, 134621.937500, 0.000, 0.000, 0.000,0.011466593,0.020700645,0.016676283,0.022869552,0.008743711, 13:14:19.851
81609.523438, 77007.656250, 120685.578125, 99305.867188, 103105.687500, 93478.859375, 113640.578125, 134697.593750, 0.000, 0.000, 0.000,0.011466593,0.020700645,0.016676283,0.022869552,0.008743711, 13:14:19.851
81478.632813, 76875.914063, 120755.296875, 99556.093750, 103051.773438, 93662.968750, 113575.781250, 134595.312500, 0.000, 0.000, 0.000,0.011466593,0.020700645,0.016676283,0.022869552,0.008743711, 13:14:19.851
81399.976563, 76791.828125, 120748.054688, 99554.328125, 102952.109375, 93651.015625, 113464.070313, 134506.171875, 0.198, 0.286, 0.932,0.011466593,0.020700645,0.016676283,0.022869552,0.008743711, 13:14:19.851
81526.312500, 76922.203125, 120672.390625, 99305.601563, 102999.296875, 93464.062500, 113525.515625, 134601.375000, 0.000, 0.000, 0.000,0.011466593,0.020700645,0.016676283,0.022869552,0.008743711, 13:14:19.851
81620.765625, 77019.882813, 120678.718750, 99279.742188, 103099.921875, 93453.960938, 113640.085938, 134698.781250, 0.000, 0.000, 0.000,0.011466593,0.020700645,0.016676283,0.022869552,0.008743711, 13:14:19.851
81504.828125, 76901.601563, 120750.648438, 99519.953125, 103061.921875, 93632.039063, 113588.296875, 134610.625000, 0.000, 0.000, 0.000,0.011466593,0.020700645,0.016676283,0.022869552,0.008743711, 13:14:19.851
81397.046875, 76796.546875, 120762.695313, 99582.851563, 102960.046875, 93662.117188, 113471.328125, 134502.109375, 0.000, 0.000, 0.000,0.011466593,0.020700645,0.016676283,0.022869552,0.008743711, 13:14:19.851
81495.148438, 76895.828125, 120685.421875, 99346.351563, 102984.164063, 93485.812500, 113510.109375, 134572.468750, 0.000, 0.000, 0.000,0.011466593,0.020700645,0.016676283,0.022869552,0.008743711, 13:14:19.852
81616.140625, 77012.421875, 120657.640625, 99248.671875, 103078.039063, 93426.781250, 113619.703125, 134687.937500, 0.000, 0.000, 0.000,0.011466593,0.020700645,0.016676283,0.022869552,0.008743711, 13:14:19.852
81531.765625, 76927.367188, 120732.140625, 99474.421875, 103075.445313, 93596.984375, 113607.476563, 134631.296875, 0.000, 0.000, 0.000,0.011466593,0.020700645,0.016676283,0.022869552,0.008743711, 13:14:19.852
81403.796875, 76797.687500, 120764.953125, 99595.210938, 102976.648438, 93675.640625, 113489.679688, 134512.968750, 0.000, 0.000, 0.000,0.011466593,0.020700645,0.016676283,0.022869552,0.008743711, 13:14:19.852
81468.437500, 76854.546875, 120703.257813, 99393.531250, 102971.375000, 93524.453125, 113494.062500, 134552.000000, 0.194, 0.286, 0.934,0.011466593,0.020700645,0.016676283,0.022869552,0.008743711, 13:14:19.852
81609.546875, 77001.109375, 120657.125000, 99246.210938, 103071.421875, 93425.015625, 113615.812500, 134681.187500, 0.000, 0.000, 0.000,0.011466593,0.020700645,0.016676283,0.022869552,0.008743711, 13:14:19.852
81553.289063, 76944.671875, 120723.312500, 99440.093750, 103093.281250, 93573.007813, 113627.796875, 134656.312500, 0.000, 0.000, 0.000,0.011466593,0.020700645,0.016676283,0.022869552,0.008743711, 13:14:19.852
81418.882813, 76807.117188, 120767.093750, 99611.085938, 102993.281250, 93689.210938, 113512.703125, 134529.156250, 0.000, 0.000, 0.000,0.011466593,0.020700645,0.016676283,0.022869552,0.008743711, 13:14:19.853
81452.570313, 76837.937500, 120710.523438, 99444.671875, 102959.414063, 93557.578125, 113478.773438, 134527.500000, 0.000, 0.000, 0.000,0.011466593,0.020700645,0.016676283,0.022869552,0.008743711, 13:14:19.853
81610.710938, 76994.757813, 120651.937500, 99245.070313, 103049.984375, 93418.265625, 113594.601563, 134658.015625, 0.000, 0.000, 0.000,0.011466593,0.020700645,0.016676283,0.022869552,0.008743711, 13:14:19.853
81604.921875, 76994.984375, 120703.039063, 99384.812500, 103099.406250, 93537.445313, 113648.382813, 134678.171875, 0.000, 0.000, 0.000,0.011466593,0.020700645,0.016676283,0.022869552,0.008743711, 13:14:19.853
81454.671875, 76842.812500, 120766.070313, 99601.070313, 103004.679688, 93689.546875, 113532.351563, 134548.734375, 0.000, 0.000, 0.000,0.011466593,0.020700645,0.016676283,0.022869552,0.008743711, 13:14:19.854
81445.281250, 76828.125000, 120728.789063, 99494.273438, 102948.312500, 93591.445313, 113474.796875, 134506.375000, 0.000, 0.000, 0.000,0.011466593,0.020700645,0.016676283,0.022869552,0.008743711, 13:14:19.854
81587.218750, 76976.406250, 120663.718750, 99264.515625, 103026.359375, 93427.359375, 113560.539063, 134630.562500, 0.000, 0.000, 0.000,0.011466593,0.020700645,0.016676283,0.022869552,0.008743711, 13:14:19.854
