%OpenBCI Raw EEG Data
%
%Sample Rate = 1000.0 Hz
%First Column = SampleIndex
%Last Column = Timestamp 
%Other Columns = EEG data in microvolts followed by Accel Data (in G) interleaved with Aux Data
20, -187500.02, -186017.05, -187500.02, -186844.38, -187500.02, -187500.02, -187500.02, -187500.02, 0.000, 0.000, 0.000, 17:15:04.557
21, -187500.02, -186017.73, -187500.02, -186845.28, -187500.02, -187500.02, -187500.02, -187500.02, 0.000, 0.000, 0.000, 17:15:04.558
22, -187500.02, -186018.20, -187500.02, -186847.66, -187500.02, -187500.02, -187500.02, -187500.02, 0.000, 0.000, 0.000, 17:15:04.559
23, -187500.02, -186020.20, -187500.02, -186852.06, -187500.02, -187500.02, -187500.02, -187500.02, 0.000, 0.000, 0.000, 17:15:04.559
24, -187500.02, -186020.20, -187500.02, -186853.80, -187500.02, -187500.02, -187500.02, -187500.02, 0.000, 0.000, 0.000, 17:15:04.560
25, -187500.02, -186021.52, -187500.02, -186854.75, -187500.02, -187500.02, -187500.02, -187500.02, 0.000, 0.000, 0.000, 17:15:04.560
26, -187500.02, -186022.88, -187500.02, -186856.23, -187500.02, -187500.02, -187500.02, -187500.02, 0.000, 0.000, 0.000, 17:15:04.560
27, -187500.02, -186024.02, -187500.02, -186857.47, -187500.02, -187500.02, -187500.02, -187500.02, 0.000, 0.000, 0.000, 17:15:04.561
28, -187500.02, -186024.53, -187500.02, -186857.53, -187500.02, -187500.02, -187500.02, -187500.02, 0.000, 0.000, 0.000, 17:15:04.561
29, -187500.02, -186025.09, -187500.02, -186857.84, -187500.02, -187500.02, -187500.02, -187500.02, 0.000, 0.000, 0.000, 17:15:04.561
30, -187500.02, -186026.00, -187500.02, -186858.20, -187500.02, -187500.02, -187500.02, -187500.02, 0.000, 0.000, 0.000, 17:15:04.568
31, -187500.02, -186026.67, -187500.02, -186860.05, -187500.02, -187500.02, -187500.02, -187500.02, 0.000, 0.000, 0.000, 17:15:04.569
32, -187500.02, -186027.81, -187500.02, -186861.27, -187500.02, -187500.02, -187500.02, -187500.02, 0.000, 0.000, 0.000, 17:15:04.569
33, -187500.02, -186029.98, -187500.02, -186862.16, -187500.02, -187500.02, -187500.02, -187500.02, 0.000, 0.000, 0.000, 17:15:04.570
34, -187500.02, -186030.81, -187500.02, -186864.05, -187500.02, -187500.02, -187500.02, -187500.02, 0.000, 0.000, 0.000, 17:15:04.570
35, -187500.02, -186032.27, -187500.02, -186865.06, -187500.02, -187500.02, -187500.02, -187500.02, 0.068, -0.042, 0.754, 17:15:04.571
36, -187500.02, -186032.47, -187500.02, -186866.20, -187500.02, -187500.02, -187500.02, -187500.02, 0.000, 0.000, 0.000, 17:15:04.571
37, -187500.02, -186033.55, -187500.02, -186868.22, -187500.02, -187500.02, -187500.02, -187500.02, 0.000, 0.000, 0.000, 17:15:04.572
38, -187500.02, -186034.72, -187500.02, -186868.83, -187500.02, -187500.02, -187500.02, -187500.02, 0.000, 0.000, 0.000, 17:15:04.572
39, -187500.02, -186035.58, -187500.02, -186870.23, -187500.02, -187500.02, -187500.02, -187500.02, 0.000, 0.000, 0.000, 17:15:04.573
40, -187500.02, -186036.84, -187500.02, -186870.84, -187500.02, -187500.02, -187500.02, -187500.02, 0.000, 0.000, 0.000, 17:15:04.579
41, -187500.02, -186037.61, -187500.02, -186872.77, -187500.02, -187500.02, -187500.02, -187500.02, 0.000, 0.000, 0.000, 17:15:04.580
42, -187500.02, -186037.92, -187500.02, -186873.67, -187500.02, -187500.02, -187500.02, -187500.02, 0.000, 0.000, 0.000, 17:15:04.580
43, -187500.02, -186040.88, -187500.02, -186876.92, -187500.02, -187500.02, -187500.02, -187500.02, 0.000, 0.000, 0.000, 17:15:04.580
44, -187500.02, -186042.73, -187500.02, -186880.11, -187500.02, -187500.02, -187500.02, -187500.02, 0.000, 0.000, 0.000, 17:15:04.581
45, -187500.02, -186043.78, -187500.02, -186880.56, -187500.02, -187500.02, -187500.02, -187500.02, 0.000, 0.000, 0.000, 17:15:04.581
46, -187500.02, -186045.94, -187500.02, -186880.52, -187500.02, -187500.02, -187500.02, -187500.02, 0.000, 0.000, 0.000, 17:15:04.581
47, -187500.02, -186048.00, -187500.02, -186880.97, -187500.02, -187500.02, -187500.02, -187500.02, 0.000, 0.000, 0.000, 17:15:04.581
48, -187500.02, -186049.64, -187500.02, -186882.13, -187500.02, -187500.02, -187500.02, -187500.02, 0.000, 0.000, 0.000, 17:15:04.582
49, -187500.02, -186050.64, -187500.02, -186882.50, -187500.02, -187500.02, -187500.02, -187500.02, 0.000, 0.000, 0.000, 17:15:04.582
50, -187500.02, -186052.77, -187500.02, -186884.22, -187500.02, -187500.02, -187500.02, -187500.02, 0.000, 0.000, 0.000, 17:15:04.588
51, -187500.02, -186053.48, -187500.02, -186884.09, -187500.02, -187500.02, -187500.02, -187500.02, 0.000, 0.000, 0.000, 17:15:04.588
52, -187500.02, -186053.03, -187500.02, -186883.42, -187500.02, -187500.02, -187500.02, -187500.02, 0.000, 0.000, 0.000, 17:15:04.589
53, -187500.02, -186054.28, -187500.02, -186885.52, -187500.02, -187500.02, -187500.02, -187500.02, 0.000, 0.000, 0.000, 17:15:04.589
54, -187500.02, -186057.20, -187500.02, -186889.39, -187500.02, -187500.02, -187500.02, -187500.02, 0.000, 0.000, 0.000, 17:15:04.589
55, -187500.02, -186058.28, -187500.02, -186891.53, -187500.02, -187500.02, -187500.02, -187500.02, 0.000, 0.000, 0.000, 17:15:04.589
56, -187500.02, -186058.63, -187500.02, -186893.05, -187500.02, -187500.02, -187500.02, -187500.02, 0.000, 0.000, 0.000, 17:15:04.590
57, -187500.02, -186060.23, -187500.02, -186895.41, -187500.02, -187500.02, -187500.02, -187500.02, 0.000, 0.000, 0.000, 17:15:04.590
58, -187500.02, -186060.92, -187500.02, -186896.63, -187500.02, -187500.02, -187500.02, -187500.02, 0.000, 0.000, 0.000, 17:15:04.590
59, -187500.02, -186061.92, -187500.02, -186897.84, -187500.02, -187500.02, -187500.02, -187500.02, 0.000, 0.000, 0.000, 17:15:04.590
60, -187500.02, -186062.95, -187500.02, -186899.00, -187500.02, -187500.02, -187500.02, -187500.02, 0.000, 0.000, 0.000, 17:15:04.597
61, -187500.02, -186064.13, -187500.02, -186899.94, -187500.02, -187500.02, -187500.02, -187500.02, 0.000, 0.000, 0.000, 17:15:04.597
62, -187500.02, -186065.22, -187500.02, -186898.86, -187500.02, -187500.02, -187500.02, -187500.02, 0.000, 0.000, 0.000, 17:15:04.597
63, -187500.02, -186066.05, -187500.02, -186899.95, -187500.02, -187500.02, -187500.02, -187500.02, 0.000, 0.000, 0.000, 17:15:04.598
64, -187500.02, -186067.02, -187500.02, -186902.36, -187500.02, -187500.02, -187500.02, -187500.02, 0.000, 0.000, 0.000, 17:15:04.598
65, -187500.02, -186067.81, -187500.02, -186902.48, -187500.02, -187500.02, -187500.02, -187500.02, 0.000, 0.000, 0.000, 17:15:04.598
66, -187500.02, -186068.63, -187500.02, -186903.30, -187500.02, -187500.02, -187500.02, -187500.02, 0.000, 0.000, 0.000, 17:15:04.599
67, -187500.02, -186069.58, -187500.02, -186904.78, -187500.02, -187500.02, -187500.02, -187500.02, 0.000, 0.000, 0.000, 17:15:04.599
68, -187500.02, -186070.17, -187500.02, -186904.92, -187500.02, -187500.02, -187500.02, -187500.02, 0.000, 0.000, 0.000, 17:15:04.599
69, -187500.02, -186071.78, -187500.02, -186905.95, -187500.02, -187500.02, -187500.02, -187500.02, 0.000, 0.000, 0.000, 17:15:04.600
70, -187500.02, -186072.30, -187500.02, -186907.45, -187500.02, -187500.02, -187500.02, -187500.02, 0.000, 0.000, 0.000, 17:15:04.606
71, -187500.02, -186072.83, -187500.02, -186908.77, -187500.02, -187500.02, -187500.02, -187500.02, 0.000, 0.000, 0.000, 17:15:04.606
72, -187500.02, -186073.89, -187500.02, -186909.86, -187500.02, -187500.02, -187500.02, -187500.02, 0.000, 0.000, 0.000, 17:15:04.606
73, -187500.02, -186073.89, -187500.02, -186911.56, -187500.02, -187500.02, -187500.02, -187500.02, 0.000, 0.000, 0.000, 17:15:04.606
74, -187500.02, -186076.23, -187500.02, -186914.52, -187500.02, -187500.02, -187500.02, -187500.02, 0.072, -0.054, 0.876, 17:15:04.606
75, -187500.02, -186079.41, -187500.02, -186918.06, -187500.02, -187500.02, -187500.02, -187500.02, 0.000, 0.000, 0.000, 17:15:04.607
76, -187500.02, -186080.44, -187500.02, -186919.70, -187500.02, -187500.02, -187500.02, -187500.02, 0.000, 0.000, 0.000, 17:15:04.607
77, -187500.02, -186081.55, -187500.02, -186920.81, -187500.02, -187500.02, -187500.02, -187500.02, 0.000, 0.000, 0.000, 17:15:04.607
78, -187500.02, -186082.94, -187500.02, -186922.06, -187500.02, -187500.02, -187500.02, -187500.02, 0.000, 0.000, 0.000, 17:15:04.607
79, -187500.02, -186082.78, -187500.02, -186922.58, -187500.02, -187500.02, -187500.02, -187500.02, 0.000, 0.000, 0.000, 17:15:04.608
80, -187500.02, -186083.70, -187500.02, -186923.41, -187500.02, -187500.02, -187500.02, -187500.02, 0.000, 0.000, 0.000, 17:15:04.616
81, -187500.02, -186085.58, -187500.02, -186923.92, -187500.02, -187500.02, -187500.02, -187500.02, 0.000, 0.000, 0.000, 17:15:04.622
82, -187500.02, -186086.53, -187500.02, -186923.55, -187500.02, -187500.02, -187500.02, -187500.02, 0.000, 0.000, 0.000, 17:15:04.623
83, -187500.02, -186087.86, -187500.02, -186924.77, -187500.02, -187500.02, -187500.02, -187500.02, 0.000, 0.000, 0.000, 17:15:04.623
84, -187500.02, -186090.33, -187500.02, -186927.25, -187500.02, -187500.02, -187500.02, -187500.02, 0.000, 0.000, 0.000, 17:15:04.623
85, -187500.02, -186091.39, -187500.02, -186928.06, -187500.02, -187500.02, -187500.02, -187500.02, 0.000, 0.000, 0.000, 17:15:04.624
86, -187500.02, -186091.31, -187500.02, -186929.59, -187500.02, -187500.02, -187500.02, -187500.02, 0.000, 0.000, 0.000, 17:15:04.624
87, -187500.02, -186092.34, -187500.02, -186930.84, -187500.02, -187500.02, -187500.02, -187500.02, 0.000, 0.000, 0.000, 17:15:04.624
88, -187500.02, -186093.83, -187500.02, -186932.69, -187500.02, -187500.02, -187500.02, -187500.02, 0.000, 0.000, 0.000, 17:15:04.625
89, -187500.02, -186094.73, -187500.02, -186934.31, -187500.02, -187500.02, -187500.02, -187500.02, 0.000, 0.000, 0.000, 17:15:04.625
90, -187500.02, -186095.56, -187500.02, -186935.09, -187500.02, -187500.02, -187500.02, -187500.02, 0.000, 0.000, 0.000, 17:15:04.626
91, -187500.02, -186096.97, -187500.02, -186937.09, -187500.02, -187500.02, -187500.02, -187500.02, 0.000, 0.000, 0.000, 17:15:04.626
92, -187500.02, -186097.31, -187500.02, -186938.47, -187500.02, -187500.02, -187500.02, -187500.02, 0.000, 0.000, 0.000, 17:15:04.627
93, -187500.02, -186098.09, -187500.02, -186940.84, -187500.02, -187500.02, -187500.02, -187500.02, 0.000, 0.000, 0.000, 17:15:04.627
94, -187500.02, -186099.75, -187500.02, -186942.63, -187500.02, -187500.02, -187500.02, -187500.02, 0.000, 0.000, 0.000, 17:15:04.627
95, -187500.02, -186100.78, -187500.02, -186943.14, -187500.02, -187500.02, -187500.02, -187500.02, 0.000, 0.000, 0.000, 17:15:04.627
96, -187500.02, -186102.20, -187500.02, -186944.00, -187500.02, -187500.02, -187500.02, -187500.02, 0.000, 0.000, 0.000, 17:15:04.628
97, -187500.02, -186103.05, -187500.02, -186943.75, -187500.02, -187500.02, -187500.02, -187500.02, 0.000, 0.000, 0.000, 17:15:04.628
98, -187500.02, -186103.72, -187500.02, -186944.23, -187500.02, -187500.02, -187500.02, -187500.02, 0.000, 0.000, 0.000, 17:15:04.628
99, -187500.02, -186105.94, -187500.02, -186945.09, -187500.02, -187500.02, -187500.02, -187500.02, 0.000, 0.000, 0.000, 17:15:04.629
100, -187500.02, -186107.13, -187500.02, -186945.67, -187500.02, -187500.02, -187500.02, -187500.02, 0.000, 0.000, 0.000, 17:15:04.636
101, -187500.02, -186107.19, -187500.02, -186946.72, -187500.02, -187500.02, -187500.02, -187500.02, 0.000, 0.000, 0.000, 17:15:04.636
102, -187500.02, -186107.70, -187500.02, -186947.84, -187500.02, -187500.02, -187500.02, -187500.02, 0.000, 0.000, 0.000, 17:15:04.637
103, -187500.02, -186109.36, -187500.02, -186949.63, -187500.02, -187500.02, -187500.02, -187500.02, 0.000, 0.000, 0.000, 17:15:04.637
104, -187500.02, -186111.41, -187500.02, -186952.63, -187500.02, -187500.02, -187500.02, -187500.02, 0.000, 0.000, 0.000, 17:15:04.637
105, -187500.02, -186112.31, -187500.02, -186953.69, -187500.02, -187500.02, -187500.02, -187500.02, 0.000, 0.000, 0.000, 17:15:04.637
106, -187500.02, -186113.14, -187500.02, -186954.88, -187500.02, -187500.02, -187500.02, -187500.02, 0.000, 0.000, 0.000, 17:15:04.637
107, -187500.02, -186114.41, -187500.02, -186956.47, -187500.02, -187500.02, -187500.02, -187500.02, 0.000, 0.000, 0.000, 17:15:04.638
108, -187500.02, -186114.59, -187500.02, -186957.56, -187500.02, -187500.02, -187500.02, -187500.02, 0.000, 0.000, 0.000, 17:15:04.638
109, -187500.02, -186115.11, -187500.02, -186959.44, -187500.02, -187500.02, -187500.02, -187500.02, 0.000, 0.000, 0.000, 17:15:04.638
110, -187500.02, -186116.23, -187500.02, -186960.44, -187500.02, -187500.02, -187500.02, -187500.02, 0.000, 0.000, 0.000, 17:15:04.649
111, -187500.02, -186116.98, -187500.02, -186960.91, -187500.02, -187500.02, -187500.02, -187500.02, 0.000, 0.000, 0.000, 17:15:04.649
112, -187500.02, -186117.88, -187500.02, -186961.58, -187500.02, -187500.02, -187500.02, -187500.02, 0.080, -0.052, 0.942, 17:15:04.650
113, -187500.02, -186119.30, -187500.02, -186962.34, -187500.02, -187500.02, -187500.02, -187500.02, 0.000, 0.000, 0.000, 17:15:04.650
114, -187500.02, -186120.83, -187500.02, -186962.97, -187500.02, -187500.02, -187500.02, -187500.02, 0.000, 0.000, 0.000, 17:15:04.650
115, -187500.02, -186121.94, -187500.02, -186963.63, -187500.02, -187500.02, -187500.02, -187500.02, 0.000, 0.000, 0.000, 17:15:04.651
116, -187500.02, -186123.91, -187500.02, -186963.89, -187500.02, -187500.02, -187500.02, -187500.02, 0.000, 0.000, 0.000, 17:15:04.651
117, -187500.02, -186124.89, -187500.02, -186965.55, -187500.02, -187500.02, -187500.02, -187500.02, 0.000, 0.000, 0.000, 17:15:04.651
118, -187500.02, -186125.73, -187500.02, -186966.53, -187500.02, -187500.02, -187500.02, -187500.02, 0.000, 0.000, 0.000, 17:15:04.652
119, -187500.02, -186126.88, -187500.02, -186967.03, -187500.02, -187500.02, -187500.02, -187500.02, 0.000, 0.000, 0.000, 17:15:04.652
120, -187500.02, -186128.20, -187500.02, -186968.84, -187500.02, -187500.02, -187500.02, -187500.02, 0.000, 0.000, 0.000, 17:15:04.659
121, -187500.02, -186128.92, -187500.02, -186970.72, -187500.02, -187500.02, -187500.02, -187500.02, 0.000, 0.000, 0.000, 17:15:04.660
122, -187500.02, -186129.55, -187500.02, -186972.38, -187500.02, -187500.02, -187500.02, -187500.02, 0.000, 0.000, 0.000, 17:15:04.660
123, -187500.02, -186130.55, -187500.02, -186974.09, -187500.02, -187500.02, -187500.02, -187500.02, 0.000, 0.000, 0.000, 17:15:04.660
124, -187500.02, -186131.48, -187500.02, -186975.95, -187500.02, -187500.02, -187500.02, -187500.02, 0.000, 0.000, 0.000, 17:15:04.660
125, -187500.02, -186132.56, -187500.02, -186977.05, -187500.02, -187500.02, -187500.02, -187500.02, 0.000, 0.000, 0.000, 17:15:04.660
126, -187500.02, -186133.55, -187500.02, -186979.20, -187500.02, -187500.02, -187500.02, -187500.02, 0.000, 0.000, 0.000, 17:15:04.660
127, -187500.02, -186134.23, -187500.02, -186979.80, -187500.02, -187500.02, -187500.02, -187500.02, 0.000, 0.000, 0.000, 17:15:04.661
128, -187500.02, -186134.75, -187500.02, -186979.84, -187500.02, -187500.02, -187500.02, -187500.02, 0.000, 0.000, 0.000, 17:15:04.661
129, -187500.02, -186136.09, -187500.02, -186980.69, -187500.02, -187500.02, -187500.02, -187500.02, 0.000, 0.000, 0.000, 17:15:04.661
130, -187500.02, -186137.09, -187500.02, -186980.73, -187500.02, -187500.02, -187500.02, -187500.02, 0.000, 0.000, 0.000, 17:15:04.666
131, -187500.02, -186137.98, -187500.02, -186980.30, -187500.02, -187500.02, -187500.02, -187500.02, 0.000, 0.000, 0.000, 17:15:04.666
132, -187500.02, -186138.58, -187500.02, -186981.09, -187500.02, -187500.02, -187500.02, -187500.02, 0.000, 0.000, 0.000, 17:15:04.666
133, -187500.02, -186139.80, -187500.02, -186982.19, -187500.02, -187500.02, -187500.02, -187500.02, 0.000, 0.000, 0.000, 17:15:04.667
134, -187500.02, -186142.13, -187500.02, -186985.61, -187500.02, -187500.02, -187500.02, -187500.02, 0.000, 0.000, 0.000, 17:15:04.667
135, -187500.02, -186143.33, -187500.02, -186986.73, -187500.02, -187500.02, -187500.02, -187500.02, 0.000, 0.000, 0.000, 17:15:04.667
136, -187500.02, -186143.41, -187500.02, -186987.33, -187500.02, -187500.02, -187500.02, -187500.02, 0.000, 0.000, 0.000, 17:15:04.668
137, -187500.02, -186144.14, -187500.02, -186988.97, -187500.02, -187500.02, -187500.02, -187500.02, 0.000, 0.000, 0.000, 17:15:04.668
138, -187500.02, -186145.36, -187500.02, -186990.13, -187500.02, -187500.02, -187500.02, -187500.02, 0.000, 0.000, 0.000, 17:15:04.669
139, -187500.02, -186146.59, -187500.02, -186991.31, -187500.02, -187500.02, -187500.02, -187500.02, 0.000, 0.000, 0.000, 17:15:04.669
140, -187500.02, -186147.09, -187500.02, -186993.81, -187500.02, -187500.02, -187500.02, -187500.02, 0.000, 0.000, 0.000, 17:15:04.676
141, -187500.02, -186147.98, -187500.02, -186995.11, -187500.02, -187500.02, -187500.02, -187500.02, 0.000, 0.000, 0.000, 17:15:04.677
142, -187500.02, -186149.17, -187500.02, -186995.47, -187500.02, -187500.02, -187500.02, -187500.02, 0.000, 0.000, 0.000, 17:15:04.677
143, -187500.02, -186150.34, -187500.02, -186996.77, -187500.02, -187500.02, -187500.02, -187500.02, 0.000, 0.000, 0.000, 17:15:04.677
144, -187500.02, -186152.72, -187500.02, -186999.45, -187500.02, -187500.02, -187500.02, -187500.02, 0.000, 0.000, 0.000, 17:15:04.678
145, -187500.02, -186153.55, -187500.02, -187001.53, -187500.02, -187500.02, -187500.02, -187500.02, 0.000, 0.000, 0.000, 17:15:04.678
146, -187500.02, -186153.39, -187500.02, -187002.67, -187500.02, -187500.02, -187500.02, -187500.02, 0.000, 0.000, 0.000, 17:15:04.678
147, -187500.02, -186154.47, -187500.02, -187002.11, -187500.02, -187500.02, -187500.02, -187500.02, 0.000, 0.000, 0.000, 17:15:04.679
148, -187500.02, -186154.75, -187500.02, -187001.92, -187500.02, -187500.02, -187500.02, -187500.02, 0.000, 0.000, 0.000, 17:15:04.679
149, -187500.02, -186155.64, -187500.02, -187002.08, -187500.02, -187500.02, -187500.02, -187500.02, 0.000, 0.000, 0.000, 17:15:04.679
150, -187500.02, -186157.44, -187500.02, -187002.94, -187500.02, -187500.02, -187500.02, -187500.02, 0.082, -0.056, 0.972, 17:15:04.680
151, -187500.02, -186159.20, -187500.02, -187004.05, -187500.02, -187500.02, -187500.02, -187500.02, 0.000, 0.000, 0.000, 17:15:04.686
152, -187500.02, -186159.83, -187500.02, -187005.02, -187500.02, -187500.02, -187500.02, -187500.02, 0.000, 0.000, 0.000, 17:15:04.687
153, -187500.02, -186160.91, -187500.02, -187006.27, -187500.02, -187500.02, -187500.02, -187500.02, 0.000, 0.000, 0.000, 17:15:04.687
154, -187500.02, -186163.66, -187500.02, -187009.08, -187500.02, -187500.02, -187500.02, -187500.02, 0.000, 0.000, 0.000, 17:15:04.687
155, -187500.02, -186164.25, -187500.02, -187009.86, -187500.02, -187500.02, -187500.02, -187500.02, 0.000, 0.000, 0.000, 17:15:04.688
156, -187500.02, -186164.67, -187500.02, -187012.09, -187500.02, -187500.02, -187500.02, -187500.02, 0.000, 0.000, 0.000, 17:15:04.688
157, -187500.02, -186165.27, -187500.02, -187013.70, -187500.02, -187500.02, -187500.02, -187500.02, 0.000, 0.000, 0.000, 17:15:04.688
158, -187500.02, -186165.77, -187500.02, -187015.09, -187500.02, -187500.02, -187500.02, -187500.02, 0.000, 0.000, 0.000, 17:15:04.688
159, -187500.02, -186166.59, -187500.02, -187016.41, -187500.02, -187500.02, -187500.02, -187500.02, 0.000, 0.000, 0.000, 17:15:04.689
160, -187500.02, -186167.25, -187500.02, -187016.25, -187500.02, -187500.02, -187500.02, -187500.02, 0.000, 0.000, 0.000, 17:15:04.689
161, -187500.02, -186167.42, -187500.02, -187017.39, -187500.02, -187500.02, -187500.02, -187500.02, 0.000, 0.000, 0.000, 17:15:04.700
162, -187500.02, -186168.03, -187500.02, -187017.67, -187500.02, -187500.02, -187500.02, -187500.02, 0.000, 0.000, 0.000, 17:15:04.700
163, -187500.02, -186169.69, -187500.02, -187017.91, -187500.02, -187500.02, -187500.02, -187500.02, 0.000, 0.000, 0.000, 17:15:04.700
164, -187500.02, -186171.86, -187500.02, -187021.08, -187500.02, -187500.02, -187500.02, -187500.02, 0.000, 0.000, 0.000, 17:15:04.701
165, -187500.02, -186172.91, -187500.02, -187021.70, -187500.02, -187500.02, -187500.02, -187500.02, 0.000, 0.000, 0.000, 17:15:04.701
166, -187500.02, -186173.42, -187500.02, -187021.00, -187500.02, -187500.02, -187500.02, -187500.02, 0.000, 0.000, 0.000, 17:15:04.701
167, -187500.02, -186174.31, -187500.02, -187021.78, -187500.02, -187500.02, -187500.02, -187500.02, 0.000, 0.000, 0.000, 17:15:04.701
168, -187500.02, -186175.05, -187500.02, -187022.41, -187500.02, -187500.02, -187500.02, -187500.02, 0.000, 0.000, 0.000, 17:15:04.702
169, -187500.02, -186175.19, -187500.02, -187023.30, -187500.02, -187500.02, -187500.02, -187500.02, 0.000, 0.000, 0.000, 17:15:04.702
170, -187500.02, -186177.16, -187500.02, -187024.14, -187500.02, -187500.02, -187500.02, -187500.02, 0.000, 0.000, 0.000, 17:15:04.702
171, -187500.02, -186178.72, -187500.02, -187026.63, -187500.02, -187500.02, -187500.02, -187500.02, 0.000, 0.000, 0.000, 17:15:04.706
172, -187500.02, -186179.78, -187500.02, -187028.30, -187500.02, -187500.02, -187500.02, -187500.02, 0.000, 0.000, 0.000, 17:15:04.707
173, -187500.02, -186180.81, -187500.02, -187029.88, -187500.02, -187500.02, -187500.02, -187500.02, 0.000, 0.000, 0.000, 17:15:04.707
174, -187500.02, -186181.67, -187500.02, -187030.83, -187500.02, -187500.02, -187500.02, -187500.02, 0.000, 0.000, 0.000, 17:15:04.707
175, -187500.02, -186181.23, -187500.02, -187031.77, -187500.02, -187500.02, -187500.02, -187500.02, 0.000, 0.000, 0.000, 17:15:04.707
176, -187500.02, -186182.16, -187500.02, -187033.28, -187500.02, -187500.02, -187500.02, -187500.02, 0.000, 0.000, 0.000, 17:15:04.708
177, -187500.02, -186185.42, -187500.02, -187036.55, -187500.02, -187500.02, -187500.02, -187500.02, 0.000, 0.000, 0.000, 17:15:04.708
178, -187500.02, -186187.47, -187500.02, -187038.31, -187500.02, -187500.02, -187500.02, -187500.02, 0.000, 0.000, 0.000, 17:15:04.708
179, -187500.02, -186187.77, -187500.02, -187038.77, -187500.02, -187500.02, -187500.02, -187500.02, 0.000, 0.000, 0.000, 17:15:04.708
180, -187500.02, -186188.66, -187500.02, -187040.05, -187500.02, -187500.02, -187500.02, -187500.02, 0.000, 0.000, 0.000, 17:15:04.709
181, -187500.02, -186190.38, -187500.02, -187040.70, -187500.02, -187500.02, -187500.02, -187500.02, 0.000, 0.000, 0.000, 17:15:04.716
182, -187500.02, -186190.61, -187500.02, -187040.75, -187500.02, -187500.02, -187500.02, -187500.02, 0.000, 0.000, 0.000, 17:15:04.717
183, -187500.02, -186191.08, -187500.02, -187041.38, -187500.02, -187500.02, -187500.02, -187500.02, 0.000, 0.000, 0.000, 17:15:04.717
184, -187500.02, -186193.00, -187500.02, -187043.75, -187500.02, -187500.02, -187500.02, -187500.02, 0.000, 0.000, 0.000, 17:15:04.717
185, -187500.02, -186194.88, -187500.02, -187045.00, -187500.02, -187500.02, -187500.02, -187500.02, 0.000, 0.000, 0.000, 17:15:04.717
186, -187500.02, -186195.41, -187500.02, -187045.36, -187500.02, -187500.02, -187500.02, -187500.02, 0.000, 0.000, 0.000, 17:15:04.718
187, -187500.02, -186196.80, -187500.02, -187046.70, -187500.02, -187500.02, -187500.02, -187500.02, 0.000, 0.000, 0.000, 17:15:04.718
188, -187500.02, -186196.70, -187500.02, -187048.31, -187500.02, -187500.02, -187500.02, -187500.02, 0.000, 0.000, 0.000, 17:15:04.718
189, -187500.02, -186197.25, -187500.02, -187050.25, -187500.02, -187500.02, -187500.02, -187500.02, 0.086, -0.062, 0.982, 17:15:04.718
190, -187500.02, -186198.67, -187500.02, -187051.66, -187500.02, -187500.02, -187500.02, -187500.02, 0.000, 0.000, 0.000, 17:15:04.719
191, -187500.02, -186199.72, -187500.02, -187052.48, -187500.02, -187500.02, -187500.02, -187500.02, 0.000, 0.000, 0.000, 17:15:04.726
192, -187500.02, -186200.94, -187500.02, -187053.16, -187500.02, -187500.02, -187500.02, -187500.02, 0.000, 0.000, 0.000, 17:15:04.727
193, -187500.02, -186201.45, -187500.02, -187053.61, -187500.02, -187500.02, -187500.02, -187500.02, 0.000, 0.000, 0.000, 17:15:04.727
194, -187500.02, -186203.56, -187500.02, -187055.58, -187500.02, -187500.02, -187500.02, -187500.02, 0.000, 0.000, 0.000, 17:15:04.727
195, -187500.02, -186205.06, -187500.02, -187056.95, -187500.02, -187500.02, -187500.02, -187500.02, 0.000, 0.000, 0.000, 17:15:04.727
196, -187500.02, -186205.88, -187500.02, -187056.98, -187500.02, -187500.02, -187500.02, -187500.02, 0.000, 0.000, 0.000, 17:15:04.728
197, -187500.02, -186206.92, -187500.02, -187058.44, -187500.02, -187500.02, -187500.02, -187500.02, 0.000, 0.000, 0.000, 17:15:04.728
198, -187500.02, -186207.22, -187500.02, -187058.88, -187500.02, -187500.02, -187500.02, -187500.02, 0.000, 0.000, 0.000, 17:15:04.728
199, -187500.02, -186208.17, -187500.02, -187059.63, -187500.02, -187500.02, -187500.02, -187500.02, 0.000, 0.000, 0.000, 17:15:04.728
200, -187500.02, -186209.83, -187500.02, -187060.73, -187500.02, -187500.02, -187500.02, -187500.02, 0.000, 0.000, 0.000, 17:15:04.729
201, -187500.02, -186210.66, -187500.02, -187060.05, -187500.02, -187500.02, -187500.02, -187500.02, 0.000, 0.000, 0.000, 17:15:04.736
202, -187500.02, -186211.61, -187500.02, -187060.77, -187500.02, -187500.02, -187500.02, -187500.02, 0.000, 0.000, 0.000, 17:15:04.737
203, -187500.02, -186211.42, -187500.02, -187062.23, -187500.02, -187500.02, -187500.02, -187500.02, 0.000, 0.000, 0.000, 17:15:04.737
204, -187500.02, -186213.89, -187500.02, -187065.08, -187500.02, -187500.02, -187500.02, -187500.02, 0.000, 0.000, 0.000, 17:15:04.737
205, -187500.02, -186216.31, -187500.02, -187067.59, -187500.02, -187500.02, -187500.02, -187500.02, 0.000, 0.000, 0.000, 17:15:04.737
206, -187500.02, -186217.25, -187500.02, -187069.59, -187500.02, -187500.02, -187500.02, -187500.02, 0.000, 0.000, 0.000, 17:15:04.737
207, -187500.02, -186217.77, -187500.02, -187072.27, -187500.02, -187500.02, -187500.02, -187500.02, 0.000, 0.000, 0.000, 17:15:04.737
208, -187500.02, -186218.03, -187500.02, -187073.45, -187500.02, -187500.02, -187500.02, -187500.02, 0.000, 0.000, 0.000, 17:15:04.738
209, -187500.02, -186217.98, -187500.02, -187073.33, -187500.02, -187500.02, -187500.02, -187500.02, 0.000, 0.000, 0.000, 17:15:04.738
210, -187500.02, -186218.92, -187500.02, -187074.50, -187500.02, -187500.02, -187500.02, -187500.02, 0.000, 0.000, 0.000, 17:15:04.738
211, -187500.02, -186220.73, -187500.02, -187075.16, -187500.02, -187500.02, -187500.02, -187500.02, 0.000, 0.000, 0.000, 17:15:04.747
212, -187500.02, -186221.05, -187500.02, -187076.11, -187500.02, -187500.02, -187500.02, -187500.02, 0.000, 0.000, 0.000, 17:15:04.748
213, -187500.02, -186221.39, -187500.02, -187076.70, -187500.02, -187500.02, -187500.02, -187500.02, 0.000, 0.000, 0.000, 17:15:04.748
214, -187500.02, -186222.77, -187500.02, -187078.00, -187500.02, -187500.02, -187500.02, -187500.02, 0.000, 0.000, 0.000, 17:15:04.748
215, -187500.02, -186225.47, -187500.02, -187078.75, -187500.02, -187500.02, -187500.02, -187500.02, 0.000, 0.000, 0.000, 17:15:04.748
216, -187500.02, -186225.59, -187500.02, -187078.58, -187500.02, -187500.02, -187500.02, -187500.02, 0.000, 0.000, 0.000, 17:15:04.748
217, -187500.02, -186226.28, -187500.02, -187079.47, -187500.02, -187500.02, -187500.02, -187500.02, 0.000, 0.000, 0.000, 17:15:04.749
218, -187500.02, -186227.38, -187500.02, -187080.56, -187500.02, -187500.02, -187500.02, -187500.02, 0.000, 0.000, 0.000, 17:15:04.749
219, -187500.02, -186228.14, -187500.02, -187081.95, -187500.02, -187500.02, -187500.02, -187500.02, 0.000, 0.000, 0.000, 17:15:04.749
220, -187500.02, -186229.75, -187500.02, -187082.66, -187500.02, -187500.02, -187500.02, -187500.02, 0.000, 0.000, 0.000, 17:15:04.749
221, -187500.02, -186230.45, -187500.02, -187083.16, -187500.02, -187500.02, -187500.02, -187500.02, 0.000, 0.000, 0.000, 17:15:04.756
222, -187500.02, -186231.31, -187500.02, -187085.19, -187500.02, -187500.02, -187500.02, -187500.02, 0.000, 0.000, 0.000, 17:15:04.756
223, -187500.02, -186231.98, -187500.02, -187087.22, -187500.02, -187500.02, -187500.02, -187500.02, 0.000, 0.000, 0.000, 17:15:04.757
224, -187500.02, -186233.03, -187500.02, -187089.55, -187500.02, -187500.02, -187500.02, -187500.02, 0.000, 0.000, 0.000, 17:15:04.757
225, -187500.02, -186234.77, -187500.02, -187091.81, -187500.02, -187500.02, -187500.02, -187500.02, 0.000, 0.000, 0.000, 17:15:04.757
226, -187500.02, -186235.59, -187500.02, -187092.88, -187500.02, -187500.02, -187500.02, -187500.02, 0.000, 0.000, 0.000, 17:15:04.757
227, -187500.02, -186236.27, -187500.02, -187094.73, -187500.02, -187500.02, -187500.02, -187500.02, 0.082, -0.056, 0.992, 17:15:04.758
228, -187500.02, -186237.08, -187500.02, -187096.25, -187500.02, -187500.02, -187500.02, -187500.02, 0.000, 0.000, 0.000, 17:15:04.758
229, -187500.02, -186238.11, -187500.02, -187096.70, -187500.02, -187500.02, -187500.02, -187500.02, 0.000, 0.000, 0.000, 17:15:04.758
230, -187500.02, -186239.06, -187500.02, -187096.64, -187500.02, -187500.02, -187500.02, -187500.02, 0.000, 0.000, 0.000, 17:15:04.758
231, -187500.02, -186240.36, -187500.02, -187096.44, -187500.02, -187500.02, -187500.02, -187500.02, 0.000, 0.000, 0.000, 17:15:04.768
232, -187500.02, -186241.45, -187500.02, -187095.92, -187500.02, -187500.02, -187500.02, -187500.02, 0.000, 0.000, 0.000, 17:15:04.768
233, -187500.02, -186241.97, -187500.02, -187096.66, -187500.02, -187500.02, -187500.02, -187500.02, 0.000, 0.000, 0.000, 17:15:04.769
234, -187500.02, -186244.50, -187500.02, -187098.94, -187500.02, -187500.02, -187500.02, -187500.02, 0.000, 0.000, 0.000, 17:15:04.769
235, -187500.02, -186246.58, -187500.02, -187099.58, -187500.02, -187500.02, -187500.02, -187500.02, 0.000, 0.000, 0.000, 17:15:04.769
236, -187500.02, -186247.16, -187500.02, -187101.00, -187500.02, -187500.02, -187500.02, -187500.02, 0.000, 0.000, 0.000, 17:15:04.769
237, -187500.02, -186248.47, -187500.02, -187102.98, -187500.02, -187500.02, -187500.02, -187500.02, 0.000, 0.000, 0.000, 17:15:04.770
238, -187500.02, -186248.97, -187500.02, -187104.92, -187500.02, -187500.02, -187500.02, -187500.02, 0.000, 0.000, 0.000, 17:15:04.770
239, -187500.02, -186248.94, -187500.02, -187106.20, -187500.02, -187500.02, -187500.02, -187500.02, 0.000, 0.000, 0.000, 17:15:04.770
240, -187500.02, -186250.13, -187500.02, -187108.03, -187500.02, -187500.02, -187500.02, -187500.02, 0.000, 0.000, 0.000, 17:15:04.770
241, -187500.02, -186250.58, -187500.02, -187110.11, -187500.02, -187500.02, -187500.02, -187500.02, 0.000, 0.000, 0.000, 17:15:04.781
242, -187500.02, -186251.17, -187500.02, -187111.83, -187500.02, -187500.02, -187500.02, -187500.02, 0.000, 0.000, 0.000, 17:15:04.781
243, -187500.02, -186251.98, -187500.02, -187111.66, -187500.02, -187500.02, -187500.02, -187500.02, 0.000, 0.000, 0.000, 17:15:04.781
244, -187500.02, -186253.55, -187500.02, -187113.13, -187500.02, -187500.02, -187500.02, -187500.02, 0.000, 0.000, 0.000, 17:15:04.781
245, -187500.02, -186255.73, -187500.02, -187116.08, -187500.02, -187500.02, -187500.02, -187500.02, 0.000, 0.000, 0.000, 17:15:04.782
246, -187500.02, -186256.98, -187500.02, -187116.33, -187500.02, -187500.02, -187500.02, -187500.02, 0.000, 0.000, 0.000, 17:15:04.782
247, -187500.02, -186257.75, -187500.02, -187117.05, -187500.02, -187500.02, -187500.02, -187500.02, 0.000, 0.000, 0.000, 17:15:04.782
248, -187500.02, -186258.22, -187500.02, -187118.03, -187500.02, -187500.02, -187500.02, -187500.02, 0.000, 0.000, 0.000, 17:15:04.782
249, -187500.02, -186259.31, -187500.02, -187117.78, -187500.02, -187500.02, -187500.02, -187500.02, 0.000, 0.000, 0.000, 17:15:04.783
250, -187500.02, -186260.45, -187500.02, -187119.08, -187500.02, -187500.02, -187500.02, -187500.02, 0.000, 0.000, 0.000, 17:15:04.783
251, -187500.02, -186261.42, -187500.02, -187119.91, -187500.02, -187500.02, -187500.02, -187500.02, 0.000, 0.000, 0.000, 17:15:04.786
252, -187500.02, -186262.89, -187500.02, -187120.81, -187500.02, -187500.02, -187500.02, -187500.02, 0.000, 0.000, 0.000, 17:15:04.786
253, -187500.02, -186263.31, -187500.02, -187122.34, -187500.02, -187500.02, -187500.02, -187500.02, 0.000, 0.000, 0.000, 17:15:04.786
254, -187500.02, -186265.00, -187500.02, -187124.64, -187500.02, -187500.02, -187500.02, -187500.02, 0.000, 0.000, 0.000, 17:15:04.787
255, -187500.02, -186266.78, -187500.02, -187125.88, -187500.02, -187500.02, -187500.02, -187500.02, 0.000, 0.000, 0.000, 17:15:04.787
0, -187500.02, -186267.81, -187500.02, -187127.03, -187500.02, -187500.02, -187500.02, -187500.02, 0.000, 0.000, 0.000, 17:15:04.787
1, -187500.02, -186268.19, -187500.02, -187129.06, -187500.02, -187500.02, -187500.02, -187500.02, 0.000, 0.000, 0.000, 17:15:04.787
2, -187500.02, -186268.97, -187500.02, -187131.23, -187500.02, -187500.02, -187500.02, -187500.02, 0.000, 0.000, 0.000, 17:15:04.787
3, -187500.02, -186269.50, -187500.02, -187132.38, -187500.02, -187500.02, -187500.02, -187500.02, 0.000, 0.000, 0.000, 17:15:04.787
4, -187500.02, -186270.47, -187500.02, -187133.42, -187500.02, -187500.02, -187500.02, -187500.02, 0.000, 0.000, 0.000, 17:15:04.787
5, -187500.02, -186270.67, -187500.02, -187134.20, -187500.02, -187500.02, -187500.02, -187500.02, 0.000, 0.000, 0.000, 17:15:04.796
6, -187500.02, -186271.61, -187500.02, -187134.75, -187500.02, -187500.02, -187500.02, -187500.02, 0.000, 0.000, 0.000, 17:15:04.797
7, -187500.02, -186272.44, -187500.02, -187134.97, -187500.02, -187500.02, -187500.02, -187500.02, 0.000, 0.000, 0.000, 17:15:04.797
8, -187500.02, -186274.89, -187500.02, -187136.98, -187500.02, -187500.02, -187500.02, -187500.02, 0.000, 0.000, 0.000, 17:15:04.797
9, -187500.02, -186276.34, -187500.02, -187138.16, -187500.02, -187500.02, -187500.02, -187500.02, 0.088, -0.062, 0.994, 17:15:04.797
10, -187500.02, -186277.94, -187500.02, -187138.31, -187500.02, -187500.02, -187500.02, -187500.02, 0.000, 0.000, 0.000, 17:15:04.797
11, -187500.02, -186278.30, -187500.02, -187138.67, -187500.02, -187500.02, -187500.02, -187500.02, 0.000, 0.000, 0.000, 17:15:04.797
12, -187500.02, -186279.41, -187500.02, -187140.22, -187500.02, -187500.02, -187500.02, -187500.02, 0.000, 0.000, 0.000, 17:15:04.798
13, -187500.02, -186280.70, -187500.02, -187141.03, -187500.02, -187500.02, -187500.02, -187500.02, 0.000, 0.000, 0.000, 17:15:04.798
14, -187500.02, -186281.36, -187500.02, -187141.22, -187500.02, -187500.02, -187500.02, -187500.02, 0.000, 0.000, 0.000, 17:15:04.798
15, -187500.02, -186281.67, -187500.02, -187141.92, -187500.02, -187500.02, -187500.02, -187500.02, 0.000, 0.000, 0.000, 17:15:04.806
16, -187500.02, -186282.72, -187500.02, -187143.70, -187500.02, -187500.02, -187500.02, -187500.02, 0.000, 0.000, 0.000, 17:15:04.807
17, -187500.02, -186283.88, -187500.02, -187145.14, -187500.02, -187500.02, -187500.02, -187500.02, 0.000, 0.000, 0.000, 17:15:04.807
18, -187500.02, -186285.17, -187500.02, -187147.17, -187500.02, -187500.02, -187500.02, -187500.02, 0.000, 0.000, 0.000, 17:15:04.807
19, -187500.02, -186287.97, -187500.02, -187151.42, -187500.02, -187500.02, -187500.02, -187500.02, 0.000, 0.000, 0.000, 17:15:04.807
20, -187500.02, -186289.25, -187500.02, -187152.84, -187500.02, -187500.02, -187500.02, -187500.02, 0.000, 0.000, 0.000, 17:15:04.807
21, -187500.02, -186290.63, -187500.02, -187154.38, -187500.02, -187500.02, -187500.02, -187500.02, 0.000, 0.000, 0.000, 17:15:04.807
22, -187500.02, -186292.00, -187500.02, -187155.48, -187500.02, -187500.02, -187500.02, -187500.02, 0.000, 0.000, 0.000, 17:15:04.808
23, -187500.02, -186292.59, -187500.02, -187155.44, -187500.02, -187500.02, -187500.02, -187500.02, 0.000, 0.000, 0.000, 17:15:04.808
24, -187500.02, -186293.69, -187500.02, -187155.42, -187500.02, -187500.02, -187500.02, -187500.02, 0.000, 0.000, 0.000, 17:15:04.808
25, -187500.02, -186294.92, -187500.02, -187156.11, -187500.02, -187500.02, -187500.02, -187500.02, 0.000, 0.000, 0.000, 17:15:04.816
26, -187500.02, -186295.92, -187500.02, -187156.27, -187500.02, -187500.02, -187500.02, -187500.02, 0.000, 0.000, 0.000, 17:15:04.817
27, -187500.02, -186296.69, -187500.02, -187157.16, -187500.02, -187500.02, -187500.02, -187500.02, 0.000, 0.000, 0.000, 17:15:04.817
28, -187500.02, -186297.27, -187500.02, -187158.22, -187500.02, -187500.02, -187500.02, -187500.02, 0.000, 0.000, 0.000, 17:15:04.817
29, -187500.02, -186300.08, -187500.02, -187160.34, -187500.02, -187500.02, -187500.02, -187500.02, 0.000, 0.000, 0.000, 17:15:04.817
30, -187500.02, -186300.59, -187500.02, -187161.08, -187500.02, -187500.02, -187500.02, -187500.02, 0.000, 0.000, 0.000, 17:15:04.817
31, -187500.02, -186300.80, -187500.02, -187162.44, -187500.02, -187500.02, -187500.02, -187500.02, 0.000, 0.000, 0.000, 17:15:04.817
32, -187500.02, -186301.27, -187500.02, -187164.14, -187500.02, -187500.02, -187500.02, -187500.02, 0.000, 0.000, 0.000, 17:15:04.818
33, -187500.02, -186302.14, -187500.02, -187165.48, -187500.02, -187500.02, -187500.02, -187500.02, 0.000, 0.000, 0.000, 17:15:04.818
34, -187500.02, -186304.06, -187500.02, -187167.47, -187500.02, -187500.02, -187500.02, -187500.02, 0.000, 0.000, 0.000, 17:15:04.818
35, -187500.02, -186305.42, -187500.02, -187169.91, -187500.02, -187500.02, -187500.02, -187500.02, 0.000, 0.000, 0.000, 17:15:04.826
36, -187500.02, -186305.61, -187500.02, -187170.42, -187500.02, -187500.02, -187500.02, -187500.02, 0.000, 0.000, 0.000, 17:15:04.827
37, -187500.02, -186306.05, -187500.02, -187170.69, -187500.02, -187500.02, -187500.02, -187500.02, 0.000, 0.000, 0.000, 17:15:04.827
38, -187500.02, -186307.02, -187500.02, -187172.42, -187500.02, -187500.02, -187500.02, -187500.02, 0.000, 0.000, 0.000, 17:15:04.827
39, -187500.02, -186308.41, -187500.02, -187174.58, -187500.02, -187500.02, -187500.02, -187500.02, 0.000, 0.000, 0.000, 17:15:04.827
40, -187500.02, -186309.50, -187500.02, -187174.98, -187500.02, -187500.02, -187500.02, -187500.02, 0.000, 0.000, 0.000, 17:15:04.828
41, -187500.02, -186310.41, -187500.02, -187175.27, -187500.02, -187500.02, -187500.02, -187500.02, 0.000, 0.000, 0.000, 17:15:04.828
42, -187500.02, -186310.91, -187500.02, -187175.83, -187500.02, -187500.02, -187500.02, -187500.02, 0.000, 0.000, 0.000, 17:15:04.828
43, -187500.02, -186313.00, -187500.02, -187176.81, -187500.02, -187500.02, -187500.02, -187500.02, 0.000, 0.000, 0.000, 17:15:04.828
44, -187500.02, -186313.39, -187500.02, -187177.06, -187500.02, -187500.02, -187500.02, -187500.02, 0.000, 0.000, 0.000, 17:15:04.829
45, -187500.02, -186314.05, -187500.02, -187177.88, -187500.02, -187500.02, -187500.02, -187500.02, 0.000, 0.000, 0.000, 17:15:04.829
46, -187500.02, -186315.16, -187500.02, -187179.25, -187500.02, -187500.02, -187500.02, -187500.02, 0.000, 0.000, 0.000, 17:15:04.843
47, -187500.02, -186316.52, -187500.02, -187179.94, -187500.02, -187500.02, -187500.02, -187500.02, 0.000, 0.000, 0.000, 17:15:04.844
48, -187500.02, -186318.13, -187500.02, -187180.83, -187500.02, -187500.02, -187500.02, -187500.02, 0.082, -0.064, 0.992, 17:15:04.844
49, -187500.02, -186320.17, -187500.02, -187184.28, -187500.02, -187500.02, -187500.02, -187500.02, 0.000, 0.000, 0.000, 17:15:04.844
50, -187500.02, -186320.83, -187500.02, -187185.70, -187500.02, -187500.02, -187500.02, -187500.02, 0.000, 0.000, 0.000, 17:15:04.844
51, -187500.02, -186321.31, -187500.02, -187187.50, -187500.02, -187500.02, -187500.02, -187500.02, 0.000, 0.000, 0.000, 17:15:04.845
52, -187500.02, -186321.67, -187500.02, -187188.95, -187500.02, -187500.02, -187500.02, -187500.02, 0.000, 0.000, 0.000, 17:15:04.845
53, -187500.02, -186321.77, -187500.02, -187190.58, -187500.02, -187500.02, -187500.02, -187500.02, 0.000, 0.000, 0.000, 17:15:04.845
54, -187500.02, -186322.81, -187500.02, -187191.92, -187500.02, -187500.02, -187500.02, -187500.02, 0.000, 0.000, 0.000, 17:15:04.845
55, -187500.02, -186324.77, -187500.02, -187192.75, -187500.02, -187500.02, -187500.02, -187500.02, 0.000, 0.000, 0.000, 17:15:04.846
56, -187500.02, -186326.34, -187500.02, -187193.42, -187500.02, -187500.02, -187500.02, -187500.02, 0.000, 0.000, 0.000, 17:15:04.849
57, -187500.02, -186327.02, -187500.02, -187193.97, -187500.02, -187500.02, -187500.02, -187500.02, 0.000, 0.000, 0.000, 17:15:04.850
58, -187500.02, -186328.14, -187500.02, -187194.67, -187500.02, -187500.02, -187500.02, -187500.02, 0.000, 0.000, 0.000, 17:15:04.850
59, -187500.02, -186330.84, -187500.02, -187197.19, -187500.02, -187500.02, -187500.02, -187500.02, 0.000, 0.000, 0.000, 17:15:04.850
60, -187500.02, -186331.83, -187500.02, -187196.95, -187500.02, -187500.02, -187500.02, -187500.02, 0.000, 0.000, 0.000, 17:15:04.851
61, -187500.02, -186333.23, -187500.02, -187197.97, -187500.02, -187500.02, -187500.02, -187500.02, 0.000, 0.000, 0.000, 17:15:04.851
62, -187500.02, -186333.56, -187500.02, -187198.14, -187500.02, -187500.02, -187500.02, -187500.02, 0.000, 0.000, 0.000, 17:15:04.851
63, -187500.02, -186334.34, -187500.02, -187199.39, -187500.02, -187500.02, -187500.02, -187500.02, 0.000, 0.000, 0.000, 17:15:04.851
64, -187500.02, -186334.97, -187500.02, -187199.97, -187500.02, -187500.02, -187500.02, -187500.02, 0.000, 0.000, 0.000, 17:15:04.851
65, -187500.02, -186334.97, -187500.02, -187201.59, -187500.02, -187500.02, -187500.02, -187500.02, 0.000, 0.000, 0.000, 17:15:04.851
66, -187500.02, -186336.34, -187500.02, -187203.09, -187500.02, -187500.02, -187500.02, -187500.02, 0.000, 0.000, 0.000, 17:15:04.857
67, -187500.02, -186336.73, -187500.02, -187203.92, -187500.02, -187500.02, -187500.02, -187500.02, 0.000, 0.000, 0.000, 17:15:04.857
68, -187500.02, -186337.95, -187500.02, -187205.53, -187500.02, -187500.02, -187500.02, -187500.02, 0.000, 0.000, 0.000, 17:15:04.857
69, -187500.02, -186340.47, -187500.02, -187208.58, -187500.02, -187500.02, -187500.02, -187500.02, 0.000, 0.000, 0.000, 17:15:04.857
70, -187500.02, -186341.48, -187500.02, -187209.36, -187500.02, -187500.02, -187500.02, -187500.02, 0.000, 0.000, 0.000, 17:15:04.857
71, -187500.02, -186341.34, -187500.02, -187211.59, -187500.02, -187500.02, -187500.02, -187500.02, 0.000, 0.000, 0.000, 17:15:04.857
72, -187500.02, -186343.42, -187500.02, -187212.33, -187500.02, -187500.02, -187500.02, -187500.02, 0.000, 0.000, 0.000, 17:15:04.858
73, -187500.02, -186344.66, -187500.02, -187212.86, -187500.02, -187500.02, -187500.02, -187500.02, 0.000, 0.000, 0.000, 17:15:04.858
74, -187500.02, -186345.89, -187500.02, -187213.47, -187500.02, -187500.02, -187500.02, -187500.02, 0.000, 0.000, 0.000, 17:15:04.858
75, -187500.02, -186346.20, -187500.02, -187214.98, -187500.02, -187500.02, -187500.02, -187500.02, 0.000, 0.000, 0.000, 17:15:04.858
76, -187500.02, -186347.36, -187500.02, -187215.25, -187500.02, -187500.02, -187500.02, -187500.02, 0.000, 0.000, 0.000, 17:15:04.867
77, -187500.02, -186348.75, -187500.02, -187215.66, -187500.02, -187500.02, -187500.02, -187500.02, 0.000, 0.000, 0.000, 17:15:04.867
78, -187500.02, -186349.75, -187500.02, -187216.39, -187500.02, -187500.02, -187500.02, -187500.02, 0.000, 0.000, 0.000, 17:15:04.867
79, -187500.02, -186351.88, -187500.02, -187218.19, -187500.02, -187500.02, -187500.02, -187500.02, 0.000, 0.000, 0.000, 17:15:04.867
80, -187500.02, -186352.70, -187500.02, -187220.16, -187500.02, -187500.02, -187500.02, -187500.02, 0.000, 0.000, 0.000, 17:15:04.868
81, -187500.02, -186354.02, -187500.02, -187221.22, -187500.02, -187500.02, -187500.02, -187500.02, 0.000, 0.000, 0.000, 17:15:04.868
82, -187500.02, -186355.14, -187500.02, -187222.47, -187500.02, -187500.02, -187500.02, -187500.02, 0.000, 0.000, 0.000, 17:15:04.868
83, -187500.02, -186355.11, -187500.02, -187223.55, -187500.02, -187500.02, -187500.02, -187500.02, 0.000, 0.000, 0.000, 17:15:04.868
84, -187500.02, -186355.19, -187500.02, -187225.78, -187500.02, -187500.02, -187500.02, -187500.02, 0.000, 0.000, 0.000, 17:15:04.868
85, -187500.02, -186356.72, -187500.02, -187226.55, -187500.02, -187500.02, -187500.02, -187500.02, 0.000, 0.000, 0.000, 17:15:04.869
86, -187500.02, -186357.53, -187500.02, -187227.64, -187500.02, -187500.02, -187500.02, -187500.02, 0.088, -0.066, 0.994, 17:15:04.877
87, -187500.02, -186357.91, -187500.02, -187228.75, -187500.02, -187500.02, -187500.02, -187500.02, 0.000, 0.000, 0.000, 17:15:04.877
88, -187500.02, -186358.42, -187500.02, -187230.03, -187500.02, -187500.02, -187500.02, -187500.02, 0.000, 0.000, 0.000, 17:15:04.877
89, -187500.02, -186360.72, -187500.02, -187232.16, -187500.02, -187500.02, -187500.02, -187500.02, 0.000, 0.000, 0.000, 17:15:04.878
90, -187500.02, -186362.52, -187500.02, -187232.88, -187500.02, -187500.02, -187500.02, -187500.02, 0.000, 0.000, 0.000, 17:15:04.878
91, -187500.02, -186363.56, -187500.02, -187233.14, -187500.02, -187500.02, -187500.02, -187500.02, 0.000, 0.000, 0.000, 17:15:04.878
92, -187500.02, -186364.33, -187500.02, -187234.14, -187500.02, -187500.02, -187500.02, -187500.02, 0.000, 0.000, 0.000, 17:15:04.878
93, -187500.02, -186365.13, -187500.02, -187234.72, -187500.02, -187500.02, -187500.02, -187500.02, 0.000, 0.000, 0.000, 17:15:04.879
94, -187500.02, -186366.06, -187500.02, -187235.33, -187500.02, -187500.02, -187500.02, -187500.02, 0.000, 0.000, 0.000, 17:15:04.879
95, -187500.02, -186366.97, -187500.02, -187237.03, -187500.02, -187500.02, -187500.02, -187500.02, 0.000, 0.000, 0.000, 17:15:04.879
96, -187500.02, -186367.77, -187500.02, -187237.06, -187500.02, -187500.02, -187500.02, -187500.02, 0.000, 0.000, 0.000, 17:15:04.887
97, -187500.02, -186369.11, -187500.02, -187237.61, -187500.02, -187500.02, -187500.02, -187500.02, 0.000, 0.000, 0.000, 17:15:04.887
98, -187500.02, -186368.38, -187500.02, -187238.02, -187500.02, -187500.02, -187500.02, -187500.02, 0.000, 0.000, 0.000, 17:15:04.887
99, -187500.02, -186370.31, -187500.02, -187240.56, -187500.02, -187500.02, -187500.02, -187500.02, 0.000, 0.000, 0.000, 17:15:04.887
100, -187500.02, -186372.44, -187500.02, -187242.95, -187500.02, -187500.02, -187500.02, -187500.02, 0.000, 0.000, 0.000, 17:15:04.887
101, -187500.02, -186373.91, -187500.02, -187243.34, -187500.02, -187500.02, -187500.02, -187500.02, 0.000, 0.000, 0.000, 17:15:04.888
102, -187500.02, -186374.89, -187500.02, -187244.36, -187500.02, -187500.02, -187500.02, -187500.02, 0.000, 0.000, 0.000, 17:15:04.888
103, -187500.02, -186374.81, -187500.02, -187246.34, -187500.02, -187500.02, -187500.02, -187500.02, 0.000, 0.000, 0.000, 17:15:04.888
104, -187500.02, -186375.67, -187500.02, -187248.06, -187500.02, -187500.02, -187500.02, -187500.02, 0.000, 0.000, 0.000, 17:15:04.888
105, -187500.02, -186377.58, -187500.02, -187249.72, -187500.02, -187500.02, -187500.02, -187500.02, 0.000, 0.000, 0.000, 17:15:04.888
106, -187500.02, -186378.55, -187500.02, -187250.55, -187500.02, -187500.02, -187500.02, -187500.02, 0.000, 0.000, 0.000, 17:15:04.897
107, -187500.02, -186379.23, -187500.02, -187250.03, -187500.02, -187500.02, -187500.02, -187500.02, 0.000, 0.000, 0.000, 17:15:04.897
108, -187500.02, -186379.92, -187500.02, -187249.92, -187500.02, -187500.02, -187500.02, -187500.02, 0.000, 0.000, 0.000, 17:15:04.898
109, -187500.02, -186382.00, -187500.02, -187251.59, -187500.02, -187500.02, -187500.02, -187500.02, 0.000, 0.000, 0.000, 17:15:04.898
110, -187500.02, -186383.75, -187500.02, -187253.14, -187500.02, -187500.02, -187500.02, -187500.02, 0.000, 0.000, 0.000, 17:15:04.898
111, -187500.02, -186385.33, -187500.02, -187254.95, -187500.02, -187500.02, -187500.02, -187500.02, 0.000, 0.000, 0.000, 17:15:04.898
112, -187500.02, -186386.14, -187500.02, -187255.58, -187500.02, -187500.02, -187500.02, -187500.02, 0.000, 0.000, 0.000, 17:15:04.898
113, -187500.02, -186387.22, -187500.02, -187255.52, -187500.02, -187500.02, -187500.02, -187500.02, 0.000, 0.000, 0.000, 17:15:04.898
114, -187500.02, -186388.08, -187500.02, -187256.36, -187500.02, -187500.02, -187500.02, -187500.02, 0.000, 0.000, 0.000, 17:15:04.899
115, -187500.02, -186389.09, -187500.02, -187257.80, -187500.02, -187500.02, -187500.02, -187500.02, 0.000, 0.000, 0.000, 17:15:04.899
116, -187500.02, -186389.77, -187500.02, -187258.94, -187500.02, -187500.02, -187500.02, -187500.02, 0.000, 0.000, 0.000, 17:15:04.907
117, -187500.02, -186391.33, -187500.02, -187261.36, -187500.02, -187500.02, -187500.02, -187500.02, 0.000, 0.000, 0.000, 17:15:04.907
118, -187500.02, -186391.89, -187500.02, -187263.16, -187500.02, -187500.02, -187500.02, -187500.02, 0.000, 0.000, 0.000, 17:15:04.907
119, -187500.02, -186393.06, -187500.02, -187265.02, -187500.02, -187500.02, -187500.02, -187500.02, 0.000, 0.000, 0.000, 17:15:04.907
120, -187500.02, -186394.45, -187500.02, -187266.70, -187500.02, -187500.02, -187500.02, -187500.02, 0.000, 0.000, 0.000, 17:15:04.907
121, -187500.02, -186395.64, -187500.02, -187267.95, -187500.02, -187500.02, -187500.02, -187500.02, 0.000, 0.000, 0.000, 17:15:04.907
122, -187500.02, -186396.38, -187500.02, -187269.22, -187500.02, -187500.02, -187500.02, -187500.02, 0.000, 0.000, 0.000, 17:15:04.908
123, -187500.02, -186397.14, -187500.02, -187270.33, -187500.02, -187500.02, -187500.02, -187500.02, 0.000, 0.000, 0.000, 17:15:04.908
124, -187500.02, -186398.70, -187500.02, -187270.42, -187500.02, -187500.02, -187500.02, -187500.02, 0.090, -0.062, 0.994, 17:15:04.908
125, -187500.02, -186399.91, -187500.02, -187271.38, -187500.02, -187500.02, -187500.02, -187500.02, 0.000, 0.000, 0.000, 17:15:04.908
126, -187500.02, -186400.95, -187500.02, -187270.98, -187500.02, -187500.02, -187500.02, -187500.02, 0.000, 0.000, 0.000, 17:15:04.917
127, -187500.02, -186401.14, -187500.02, -187271.20, -187500.02, -187500.02, -187500.02, -187500.02, 0.000, 0.000, 0.000, 17:15:04.917
128, -187500.02, -186402.09, -187500.02, -187272.28, -187500.02, -187500.02, -187500.02, -187500.02, 0.000, 0.000, 0.000, 17:15:04.917
129, -187500.02, -186404.36, -187500.02, -187274.98, -187500.02, -187500.02, -187500.02, -187500.02, 0.000, 0.000, 0.000, 17:15:04.917
130, -187500.02, -186405.20, -187500.02, -187275.83, -187500.02, -187500.02, -187500.02, -187500.02, 0.000, 0.000, 0.000, 17:15:04.917
131, -187500.02, -186406.72, -187500.02, -187276.75, -187500.02, -187500.02, -187500.02, -187500.02, 0.000, 0.000, 0.000, 17:15:04.917
132, -187500.02, -186407.97, -187500.02, -187278.58, -187500.02, -187500.02, -187500.02, -187500.02, 0.000, 0.000, 0.000, 17:15:04.918
133, -187500.02, -186408.64, -187500.02, -187279.98, -187500.02, -187500.02, -187500.02, -187500.02, 0.000, 0.000, 0.000, 17:15:04.918
134, -187500.02, -186409.55, -187500.02, -187282.56, -187500.02, -187500.02, -187500.02, -187500.02, 0.000, 0.000, 0.000, 17:15:04.918
135, -187500.02, -186410.75, -187500.02, -187284.08, -187500.02, -187500.02, -187500.02, -187500.02, 0.000, 0.000, 0.000, 17:15:04.918
136, -187500.02, -186410.70, -187500.02, -187285.44, -187500.02, -187500.02, -187500.02, -187500.02, 0.000, 0.000, 0.000, 17:15:04.927
137, -187500.02, -186411.19, -187500.02, -187286.22, -187500.02, -187500.02, -187500.02, -187500.02, 0.000, 0.000, 0.000, 17:15:04.927
138, -187500.02, -186413.13, -187500.02, -187286.73, -187500.02, -187500.02, -187500.02, -187500.02, 0.000, 0.000, 0.000, 17:15:04.928
139, -187500.02, -186414.28, -187500.02, -187288.48, -187500.02, -187500.02, -187500.02, -187500.02, 0.000, 0.000, 0.000, 17:15:04.928
140, -187500.02, -186415.28, -187500.02, -187290.25, -187500.02, -187500.02, -187500.02, -187500.02, 0.000, 0.000, 0.000, 17:15:04.928
141, -187500.02, -186415.58, -187500.02, -187290.77, -187500.02, -187500.02, -187500.02, -187500.02, 0.000, 0.000, 0.000, 17:15:04.929
142, -187500.02, -186416.63, -187500.02, -187291.36, -187500.02, -187500.02, -187500.02, -187500.02, 0.000, 0.000, 0.000, 17:15:04.929
143, -187500.02, -186416.94, -187500.02, -187291.45, -187500.02, -187500.02, -187500.02, -187500.02, 0.000, 0.000, 0.000, 17:15:04.929
144, -187500.02, -186418.39, -187500.02, -187292.13, -187500.02, -187500.02, -187500.02, -187500.02, 0.000, 0.000, 0.000, 17:15:04.929
145, -187500.02, -186420.03, -187500.02, -187292.22, -187500.02, -187500.02, -187500.02, -187500.02, 0.000, 0.000, 0.000, 17:15:04.929
146, -187500.02, -186421.39, -187500.02, -187293.11, -187500.02, -187500.02, -187500.02, -187500.02, 0.000, 0.000, 0.000, 17:15:04.943
147, -187500.02, -186422.53, -187500.02, -187293.58, -187500.02, -187500.02, -187500.02, -187500.02, 0.000, 0.000, 0.000, 17:15:04.944
148, -187500.02, -186422.50, -187500.02, -187293.58, -187500.02, -187500.02, -187500.02, -187500.02, 0.000, 0.000, 0.000, 17:15:04.944
149, -187500.02, -186423.69, -187500.02, -187295.41, -187500.02, -187500.02, -187500.02, -187500.02, 0.000, 0.000, 0.000, 17:15:04.944
150, -187500.02, -186426.19, -187500.02, -187298.81, -187500.02, -187500.02, -187500.02, -187500.02, 0.000, 0.000, 0.000, 17:15:04.945
151, -187500.02, -186426.48, -187500.02, -187299.75, -187500.02, -187500.02, -187500.02, -187500.02, 0.000, 0.000, 0.000, 17:15:04.945
152, -187500.02, -186427.53, -187500.02, -187301.36, -187500.02, -187500.02, -187500.02, -187500.02, 0.000, 0.000, 0.000, 17:15:04.945
153, -187500.02, -186427.69, -187500.02, -187303.00, -187500.02, -187500.02, -187500.02, -187500.02, 0.000, 0.000, 0.000, 17:15:04.945
154, -187500.02, -186428.97, -187500.02, -187303.41, -187500.02, -187500.02, -187500.02, -187500.02, 0.000, 0.000, 0.000, 17:15:04.945
155, -187500.02, -186430.38, -187500.02, -187304.73, -187500.02, -187500.02, -187500.02, -187500.02, 0.000, 0.000, 0.000, 17:15:04.946
156, -187500.02, -186430.34, -187500.02, -187306.16, -187500.02, -187500.02, -187500.02, -187500.02, 0.000, 0.000, 0.000, 17:15:04.950
157, -187500.02, -186431.06, -187500.02, -187306.16, -187500.02, -187500.02, -187500.02, -187500.02, 0.000, 0.000, 0.000, 17:15:04.950
158, -187500.02, -186430.95, -187500.02, -187306.66, -187500.02, -187500.02, -187500.02, -187500.02, 0.000, 0.000, 0.000, 17:15:04.950
159, -187500.02, -186432.30, -187500.02, -187308.70, -187500.02, -187500.02, -187500.02, -187500.02, 0.000, 0.000, 0.000, 17:15:04.950
160, -187500.02, -186436.14, -187500.02, -187310.36, -187500.02, -187500.02, -187500.02, -187500.02, 0.000, 0.000, 0.000, 17:15:04.951
161, -187500.02, -186437.48, -187500.02, -187310.11, -187500.02, -187500.02, -187500.02, -187500.02, 0.000, 0.000, 0.000, 17:15:04.951
162, -187500.02, -186438.22, -187500.02, -187310.81, -187500.02, -187500.02, -187500.02, -187500.02, 0.090, -0.060, 0.990, 17:15:04.951
163, -187500.02, -186440.39, -187500.02, -187311.52, -187500.02, -187500.02, -187500.02, -187500.02, 0.000, 0.000, 0.000, 17:15:04.951
164, -187500.02, -186440.61, -187500.02, -187312.55, -187500.02, -187500.02, -187500.02, -187500.02, 0.000, 0.000, 0.000, 17:15:04.951
165, -187500.02, -186441.44, -187500.02, -187314.47, -187500.02, -187500.02, -187500.02, -187500.02, 0.000, 0.000, 0.000, 17:15:04.952
166, -187500.02, -186442.13, -187500.02, -187315.81, -187500.02, -187500.02, -187500.02, -187500.02, 0.000, 0.000, 0.000, 17:15:04.959
167, -187500.02, -186442.73, -187500.02, -187316.83, -187500.02, -187500.02, -187500.02, -187500.02, 0.000, 0.000, 0.000, 17:15:04.960
168, -187500.02, -186443.16, -187500.02, -187317.88, -187500.02, -187500.02, -187500.02, -187500.02, 0.000, 0.000, 0.000, 17:15:04.960
169, -187500.02, -186443.73, -187500.02, -187319.92, -187500.02, -187500.02, -187500.02, -187500.02, 0.000, 0.000, 0.000, 17:15:04.960
170, -187500.02, -186445.39, -187500.02, -187322.92, -187500.02, -187500.02, -187500.02, -187500.02, 0.000, 0.000, 0.000, 17:15:04.961
171, -187500.02, -186445.64, -187500.02, -187323.50, -187500.02, -187500.02, -187500.02, -187500.02, 0.000, 0.000, 0.000, 17:15:04.961
172, -187500.02, -186446.88, -187500.02, -187323.23, -187500.02, -187500.02, -187500.02, -187500.02, 0.000, 0.000, 0.000, 17:15:04.961
173, -187500.02, -186448.03, -187500.02, -187324.73, -187500.02, -187500.02, -187500.02, -187500.02, 0.000, 0.000, 0.000, 17:15:04.961
174, -187500.02, -186448.19, -187500.02, -187325.66, -187500.02, -187500.02, -187500.02, -187500.02, 0.000, 0.000, 0.000, 17:15:04.962
175, -187500.02, -186449.53, -187500.02, -187326.08, -187500.02, -187500.02, -187500.02, -187500.02, 0.000, 0.000, 0.000, 17:15:04.962
176, -187500.02, -186450.17, -187500.02, -187326.55, -187500.02, -187500.02, -187500.02, -187500.02, 0.000, 0.000, 0.000, 17:15:04.967
177, -187500.02, -186452.08, -187500.02, -187326.92, -187500.02, -187500.02, -187500.02, -187500.02, 0.000, 0.000, 0.000, 17:15:04.968
178, -187500.02, -186453.16, -187500.02, -187327.70, -187500.02, -187500.02, -187500.02, -187500.02, 0.000, 0.000, 0.000, 17:15:04.968
179, -187500.02, -186454.98, -187500.02, -187330.13, -187500.02, -187500.02, -187500.02, -187500.02, 0.000, 0.000, 0.000, 17:15:04.969
180, -187500.02, -186460.14, -187500.02, -187334.88, -187500.02, -187500.02, -187500.02, -187500.02, 0.000, 0.000, 0.000, 17:15:04.969
181, -187500.02, -186460.70, -187500.02, -187336.42, -187500.02, -187500.02, -187500.02, -187500.02, 0.000, 0.000, 0.000, 17:15:04.969
182, -187500.02, -186461.06, -187500.02, -187337.66, -187500.02, -187500.02, -187500.02, -187500.02, 0.000, 0.000, 0.000, 17:15:04.969
183, -187500.02, -186463.41, -187500.02, -187337.88, -187500.02, -187500.02, -187500.02, -187500.02, 0.000, 0.000, 0.000, 17:15:04.969
184, -187500.02, -186464.80, -187500.02, -187339.16, -187500.02, -187500.02, -187500.02, -187500.02, 0.000, 0.000, 0.000, 17:15:04.969
185, -187500.02, -186464.80, -187500.02, -187341.34, -187500.02, -187500.02, -187500.02, -187500.02, 0.000, 0.000, 0.000, 17:15:04.969
186, -187500.02, -186465.22, -187500.02, -187343.17, -187500.02, -187500.02, -187500.02, -187500.02, 0.000, 0.000, 0.000, 17:15:04.978
187, -187500.02, -186465.88, -187500.02, -187344.66, -187500.02, -187500.02, -187500.02, -187500.02, 0.000, 0.000, 0.000, 17:15:04.978
188, -187500.02, -186467.41, -187500.02, -187344.22, -187500.02, -187500.02, -187500.02, -187500.02, 0.000, 0.000, 0.000, 17:15:04.978
189, -187500.02, -186468.38, -187500.02, -187345.13, -187500.02, -187500.02, -187500.02, -187500.02, 0.000, 0.000, 0.000, 17:15:04.978
190, -187500.02, -186470.41, -187500.02, -187348.09, -187500.02, -187500.02, -187500.02, -187500.02, 0.000, 0.000, 0.000, 17:15:04.978
191, -187500.02, -186470.83, -187500.02, -187348.72, -187500.02, -187500.02, -187500.02, -187500.02, 0.000, 0.000, 0.000, 17:15:04.979
192, -187500.02, -186471.59, -187500.02, -187348.05, -187500.02, -187500.02, -187500.02, -187500.02, 0.000, 0.000, 0.000, 17:15:04.979
193, -187500.02, -186472.95, -187500.02, -187348.16, -187500.02, -187500.02, -187500.02, -187500.02, 0.000, 0.000, 0.000, 17:15:04.979
194, -187500.02, -186473.92, -187500.02, -187349.45, -187500.02, -187500.02, -187500.02, -187500.02, 0.000, 0.000, 0.000, 17:15:04.979
195, -187500.02, -186474.97, -187500.02, -187349.98, -187500.02, -187500.02, -187500.02, -187500.02, 0.000, 0.000, 0.000, 17:15:04.980
196, -187500.02, -186475.33, -187500.02, -187350.77, -187500.02, -187500.02, -187500.02, -187500.02, 0.000, 0.000, 0.000, 17:15:04.980
197, -187500.02, -186476.42, -187500.02, -187351.64, -187500.02, -187500.02, -187500.02, -187500.02, 0.000, 0.000, 0.000, 17:15:04.988
198, -187500.02, -186477.05, -187500.02, -187353.08, -187500.02, -187500.02, -187500.02, -187500.02, 0.000, 0.000, 0.000, 17:15:04.988
199, -187500.02, -186477.38, -187500.02, -187354.03, -187500.02, -187500.02, -187500.02, -187500.02, 0.000, 0.000, 0.000, 17:15:04.988
200, -187500.02, -186479.23, -187500.02, -187357.75, -187500.02, -187500.02, -187500.02, -187500.02, 0.000, 0.000, 0.000, 17:15:04.988
201, -187500.02, -186480.80, -187500.02, -187359.67, -187500.02, -187500.02, -187500.02, -187500.02, 0.088, -0.060, 0.990, 17:15:04.988
202, -187500.02, -186482.81, -187500.02, -187360.23, -187500.02, -187500.02, -187500.02, -187500.02, 0.000, 0.000, 0.000, 17:15:04.988
203, -187500.02, -186482.70, -187500.02, -187361.75, -187500.02, -187500.02, -187500.02, -187500.02, 0.000, 0.000, 0.000, 17:15:04.989
204, -187500.02, -186482.77, -187500.02, -187363.67, -187500.02, -187500.02, -187500.02, -187500.02, 0.000, 0.000, 0.000, 17:15:04.989
205, -187500.02, -186483.55, -187500.02, -187364.09, -187500.02, -187500.02, -187500.02, -187500.02, 0.000, 0.000, 0.000, 17:15:04.989
206, -187500.02, -186484.53, -187500.02, -187364.20, -187500.02, -187500.02, -187500.02, -187500.02, 0.000, 0.000, 0.000, 17:15:04.989
207, -187500.02, -186485.78, -187500.02, -187364.75, -187500.02, -187500.02, -187500.02, -187500.02, 0.000, 0.000, 0.000, 17:15:04.999
208, -187500.02, -186487.14, -187500.02, -187364.36, -187500.02, -187500.02, -187500.02, -187500.02, 0.000, 0.000, 0.000, 17:15:04.999
209, -187500.02, -186488.13, -187500.02, -187365.28, -187500.02, -187500.02, -187500.02, -187500.02, 0.000, 0.000, 0.000, 17:15:04.999
210, -187500.02, -186491.19, -187500.02, -187367.47, -187500.02, -187500.02, -187500.02, -187500.02, 0.000, 0.000, 0.000, 17:15:04.999
211, -187500.02, -186492.64, -187500.02, -187368.14, -187500.02, -187500.02, -187500.02, -187500.02, 0.000, 0.000, 0.000, 17:15:05.000
212, -187500.02, -186493.16, -187500.02, -187368.67, -187500.02, -187500.02, -187500.02, -187500.02, 0.000, 0.000, 0.000, 17:15:05.000
213, -187500.02, -186493.70, -187500.02, -187369.27, -187500.02, -187500.02, -187500.02, -187500.02, 0.000, 0.000, 0.000, 17:15:05.000
214, -187500.02, -186494.23, -187500.02, -187370.27, -187500.02, -187500.02, -187500.02, -187500.02, 0.000, 0.000, 0.000, 17:15:05.000
215, -187500.02, -186495.28, -187500.02, -187371.00, -187500.02, -187500.02, -187500.02, -187500.02, 0.000, 0.000, 0.000, 17:15:05.001
216, -187500.02, -186496.69, -187500.02, -187372.61, -187500.02, -187500.02, -187500.02, -187500.02, 0.000, 0.000, 0.000, 17:15:05.001
217, -187500.02, -186497.34, -187500.02, -187374.05, -187500.02, -187500.02, -187500.02, -187500.02, 0.000, 0.000, 0.000, 17:15:05.008
218, -187500.02, -186498.03, -187500.02, -187376.50, -187500.02, -187500.02, -187500.02, -187500.02, 0.000, 0.000, 0.000, 17:15:05.008
219, -187500.02, -186498.97, -187500.02, -187377.38, -187500.02, -187500.02, -187500.02, -187500.02, 0.000, 0.000, 0.000, 17:15:05.008
220, -187500.02, -186500.52, -187500.02, -187380.19, -187500.02, -187500.02, -187500.02, -187500.02, 0.000, 0.000, 0.000, 17:15:05.008
221, -187500.02, -186501.91, -187500.02, -187381.70, -187500.02, -187500.02, -187500.02, -187500.02, 0.000, 0.000, 0.000, 17:15:05.008
222, -187500.02, -186503.19, -187500.02, -187382.63, -187500.02, -187500.02, -187500.02, -187500.02, 0.000, 0.000, 0.000, 17:15:05.008
223, -187500.02, -186503.59, -187500.02, -187383.39, -187500.02, -187500.02, -187500.02, -187500.02, 0.000, 0.000, 0.000, 17:15:05.009
224, -187500.02, -186503.42, -187500.02, -187384.33, -187500.02, -187500.02, -187500.02, -187500.02, 0.000, 0.000, 0.000, 17:15:05.009
225, -187500.02, -186504.45, -187500.02, -187384.81, -187500.02, -187500.02, -187500.02, -187500.02, 0.000, 0.000, 0.000, 17:15:05.009
226, -187500.02, -186506.34, -187500.02, -187384.59, -187500.02, -187500.02, -187500.02, -187500.02, 0.000, 0.000, 0.000, 17:15:05.009
227, -187500.02, -186506.97, -187500.02, -187385.03, -187500.02, -187500.02, -187500.02, -187500.02, 0.000, 0.000, 0.000, 17:15:05.017
228, -187500.02, -186507.84, -187500.02, -187385.44, -187500.02, -187500.02, -187500.02, -187500.02, 0.000, 0.000, 0.000, 17:15:05.018
229, -187500.02, -186508.83, -187500.02, -187385.86, -187500.02, -187500.02, -187500.02, -187500.02, 0.000, 0.000, 0.000, 17:15:05.018
230, -187500.02, -186511.48, -187500.02, -187388.14, -187500.02, -187500.02, -187500.02, -187500.02, 0.000, 0.000, 0.000, 17:15:05.018
231, -187500.02, -186512.16, -187500.02, -187390.06, -187500.02, -187500.02, -187500.02, -187500.02, 0.000, 0.000, 0.000, 17:15:05.018
232, -187500.02, -186512.78, -187500.02, -187390.81, -187500.02, -187500.02, -187500.02, -187500.02, 0.000, 0.000, 0.000, 17:15:05.019
233, -187500.02, -186513.52, -187500.02, -187392.53, -187500.02, -187500.02, -187500.02, -187500.02, 0.000, 0.000, 0.000, 17:15:05.019
234, -187500.02, -186514.73, -187500.02, -187393.94, -187500.02, -187500.02, -187500.02, -187500.02, 0.000, 0.000, 0.000, 17:15:05.019
235, -187500.02, -186514.92, -187500.02, -187395.36, -187500.02, -187500.02, -187500.02, -187500.02, 0.000, 0.000, 0.000, 17:15:05.019
236, -187500.02, -186516.00, -187500.02, -187396.64, -187500.02, -187500.02, -187500.02, -187500.02, 0.000, 0.000, 0.000, 17:15:05.019
237, -187500.02, -186516.27, -187500.02, -187397.63, -187500.02, -187500.02, -187500.02, -187500.02, 0.000, 0.000, 0.000, 17:15:05.028
238, -187500.02, -186517.33, -187500.02, -187398.61, -187500.02, -187500.02, -187500.02, -187500.02, 0.000, 0.000, 0.000, 17:15:05.029
239, -187500.02, -186518.33, -187500.02, -187400.28, -187500.02, -187500.02, -187500.02, -187500.02, 0.090, -0.062, 0.990, 17:15:05.029
240, -187500.02, -186520.19, -187500.02, -187401.52, -187500.02, -187500.02, -187500.02, -187500.02, 0.000, 0.000, 0.000, 17:15:05.030
241, -187500.02, -186520.47, -187500.02, -187402.70, -187500.02, -187500.02, -187500.02, -187500.02, 0.000, 0.000, 0.000, 17:15:05.030
242, -187500.02, -186520.67, -187500.02, -187402.98, -187500.02, -187500.02, -187500.02, -187500.02, 0.000, 0.000, 0.000, 17:15:05.030
243, -187500.02, -186521.69, -187500.02, -187403.33, -187500.02, -187500.02, -187500.02, -187500.02, 0.000, 0.000, 0.000, 17:15:05.030
244, -187500.02, -186523.88, -187500.02, -187404.78, -187500.02, -187500.02, -187500.02, -187500.02, 0.000, 0.000, 0.000, 17:15:05.030
245, -187500.02, -186524.58, -187500.02, -187405.94, -187500.02, -187500.02, -187500.02, -187500.02, 0.000, 0.000, 0.000, 17:15:05.031
246, -187500.02, -186525.25, -187500.02, -187406.89, -187500.02, -187500.02, -187500.02, -187500.02, 0.000, 0.000, 0.000, 17:15:05.038
247, -187500.02, -186526.06, -187500.02, -187408.31, -187500.02, -187500.02, -187500.02, -187500.02, 0.000, 0.000, 0.000, 17:15:05.038
248, -187500.02, -186527.17, -187500.02, -187409.05, -187500.02, -187500.02, -187500.02, -187500.02, 0.000, 0.000, 0.000, 17:15:05.038
249, -187500.02, -186529.19, -187500.02, -187410.94, -187500.02, -187500.02, -187500.02, -187500.02, 0.000, 0.000, 0.000, 17:15:05.038
250, -187500.02, -186531.36, -187500.02, -187412.67, -187500.02, -187500.02, -187500.02, -187500.02, 0.000, 0.000, 0.000, 17:15:05.038
251, -187500.02, -186532.16, -187500.02, -187413.92, -187500.02, -187500.02, -187500.02, -187500.02, 0.000, 0.000, 0.000, 17:15:05.039
252, -187500.02, -186531.50, -187500.02, -187414.55, -187500.02, -187500.02, -187500.02, -187500.02, 0.000, 0.000, 0.000, 17:15:05.039
253, -187500.02, -186533.42, -187500.02, -187416.67, -187500.02, -187500.02, -187500.02, -187500.02, 0.000, 0.000, 0.000, 17:15:05.039
254, -187500.02, -186535.00, -187500.02, -187417.73, -187500.02, -187500.02, -187500.02, -187500.02, 0.000, 0.000, 0.000, 17:15:05.039
255, -187500.02, -186535.63, -187500.02, -187418.61, -187500.02, -187500.02, -187500.02, -187500.02, 0.000, 0.000, 0.000, 17:15:05.040
0, -187500.02, -186536.88, -187500.02, -187419.06, -187500.02, -187500.02, -187500.02, -187500.02, 0.000, 0.000, 0.000, 17:15:05.048
1, -187500.02, -186537.80, -187500.02, -187419.95, -187500.02, -187500.02, -187500.02, -187500.02, 0.000, 0.000, 0.000, 17:15:05.048
2, -187500.02, -186538.52, -187500.02, -187420.95, -187500.02, -187500.02, -187500.02, -187500.02, 0.000, 0.000, 0.000, 17:15:05.048
3, -187500.02, -186540.09, -187500.02, -187422.19, -187500.02, -187500.02, -187500.02, -187500.02, 0.000, 0.000, 0.000, 17:15:05.048
4, -187500.02, -186540.66, -187500.02, -187422.56, -187500.02, -187500.02, -187500.02, -187500.02, 0.000, 0.000, 0.000, 17:15:05.048
5, -187500.02, -186542.38, -187500.02, -187422.36, -187500.02, -187500.02, -187500.02, -187500.02, 0.000, 0.000, 0.000, 17:15:05.048
6, -187500.02, -186543.94, -187500.02, -187422.61, -187500.02, -187500.02, -187500.02, -187500.02, 0.000, 0.000, 0.000, 17:15:05.049
7, -187500.02, -186545.11, -187500.02, -187423.27, -187500.02, -187500.02, -187500.02, -187500.02, 0.000, 0.000, 0.000, 17:15:05.049
8, -187500.02, -186546.13, -187500.02, -187426.77, -187500.02, -187500.02, -187500.02, -187500.02, 0.000, 0.000, 0.000, 17:15:05.049
9, -187500.02, -186545.86, -187500.02, -187428.06, -187500.02, -187500.02, -187500.02, -187500.02, 0.000, 0.000, 0.000, 17:15:05.059
10, -187500.02, -186546.48, -187500.02, -187429.50, -187500.02, -187500.02, -187500.02, -187500.02, 0.000, 0.000, 0.000, 17:15:05.059
11, -187500.02, -186546.47, -187500.02, -187430.92, -187500.02, -187500.02, -187500.02, -187500.02, 0.000, 0.000, 0.000, 17:15:05.059
12, -187500.02, -186549.34, -187500.02, -187433.77, -187500.02, -187500.02, -187500.02, -187500.02, 0.000, 0.000, 0.000, 17:15:05.059
13, -187500.02, -186551.16, -187500.02, -187434.44, -187500.02, -187500.02, -187500.02, -187500.02, 0.000, 0.000, 0.000, 17:15:05.060
14, -187500.02, -186552.23, -187500.02, -187435.42, -187500.02, -187500.02, -187500.02, -187500.02, 0.000, 0.000, 0.000, 17:15:05.060
15, -187500.02, -186552.86, -187500.02, -187436.33, -187500.02, -187500.02, -187500.02, -187500.02, 0.000, 0.000, 0.000, 17:15:05.060
16, -187500.02, -186553.67, -187500.02, -187437.39, -187500.02, -187500.02, -187500.02, -187500.02, 0.000, 0.000, 0.000, 17:15:05.060
17, -187500.02, -186554.89, -187500.02, -187438.19, -187500.02, -187500.02, -187500.02, -187500.02, 0.000, 0.000, 0.000, 17:15:05.060
18, -187500.02, -186554.97, -187500.02, -187438.30, -187500.02, -187500.02, -187500.02, -187500.02, 0.000, 0.000, 0.000, 17:15:05.061
19, -187500.02, -186556.08, -187500.02, -187437.97, -187500.02, -187500.02, -187500.02, -187500.02, 0.092, -0.058, 0.994, 17:15:05.069
20, -187500.02, -186557.67, -187500.02, -187438.75, -187500.02, -187500.02, -187500.02, -187500.02, 0.000, 0.000, 0.000, 17:15:05.070
21, -187500.02, -186558.42, -187500.02, -187439.08, -187500.02, -187500.02, -187500.02, -187500.02, 0.000, 0.000, 0.000, 17:15:05.070
22, -187500.02, -186558.88, -187500.02, -187440.73, -187500.02, -187500.02, -187500.02, -187500.02, 0.000, 0.000, 0.000, 17:15:05.070
23, -187500.02, -186559.92, -187500.02, -187442.42, -187500.02, -187500.02, -187500.02, -187500.02, 0.000, 0.000, 0.000, 17:15:05.070
24, -187500.02, -186561.58, -187500.02, -187444.11, -187500.02, -187500.02, -187500.02, -187500.02, 0.000, 0.000, 0.000, 17:15:05.071
25, -187500.02, -186562.25, -187500.02, -187446.08, -187500.02, -187500.02, -187500.02, -187500.02, 0.000, 0.000, 0.000, 17:15:05.071
26, -187500.02, -186563.91, -187500.02, -187446.81, -187500.02, -187500.02, -187500.02, -187500.02, 0.000, 0.000, 0.000, 17:15:05.071
27, -187500.02, -186564.91, -187500.02, -187447.80, -187500.02, -187500.02, -187500.02, -187500.02, 0.000, 0.000, 0.000, 17:15:05.071
28, -187500.02, -186565.13, -187500.02, -187449.81, -187500.02, -187500.02, -187500.02, -187500.02, 0.000, 0.000, 0.000, 17:15:05.071
29, -187500.02, -186565.73, -187500.02, -187450.47, -187500.02, -187500.02, -187500.02, -187500.02, 0.000, 0.000, 0.000, 17:15:05.078
30, -187500.02, -186566.30, -187500.02, -187451.56, -187500.02, -187500.02, -187500.02, -187500.02, 0.000, 0.000, 0.000, 17:15:05.078
31, -187500.02, -186566.86, -187500.02, -187452.39, -187500.02, -187500.02, -187500.02, -187500.02, 0.000, 0.000, 0.000, 17:15:05.078
32, -187500.02, -186568.81, -187500.02, -187454.59, -187500.02, -187500.02, -187500.02, -187500.02, 0.000, 0.000, 0.000, 17:15:05.078
33, -187500.02, -186571.25, -187500.02, -187456.11, -187500.02, -187500.02, -187500.02, -187500.02, 0.000, 0.000, 0.000, 17:15:05.078
34, -187500.02, -186572.59, -187500.02, -187456.98, -187500.02, -187500.02, -187500.02, -187500.02, 0.000, 0.000, 0.000, 17:15:05.078
35, -187500.02, -186572.55, -187500.02, -187457.33, -187500.02, -187500.02, -187500.02, -187500.02, 0.000, 0.000, 0.000, 17:15:05.079
36, -187500.02, -186573.36, -187500.02, -187458.31, -187500.02, -187500.02, -187500.02, -187500.02, 0.000, 0.000, 0.000, 17:15:05.079
37, -187500.02, -186574.16, -187500.02, -187459.42, -187500.02, -187500.02, -187500.02, -187500.02, 0.000, 0.000, 0.000, 17:15:05.079
38, -187500.02, -186575.23, -187500.02, -187459.97, -187500.02, -187500.02, -187500.02, -187500.02, 0.000, 0.000, 0.000, 17:15:05.079
39, -187500.02, -186577.02, -187500.02, -187459.94, -187500.02, -187500.02, -187500.02, -187500.02, 0.000, 0.000, 0.000, 17:15:05.088
40, -187500.02, -186577.14, -187500.02, -187460.59, -187500.02, -187500.02, -187500.02, -187500.02, 0.000, 0.000, 0.000, 17:15:05.088
41, -187500.02, -186576.80, -187500.02, -187462.05, -187500.02, -187500.02, -187500.02, -187500.02, 0.000, 0.000, 0.000, 17:15:05.088
42, -187500.02, -186578.91, -187500.02, -187464.72, -187500.02, -187500.02, -187500.02, -187500.02, 0.000, 0.000, 0.000, 17:15:05.088
43, -187500.02, -186580.11, -187500.02, -187467.58, -187500.02, -187500.02, -187500.02, -187500.02, 0.000, 0.000, 0.000, 17:15:05.088
44, -187500.02, -186581.36, -187500.02, -187469.19, -187500.02, -187500.02, -187500.02, -187500.02, 0.000, 0.000, 0.000, 17:15:05.089
45, -187500.02, -186581.25, -187500.02, -187470.95, -187500.02, -187500.02, -187500.02, -187500.02, 0.000, 0.000, 0.000, 17:15:05.089
46, -187500.02, -186581.69, -187500.02, -187471.05, -187500.02, -187500.02, -187500.02, -187500.02, 0.000, 0.000, 0.000, 17:15:05.089
47, -187500.02, -186583.48, -187500.02, -187471.52, -187500.02, -187500.02, -187500.02, -187500.02, 0.000, 0.000, 0.000, 17:15:05.089
48, -187500.02, -186584.58, -187500.02, -187472.81, -187500.02, -187500.02, -187500.02, -187500.02, 0.000, 0.000, 0.000, 17:15:05.089
49, -187500.02, -186586.03, -187500.02, -187472.92, -187500.02, -187500.02, -187500.02, -187500.02, 0.000, 0.000, 0.000, 17:15:05.100
50, -187500.02, -186587.53, -187500.02, -187473.69, -187500.02, -187500.02, -187500.02, -187500.02, 0.000, 0.000, 0.000, 17:15:05.101
51, -187500.02, -186587.19, -187500.02, -187473.95, -187500.02, -187500.02, -187500.02, -187500.02, 0.000, 0.000, 0.000, 17:15:05.101
52, -187500.02, -186588.36, -187500.02, -187474.53, -187500.02, -187500.02, -187500.02, -187500.02, 0.000, 0.000, 0.000, 17:15:05.101
53, -187500.02, -186592.13, -187500.02, -187476.30, -187500.02, -187500.02, -187500.02, -187500.02, 0.000, 0.000, 0.000, 17:15:05.101
54, -187500.02, -186593.03, -187500.02, -187477.86, -187500.02, -187500.02, -187500.02, -187500.02, 0.000, 0.000, 0.000, 17:15:05.101
55, -187500.02, -186594.17, -187500.02, -187479.36, -187500.02, -187500.02, -187500.02, -187500.02, 0.000, 0.000, 0.000, 17:15:05.101
56, -187500.02, -186595.13, -187500.02, -187480.45, -187500.02, -187500.02, -187500.02, -187500.02, 0.000, 0.000, 0.000, 17:15:05.101
57, -187500.02, -186596.14, -187500.02, -187481.58, -187500.02, -187500.02, -187500.02, -187500.02, 0.000, 0.000, 0.000, 17:15:05.102
58, -187500.02, -186596.88, -187500.02, -187483.16, -187500.02, -187500.02, -187500.02, -187500.02, 0.088, -0.058, 0.996, 17:15:05.102
59, -187500.02, -186597.83, -187500.02, -187484.53, -187500.02, -187500.02, -187500.02, -187500.02, 0.000, 0.000, 0.000, 17:15:05.109
60, -187500.02, -186599.23, -187500.02, -187485.67, -187500.02, -187500.02, -187500.02, -187500.02, 0.000, 0.000, 0.000, 17:15:05.109
61, -187500.02, -186600.52, -187500.02, -187485.95, -187500.02, -187500.02, -187500.02, -187500.02, 0.000, 0.000, 0.000, 17:15:05.110
62, -187500.02, -186600.98, -187500.02, -187486.45, -187500.02, -187500.02, -187500.02, -187500.02, 0.000, 0.000, 0.000, 17:15:05.110
63, -187500.02, -186602.77, -187500.02, -187489.02, -187500.02, -187500.02, -187500.02, -187500.02, 0.000, 0.000, 0.000, 17:15:05.110
64, -187500.02, -186603.48, -187500.02, -187490.27, -187500.02, -187500.02, -187500.02, -187500.02, 0.000, 0.000, 0.000, 17:15:05.110
65, -187500.02, -186603.95, -187500.02, -187491.39, -187500.02, -187500.02, -187500.02, -187500.02, 0.000, 0.000, 0.000, 17:15:05.110
66, -187500.02, -186604.00, -187500.02, -187491.77, -187500.02, -187500.02, -187500.02, -187500.02, 0.000, 0.000, 0.000, 17:15:05.111
67, -187500.02, -186605.03, -187500.02, -187493.56, -187500.02, -187500.02, -187500.02, -187500.02, 0.000, 0.000, 0.000, 17:15:05.111
68, -187500.02, -186607.13, -187500.02, -187492.97, -187500.02, -187500.02, -187500.02, -187500.02, 0.000, 0.000, 0.000, 17:15:05.111
69, -187500.02, -186607.83, -187500.02, -187493.00, -187500.02, -187500.02, -187500.02, -187500.02, 0.000, 0.000, 0.000, 17:15:05.119
70, -187500.02, -186608.67, -187500.02, -187494.22, -187500.02, -187500.02, -187500.02, -187500.02, 0.000, 0.000, 0.000, 17:15:05.119
71, -187500.02, -186609.52, -187500.02, -187494.39, -187500.02, -187500.02, -187500.02, -187500.02, 0.000, 0.000, 0.000, 17:15:05.119
72, -187500.02, -186609.77, -187500.02, -187494.97, -187500.02, -187500.02, -187500.02, -187500.02, 0.000, 0.000, 0.000, 17:15:05.119
73, -187500.02, -186611.38, -187500.02, -187497.63, -187500.02, -187500.02, -187500.02, -187500.02, 0.000, 0.000, 0.000, 17:15:05.120
74, -187500.02, -186613.88, -187500.02, -187500.02, -187500.02, -187500.02, -187500.02, -187500.02, 0.000, 0.000, 0.000, 17:15:05.120
75, -187500.02, -186616.42, -187500.02, -187500.02, -187500.02, -187500.02, -187500.02, -187500.02, 0.000, 0.000, 0.000, 17:15:05.120
76, -187500.02, -186616.61, -187500.02, -187500.02, -187500.02, -187500.02, -187500.02, -187500.02, 0.000, 0.000, 0.000, 17:15:05.120
77, -187500.02, -186616.58, -187500.02, -187500.02, -187500.02, -187500.02, -187500.02, -187500.02, 0.000, 0.000, 0.000, 17:15:05.121
78, -187500.02, -186617.55, -187500.02, -187500.02, -187500.02, -187500.02, -187500.02, -187500.02, 0.000, 0.000, 0.000, 17:15:05.121
79, -187500.02, -186618.23, -187500.02, -187500.02, -187500.02, -187500.02, -187500.02, -187500.02, 0.000, 0.000, 0.000, 17:15:05.128
80, -187500.02, -186617.75, -187500.02, -187500.02, -187500.02, -187500.02, -187500.02, -187500.02, 0.000, 0.000, 0.000, 17:15:05.128
81, -187500.02, -186618.98, -187500.02, -187500.02, -187500.02, -187500.02, -187500.02, -187500.02, 0.000, 0.000, 0.000, 17:15:05.129
82, -187500.02, -186620.94, -187500.02, -187500.02, -187500.02, -187500.02, -187500.02, -187500.02, 0.000, 0.000, 0.000, 17:15:05.129
83, -187500.02, -186622.47, -187500.02, -187500.02, -187500.02, -187500.02, -187500.02, -187500.02, 0.000, 0.000, 0.000, 17:15:05.129
84, -187500.02, -186623.17, -187500.02, -187500.02, -187500.02, -187500.02, -187500.02, -187500.02, 0.000, 0.000, 0.000, 17:15:05.129
85, -187500.02, -186624.41, -187500.02, -187500.02, -187500.02, -187500.02, -187500.02, -187500.02, 0.000, 0.000, 0.000, 17:15:05.129
86, -187500.02, -186625.19, -187500.02, -187500.02, -187500.02, -187500.02, -187500.02, -187500.02, 0.000, 0.000, 0.000, 17:15:05.130
87, -187500.02, -186626.02, -187500.02, -187500.02, -187500.02, -187500.02, -187500.02, -187500.02, 0.000, 0.000, 0.000, 17:15:05.130
88, -187500.02, -186627.38, -187500.02, -187500.02, -187500.02, -187500.02, -187500.02, -187500.02, 0.000, 0.000, 0.000, 17:15:05.130
89, -187500.02, -186628.66, -187500.02, -187500.02, -187500.02, -187500.02, -187500.02, -187500.02, 0.000, 0.000, 0.000, 17:15:05.138
90, -187500.02, -186630.06, -187500.02, -187500.02, -187500.02, -187500.02, -187500.02, -187500.02, 0.000, 0.000, 0.000, 17:15:05.139
91, -187500.02, -186631.53, -187500.02, -187500.02, -187500.02, -187500.02, -187500.02, -187500.02, 0.000, 0.000, 0.000, 17:15:05.139
92, -187500.02, -186631.83, -187500.02, -187500.02, -187500.02, -187500.02, -187500.02, -187500.02, 0.000, 0.000, 0.000, 17:15:05.139
93, -187500.02, -186634.63, -187500.02, -187500.02, -187500.02, -187500.02, -187500.02, -187500.02, 0.000, 0.000, 0.000, 17:15:05.139
94, -187500.02, -186635.06, -187500.02, -187500.02, -187500.02, -187500.02, -187500.02, -187500.02, 0.000, 0.000, 0.000, 17:15:05.139
95, -187500.02, -186635.77, -187500.02, -187500.02, -187500.02, -187500.02, -187500.02, -187500.02, 0.000, 0.000, 0.000, 17:15:05.140
96, -187500.02, -186635.66, -187500.02, -187500.02, -187500.02, -187500.02, -187500.02, -187500.02, 0.086, -0.058, 0.994, 17:15:05.140
97, -187500.02, -186636.64, -187500.02, -187500.02, -187500.02, -187500.02, -187500.02, -187500.02, 0.000, 0.000, 0.000, 17:15:05.140
98, -187500.02, -186638.36, -187500.02, -187500.02, -187500.02, -187500.02, -187500.02, -187500.02, 0.000, 0.000, 0.000, 17:15:05.140
99, -187500.02, -186639.20, -187500.02, -187500.02, -187500.02, -187500.02, -187500.02, -187500.02, 0.000, 0.000, 0.000, 17:15:05.141
100, -187500.02, -186638.95, -187500.02, -187500.02, -187500.02, -187500.02, -187500.02, -187500.02, 0.000, 0.000, 0.000, 17:15:05.148
101, -187500.02, -186639.98, -187500.02, -187500.02, -187500.02, -187500.02, -187500.02, -187500.02, 0.000, 0.000, 0.000, 17:15:05.149
102, -187500.02, -186641.50, -187500.02, -187500.02, -187500.02, -187500.02, -187500.02, -187500.02, 0.000, 0.000, 0.000, 17:15:05.149
103, -187500.02, -186643.20, -187500.02, -187500.02, -187500.02, -187500.02, -187500.02, -187500.02, 0.000, 0.000, 0.000, 17:15:05.149
104, -187500.02, -186644.97, -187500.02, -187500.02, -187500.02, -187500.02, -187500.02, -187500.02, 0.000, 0.000, 0.000, 17:15:05.149
105, -187500.02, -186646.48, -187500.02, -187500.02, -187500.02, -187500.02, -187500.02, -187500.02, 0.000, 0.000, 0.000, 17:15:05.149
106, -187500.02, -186648.23, -187500.02, -187500.02, -187500.02, -187500.02, -187500.02, -187500.02, 0.000, 0.000, 0.000, 17:15:05.150
107, -187500.02, -186649.17, -187500.02, -187500.02, -187500.02, -187500.02, -187500.02, -187500.02, 0.000, 0.000, 0.000, 17:15:05.150
108, -187500.02, -186647.94, -187500.02, -187500.02, -187500.02, -187500.02, -187500.02, -187500.02, 0.000, 0.000, 0.000, 17:15:05.150
109, -187500.02, -186648.09, -187500.02, -187500.02, -187500.02, -187500.02, -187500.02, -187500.02, 0.000, 0.000, 0.000, 17:15:05.150
110, -187500.02, -186649.55, -187500.02, -187500.02, -187500.02, -187500.02, -187500.02, -187500.02, 0.000, 0.000, 0.000, 17:15:05.158
111, -187500.02, -186651.28, -187500.02, -187500.02, -187500.02, -187500.02, -187500.02, -187500.02, 0.000, 0.000, 0.000, 17:15:05.158
112, -187500.02, -186651.34, -187500.02, -187500.02, -187500.02, -187500.02, -187500.02, -187500.02, 0.000, 0.000, 0.000, 17:15:05.159
113, -187500.02, -186653.44, -187500.02, -187500.02, -187500.02, -187500.02, -187500.02, -187500.02, 0.000, 0.000, 0.000, 17:15:05.159
114, -187500.02, -186654.20, -187500.02, -187500.02, -187500.02, -187500.02, -187500.02, -187500.02, 0.000, 0.000, 0.000, 17:15:05.159
115, -187500.02, -186655.33, -187500.02, -187500.02, -187500.02, -187500.02, -187500.02, -187500.02, 0.000, 0.000, 0.000, 17:15:05.159
116, -187500.02, -186656.27, -187500.02, -187500.02, -187500.02, -187500.02, -187500.02, -187500.02, 0.000, 0.000, 0.000, 17:15:05.159
117, -187500.02, -186657.28, -187500.02, -187500.02, -187500.02, -187500.02, -187500.02, -187500.02, 0.000, 0.000, 0.000, 17:15:05.159
118, -187500.02, -186657.94, -187500.02, -187500.02, -187500.02, -187500.02, -187500.02, -187500.02, 0.000, 0.000, 0.000, 17:15:05.159
119, -187500.02, -186658.88, -187500.02, -187500.02, -187500.02, -187500.02, -187500.02, -187500.02, 0.000, 0.000, 0.000, 17:15:05.160
120, -187500.02, -186659.75, -187500.02, -187500.02, -187500.02, -187500.02, -187500.02, -187500.02, 0.000, 0.000, 0.000, 17:15:05.169
121, -187500.02, -186660.86, -187500.02, -187500.02, -187500.02, -187500.02, -187500.02, -187500.02, 0.000, 0.000, 0.000, 17:15:05.169
122, -187500.02, -186660.69, -187500.02, -187500.02, -187500.02, -187500.02, -187500.02, -187500.02, 0.000, 0.000, 0.000, 17:15:05.169
123, -187500.02, -186662.45, -187500.02, -187500.02, -187500.02, -187500.02, -187500.02, -187500.02, 0.000, 0.000, 0.000, 17:15:05.169
124, -187500.02, -186664.02, -187500.02, -187500.02, -187500.02, -187500.02, -187500.02, -187500.02, 0.000, 0.000, 0.000, 17:15:05.169
125, -187500.02, -186665.56, -187500.02, -187500.02, -187500.02, -187500.02, -187500.02, -187500.02, 0.000, 0.000, 0.000, 17:15:05.170
126, -187500.02, -186666.72, -187500.02, -187500.02, -187500.02, -187500.02, -187500.02, -187500.02, 0.000, 0.000, 0.000, 17:15:05.170
127, -187500.02, -186666.92, -187500.02, -187500.02, -187500.02, -187500.02, -187500.02, -187500.02, 0.000, 0.000, 0.000, 17:15:05.170
128, -187500.02, -186666.97, -187500.02, -187500.02, -187500.02, -187500.02, -187500.02, -187500.02, 0.000, 0.000, 0.000, 17:15:05.170
129, -187500.02, -186667.55, -187500.02, -187500.02, -187500.02, -187500.02, -187500.02, -187500.02, 0.000, 0.000, 0.000, 17:15:05.170
130, -187500.02, -186669.48, -187500.02, -187500.02, -187500.02, -187500.02, -187500.02, -187500.02, 0.000, 0.000, 0.000, 17:15:05.179
131, -187500.02, -186671.23, -187500.02, -187500.02, -187500.02, -187500.02, -187500.02, -187500.02, 0.000, 0.000, 0.000, 17:15:05.179
132, -187500.02, -186672.22, -187500.02, -187500.02, -187500.02, -187500.02, -187500.02, -187500.02, 0.000, 0.000, 0.000, 17:15:05.179
133, -187500.02, -186672.84, -187500.02, -187500.02, -187500.02, -187500.02, -187500.02, -187500.02, 0.000, 0.000, 0.000, 17:15:05.179
134, -187500.02, -186673.67, -187500.02, -187500.02, -187500.02, -187500.02, -187500.02, -187500.02, 0.086, -0.058, 0.998, 17:15:05.180
135, -187500.02, -186675.03, -187500.02, -187500.02, -187500.02, -187500.02, -187500.02, -187500.02, 0.000, 0.000, 0.000, 17:15:05.180
136, -187500.02, -186676.27, -187500.02, -187500.02, -187500.02, -187500.02, -187500.02, -187500.02, 0.000, 0.000, 0.000, 17:15:05.180
137, -187500.02, -186676.38, -187500.02, -187500.02, -187500.02, -187500.02, -187500.02, -187500.02, 0.000, 0.000, 0.000, 17:15:05.180
138, -187500.02, -186676.42, -187500.02, -187500.02, -187500.02, -187500.02, -187500.02, -187500.02, 0.000, 0.000, 0.000, 17:15:05.180
139, -187500.02, -186677.61, -187500.02, -187500.02, -187500.02, -187500.02, -187500.02, -187500.02, 0.000, 0.000, 0.000, 17:15:05.181
140, -187500.02, -186678.67, -187500.02, -187500.02, -187500.02, -187500.02, -187500.02, -187500.02, 0.000, 0.000, 0.000, 17:15:05.188
141, -187500.02, -186678.98, -187500.02, -187500.02, -187500.02, -187500.02, -187500.02, -187500.02, 0.000, 0.000, 0.000, 17:15:05.188
142, -187500.02, -186680.06, -187500.02, -187500.02, -187500.02, -187500.02, -187500.02, -187500.02, 0.000, 0.000, 0.000, 17:15:05.188
143, -187500.02, -186682.72, -187500.02, -187500.02, -187500.02, -187500.02, -187500.02, -187500.02, 0.000, 0.000, 0.000, 17:15:05.189
144, -187500.02, -186683.58, -187500.02, -187500.02, -187500.02, -187500.02, -187500.02, -187500.02, 0.000, 0.000, 0.000, 17:15:05.189
145, -187500.02, -186683.70, -187500.02, -187500.02, -187500.02, -187500.02, -187500.02, -187500.02, 0.000, 0.000, 0.000, 17:15:05.189
146, -187500.02, -186684.16, -187500.02, -187500.02, -187500.02, -187500.02, -187500.02, -187500.02, 0.000, 0.000, 0.000, 17:15:05.189
147, -187500.02, -186685.20, -187500.02, -187500.02, -187500.02, -187500.02, -187500.02, -187500.02, 0.000, 0.000, 0.000, 17:15:05.189
148, -187500.02, -186685.86, -187500.02, -187500.02, -187500.02, -187500.02, -187500.02, -187500.02, 0.000, 0.000, 0.000, 17:15:05.189
149, -187500.02, -186686.70, -187500.02, -187500.02, -187500.02, -187500.02, -187500.02, -187500.02, 0.000, 0.000, 0.000, 17:15:05.189
150, -187500.02, -186687.17, -187500.02, -187500.02, -187500.02, -187500.02, -187500.02, -187500.02, 0.000, 0.000, 0.000, 17:15:05.198
151, -187500.02, -186687.95, -187500.02, -187500.02, -187500.02, -187500.02, -187500.02, -187500.02, 0.000, 0.000, 0.000, 17:15:05.198
152, -187500.02, -186688.73, -187500.02, -187500.02, -187500.02, -187500.02, -187500.02, -187500.02, 0.000, 0.000, 0.000, 17:15:05.198
153, -187500.02, -186691.86, -187500.02, -187500.02, -187500.02, -187500.02, -187500.02, -187500.02, 0.000, 0.000, 0.000, 17:15:05.199
154, -187500.02, -186693.00, -187500.02, -187500.02, -187500.02, -187500.02, -187500.02, -187500.02, 0.000, 0.000, 0.000, 17:15:05.199
155, -187500.02, -186694.61, -187500.02, -187500.02, -187500.02, -187500.02, -187500.02, -187500.02, 0.000, 0.000, 0.000, 17:15:05.199
156, -187500.02, -186695.27, -187500.02, -187500.02, -187500.02, -187500.02, -187500.02, -187500.02, 0.000, 0.000, 0.000, 17:15:05.199
157, -187500.02, -186696.66, -187500.02, -187500.02, -187500.02, -187500.02, -187500.02, -187500.02, 0.000, 0.000, 0.000, 17:15:05.199
158, -187500.02, -186697.80, -187500.02, -187500.02, -187500.02, -187500.02, -187500.02, -187500.02, 0.000, 0.000, 0.000, 17:15:05.199
159, -187500.02, -186698.28, -187500.02, -187500.02, -187500.02, -187500.02, -187500.02, -187500.02, 0.000, 0.000, 0.000, 17:15:05.199
160, -187500.02, -186698.44, -187500.02, -187500.02, -187500.02, -187500.02, -187500.02, -187500.02, 0.000, 0.000, 0.000, 17:15:05.211
161, -187500.02, -186699.48, -187500.02, -187500.02, -187500.02, -187500.02, -187500.02, -187500.02, 0.000, 0.000, 0.000, 17:15:05.211
162, -187500.02, -186699.78, -187500.02, -187500.02, -187500.02, -187500.02, -187500.02, -187500.02, 0.000, 0.000, 0.000, 17:15:05.211
163, -187500.02, -186701.45, -187500.02, -187500.02, -187500.02, -187500.02, -187500.02, -187500.02, 0.000, 0.000, 0.000, 17:15:05.212
164, -187500.02, -186702.75, -187500.02, -187500.02, -187500.02, -187500.02, -187500.02, -187500.02, 0.000, 0.000, 0.000, 17:15:05.212
165, -187500.02, -186704.03, -187500.02, -187500.02, -187500.02, -187500.02, -187500.02, -187500.02, 0.000, 0.000, 0.000, 17:15:05.212
166, -187500.02, -186704.81, -187500.02, -187500.02, -187500.02, -187500.02, -187500.02, -187500.02, 0.000, 0.000, 0.000, 17:15:05.212
167, -187500.02, -186706.22, -187500.02, -187500.02, -187500.02, -187500.02, -187500.02, -187500.02, 0.000, 0.000, 0.000, 17:15:05.212
168, -187500.02, -186707.16, -187500.02, -187500.02, -187500.02, -187500.02, -187500.02, -187500.02, 0.000, 0.000, 0.000, 17:15:05.212
169, -187500.02, -186708.52, -187500.02, -187500.02, -187500.02, -187500.02, -187500.02, -187500.02, 0.000, 0.000, 0.000, 17:15:05.212
170, -187500.02, -186709.28, -187500.02, -187500.02, -187500.02, -187500.02, -187500.02, -187500.02, 0.000, 0.000, 0.000, 17:15:05.220
171, -187500.02, -186709.50, -187500.02, -187500.02, -187500.02, -187500.02, -187500.02, -187500.02, 0.000, 0.000, 0.000, 17:15:05.220
172, -187500.02, -186710.27, -187500.02, -187500.02, -187500.02, -187500.02, -187500.02, -187500.02, 0.000, 0.000, 0.000, 17:15:05.220
173, -187500.02, -186711.73, -187500.02, -187500.02, -187500.02, -187500.02, -187500.02, -187500.02, 0.084, -0.054, 1.000, 17:15:05.221
174, -187500.02, -186711.64, -187500.02, -187500.02, -187500.02, -187500.02, -187500.02, -187500.02, 0.000, 0.000, 0.000, 17:15:05.221
175, -187500.02, -186712.59, -187500.02, -187500.02, -187500.02, -187500.02, -187500.02, -187500.02, 0.000, 0.000, 0.000, 17:15:05.221
176, -187500.02, -186715.72, -187500.02, -187500.02, -187500.02, -187500.02, -187500.02, -187500.02, 0.000, 0.000, 0.000, 17:15:05.221
177, -187500.02, -186716.70, -187500.02, -187500.02, -187500.02, -187500.02, -187500.02, -187500.02, 0.000, 0.000, 0.000, 17:15:05.221
178, -187500.02, -186715.88, -187500.02, -187500.02, -187500.02, -187500.02, -187500.02, -187500.02, 0.000, 0.000, 0.000, 17:15:05.221
179, -187500.02, -186716.39, -187500.02, -187500.02, -187500.02, -187500.02, -187500.02, -187500.02, 0.000, 0.000, 0.000, 17:15:05.221
180, -187500.02, -186718.22, -187500.02, -187500.02, -187500.02, -187500.02, -187500.02, -187500.02, 0.000, 0.000, 0.000, 17:15:05.229
181, -187500.02, -186719.31, -187500.02, -187500.02, -187500.02, -187500.02, -187500.02, -187500.02, 0.000, 0.000, 0.000, 17:15:05.229
182, -187500.02, -186721.06, -187500.02, -187500.02, -187500.02, -187500.02, -187500.02, -187500.02, 0.000, 0.000, 0.000, 17:15:05.229
183, -187500.02, -186722.53, -187500.02, -187500.02, -187500.02, -187500.02, -187500.02, -187500.02, 0.000, 0.000, 0.000, 17:15:05.229
184, -187500.02, -186724.98, -187500.02, -187500.02, -187500.02, -187500.02, -187500.02, -187500.02, 0.000, 0.000, 0.000, 17:15:05.229
185, -187500.02, -186726.75, -187500.02, -187500.02, -187500.02, -187500.02, -187500.02, -187500.02, 0.000, 0.000, 0.000, 17:15:05.229
186, -187500.02, -186727.89, -187500.02, -187500.02, -187500.02, -187500.02, -187500.02, -187500.02, 0.000, 0.000, 0.000, 17:15:05.229
187, -187500.02, -186729.03, -187500.02, -187500.02, -187500.02, -187500.02, -187500.02, -187500.02, 0.000, 0.000, 0.000, 17:15:05.230
188, -187500.02, -186730.27, -187500.02, -187500.02, -187500.02, -187500.02, -187500.02, -187500.02, 0.000, 0.000, 0.000, 17:15:05.230
189, -187500.02, -186730.77, -187500.02, -187500.02, -187500.02, -187500.02, -187500.02, -187500.02, 0.000, 0.000, 0.000, 17:15:05.230
190, -187500.02, -186730.84, -187500.02, -187500.02, -187500.02, -187500.02, -187500.02, -187500.02, 0.000, 0.000, 0.000, 17:15:05.238
191, -187500.02, -186732.66, -187500.02, -187500.02, -187500.02, -187500.02, -187500.02, -187500.02, 0.000, 0.000, 0.000, 17:15:05.239
192, -187500.02, -186733.48, -187500.02, -187500.02, -187500.02, -187500.02, -187500.02, -187500.02, 0.000, 0.000, 0.000, 17:15:05.239
193, -187500.02, -186734.67, -187500.02, -187500.02, -187500.02, -187500.02, -187500.02, -187500.02, 0.000, 0.000, 0.000, 17:15:05.239
194, -187500.02, -186736.06, -187500.02, -187500.02, -187500.02, -187500.02, -187500.02, -187500.02, 0.000, 0.000, 0.000, 17:15:05.239
195, -187500.02, -186736.92, -187500.02, -187500.02, -187500.02, -187500.02, -187500.02, -187500.02, 0.000, 0.000, 0.000, 17:15:05.239
196, -187500.02, -186736.84, -187500.02, -187500.02, -187500.02, -187500.02, -187500.02, -187500.02, 0.000, 0.000, 0.000, 17:15:05.239
197, -187500.02, -186738.53, -187500.02, -187500.02, -187500.02, -187500.02, -187500.02, -187500.02, 0.000, 0.000, 0.000, 17:15:05.239
198, -187500.02, -186739.94, -187500.02, -187500.02, -187500.02, -187500.02, -187500.02, -187500.02, 0.000, 0.000, 0.000, 17:15:05.239
199, -187500.02, -186741.36, -187500.02, -187500.02, -187500.02, -187500.02, -187500.02, -187500.02, 0.000, 0.000, 0.000, 17:15:05.239
200, -187500.02, -186742.38, -187500.02, -187500.02, -187500.02, -187500.02, -187500.02, -187500.02, 0.000, 0.000, 0.000, 17:15:05.248
201, -187500.02, -186742.72, -187500.02, -187500.02, -187500.02, -187500.02, -187500.02, -187500.02, 0.000, 0.000, 0.000, 17:15:05.248
202, -187500.02, -186743.13, -187500.02, -187500.02, -187500.02, -187500.02, -187500.02, -187500.02, 0.000, 0.000, 0.000, 17:15:05.249
203, -187500.02, -186745.52, -187500.02, -187500.02, -187500.02, -187500.02, -187500.02, -187500.02, 0.000, 0.000, 0.000, 17:15:05.249
204, -187500.02, -186747.50, -187500.02, -187500.02, -187500.02, -187500.02, -187500.02, -187500.02, 0.000, 0.000, 0.000, 17:15:05.249
205, -187500.02, -186748.64, -187500.02, -187500.02, -187500.02, -187500.02, -187500.02, -187500.02, 0.000, 0.000, 0.000, 17:15:05.249
206, -187500.02, -186749.05, -187500.02, -187500.02, -187500.02, -187500.02, -187500.02, -187500.02, 0.000, 0.000, 0.000, 17:15:05.249
207, -187500.02, -186749.13, -187500.02, -187500.02, -187500.02, -187500.02, -187500.02, -187500.02, 0.000, 0.000, 0.000, 17:15:05.249
208, -187500.02, -186749.88, -187500.02, -187500.02, -187500.02, -187500.02, -187500.02, -187500.02, 0.000, 0.000, 0.000, 17:15:05.249
209, -187500.02, -186751.28, -187500.02, -187500.02, -187500.02, -187500.02, -187500.02, -187500.02, 0.000, 0.000, 0.000, 17:15:05.249
210, -187500.02, -186752.66, -187500.02, -187500.02, -187500.02, -187500.02, -187500.02, -187500.02, 0.000, 0.000, 0.000, 17:15:05.259
211, -187500.02, -186752.94, -187500.02, -187500.02, -187500.02, -187500.02, -187500.02, -187500.02, 0.094, -0.058, 1.000, 17:15:05.259
212, -187500.02, -186754.03, -187500.02, -187500.02, -187500.02, -187500.02, -187500.02, -187500.02, 0.000, 0.000, 0.000, 17:15:05.259
213, -187500.02, -186754.94, -187500.02, -187500.02, -187500.02, -187500.02, -187500.02, -187500.02, 0.000, 0.000, 0.000, 17:15:05.259
214, -187500.02, -186756.73, -187500.02, -187500.02, -187500.02, -187500.02, -187500.02, -187500.02, 0.000, 0.000, 0.000, 17:15:05.259
215, -187500.02, -186757.38, -187500.02, -187500.02, -187500.02, -187500.02, -187500.02, -187500.02, 0.000, 0.000, 0.000, 17:15:05.259
216, -187500.02, -186757.63, -187500.02, -187500.02, -187500.02, -187500.02, -187500.02, -187500.02, 0.000, 0.000, 0.000, 17:15:05.260
217, -187500.02, -186759.22, -187500.02, -187500.02, -187500.02, -187500.02, -187500.02, -187500.02, 0.000, 0.000, 0.000, 17:15:05.260
218, -187500.02, -186759.55, -187500.02, -187500.02, -187500.02, -187500.02, -187500.02, -187500.02, 0.000, 0.000, 0.000, 17:15:05.260
219, -187500.02, -186760.33, -187500.02, -187500.02, -187500.02, -187500.02, -187500.02, -187500.02, 0.000, 0.000, 0.000, 17:15:05.260
220, -187500.02, -186761.92, -187500.02, -187500.02, -187500.02, -187500.02, -187500.02, -187500.02, 0.000, 0.000, 0.000, 17:15:05.268
221, -187500.02, -186762.92, -187500.02, -187500.02, -187500.02, -187500.02, -187500.02, -187500.02, 0.000, 0.000, 0.000, 17:15:05.269
222, -187500.02, -186763.70, -187500.02, -187500.02, -187500.02, -187500.02, -187500.02, -187500.02, 0.000, 0.000, 0.000, 17:15:05.269
223, -187500.02, -186764.53, -187500.02, -187500.02, -187500.02, -187500.02, -187500.02, -187500.02, 0.000, 0.000, 0.000, 17:15:05.269
224, -187500.02, -186766.39, -187500.02, -187500.02, -187500.02, -187500.02, -187500.02, -187500.02, 0.000, 0.000, 0.000, 17:15:05.269
225, -187500.02, -186766.75, -187500.02, -187500.02, -187500.02, -187500.02, -187500.02, -187500.02, 0.000, 0.000, 0.000, 17:15:05.270
226, -187500.02, -186767.64, -187500.02, -187500.02, -187500.02, -187500.02, -187500.02, -187500.02, 0.000, 0.000, 0.000, 17:15:05.270
227, -187500.02, -186769.03, -187500.02, -187500.02, -187500.02, -187500.02, -187500.02, -187500.02, 0.000, 0.000, 0.000, 17:15:05.270
228, -187500.02, -186769.97, -187500.02, -187500.02, -187500.02, -187500.02, -187500.02, -187500.02, 0.000, 0.000, 0.000, 17:15:05.270
229, -187500.02, -186769.77, -187500.02, -187500.02, -187500.02, -187500.02, -187500.02, -187500.02, 0.000, 0.000, 0.000, 17:15:05.270
230, -187500.02, -186770.36, -187500.02, -187500.02, -187500.02, -187500.02, -187500.02, -187500.02, 0.000, 0.000, 0.000, 17:15:05.279
231, -187500.02, -186772.59, -187500.02, -187500.02, -187500.02, -187500.02, -187500.02, -187500.02, 0.000, 0.000, 0.000, 17:15:05.280
232, -187500.02, -186773.61, -187500.02, -187500.02, -187500.02, -187500.02, -187500.02, -187500.02, 0.000, 0.000, 0.000, 17:15:05.280
233, -187500.02, -186774.80, -187500.02, -187500.02, -187500.02, -187500.02, -187500.02, -187500.02, 0.000, 0.000, 0.000, 17:15:05.280
234, -187500.02, -186777.16, -187500.02, -187500.02, -187500.02, -187500.02, -187500.02, -187500.02, 0.000, 0.000, 0.000, 17:15:05.281
235, -187500.02, -186778.30, -187500.02, -187500.02, -187500.02, -187500.02, -187500.02, -187500.02, 0.000, 0.000, 0.000, 17:15:05.281
236, -187500.02, -186779.66, -187500.02, -187500.02, -187500.02, -187500.02, -187500.02, -187500.02, 0.000, 0.000, 0.000, 17:15:05.281
237, -187500.02, -186779.38, -187500.02, -187500.02, -187500.02, -187500.02, -187500.02, -187500.02, 0.000, 0.000, 0.000, 17:15:05.281
238, -187500.02, -186779.53, -187500.02, -187500.02, -187500.02, -187500.02, -187500.02, -187500.02, 0.000, 0.000, 0.000, 17:15:05.281
239, -187500.02, -186780.61, -187500.02, -187500.02, -187500.02, -187500.02, -187500.02, -187500.02, 0.000, 0.000, 0.000, 17:15:05.281
240, -187500.02, -186781.42, -187500.02, -187500.02, -187500.02, -187500.02, -187500.02, -187500.02, 0.000, 0.000, 0.000, 17:15:05.288
241, -187500.02, -186782.91, -187500.02, -187500.02, -187500.02, -187500.02, -187500.02, -187500.02, 0.000, 0.000, 0.000, 17:15:05.289
242, -187500.02, -186783.38, -187500.02, -187500.02, -187500.02, -187500.02, -187500.02, -187500.02, 0.000, 0.000, 0.000, 17:15:05.289
243, -187500.02, -186785.00, -187500.02, -187500.02, -187500.02, -187500.02, -187500.02, -187500.02, 0.000, 0.000, 0.000, 17:15:05.289
244, -187500.02, -186786.73, -187500.02, -187500.02, -187500.02, -187500.02, -187500.02, -187500.02, 0.000, 0.000, 0.000, 17:15:05.289
245, -187500.02, -186786.69, -187500.02, -187500.02, -187500.02, -187500.02, -187500.02, -187500.02, 0.000, 0.000, 0.000, 17:15:05.289
246, -187500.02, -186787.75, -187500.02, -187500.02, -187500.02, -187500.02, -187500.02, -187500.02, 0.000, 0.000, 0.000, 17:15:05.289
247, -187500.02, -186788.73, -187500.02, -187500.02, -187500.02, -187500.02, -187500.02, -187500.02, 0.000, 0.000, 0.000, 17:15:05.289
248, -187500.02, -186789.34, -187500.02, -187500.02, -187500.02, -187500.02, -187500.02, -187500.02, 0.000, 0.000, 0.000, 17:15:05.289
249, -187500.02, -186790.66, -187500.02, -187500.02, -187500.02, -187500.02, -187500.02, -187500.02, 0.090, -0.058, 0.998, 17:15:05.289
250, -187500.02, -186791.72, -187500.02, -187500.02, -187500.02, -187500.02, -187500.02, -187500.02, 0.000, 0.000, 0.000, 17:15:05.299
251, -187500.02, -186792.34, -187500.02, -187500.02, -187500.02, -187500.02, -187500.02, -187500.02, 0.000, 0.000, 0.000, 17:15:05.299
252, -187500.02, -186792.69, -187500.02, -187500.02, -187500.02, -187500.02, -187500.02, -187500.02, 0.000, 0.000, 0.000, 17:15:05.299
253, -187500.02, -186793.91, -187500.02, -187500.02, -187500.02, -187500.02, -187500.02, -187500.02, 0.000, 0.000, 0.000, 17:15:05.299
254, -187500.02, -186796.31, -187500.02, -187500.02, -187500.02, -187500.02, -187500.02, -187500.02, 0.000, 0.000, 0.000, 17:15:05.299
255, -187500.02, -186797.08, -187500.02, -187500.02, -187500.02, -187500.02, -187500.02, -187500.02, 0.000, 0.000, 0.000, 17:15:05.299
0, -187500.02, -186797.72, -187500.02, -187500.02, -187500.02, -187500.02, -187500.02, -187500.02, 0.000, 0.000, 0.000, 17:15:05.299
1, -187500.02, -186798.47, -187500.02, -187500.02, -187500.02, -187500.02, -187500.02, -187500.02, 0.000, 0.000, 0.000, 17:15:05.299
2, -187500.02, -186799.31, -187500.02, -187500.02, -187500.02, -187500.02, -187500.02, -187500.02, 0.000, 0.000, 0.000, 17:15:05.300
3, -187500.02, -186800.58, -187500.02, -187500.02, -187500.02, -187500.02, -187500.02, -187500.02, 0.000, 0.000, 0.000, 17:15:05.300
4, -187500.02, -186800.94, -187500.02, -187500.02, -187500.02, -187500.02, -187500.02, -187500.02, 0.000, 0.000, 0.000, 17:15:05.300
5, -187500.02, -186801.05, -187500.02, -187500.02, -187500.02, -187500.02, -187500.02, -187500.02, 0.000, 0.000, 0.000, 17:15:05.309
6, -187500.02, -186801.14, -187500.02, -187500.02, -187500.02, -187500.02, -187500.02, -187500.02, 0.000, 0.000, 0.000, 17:15:05.309
7, -187500.02, -186802.06, -187500.02, -187500.02, -187500.02, -187500.02, -187500.02, -187500.02, 0.000, 0.000, 0.000, 17:15:05.309
8, -187500.02, -186804.86, -187500.02, -187500.02, -187500.02, -187500.02, -187500.02, -187500.02, 0.000, 0.000, 0.000, 17:15:05.309
9, -187500.02, -186805.56, -187500.02, -187500.02, -187500.02, -187500.02, -187500.02, -187500.02, 0.000, 0.000, 0.000, 17:15:05.309
10, -187500.02, -186806.06, -187500.02, -187500.02, -187500.02, -187500.02, -187500.02, -187500.02, 0.000, 0.000, 0.000, 17:15:05.309
11, -187500.02, -186806.95, -187500.02, -187500.02, -187500.02, -187500.02, -187500.02, -187500.02, 0.000, 0.000, 0.000, 17:15:05.309
12, -187500.02, -186807.77, -187500.02, -187500.02, -187500.02, -187500.02, -187500.02, -187500.02, 0.000, 0.000, 0.000, 17:15:05.309
13, -187500.02, -186809.08, -187500.02, -187500.02, -187500.02, -187500.02, -187500.02, -187500.02, 0.000, 0.000, 0.000, 17:15:05.310
14, -187500.02, -186810.23, -187500.02, -187500.02, -187500.02, -187500.02, -187500.02, -187500.02, 0.000, 0.000, 0.000, 17:15:05.310
15, -187500.02, -186811.05, -187500.02, -187500.02, -187500.02, -187500.02, -187500.02, -187500.02, 0.000, 0.000, 0.000, 17:15:05.319
16, -187500.02, -186812.30, -187500.02, -187500.02, -187500.02, -187500.02, -187500.02, -187500.02, 0.000, 0.000, 0.000, 17:15:05.319
17, -187500.02, -186812.72, -187500.02, -187500.02, -187500.02, -187500.02, -187500.02, -187500.02, 0.000, 0.000, 0.000, 17:15:05.319
18, -187500.02, -186814.84, -187500.02, -187500.02, -187500.02, -187500.02, -187500.02, -187500.02, 0.000, 0.000, 0.000, 17:15:05.319
19, -187500.02, -186816.03, -187500.02, -187500.02, -187500.02, -187500.02, -187500.02, -187500.02, 0.000, 0.000, 0.000, 17:15:05.319
20, -187500.02, -186816.86, -187500.02, -187500.02, -187500.02, -187500.02, -187500.02, -187500.02, 0.000, 0.000, 0.000, 17:15:05.320
21, -187500.02, -186817.27, -187500.02, -187500.02, -187500.02, -187500.02, -187500.02, -187500.02, 0.000, 0.000, 0.000, 17:15:05.320
22, -187500.02, -186818.47, -187500.02, -187500.02, -187500.02, -187500.02, -187500.02, -187500.02, 0.000, 0.000, 0.000, 17:15:05.320
23, -187500.02, -186817.97, -187500.02, -187500.02, -187500.02, -187500.02, -187500.02, -187500.02, 0.000, 0.000, 0.000, 17:15:05.320
24, -187500.02, -186818.69, -187500.02, -187500.02, -187500.02, -187500.02, -187500.02, -187500.02, 0.000, 0.000, 0.000, 17:15:05.320
25, -187500.02, -186819.92, -187500.02, -187500.02, -187500.02, -187500.02, -187500.02, -187500.02, 0.000, 0.000, 0.000, 17:15:05.328
26, -187500.02, -186820.80, -187500.02, -187500.02, -187500.02, -187500.02, -187500.02, -187500.02, 0.000, 0.000, 0.000, 17:15:05.329
27, -187500.02, -186821.31, -187500.02, -187500.02, -187500.02, -187500.02, -187500.02, -187500.02, 0.000, 0.000, 0.000, 17:15:05.329
28, -187500.02, -186822.00, -187500.02, -187500.02, -187500.02, -187500.02, -187500.02, -187500.02, 0.000, 0.000, 0.000, 17:15:05.329
29, -187500.02, -186823.23, -187500.02, -187500.02, -187500.02, -187500.02, -187500.02, -187500.02, 0.000, 0.000, 0.000, 17:15:05.329
30, -187500.02, -186824.97, -187500.02, -187500.02, -187500.02, -187500.02, -187500.02, -187500.02, 0.000, 0.000, 0.000, 17:15:05.329
31, -187500.02, -186825.91, -187500.02, -187500.02, -187500.02, -187500.02, -187500.02, -187500.02, 0.000, 0.000, 0.000, 17:15:05.329
32, -187500.02, -186826.31, -187500.02, -187500.02, -187500.02, -187500.02, -187500.02, -187500.02, 0.092, -0.056, 0.994, 17:15:05.329
33, -187500.02, -186826.77, -187500.02, -187500.02, -187500.02, -187500.02, -187500.02, -187500.02, 0.000, 0.000, 0.000, 17:15:05.329
34, -187500.02, -186827.88, -187500.02, -187500.02, -187500.02, -187500.02, -187500.02, -187500.02, 0.000, 0.000, 0.000, 17:15:05.329
35, -187500.02, -186828.66, -187500.02, -187500.02, -187500.02, -187500.02, -187500.02, -187500.02, 0.000, 0.000, 0.000, 17:15:05.349
36, -187500.02, -186829.42, -187500.02, -187500.02, -187500.02, -187500.02, -187500.02, -187500.02, 0.000, 0.000, 0.000, 17:15:05.349
37, -187500.02, -186831.20, -187500.02, -187500.02, -187500.02, -187500.02, -187500.02, -187500.02, 0.000, 0.000, 0.000, 17:15:05.349
38, -187500.02, -186832.61, -187500.02, -187500.02, -187500.02, -187500.02, -187500.02, -187500.02, 0.000, 0.000, 0.000, 17:15:05.350
39, -187500.02, -186834.20, -187500.02, -187500.02, -187500.02, -187500.02, -187500.02, -187500.02, 0.000, 0.000, 0.000, 17:15:05.350
40, -187500.02, -186834.58, -187500.02, -187500.02, -187500.02, -187500.02, -187500.02, -187500.02, 0.000, 0.000, 0.000, 17:15:05.350
41, -187500.02, -186835.67, -187500.02, -187500.02, -187500.02, -187500.02, -187500.02, -187500.02, 0.000, 0.000, 0.000, 17:15:05.350
42, -187500.02, -186836.34, -187500.02, -187500.02, -187500.02, -187500.02, -187500.02, -187500.02, 0.000, 0.000, 0.000, 17:15:05.350
43, -187500.02, -186836.80, -187500.02, -187500.02, -187500.02, -187500.02, -187500.02, -187500.02, 0.000, 0.000, 0.000, 17:15:05.350
44, -187500.02, -186837.72, -187500.02, -187500.02, -187500.02, -187500.02, -187500.02, -187500.02, 0.000, 0.000, 0.000, 17:15:05.350
45, -187500.02, -186838.25, -187500.02, -187500.02, -187500.02, -187500.02, -187500.02, -187500.02, 0.000, 0.000, 0.000, 17:15:05.350
46, -187500.02, -186839.59, -187500.02, -187500.02, -187500.02, -187500.02, -187500.02, -187500.02, 0.000, 0.000, 0.000, 17:15:05.350
47, -187500.02, -186840.89, -187500.02, -187500.02, -187500.02, -187500.02, -187500.02, -187500.02, 0.000, 0.000, 0.000, 17:15:05.350
48, -187500.02, -186842.16, -187500.02, -187500.02, -187500.02, -187500.02, -187500.02, -187500.02, 0.000, 0.000, 0.000, 17:15:05.351
49, -187500.02, -186843.56, -187500.02, -187500.02, -187500.02, -187500.02, -187500.02, -187500.02, 0.000, 0.000, 0.000, 17:15:05.351
50, -187500.02, -186844.81, -187500.02, -187500.02, -187500.02, -187500.02, -187500.02, -187500.02, 0.000, 0.000, 0.000, 17:15:05.351
51, -187500.02, -186845.58, -187500.02, -187500.02, -187500.02, -187500.02, -187500.02, -187500.02, 0.000, 0.000, 0.000, 17:15:05.351
52, -187500.02, -186847.33, -187500.02, -187500.02, -187500.02, -187500.02, -187500.02, -187500.02, 0.000, 0.000, 0.000, 17:15:05.351
53, -187500.02, -186848.33, -187500.02, -187500.02, -187500.02, -187500.02, -187500.02, -187500.02, 0.000, 0.000, 0.000, 17:15:05.351
54, -187500.02, -186848.95, -187500.02, -187500.02, -187500.02, -187500.02, -187500.02, -187500.02, 0.000, 0.000, 0.000, 17:15:05.351
55, -187500.02, -186849.52, -187500.02, -187500.02, -187500.02, -187500.02, -187500.02, -187500.02, 0.000, 0.000, 0.000, 17:15:05.359
56, -187500.02, -186850.20, -187500.02, -187500.02, -187500.02, -187500.02, -187500.02, -187500.02, 0.000, 0.000, 0.000, 17:15:05.360
57, -187500.02, -186852.08, -187500.02, -187500.02, -187500.02, -187500.02, -187500.02, -187500.02, 0.000, 0.000, 0.000, 17:15:05.360
58, -187500.02, -186853.58, -187500.02, -187500.02, -187500.02, -187500.02, -187500.02, -187500.02, 0.000, 0.000, 0.000, 17:15:05.360
59, -187500.02, -186854.55, -187500.02, -187500.02, -187500.02, -187500.02, -187500.02, -187500.02, 0.000, 0.000, 0.000, 17:15:05.360
60, -187500.02, -186854.52, -187500.02, -187500.02, -187500.02, -187500.02, -187500.02, -187500.02, 0.000, 0.000, 0.000, 17:15:05.360
61, -187500.02, -186854.94, -187500.02, -187500.02, -187500.02, -187500.02, -187500.02, -187500.02, 0.000, 0.000, 0.000, 17:15:05.360
62, -187500.02, -186856.13, -187500.02, -187500.02, -187500.02, -187500.02, -187500.02, -187500.02, 0.000, 0.000, 0.000, 17:15:05.360
63, -187500.02, -186858.44, -187500.02, -187500.02, -187500.02, -187500.02, -187500.02, -187500.02, 0.000, 0.000, 0.000, 17:15:05.360
64, -187500.02, -186858.91, -187500.02, -187500.02, -187500.02, -187500.02, -187500.02, -187500.02, 0.000, 0.000, 0.000, 17:15:05.360
65, -187500.02, -186859.34, -187500.02, -187500.02, -187500.02, -187500.02, -187500.02, -187500.02, 0.000, 0.000, 0.000, 17:15:05.369
66, -187500.02, -186859.34, -187500.02, -187500.02, -187500.02, -187500.02, -187500.02, -187500.02, 0.000, 0.000, 0.000, 17:15:05.369
67, -187500.02, -186860.05, -187500.02, -187500.02, -187500.02, -187500.02, -187500.02, -187500.02, 0.000, 0.000, 0.000, 17:15:05.369
68, -187500.02, -186861.42, -187500.02, -187500.02, -187500.02, -187500.02, -187500.02, -187500.02, 0.000, 0.000, 0.000, 17:15:05.369
69, -187500.02, -186862.39, -187500.02, -187500.02, -187500.02, -187500.02, -187500.02, -187500.02, 0.000, 0.000, 0.000, 17:15:05.369
70, -187500.02, -186863.89, -187500.02, -187500.02, -187500.02, -187500.02, -187500.02, -187500.02, 0.090, -0.056, 1.002, 17:15:05.370
71, -187500.02, -186864.09, -187500.02, -187500.02, -187500.02, -187500.02, -187500.02, -187500.02, 0.000, 0.000, 0.000, 17:15:05.370
72, -187500.02, -186865.09, -187500.02, -187500.02, -187500.02, -187500.02, -187500.02, -187500.02, 0.000, 0.000, 0.000, 17:15:05.370
73, -187500.02, -186865.47, -187500.02, -187500.02, -187500.02, -187500.02, -187500.02, -187500.02, 0.000, 0.000, 0.000, 17:15:05.370
74, -187500.02, -186866.95, -187500.02, -187500.02, -187500.02, -187500.02, -187500.02, -187500.02, 0.000, 0.000, 0.000, 17:15:05.370
75, -187500.02, -186867.64, -187500.02, -187500.02, -187500.02, -187500.02, -187500.02, -187500.02, 0.000, 0.000, 0.000, 17:15:05.379
76, -187500.02, -186868.64, -187500.02, -187500.02, -187500.02, -187500.02, -187500.02, -187500.02, 0.000, 0.000, 0.000, 17:15:05.379
77, -187500.02, -186870.45, -187500.02, -187500.02, -187500.02, -187500.02, -187500.02, -187500.02, 0.000, 0.000, 0.000, 17:15:05.379
78, -187500.02, -186873.58, -187500.02, -187500.02, -187500.02, -187500.02, -187500.02, -187500.02, 0.000, 0.000, 0.000, 17:15:05.379
79, -187500.02, -186874.75, -187500.02, -187500.02, -187500.02, -187500.02, -187500.02, -187500.02, 0.000, 0.000, 0.000, 17:15:05.380
80, -187500.02, -186874.23, -187500.02, -187500.02, -187500.02, -187500.02, -187500.02, -187500.02, 0.000, 0.000, 0.000, 17:15:05.380
81, -187500.02, -186874.64, -187500.02, -187500.02, -187500.02, -187500.02, -187500.02, -187500.02, 0.000, 0.000, 0.000, 17:15:05.380
82, -187500.02, -186876.98, -187500.02, -187500.02, -187500.02, -187500.02, -187500.02, -187500.02, 0.000, 0.000, 0.000, 17:15:05.380
83, -187500.02, -186877.50, -187500.02, -187500.02, -187500.02, -187500.02, -187500.02, -187500.02, 0.000, 0.000, 0.000, 17:15:05.380
84, -187500.02, -186877.31, -187500.02, -187500.02, -187500.02, -187500.02, -187500.02, -187500.02, 0.000, 0.000, 0.000, 17:15:05.380
85, -187500.02, -186877.92, -187500.02, -187500.02, -187500.02, -187500.02, -187500.02, -187500.02, 0.000, 0.000, 0.000, 17:15:05.389
86, -187500.02, -186879.42, -187500.02, -187500.02, -187500.02, -187500.02, -187500.02, -187500.02, 0.000, 0.000, 0.000, 17:15:05.389
87, -187500.02, -186880.22, -187500.02, -187500.02, -187500.02, -187500.02, -187500.02, -187500.02, 0.000, 0.000, 0.000, 17:15:05.389
88, -187500.02, -186881.55, -187500.02, -187500.02, -187500.02, -187500.02, -187500.02, -187500.02, 0.000, 0.000, 0.000, 17:15:05.389
89, -187500.02, -186881.72, -187500.02, -187500.02, -187500.02, -187500.02, -187500.02, -187500.02, 0.000, 0.000, 0.000, 17:15:05.389
90, -187500.02, -186881.28, -187500.02, -187500.02, -187500.02, -187500.02, -187500.02, -187500.02, 0.000, 0.000, 0.000, 17:15:05.389
91, -187500.02, -186882.80, -187500.02, -187500.02, -187500.02, -187500.02, -187500.02, -187500.02, 0.000, 0.000, 0.000, 17:15:05.389
92, -187500.02, -186883.88, -187500.02, -187500.02, -187500.02, -187500.02, -187500.02, -187500.02, 0.000, 0.000, 0.000, 17:15:05.389
93, -187500.02, -186884.63, -187500.02, -187500.02, -187500.02, -187500.02, -187500.02, -187500.02, 0.000, 0.000, 0.000, 17:15:05.390
94, -187500.02, -186885.41, -187500.02, -187500.02, -187500.02, -187500.02, -187500.02, -187500.02, 0.000, 0.000, 0.000, 17:15:05.390
95, -187500.02, -186886.53, -187500.02, -187500.02, -187500.02, -187500.02, -187500.02, -187500.02, 0.000, 0.000, 0.000, 17:15:05.399
96, -187500.02, -186887.00, -187500.02, -187500.02, -187500.02, -187500.02, -187500.02, -187500.02, 0.000, 0.000, 0.000, 17:15:05.399
97, -187500.02, -186887.48, -187500.02, -187500.02, -187500.02, -187500.02, -187500.02, -187500.02, 0.000, 0.000, 0.000, 17:15:05.399
98, -187500.02, -186889.75, -187500.02, -187500.02, -187500.02, -187500.02, -187500.02, -187500.02, 0.000, 0.000, 0.000, 17:15:05.399
99, -187500.02, -186890.89, -187500.02, -187500.02, -187500.02, -187500.02, -187500.02, -187500.02, 0.000, 0.000, 0.000, 17:15:05.400
100, -187500.02, -186891.17, -187500.02, -187500.02, -187500.02, -187500.02, -187500.02, -187500.02, 0.000, 0.000, 0.000, 17:15:05.400
101, -187500.02, -186892.58, -187500.02, -187500.02, -187500.02, -187500.02, -187500.02, -187500.02, 0.000, 0.000, 0.000, 17:15:05.400
102, -187500.02, -186894.08, -187500.02, -187500.02, -187500.02, -187500.02, -187500.02, -187500.02, 0.000, 0.000, 0.000, 17:15:05.400
103, -187500.02, -186895.33, -187500.02, -187500.02, -187500.02, -187500.02, -187500.02, -187500.02, 0.000, 0.000, 0.000, 17:15:05.400
104, -187500.02, -186896.27, -187500.02, -187500.02, -187500.02, -187500.02, -187500.02, -187500.02, 0.000, 0.000, 0.000, 17:15:05.400
105, -187500.02, -186896.92, -187500.02, -187500.02, -187500.02, -187500.02, -187500.02, -187500.02, 0.000, 0.000, 0.000, 17:15:05.409
106, -187500.02, -186897.33, -187500.02, -187500.02, -187500.02, -187500.02, -187500.02, -187500.02, 0.000, 0.000, 0.000, 17:15:05.409
107, -187500.02, -186897.95, -187500.02, -187500.02, -187500.02, -187500.02, -187500.02, -187500.02, 0.000, 0.000, 0.000, 17:15:05.409
108, -187500.02, -186899.17, -187500.02, -187500.02, -187500.02, -187500.02, -187500.02, -187500.02, 0.088, -0.058, 1.002, 17:15:05.410
109, -187500.02, -186899.94, -187500.02, -187500.02, -187500.02, -187500.02, -187500.02, -187500.02, 0.000, 0.000, 0.000, 17:15:05.410
110, -187500.02, -186900.50, -187500.02, -187500.02, -187500.02, -187500.02, -187500.02, -187500.02, 0.000, 0.000, 0.000, 17:15:05.410
111, -187500.02, -186901.80, -187500.02, -187500.02, -187500.02, -187500.02, -187500.02, -187500.02, 0.000, 0.000, 0.000, 17:15:05.410
112, -187500.02, -186903.09, -187500.02, -187500.02, -187500.02, -187500.02, -187500.02, -187500.02, 0.000, 0.000, 0.000, 17:15:05.410
113, -187500.02, -186903.67, -187500.02, -187500.02, -187500.02, -187500.02, -187500.02, -187500.02, 0.000, 0.000, 0.000, 17:15:05.410
114, -187500.02, -186904.14, -187500.02, -187500.02, -187500.02, -187500.02, -187500.02, -187500.02, 0.000, 0.000, 0.000, 17:15:05.410
115, -187500.02, -186904.70, -187500.02, -187500.02, -187500.02, -187500.02, -187500.02, -187500.02, 0.000, 0.000, 0.000, 17:15:05.419
116, -187500.02, -186905.33, -187500.02, -187500.02, -187500.02, -187500.02, -187500.02, -187500.02, 0.000, 0.000, 0.000, 17:15:05.420
117, -187500.02, -186905.81, -187500.02, -187500.02, -187500.02, -187500.02, -187500.02, -187500.02, 0.000, 0.000, 0.000, 17:15:05.420
118, -187500.02, -186907.22, -187500.02, -187500.02, -187500.02, -187500.02, -187500.02, -187500.02, 0.000, 0.000, 0.000, 17:15:05.420
119, -187500.02, -186909.08, -187500.02, -187500.02, -187500.02, -187500.02, -187500.02, -187500.02, 0.000, 0.000, 0.000, 17:15:05.420
120, -187500.02, -186909.48, -187500.02, -187500.02, -187500.02, -187500.02, -187500.02, -187500.02, 0.000, 0.000, 0.000, 17:15:05.420
121, -187500.02, -186910.13, -187500.02, -187500.02, -187500.02, -187500.02, -187500.02, -187500.02, 0.000, 0.000, 0.000, 17:15:05.420
122, -187500.02, -186911.66, -187500.02, -187500.02, -187500.02, -187500.02, -187500.02, -187500.02, 0.000, 0.000, 0.000, 17:15:05.421
123, -187500.02, -186912.34, -187500.02, -187500.02, -187500.02, -187500.02, -187500.02, -187500.02, 0.000, 0.000, 0.000, 17:15:05.421
124, -187500.02, -186913.58, -187500.02, -187500.02, -187500.02, -187500.02, -187500.02, -187500.02, 0.000, 0.000, 0.000, 17:15:05.421
125, -187500.02, -186913.64, -187500.02, -187500.02, -187500.02, -187500.02, -187500.02, -187500.02, 0.000, 0.000, 0.000, 17:15:05.429
126, -187500.02, -186914.25, -187500.02, -187500.02, -187500.02, -187500.02, -187500.02, -187500.02, 0.000, 0.000, 0.000, 17:15:05.429
127, -187500.02, -186915.31, -187500.02, -187500.02, -187500.02, -187500.02, -187500.02, -187500.02, 0.000, 0.000, 0.000, 17:15:05.429
128, -187500.02, -186916.52, -187500.02, -187500.02, -187500.02, -187500.02, -187500.02, -187500.02, 0.000, 0.000, 0.000, 17:15:05.429
129, -187500.02, -186917.78, -187500.02, -187500.02, -187500.02, -187500.02, -187500.02, -187500.02, 0.000, 0.000, 0.000, 17:15:05.430
130, -187500.02, -186919.19, -187500.02, -187500.02, -187500.02, -187500.02, -187500.02, -187500.02, 0.000, 0.000, 0.000, 17:15:05.430
131, -187500.02, -186919.52, -187500.02, -187500.02, -187500.02, -187500.02, -187500.02, -187500.02, 0.000, 0.000, 0.000, 17:15:05.430
132, -187500.02, -186920.80, -187500.02, -187500.02, -187500.02, -187500.02, -187500.02, -187500.02, 0.000, 0.000, 0.000, 17:15:05.430
133, -187500.02, -186921.86, -187500.02, -187500.02, -187500.02, -187500.02, -187500.02, -187500.02, 0.000, 0.000, 0.000, 17:15:05.430
134, -187500.02, -186922.31, -187500.02, -187500.02, -187500.02, -187500.02, -187500.02, -187500.02, 0.000, 0.000, 0.000, 17:15:05.430
135, -187500.02, -186923.08, -187500.02, -187500.02, -187500.02, -187500.02, -187500.02, -187500.02, 0.000, 0.000, 0.000, 17:15:05.440
136, -187500.02, -186923.61, -187500.02, -187500.02, -187500.02, -187500.02, -187500.02, -187500.02, 0.000, 0.000, 0.000, 17:15:05.440
137, -187500.02, -186925.42, -187500.02, -187500.02, -187500.02, -187500.02, -187500.02, -187500.02, 0.000, 0.000, 0.000, 17:15:05.440
138, -187500.02, -186925.78, -187500.02, -187500.02, -187500.02, -187500.02, -187500.02, -187500.02, 0.000, 0.000, 0.000, 17:15:05.440
139, -187500.02, -186928.02, -187500.02, -187500.02, -187500.02, -187500.02, -187500.02, -187500.02, 0.000, 0.000, 0.000, 17:15:05.440
140, -187500.02, -186928.61, -187500.02, -187500.02, -187500.02, -187500.02, -187500.02, -187500.02, 0.000, 0.000, 0.000, 17:15:05.440
141, -187500.02, -186929.22, -187500.02, -187500.02, -187500.02, -187500.02, -187500.02, -187500.02, 0.000, 0.000, 0.000, 17:15:05.441
