%OpenBCI Raw EEG Data
%
%Sample Rate = 250.0 Hz
%First Column = SampleIndex
%Last Column = Timestamp 
%Other Columns = EEG data in microvolts followed by Accel Data (in G) interleaved with Aux Data
0, -187500.02, -187500.02, -187500.02, -187500.02, -187500.02, -187500.02, 187500.00, -187500.02, 473, 736, 760, 18:35:08.911
1, -187500.02, -187500.02, -187500.02, -187500.02, -187500.02, -187500.02, 187500.00, -187500.02, 452, 603, 657, 18:35:08.912
2, -187500.02, -187500.02, -187500.02, -187500.02, -187500.02, -187500.02, 187500.00, -187500.02, 430, 509, 657, 18:35:08.912
3, -187500.02, -187500.02, -187500.02, -187500.02, -187500.02, -187500.02, 187500.00, -187500.02, 412, 453, 657, 18:35:08.912
4, -187500.02, -187500.02, -187500.02, -187500.02, -187500.02, -187500.02, 187500.00, -187500.02, 398, 409, 654, 18:35:08.912
5, -187500.02, -187500.02, -187500.02, -187500.02, -187500.02, -187500.02, 187500.00, -187500.02, 387, 366, 655, 18:35:08.912
6, -187500.02, -187500.02, -187500.02, -187500.02, -187500.02, -187500.02, 187500.00, -187500.02, 377, 332, 656, 18:35:08.912
7, -187500.02, -187500.02, -187500.02, -187500.02, -187500.02, -187500.02, 187500.00, -187500.02, 369, 318, 657, 18:35:08.912
8, -187500.02, -187500.02, -187500.02, -187500.02, -187500.02, -187500.02, 187500.00, -187500.02, 363, 308, 656, 18:35:08.913
9, -187500.02, -187500.02, -187500.02, -187500.02, -187500.02, -187500.02, 187500.00, -187500.02, 358, 291, 657, 18:35:08.913
10, -187500.02, -187500.02, -187500.02, -187500.02, -187500.02, -187500.02, 187500.00, -187500.02, 354, 274, 657, 18:35:08.913
11, -187500.02, -187500.02, -187500.02, -187500.02, -187500.02, -187500.02, 187500.00, -187500.02, 351, 270, 656, 18:35:08.913
12, -187500.02, -187500.02, -187500.02, -187500.02, -187500.02, -187500.02, 187500.00, -187500.02, 349, 273, 657, 18:35:08.913
13, -187500.02, -187500.02, -187500.02, -187500.02, -187500.02, -187500.02, 187500.00, -187500.02, 346, 266, 656, 18:35:08.913
14, -187500.02, -187500.02, -187500.02, -187500.02, -187500.02, -187500.02, 187500.00, -187500.02, 344, 253, 657, 18:35:08.913
15, -187500.02, -187500.02, -187500.02, -187500.02, -187500.02, -187500.02, 187500.00, -187500.02, 343, 251, 662, 18:35:08.913
16, -187500.02, -187500.02, -187500.02, -187500.02, -187500.02, -187500.02, 187500.00, -187500.02, 342, 259, 657, 18:35:08.913
17, -187500.02, -187500.02, -187500.02, -187500.02, -187500.02, -187500.02, 187500.00, -187500.02, 341, 258, 657, 18:35:08.914
18, -187500.02, -187500.02, -187500.02, -187500.02, -187500.02, -187500.02, 187500.00, -187500.02, 340, 246, 657, 18:35:08.914
19, -187500.02, -187500.02, -187500.02, -187500.02, -187500.02, -187500.02, 187500.00, -187500.02, 340, 243, 657, 18:35:08.914
20, -187500.02, -187500.02, -187500.02, -187500.02, -187500.02, -187500.02, 187500.00, -187500.02, 339, 253, 657, 18:35:08.914
21, -187500.02, -187500.02, -187500.02, -187500.02, -187500.02, -187500.02, 187500.00, -187500.02, 339, 254, 657, 18:35:08.914
22, -187500.02, -187500.02, -187500.02, -187500.02, -187500.02, -187500.02, 187500.00, -187500.02, 339, 244, 657, 18:35:08.914
23, -187500.02, -187500.02, -187500.02, -187500.02, -187500.02, -187500.02, 187500.00, -187500.02, 338, 240, 656, 18:35:08.914
24, -187500.02, -187500.02, -187500.02, -187500.02, -187500.02, -187500.02, 187500.00, -187500.02, 338, 249, 656, 18:35:08.914
25, -187500.02, -187500.02, -187500.02, -187500.02, -187500.02, -187500.02, 187500.00, -187500.02, 338, 252, 657, 18:35:08.914
26, -187500.02, -187500.02, -187500.02, -187500.02, -187500.02, -187500.02, 187500.00, -187500.02, 338, 244, 655, 18:35:08.914
27, -187500.02, -187500.02, -187500.02, -187500.02, -187500.02, -187500.02, 187500.00, -187500.02, 338, 239, 657, 18:35:08.915
28, -187500.02, -187500.02, -187500.02, -187500.02, -187500.02, -187500.02, 187500.00, -187500.02, 338, 247, 655, 18:35:08.915
29, -187500.02, -187500.02, -187500.02, -187500.02, -187500.02, -187500.02, 187500.00, -187500.02, 338, 252, 657, 18:35:08.915
30, -187500.02, -187500.02, -187500.02, -187500.02, -187500.02, -187500.02, 187500.00, -187500.02, 337, 244, 657, 18:35:08.915
31, -187500.02, -187500.02, -187500.02, -187500.02, -187500.02, -187500.02, 187500.00, -187500.02, 337, 238, 656, 18:35:08.915
32, -187500.02, -187500.02, -187500.02, -187500.02, -187500.02, -187500.02, 187500.00, -187500.02, 337, 243, 657, 18:35:08.915
33, -187500.02, -187500.02, -187500.02, -187500.02, -187500.02, -187500.02, 187500.00, -187500.02, 337, 251, 656, 18:35:08.915
34, -187500.02, -187500.02, -187500.02, -187500.02, -187500.02, -187500.02, 187500.00, -187500.02, 337, 246, 657, 18:35:08.915
35, -187500.02, -187500.02, -187500.02, -187500.02, -187500.02, -187500.02, 187500.00, -187500.02, 337, 238, 657, 18:35:08.915
36, -187500.02, -187500.02, -187500.02, -187500.02, -187500.02, -187500.02, 187500.00, -187500.02, 337, 241, 655, 18:35:08.916
37, -187500.02, -187500.02, -187500.02, -187500.02, -187500.02, -187500.02, 187500.00, -187500.02, 337, 249, 656, 18:35:08.916
38, -187500.02, -187500.02, -187500.02, -187500.02, -187500.02, -187500.02, 187500.00, -187500.02, 337, 248, 655, 18:35:08.916
39, -187500.02, -187500.02, -187500.02, -187500.02, -187500.02, -187500.02, 187500.00, -187500.02, 337, 238, 656, 18:35:08.916
40, -187500.02, -187500.02, -187500.02, -187500.02, -187500.02, -187500.02, 187500.00, -187500.02, 337, 238, 656, 18:35:08.916
41, -187500.02, -187500.02, -187500.02, -187500.02, -187500.02, -187500.02, 187500.00, -187500.02, 337, 249, 657, 18:35:08.916
42, -187500.02, -187500.02, -187500.02, -187500.02, -187500.02, -187500.02, 187500.00, -187500.02, 337, 250, 656, 18:35:08.916
43, -187500.02, -187500.02, -187500.02, -187500.02, -187500.02, -187500.02, 187500.00, -187500.02, 338, 240, 657, 18:35:08.916
44, -187500.02, -187500.02, -187500.02, -187500.02, -187500.02, -187500.02, 187500.00, -187500.02, 337, 237, 655, 18:35:08.916
45, -187500.02, -187500.02, -187500.02, -187500.02, -187500.02, -187500.02, 187500.00, -187500.02, 337, 247, 657, 18:35:08.916
46, -187500.02, -187500.02, -187500.02, -187500.02, -187500.02, -187500.02, 187500.00, -187500.02, 337, 251, 655, 18:35:08.917
47, -187500.02, -187500.02, -187500.02, -187500.02, -187500.02, -187500.02, 187500.00, -187500.02, 337, 241, 657, 18:35:08.917
48, -187500.02, -187500.02, -187500.02, -187500.02, -187500.02, -187500.02, 187500.00, -187500.02, 337, 237, 657, 18:35:08.917
49, -187500.02, -187500.02, -187500.02, -187500.02, -187500.02, -187500.02, 187500.00, -187500.02, 337, 247, 657, 18:35:08.917
50, -187500.02, -187500.02, -187500.02, -187500.02, -187500.02, -187500.02, 187500.00, -187500.02, 337, 251, 657, 18:35:08.917
51, -187500.02, -187500.02, -187500.02, -187500.02, -187500.02, -187500.02, 187500.00, -187500.02, 337, 243, 656, 18:35:08.917
52, -187500.02, -187500.02, -187500.02, -187500.02, -187500.02, -187500.02, 187500.00, -187500.02, 337, 238, 657, 18:35:08.919
53, -187500.02, -187500.02, -187500.02, -187500.02, -187500.02, -187500.02, 187500.00, -187500.02, 337, 245, 657, 18:35:08.919
54, -187500.02, -187500.02, -187500.02, -187500.02, -187500.02, -187500.02, 187500.00, -187500.02, 337, 251, 655, 18:35:08.919
55, -187500.02, -187500.02, -187500.02, -187500.02, -187500.02, -187500.02, 187500.00, -187500.02, 337, 245, 656, 18:35:08.919
56, -187500.02, -187500.02, -187500.02, -187500.02, -187500.02, -187500.02, 187500.00, -187500.02, 337, 238, 654, 18:35:08.919
57, -187500.02, -187500.02, -187500.02, -187500.02, -187500.02, -187500.02, 187500.00, -187500.02, 337, 243, 657, 18:35:08.919
58, -187500.02, -187500.02, -187500.02, -187500.02, -187500.02, -187500.02, 187500.00, -187500.02, 337, 252, 656, 18:35:08.919
59, -187500.02, -187500.02, -187500.02, -187500.02, -187500.02, -187500.02, 187500.00, -187500.02, 337, 248, 656, 18:35:08.920
60, -187500.02, -187500.02, -187500.02, -187500.02, -187500.02, -187500.02, 187500.00, -187500.02, 337, 239, 656, 18:35:08.920
61, -187500.02, -187500.02, -187500.02, -187500.02, -187500.02, -187500.02, 187500.00, -187500.02, 337, 241, 657, 18:35:08.920
62, -187500.02, -187500.02, -187500.02, -187500.02, -187500.02, -187500.02, 187500.00, -187500.02, 337, 250, 655, 18:35:08.920
63, -187500.02, -187500.02, -187500.02, -187500.02, -187500.02, -187500.02, 187500.00, -187500.02, 337, 250, 656, 18:35:08.920
64, -187500.02, -187500.02, -187500.02, -187500.02, -187500.02, -187500.02, 187500.00, -187500.02, 337, 240, 655, 18:35:08.920
65, -187500.02, -187500.02, -187500.02, -187500.02, -187500.02, -187500.02, 187500.00, -187500.02, 337, 239, 656, 18:35:08.926
66, -187500.02, -187500.02, -187500.02, -187500.02, -187500.02, -187500.02, 187500.00, -187500.02, 337, 250, 656, 18:35:08.927
67, -187500.02, -187500.02, -187500.02, -187500.02, -187500.02, -187500.02, 187500.00, -187500.02, 337, 251, 656, 18:35:08.927
68, -187500.02, -187500.02, -187500.02, -187500.02, -187500.02, -187500.02, 187500.00, -187500.02, 337, 241, 656, 18:35:08.927
69, -187500.02, -187500.02, -187500.02, -187500.02, -187500.02, -187500.02, 187500.00, -187500.02, 337, 238, 657, 18:35:08.927
70, -187500.02, -187500.02, -187500.02, -187500.02, -187500.02, -187500.02, 187500.00, -187500.02, 337, 248, 655, 18:35:08.927
71, -187500.02, -187500.02, -187500.02, -187500.02, -187500.02, -187500.02, 187500.00, -187500.02, 337, 252, 657, 18:35:08.927
72, -187500.02, -187500.02, -187500.02, -187500.02, -187500.02, -187500.02, 187500.00, -187500.02, 337, 243, 655, 18:35:08.927
73, -187500.02, -187500.02, -187500.02, -187500.02, -187500.02, -187500.02, 187500.00, -187500.02, 337, 238, 657, 18:35:08.927
74, -187500.02, -187500.02, -187500.02, -187500.02, -187500.02, -187500.02, 187500.00, -187500.02, 337, 247, 657, 18:35:08.927
75, -187500.02, -187500.02, -187500.02, -187500.02, -187500.02, -187500.02, 187500.00, -187500.02, 337, 252, 656, 18:35:08.927
76, -187500.02, -187500.02, -187500.02, -187500.02, -187500.02, -187500.02, 187500.00, -187500.02, 337, 244, 657, 18:35:08.928
77, -187500.02, -187500.02, -187500.02, -187500.02, -187500.02, -187500.02, 187500.00, -187500.02, 337, 238, 657, 18:35:08.928
78, -187500.02, -187500.02, -187500.02, -187500.02, -187500.02, -187500.02, 187500.00, -187500.02, 337, 244, 655, 18:35:08.928
79, -187500.02, -187500.02, -187500.02, -187500.02, -187500.02, -187500.02, 187500.00, -187500.02, 337, 251, 657, 18:35:08.928
80, -187500.02, -187500.02, -187500.02, -187500.02, -187500.02, -187500.02, 187500.00, -187500.02, 337, 246, 655, 18:35:08.928
81, -187500.02, -187500.02, -187500.02, -187500.02, -187500.02, -187500.02, 187500.00, -187500.02, 337, 239, 657, 18:35:08.928
82, -187500.02, -187500.02, -187500.02, -187500.02, -187500.02, -187500.02, 187500.00, -187500.02, 337, 243, 654, 18:35:08.928
83, -187500.02, -187500.02, -187500.02, -187500.02, -187500.02, -187500.02, 187500.00, -187500.02, 338, 251, 657, 18:35:08.928
84, -187500.02, -187500.02, -187500.02, -187500.02, -187500.02, -187500.02, 187500.00, -187500.02, 337, 249, 657, 18:35:08.928
85, -187500.02, -187500.02, -187500.02, -187500.02, -187500.02, -187500.02, 187500.00, -187500.02, 337, 240, 654, 18:35:08.928
86, -187500.02, -187500.02, -187500.02, -187500.02, -187500.02, -187500.02, 187500.00, -187500.02, 337, 241, 656, 18:35:08.928
87, -187500.02, -187500.02, -187500.02, -187500.02, -187500.02, -187500.02, 187500.00, -187500.02, 337, 251, 655, 18:35:08.929
88, -187500.02, -187500.02, -187500.02, -187500.02, -187500.02, -187500.02, 187500.00, -187500.02, 337, 251, 656, 18:35:08.929
89, -187500.02, -187500.02, -187500.02, -187500.02, -187500.02, -187500.02, 187500.00, -187500.02, 337, 241, 655, 18:35:08.929
90, -187500.02, -187500.02, -187500.02, -187500.02, -187500.02, -187500.02, 187500.00, -187500.02, 337, 239, 656, 18:35:08.929
91, -187500.02, -187500.02, -187500.02, -187500.02, -187500.02, -187500.02, 187500.00, -187500.02, 338, 250, 657, 18:35:08.929
92, -187500.02, -187500.02, -187500.02, -187500.02, -187500.02, -187500.02, 187500.00, -187500.02, 337, 252, 657, 18:35:08.929
93, -187500.02, -187500.02, -187500.02, -187500.02, -187500.02, -187500.02, 187500.00, -187500.02, 337, 242, 657, 18:35:08.929
94, -187500.02, -187500.02, -187500.02, -187500.02, -187500.02, -187500.02, 187500.00, -187500.02, 337, 238, 657, 18:35:08.929
95, -187500.02, -187500.02, -187500.02, -187500.02, -187500.02, -187500.02, 187500.00, -187500.02, 337, 248, 655, 18:35:08.929
96, -187500.02, -187500.02, -187500.02, -187500.02, -187500.02, -187500.02, 187500.00, -187500.02, 338, 252, 657, 18:35:08.929
97, -187500.02, -187500.02, -187500.02, -187500.02, -187500.02, -187500.02, 187500.00, -187500.02, 337, 243, 656, 18:35:08.930
98, -187500.02, -187500.02, -187500.02, -187500.02, -187500.02, -187500.02, 187500.00, -187500.02, 337, 238, 655, 18:35:08.930
99, -187500.02, -187500.02, -187500.02, -187500.02, -187500.02, -187500.02, 187500.00, -187500.02, 337, 246, 657, 18:35:08.930
100, -187500.02, -187500.02, -187500.02, -187500.02, -187500.02, -187500.02, 187500.00, -187500.02, 337, 252, 655, 18:35:08.930
101, -187500.02, -187500.02, -187500.02, -187500.02, -187500.02, -187500.02, 187500.00, -187500.02, 337, 244, 657, 18:35:08.930
102, -187500.02, -187500.02, -187500.02, -187500.02, -187500.02, -187500.02, 187493.00, -187500.02, 337, 238, 657, 18:35:08.930
103, -187500.02, -187500.02, -187500.02, -187500.02, -187500.02, -187500.02, 187491.75, -187500.02, 337, 243, 656, 18:35:08.930
104, -187500.02, -187500.02, -187500.02, -187500.02, -187500.02, -187500.02, 187479.94, -187500.02, 338, 250, 657, 18:35:08.930
105, -187500.02, -187500.02, -187500.02, -187500.02, -187500.02, -187500.02, 187463.53, -187500.02, 337, 246, 657, 18:35:08.930
106, -187500.02, -187500.02, -187500.02, -187500.02, -187500.02, -187500.02, 187451.47, -187500.02, 337, 238, 656, 18:35:08.930
107, -187500.02, -187500.02, -187500.02, -187500.02, -187500.02, -187500.02, 187444.73, -187500.02, 337, 241, 657, 18:35:08.930
108, -187500.02, -187500.02, -187500.02, -187500.02, -187500.02, -187500.02, 187433.41, -187500.02, 337, 249, 655, 18:35:08.931
109, -187500.02, -187500.02, -187500.02, -187500.02, -187500.02, -187500.02, 187421.58, -187500.02, 337, 247, 657, 18:35:08.931
110, -187500.02, -187500.02, -187500.02, -187500.02, -187500.02, -187500.02, 187409.72, -187500.02, 337, 238, 655, 18:35:08.931
111, -187500.02, -187500.02, -187500.02, -187500.02, -187500.02, -187500.02, 187403.39, -187500.02, 337, 238, 657, 18:35:08.931
112, -187500.02, -187500.02, -187500.02, -187500.02, -187500.02, -187500.02, 187397.00, -187500.02, 337, 248, 655, 18:35:08.931
113, -187500.02, -187500.02, -187500.02, -187500.02, -187500.02, -187500.02, 187385.08, -187500.02, 337, 249, 657, 18:35:08.931
114, -187500.02, -187500.02, -187500.02, -187500.02, -187500.02, -187500.02, 187372.45, -187500.02, 337, 239, 656, 18:35:08.931
115, -187500.02, -187500.02, -187500.02, -187500.02, -187500.02, -187500.02, 187365.03, -187500.02, 337, 236, 656, 18:35:08.931
116, -187500.02, -187500.02, -187500.02, -187500.02, -187500.02, -187500.02, 187357.34, -187500.02, 338, 247, 656, 18:35:08.931
117, -187500.02, -187500.02, -187500.02, -187500.02, -187500.02, -187500.02, 187349.48, -187500.02, 337, 250, 657, 18:35:08.931
118, -187500.02, -187500.02, -187500.02, -187500.02, -187500.02, -187500.02, 187338.03, -187500.02, 337, 240, 655, 18:35:08.932
119, -187500.02, -187500.02, -187500.02, -187500.02, -187500.02, -187500.02, 187328.80, -187500.02, 337, 236, 656, 18:35:08.932
120, -187500.02, -187500.02, -187500.02, -187500.02, -187500.02, -187500.02, 187324.89, -187500.02, 337, 246, 655, 18:35:09.391
121, -187500.02, -187500.02, -187500.02, -187500.02, -187500.02, -187500.02, 187313.78, -187500.02, 337, 251, 657, 18:35:09.391
122, -187500.02, -187500.02, -187500.02, -187500.02, -187500.02, -187500.02, 187299.75, -187500.02, 337, 242, 655, 18:35:09.392
123, -187500.02, -187500.02, -187500.02, -187500.02, -187500.02, -187500.02, 187290.42, -187500.02, 337, 237, 656, 18:35:09.392
124, -187500.02, -187500.02, -187500.02, -187500.02, -187500.02, -187500.02, 187283.00, -187500.02, 337, 245, 657, 18:35:09.392
125, -187500.02, -187500.02, -187500.02, -187500.02, -187500.02, -187500.02, 187274.05, -187500.02, 337, 251, 657, 18:35:09.392
126, -187500.02, -187500.02, -187500.02, -187500.02, -187500.02, -187500.02, 187258.45, -187500.02, 337, 244, 656, 18:35:09.392
127, -187500.02, -187500.02, -187500.02, -187500.02, -187500.02, -187500.02, 187246.25, -187500.02, 337, 237, 656, 18:35:09.392
128, -187500.02, -187500.02, -187500.02, -187500.02, -187500.02, -187500.02, 187240.94, -187500.02, 337, 243, 657, 18:35:09.393
129, -187500.02, -187500.02, -187500.02, -187500.02, -187500.02, -187500.02, 187233.92, -187500.02, 337, 251, 657, 18:35:09.393
130, -187500.02, -187500.02, -187500.02, -187500.02, -187500.02, -187500.02, 187217.59, -187500.02, 337, 247, 656, 18:35:09.393
131, -187500.02, -187500.02, -187500.02, -187500.02, -187500.02, -187500.02, 187206.02, -187500.02, 337, 238, 656, 18:35:09.393
132, -187500.02, -187500.02, -187500.02, -187500.02, -187500.02, -187500.02, 187200.84, -187500.02, 337, 241, 657, 18:35:09.393
133, -187500.02, -187500.02, -187500.02, -187500.02, -187500.02, -187500.02, 187191.03, -187500.02, 337, 250, 657, 18:35:09.393
134, -187500.02, -187500.02, -187500.02, -187500.02, -187500.02, -187500.02, 187177.97, -187500.02, 337, 250, 657, 18:35:09.393
135, -187500.02, -187500.02, -187500.02, -187500.02, -187500.02, -187500.02, 187164.63, -187500.02, 337, 239, 655, 18:35:09.393
136, -187500.02, -187500.02, -187500.02, -187500.02, -187500.02, -187500.02, 187156.63, -187500.02, 337, 239, 656, 18:35:09.393
137, -187500.02, -187500.02, -187500.02, -187500.02, -187500.02, -187500.02, 187148.83, -187500.02, 338, 249, 657, 18:35:09.394
138, -187500.02, -187500.02, -187500.02, -187500.02, -187500.02, -187500.02, 187136.31, -187500.02, 337, 252, 657, 18:35:09.394
139, -187500.02, -187500.02, -187500.02, -187500.02, -187500.02, -187500.02, 187124.84, -187500.02, 337, 241, 655, 18:35:09.394
140, -187500.02, -187500.02, -187500.02, -187500.02, -187500.02, -187500.02, 187119.41, -187500.02, 337, 238, 657, 18:35:09.394
141, -187500.02, -187500.02, -187500.02, -187500.02, -187500.02, -187500.02, 187112.92, -187500.02, 337, 248, 657, 18:35:09.394
142, -187500.02, -187500.02, -187500.02, -187500.02, -187500.02, -187500.02, 187099.50, -187500.02, 337, 251, 657, 18:35:09.394
143, -187500.02, -187500.02, -187500.02, -187500.02, -187500.02, -187500.02, 187086.84, -187500.02, 337, 242, 657, 18:35:09.394
144, -187500.02, -187500.02, -187500.02, -187500.02, -187500.02, -187500.02, 187078.31, -187500.02, 337, 238, 657, 18:35:09.394
145, -187500.02, -187500.02, -187500.02, -187500.02, -187500.02, -187500.02, 187069.70, -187500.02, 337, 247, 656, 18:35:09.394
146, -187500.02, -187500.02, -187500.02, -187500.02, -187500.02, -187500.02, 187059.47, -187500.02, 337, 252, 657, 18:35:09.394
147, -187500.02, -187500.02, -187500.02, -187500.02, -187500.02, -187500.02, 187047.73, -187500.02, 337, 244, 655, 18:35:09.394
148, -187500.02, -187500.02, -187500.02, -187500.02, -187500.02, -187500.02, 187036.59, -187500.02, 337, 237, 657, 18:35:09.395
149, -187500.02, -187500.02, -187500.02, -187500.02, -187500.02, -187500.02, 187031.61, -187500.02, 337, 244, 655, 18:35:09.395
150, -187500.02, -187500.02, -187500.02, -187500.02, -187500.02, -187500.02, 187021.33, -187500.02, 337, 251, 656, 18:35:09.395
151, -187500.02, -187500.02, -187500.02, -187500.02, -187500.02, -187500.02, 187007.11, -187500.02, 337, 245, 655, 18:35:09.395
152, -187500.02, -187500.02, -187500.02, -187500.02, -187500.02, -187500.02, 186998.00, -187500.02, 337, 239, 656, 18:35:09.395
153, -187500.02, -187500.02, -187500.02, -187500.02, -187500.02, -187500.02, 186991.58, -187500.02, 337, 242, 657, 18:35:09.395
154, -187500.02, -187500.02, -187500.02, -187500.02, -187500.02, -187500.02, 186982.38, -187500.02, 337, 250, 657, 18:35:09.395
155, -187500.02, -187500.02, -187500.02, -187500.02, -187500.02, -187500.02, 186970.61, -187500.02, 337, 247, 656, 18:35:09.395
156, -187500.02, -187500.02, -187500.02, -187500.02, -187500.02, -187500.02, 186960.95, -187500.02, 337, 238, 657, 18:35:09.395
157, -187500.02, -187500.02, -187500.02, -187500.02, -187500.02, -187500.02, 186953.05, -187500.02, 337, 239, 656, 18:35:09.395
158, -187500.02, -187500.02, -187500.02, -187500.02, -187500.02, -187500.02, 186944.22, -187500.02, 337, 250, 656, 18:35:09.396
159, -187500.02, -187500.02, -187500.02, -187500.02, -187500.02, -187500.02, 186933.02, -187500.02, 337, 250, 656, 18:35:09.396
160, -187500.02, -187500.02, -187500.02, -187500.02, -187500.02, -187500.02, 186921.02, -187500.02, 337, 239, 655, 18:35:09.396
161, -187500.02, -187500.02, -187500.02, -187500.02, -187500.02, -187500.02, 186912.95, -187500.02, 338, 237, 657, 18:35:09.396
162, -187500.02, -187500.02, -187500.02, -187500.02, -187500.02, -187500.02, 186906.84, -187500.02, 338, 248, 655, 18:35:09.396
163, -187500.02, -187500.02, -187500.02, -187500.02, -187500.02, -187500.02, 186896.97, -187500.02, 337, 250, 657, 18:35:09.396
164, -187500.02, -187500.02, -187500.02, -187500.02, -187500.02, -187500.02, 186880.33, -187500.02, 337, 240, 655, 18:35:09.396
165, -187500.02, -187500.02, -187500.02, -187500.02, -187500.02, -187500.02, 186869.36, -187500.02, 337, 237, 657, 18:35:09.396
166, -187500.02, -187500.02, -187500.02, -187500.02, -187500.02, -187500.02, 186863.44, -187500.02, 337, 247, 655, 18:35:09.396
167, -187500.02, -187500.02, -187500.02, -187500.02, -187500.02, -187500.02, 186851.70, -187500.02, 337, 250, 657, 18:35:09.396
168, -187500.02, -187500.02, -187500.02, -187500.02, -187500.02, -187500.02, 186839.91, -187500.02, 337, 242, 654, 18:35:09.397
169, -187500.02, -187500.02, -187500.02, -187500.02, -187500.02, -187500.02, 186829.48, -187500.02, 337, 237, 657, 18:35:09.397
170, -187500.02, -187500.02, -187500.02, -187500.02, -187500.02, -187500.02, 186821.66, -187500.02, 337, 246, 657, 18:35:09.397
171, -187500.02, -187500.02, -187500.02, -187500.02, -187500.02, -187500.02, 186814.17, -187500.02, 337, 251, 657, 18:35:09.397
172, -187500.02, -187500.02, -187500.02, -187500.02, -187500.02, -187500.02, 186802.16, -187500.02, 337, 244, 656, 18:35:09.397
173, -187500.02, -187500.02, -187500.02, -187500.02, -187500.02, -187500.02, 186790.59, -187500.02, 337, 238, 657, 18:35:09.397
174, -187500.02, -187500.02, -187500.02, -187500.02, -187500.02, -187500.02, 186784.72, -187500.02, 338, 244, 655, 18:35:09.397
175, -187500.02, -187500.02, -187500.02, -187500.02, -187500.02, -187500.02, 186773.61, -187500.02, 337, 250, 657, 18:35:09.397
176, -187500.02, -187500.02, -187500.02, -187500.02, -187500.02, -187500.02, 186760.28, -187500.02, 337, 246, 655, 18:35:09.398
177, -187500.02, -187500.02, -187500.02, -187500.02, -187500.02, -187500.02, 186748.33, -187500.02, 337, 238, 657, 18:35:09.398
178, -187500.02, -187500.02, -187500.02, -187500.02, -187500.02, -187500.02, 186742.77, -187500.02, 337, 242, 657, 18:35:09.398
179, -187500.02, -187500.02, -187500.02, -187500.02, -187500.02, -187500.02, 186734.94, -187500.02, 337, 251, 656, 18:35:09.398
180, -187500.02, -187500.02, -187500.02, -187500.02, -187500.02, -187500.02, 186723.89, -187500.02, 337, 249, 656, 18:35:09.398
181, -187500.02, -187500.02, -187500.02, -187500.02, -187500.02, -187500.02, 186710.64, -187500.02, 337, 239, 657, 18:35:09.398
182, -187500.02, -187500.02, -187500.02, -187500.02, -187500.02, -187500.02, 186701.50, -187500.02, 337, 239, 655, 18:35:09.398
183, -187500.02, -187500.02, -187500.02, -187500.02, -187500.02, -187500.02, 186691.42, -187500.02, 337, 249, 657, 18:35:09.399
184, -187500.02, -187500.02, -187500.02, -187500.02, -187500.02, -187500.02, 186679.84, -187500.02, 337, 250, 654, 18:35:09.399
185, -187500.02, -187500.02, -187500.02, -187500.02, -187500.02, -187500.02, 186666.20, -187500.02, 337, 240, 657, 18:35:09.399
186, -187500.02, -187500.02, -187500.02, -187500.02, -187500.02, -187500.02, 186662.30, -187500.02, 337, 238, 656, 18:35:09.399
187, -187500.02, -187500.02, -187500.02, -187500.02, -187500.02, -187500.02, 186656.27, -187500.02, 337, 249, 656, 18:35:09.399
188, -187500.02, -187500.02, -187500.02, -187500.02, -187500.02, -187500.02, 186643.78, -187500.02, 337, 251, 656, 18:35:09.399
189, -187500.02, -187500.02, -187500.02, -187500.02, -187500.02, -187500.02, 186631.11, -187500.02, 337, 241, 657, 18:35:09.399
190, -187500.02, -187500.02, -187500.02, -187500.02, -187500.02, -187500.02, 186621.69, -187500.02, 337, 237, 655, 18:35:09.399
191, -187500.02, -187500.02, -187500.02, -187500.02, -187500.02, -187500.02, 186614.00, -187500.02, 337, 246, 656, 18:35:09.399
192, -187500.02, -187500.02, -187500.02, -187500.02, -187500.02, -187500.02, 186605.14, -187500.02, 338, 251, 655, 18:35:09.399
193, -187500.02, -187500.02, -187500.02, -187500.02, -187500.02, -187500.02, 186591.48, -187500.02, 337, 242, 657, 18:35:09.400
194, -187500.02, -187500.02, -187500.02, -187500.02, -187500.02, -187500.02, 186580.47, -187500.02, 337, 237, 655, 18:35:09.400
195, -187500.02, -187500.02, -187500.02, -187500.02, -187500.02, -187500.02, 186572.17, -187500.02, 337, 245, 656, 18:35:09.400
196, -187500.02, -187500.02, -187500.02, -187500.02, -187500.02, -187500.02, 186565.67, -187500.02, 338, 250, 657, 18:35:09.400
197, -187500.02, -187500.02, -187500.02, -187500.02, -187500.02, -187500.02, 186552.41, -187500.02, 337, 244, 657, 18:35:09.400
198, -187500.02, -187500.02, -187500.02, -187500.02, -187500.02, -187500.02, 186540.97, -187500.02, 337, 238, 657, 18:35:09.400
199, -187500.02, -187500.02, -187500.02, -187500.02, -187500.02, -187500.02, 186534.75, -187500.02, 337, 243, 657, 18:35:09.400
200, -187500.02, -187500.02, -187500.02, -187500.02, -187500.02, -187500.02, 186524.98, -187500.02, 338, 250, 655, 18:35:09.400
201, -187500.02, -187500.02, -187500.02, -187500.02, -187500.02, -187500.02, 186512.81, -187500.02, 337, 247, 657, 18:35:09.400
202, -187500.02, -187500.02, -187500.02, -187500.02, -187500.02, -187500.02, 186503.00, -187500.02, 337, 238, 655, 18:35:09.400
203, -187500.02, -187500.02, -187500.02, -187500.02, -187500.02, -187500.02, 186495.03, -187500.02, 337, 241, 657, 18:35:09.401
204, -187500.02, -187500.02, -187500.02, -187500.02, -187500.02, -187500.02, 186484.39, -187500.02, 337, 249, 656, 18:35:09.401
205, -187500.02, -187500.02, -187500.02, -187500.02, -187500.02, -187500.02, 186473.20, -187500.02, 337, 248, 656, 18:35:09.401
206, -187500.02, -187500.02, -187500.02, -187500.02, -187500.02, -187500.02, 186461.44, -187500.02, 337, 238, 656, 18:35:09.401
207, -187500.02, -187500.02, -187500.02, -187500.02, -187500.02, -187500.02, 186452.75, -187500.02, 337, 238, 657, 18:35:09.401
208, -187500.02, -187500.02, -187500.02, -187500.02, -187500.02, -187500.02, 186445.11, -187500.02, 337, 249, 655, 18:35:09.401
209, -187500.02, -187500.02, -187500.02, -187500.02, -187500.02, -187500.02, 186434.69, -187500.02, 337, 251, 657, 18:35:09.401
210, -187500.02, -187500.02, -187500.02, -187500.02, -187500.02, -187500.02, 186422.44, -187500.02, 337, 240, 655, 18:35:09.401
211, -187500.02, -187500.02, -187500.02, -187500.02, -187500.02, -187500.02, 186414.61, -187500.02, 338, 237, 657, 18:35:09.401
212, -187500.02, -187500.02, -187500.02, -187500.02, -187500.02, -187500.02, 186406.09, -187500.02, 337, 248, 656, 18:35:09.401
213, -187500.02, -187500.02, -187500.02, -187500.02, -187500.02, -187500.02, 186396.17, -187500.02, 337, 251, 656, 18:35:09.401
214, -187500.02, -187500.02, -187500.02, -187500.02, -187500.02, -187500.02, 186385.92, -187500.02, 337, 241, 657, 18:35:09.402
215, -187500.02, -187500.02, -187500.02, -187500.02, -187500.02, -187500.02, 186376.13, -187500.02, 337, 237, 657, 18:35:09.402
216, -187500.02, -187500.02, -187500.02, -187500.02, -187500.02, -187500.02, 186368.55, -187500.02, 337, 246, 657, 18:35:09.402
217, -187500.02, -187500.02, -187500.02, -187500.02, -187500.02, -187500.02, 186355.78, -187500.02, 337, 251, 656, 18:35:09.402
218, -187500.02, -187500.02, -187500.02, -187500.02, -187500.02, -187500.02, 186342.19, -187500.02, 337, 243, 657, 18:35:09.402
219, -187500.02, -187500.02, -187500.02, -187500.02, -187500.02, -187500.02, 186334.42, -187500.02, 337, 237, 655, 18:35:09.402
220, -187500.02, -187500.02, -187500.02, -187500.02, -187500.02, -187500.02, 186328.89, -187500.02, 337, 245, 656, 18:35:09.402
221, -187500.02, -187500.02, -187500.02, -187500.02, -187500.02, -187500.02, 186320.53, -187500.02, 337, 251, 657, 18:35:09.402
222, -187500.02, -187500.02, -187500.02, -187500.02, -187500.02, -187500.02, 186307.73, -187500.02, 337, 245, 655, 18:35:09.402
223, -187500.02, -187500.02, -187500.02, -187500.02, -187500.02, -187500.02, 186297.17, -187500.02, 337, 238, 657, 18:35:09.402
224, -187500.02, -187500.02, -187500.02, -187500.02, -187500.02, -187500.02, 186294.31, -187500.02, 337, 243, 655, 18:35:09.403
225, -187500.02, -187500.02, -187500.02, -187500.02, -187500.02, -187500.02, 186286.34, -187500.02, 338, 250, 657, 18:35:09.403
226, -187500.02, -187500.02, -187500.02, -187500.02, -187500.02, -187500.02, 186271.81, -187500.02, 338, 247, 657, 18:35:09.403
227, -187500.02, -187500.02, -187500.02, -187500.02, -187500.02, -187500.02, 186257.22, -187500.02, 337, 238, 657, 18:35:09.403
228, -187500.02, -187500.02, -187500.02, -187500.02, -187500.02, -187500.02, 186250.89, -187500.02, 337, 240, 655, 18:35:09.403
229, -187500.02, -187500.02, -187500.02, -187500.02, -187500.02, -187500.02, 186245.03, -187500.02, 337, 250, 656, 18:35:09.403
230, -187500.02, -187500.02, -187500.02, -187500.02, -187500.02, -187500.02, 186231.70, -187500.02, 338, 250, 657, 18:35:09.403
231, -187500.02, -187500.02, -187500.02, -187500.02, -187500.02, -187500.02, 186219.63, -187500.02, 337, 239, 657, 18:35:09.403
232, -187500.02, -187500.02, -187500.02, -187500.02, -187500.02, -187500.02, 186214.64, -187500.02, 337, 238, 657, 18:35:09.403
233, -187500.02, -187500.02, -187500.02, -187500.02, -187500.02, -187500.02, 186206.86, -187500.02, 337, 249, 657, 18:35:09.403
234, -187500.02, -187500.02, -187500.02, -187500.02, -187500.02, -187500.02, 186195.34, -187500.02, 337, 251, 657, 18:35:09.404
235, -187500.02, -187500.02, -187500.02, -187500.02, -187500.02, -187500.02, 186182.98, -187500.02, 337, 240, 656, 18:35:09.404
236, -187500.02, -187500.02, -187500.02, -187500.02, -187500.02, -187500.02, 186174.36, -187500.02, 337, 237, 657, 18:35:09.404
237, -187500.02, -187500.02, -187500.02, -187500.02, -187500.02, -187500.02, 186164.56, -187500.02, 337, 247, 656, 18:35:09.404
238, -187500.02, -187500.02, -187500.02, -187500.02, -187500.02, -187500.02, 186154.38, -187500.02, 337, 250, 657, 18:35:09.404
239, -187500.02, -187500.02, -187500.02, -187500.02, -187500.02, -187500.02, 186141.39, -187500.02, 337, 241, 656, 18:35:09.404
240, -187500.02, -187500.02, -187500.02, -187500.02, -187500.02, -187500.02, 186133.05, -187500.02, 337, 237, 655, 18:35:09.871
241, -187500.02, -187500.02, -187500.02, -187500.02, -187500.02, -187500.02, 186125.97, -187500.02, 337, 246, 657, 18:35:09.871
242, -187500.02, -187500.02, -187500.02, -187500.02, -187500.02, -187500.02, 186114.98, -187500.02, 337, 251, 657, 18:35:09.871
243, -187500.02, -187500.02, -187500.02, -187500.02, -187500.02, -187500.02, 186101.80, -187500.02, 337, 243, 656, 18:35:09.871
244, -187500.02, -187500.02, -187500.02, -187500.02, -187500.02, -187500.02, 186094.66, -187500.02, 337, 237, 656, 18:35:09.871
245, -187500.02, -187500.02, -187500.02, -187500.02, -187500.02, -187500.02, 186090.97, -187500.02, 338, 244, 657, 18:35:09.871
246, -187500.02, -187500.02, -187500.02, -187500.02, -187500.02, -187500.02, 186079.70, -187500.02, 337, 250, 655, 18:35:09.872
247, -187500.02, -187500.02, -187500.02, -187500.02, -187500.02, -187500.02, 186066.48, -187500.02, 337, 246, 656, 18:35:09.872
248, -187500.02, -187500.02, -187500.02, -187500.02, -187500.02, -187500.02, 186055.72, -187500.02, 337, 238, 655, 18:35:09.872
249, -187500.02, -187500.02, -187500.02, -187500.02, -187500.02, -187500.02, 186049.16, -187500.02, 337, 243, 657, 18:35:09.872
250, -187500.02, -187500.02, -187500.02, -187500.02, -187500.02, -187500.02, 186037.88, -187500.02, 337, 251, 655, 18:35:09.872
251, -187500.02, -187500.02, -187500.02, -187500.02, -187500.02, -187500.02, 186024.59, -187500.02, 337, 248, 655, 18:35:09.872
252, -187500.02, -187500.02, -187500.02, -187500.02, -187500.02, -187500.02, 186012.47, -187500.02, 337, 239, 657, 18:35:09.872
253, -187500.02, -187500.02, -187500.02, -187500.02, -187500.02, -187500.02, 186006.00, -187500.02, 337, 240, 656, 18:35:09.872
254, -187500.02, -187500.02, -187500.02, -187500.02, -187500.02, -187500.02, 186000.23, -187500.02, 337, 250, 656, 18:35:09.872
255, -187500.02, -187500.02, -187500.02, -187500.02, -187500.02, -187500.02, 185989.78, -187500.02, 337, 250, 657, 18:35:09.873
0, -187500.02, -187500.02, -187500.02, -187500.02, -187500.02, -187500.02, 185980.41, -187500.02, 337, 240, 655, 18:35:09.873
1, -187500.02, -187500.02, -187500.02, -187500.02, -187500.02, -187500.02, 185974.42, -187500.02, 337, 238, 656, 18:35:09.873
2, -187500.02, -187500.02, -187500.02, -187500.02, -187500.02, -187500.02, 185965.81, -187500.02, 337, 249, 656, 18:35:09.873
3, -187500.02, -187500.02, -187500.02, -187500.02, -187500.02, -187500.02, 185953.63, -187500.02, 337, 251, 657, 18:35:09.873
4, -187500.02, -187500.02, -187500.02, -187500.02, -187500.02, -187500.02, 185940.84, -187500.02, 337, 242, 656, 18:35:09.873
5, -187500.02, -187500.02, -187500.02, -187500.02, -187500.02, -187500.02, 185931.69, -187500.02, 337, 238, 657, 18:35:09.873
6, -187500.02, -187500.02, -187500.02, -187500.02, -187500.02, -187500.02, 185923.09, -187500.02, 337, 247, 657, 18:35:09.873
7, -187500.02, -187500.02, -187500.02, -187500.02, -187500.02, -187500.02, 185912.23, -187500.02, 338, 251, 657, 18:35:09.873
8, -187500.02, -187500.02, -187500.02, -187500.02, -187500.02, -187500.02, 185898.80, -187500.02, 337, 243, 657, 18:35:09.873
9, -187500.02, -187500.02, -187500.02, -187500.02, -187500.02, -187500.02, 185890.17, -187500.02, 337, 238, 656, 18:35:09.873
10, -187500.02, -187500.02, -187500.02, -187500.02, -187500.02, -187500.02, 185883.00, -187500.02, 337, 246, 657, 18:35:09.874
11, -187500.02, -187500.02, -187500.02, -187500.02, -187500.02, -187500.02, 185872.42, -187500.02, 337, 252, 656, 18:35:09.874
12, -187500.02, -187500.02, -187500.02, -187500.02, -187500.02, -187500.02, 185860.45, -187500.02, 338, 244, 657, 18:35:09.874
13, -187500.02, -187500.02, -187500.02, -187500.02, -187500.02, -187500.02, 185848.41, -187500.02, 337, 239, 657, 18:35:09.874
14, -187500.02, -187500.02, -187500.02, -187500.02, -187500.02, -187500.02, 185841.84, -187500.02, 337, 243, 657, 18:35:09.874
15, -187500.02, -187500.02, -187500.02, -187500.02, -187500.02, -187500.02, 185831.34, -187500.02, 337, 251, 656, 18:35:09.874
16, -187500.02, -187500.02, -187500.02, -187500.02, -187500.02, -187500.02, 185819.08, -187500.02, 338, 247, 657, 18:35:09.874
17, -187500.02, -187500.02, -187500.02, -187500.02, -187500.02, -187500.02, 185809.16, -187500.02, 337, 238, 657, 18:35:09.874
18, -187500.02, -187500.02, -187500.02, -187500.02, -187500.02, -187500.02, 185803.30, -187500.02, 337, 241, 657, 18:35:09.874
19, -187500.02, -187500.02, -187500.02, -187500.02, -187500.02, -187500.02, 185795.77, -187500.02, 337, 251, 656, 18:35:09.874
20, -187500.02, -187500.02, -187500.02, -187500.02, -187500.02, -187500.02, 185783.36, -187500.02, 338, 249, 655, 18:35:09.875
21, -187500.02, -187500.02, -187500.02, -187500.02, -187500.02, -187500.02, 185770.33, -187500.02, 337, 238, 657, 18:35:09.875
22, -187500.02, -187500.02, -187500.02, -187500.02, -187500.02, -187500.02, 185763.86, -187500.02, 337, 238, 655, 18:35:09.875
23, -187500.02, -187500.02, -187500.02, -187500.02, -187500.02, -187500.02, 185755.53, -187500.02, 337, 249, 657, 18:35:09.875
24, -187500.02, -187500.02, -187500.02, -187500.02, -187500.02, -187500.02, 185745.84, -187500.02, 337, 250, 655, 18:35:09.875
25, -187500.02, -187500.02, -187500.02, -187500.02, -187500.02, -187500.02, 185732.23, -187500.02, 337, 240, 656, 18:35:09.875
26, -187500.02, -187500.02, -187500.02, -187500.02, -187500.02, -187500.02, 185724.02, -187500.02, 337, 237, 655, 18:35:09.875
27, -187500.02, -187500.02, -187500.02, -187500.02, -187500.02, -187500.02, 185717.86, -187500.02, 337, 247, 657, 18:35:09.875
28, -187500.02, -187500.02, -187500.02, -187500.02, -187500.02, -187500.02, 185706.42, -187500.02, 337, 250, 657, 18:35:09.876
29, -187500.02, -187500.02, -187500.02, -187500.02, -187500.02, -187500.02, 185693.17, -187500.02, 337, 241, 656, 18:35:09.876
30, -187500.02, -187500.02, -187500.02, -187500.02, -187500.02, -187500.02, 185684.89, -187500.02, 337, 237, 656, 18:35:09.876
31, -187500.02, -187500.02, -187500.02, -187500.02, -187500.02, -187500.02, 185679.80, -187500.02, 337, 246, 656, 18:35:09.876
32, -187500.02, -187500.02, -187500.02, -187500.02, -187500.02, -187500.02, 185670.08, -187500.02, 337, 250, 657, 18:35:09.876
33, -187500.02, -187500.02, -187500.02, -187500.02, -187500.02, -187500.02, 185655.80, -187500.02, 337, 242, 657, 18:35:09.876
34, -187500.02, -187500.02, -187500.02, -187500.02, -187500.02, -187500.02, 185646.41, -187500.02, 337, 236, 657, 18:35:09.876
35, -187500.02, -187500.02, -187500.02, -187500.02, -187500.02, -187500.02, 185637.28, -187500.02, 337, 244, 656, 18:35:09.876
36, -187500.02, -187500.02, -187500.02, -187500.02, -187500.02, -187500.02, 185627.52, -187500.02, 337, 250, 657, 18:35:09.877
37, -187500.02, -187500.02, -187500.02, -187500.02, -187500.02, -187500.02, 185616.77, -187500.02, 337, 244, 657, 18:35:09.877
38, -187500.02, -187500.02, -187500.02, -187500.02, -187500.02, -187500.02, 185607.63, -187500.02, 337, 237, 655, 18:35:09.877
39, -187500.02, -187500.02, -187500.02, -187500.02, -187500.02, -187500.02, 185601.19, -187500.02, 337, 241, 657, 18:35:09.877
40, -187500.02, -187500.02, -187500.02, -187500.02, -187500.02, -187500.02, 185591.73, -187500.02, 337, 249, 655, 18:35:09.877
41, -187500.02, -187500.02, -187500.02, -187500.02, -187500.02, -187500.02, 185577.16, -187500.02, 337, 246, 657, 18:35:09.877
42, -187500.02, -187500.02, -187500.02, -187500.02, -187500.02, -187500.02, 185565.55, -187500.02, 337, 237, 655, 18:35:09.877
43, -187500.02, -187500.02, -187500.02, -187500.02, -187500.02, -187500.02, 185560.02, -187500.02, 337, 239, 656, 18:35:09.877
44, -187500.02, -187500.02, -187500.02, -187500.02, -187500.02, -187500.02, 185551.06, -187500.02, 337, 249, 657, 18:35:09.877
45, -187500.02, -187500.02, -187500.02, -187500.02, -187500.02, -187500.02, 185538.00, -187500.02, 337, 248, 657, 18:35:09.877
46, -187500.02, -187500.02, -187500.02, -187500.02, -187500.02, -187500.02, 185524.77, -187500.02, 337, 238, 657, 18:35:09.877
47, -187500.02, -187500.02, -187500.02, -187500.02, -187500.02, -187500.02, 185514.98, -187500.02, 337, 236, 657, 18:35:09.878
48, -187500.02, -187500.02, -187500.02, -187500.02, -187500.02, -187500.02, 185509.70, -187500.02, 338, 248, 655, 18:35:09.878
49, -187500.02, -187500.02, -187500.02, -187500.02, -187500.02, -187500.02, 185499.83, -187500.02, 337, 250, 657, 18:35:09.880
50, -187500.02, -187500.02, -187500.02, -187500.02, -187500.02, -187500.02, 185484.73, -187500.02, 337, 240, 655, 18:35:09.880
51, -187500.02, -187500.02, -187500.02, -187500.02, -187500.02, -187500.02, 185475.66, -187500.02, 337, 237, 656, 18:35:09.880
52, -187500.02, -187500.02, -187500.02, -187500.02, -187500.02, -187500.02, 185471.28, -187500.02, 337, 247, 654, 18:35:09.880
53, -187500.02, -187500.02, -187500.02, -187500.02, -187500.02, -187500.02, 185461.31, -187500.02, 337, 250, 657, 18:35:09.880
54, -187500.02, -187500.02, -187500.02, -187500.02, -187500.02, -187500.02, 185447.64, -187500.02, 337, 241, 656, 18:35:09.880
55, -187500.02, -187500.02, -187500.02, -187500.02, -187500.02, -187500.02, 185440.86, -187500.02, 337, 236, 656, 18:35:09.881
56, -187500.02, -187500.02, -187500.02, -187500.02, -187500.02, -187500.02, 185434.45, -187500.02, 337, 245, 657, 18:35:09.881
57, -187500.02, -187500.02, -187500.02, -187500.02, -187500.02, -187500.02, 185425.89, -187500.02, 337, 251, 656, 18:35:09.881
58, -187500.02, -187500.02, -187500.02, -187500.02, -187500.02, -187500.02, 185413.45, -187500.02, 337, 243, 657, 18:35:09.881
59, -187500.02, -187500.02, -187500.02, -187500.02, -187500.02, -187500.02, 185403.02, -187500.02, 337, 237, 657, 18:35:09.881
60, -187500.02, -187500.02, -187500.02, -187500.02, -187500.02, -187500.02, 185396.56, -187500.02, 337, 244, 657, 18:35:09.881
61, -187500.02, -187500.02, -187500.02, -187500.02, -187500.02, -187500.02, 185387.78, -187500.02, 337, 249, 657, 18:35:09.881
62, -187500.02, -187500.02, -187500.02, -187500.02, -187500.02, -187500.02, 185372.95, -187500.02, 337, 244, 657, 18:35:09.881
63, -187500.02, -187500.02, -187500.02, -187500.02, -187500.02, -187500.02, 185360.81, -187500.02, 337, 237, 656, 18:35:09.881
64, -187500.02, -187500.02, -187500.02, -187500.02, -187500.02, -187500.02, 185355.19, -187500.02, 337, 241, 655, 18:35:09.882
65, -187500.02, -187500.02, -187500.02, -187500.02, -187500.02, -187500.02, 185346.33, -187500.02, 337, 250, 657, 18:35:09.882
66, -187500.02, -187500.02, -187500.02, -187500.02, -187500.02, -187500.02, 185333.66, -187500.02, 337, 246, 655, 18:35:09.882
67, -187500.02, -187500.02, -187500.02, -187500.02, -187500.02, -187500.02, 185322.89, -187500.02, 337, 238, 657, 18:35:09.882
68, -187500.02, -187500.02, -187500.02, -187500.02, -187500.02, -187500.02, 185316.88, -187500.02, 337, 239, 655, 18:35:09.882
69, -187500.02, -187500.02, -187500.02, -187500.02, -187500.02, -187500.02, 185309.50, -187500.02, 337, 249, 656, 18:35:09.882
70, -187500.02, -187500.02, -187500.02, -187500.02, -187500.02, -187500.02, 185298.92, -187500.02, 337, 249, 657, 18:35:09.882
71, -187500.02, -187500.02, -187500.02, -187500.02, -187500.02, -187500.02, 185283.97, -187500.02, 337, 239, 657, 18:35:09.882
72, -187500.02, -187500.02, -187500.02, -187500.02, -187500.02, -187500.02, 185275.39, -187500.02, 337, 237, 656, 18:35:09.882
73, -187500.02, -187500.02, -187500.02, -187500.02, -187500.02, -187500.02, 185270.27, -187500.02, 337, 248, 656, 18:35:09.882
74, -187500.02, -187500.02, -187500.02, -187500.02, -187500.02, -187500.02, 185257.17, -187500.02, 338, 251, 657, 18:35:09.883
75, -187500.02, -187500.02, -187500.02, -187500.02, -187500.02, -187500.02, 185243.56, -187500.02, 337, 240, 657, 18:35:09.883
76, -187500.02, -187500.02, -187500.02, -187500.02, -187500.02, -187500.02, 185236.23, -187500.02, 337, 237, 656, 18:35:09.883
77, -187500.02, -187500.02, -187500.02, -187500.02, -187500.02, -187500.02, 185227.98, -187500.02, 337, 247, 656, 18:35:09.883
78, -187500.02, -187500.02, -187500.02, -187500.02, -187500.02, -187500.02, 185217.91, -187500.02, 337, 251, 656, 18:35:09.883
79, -187500.02, -187500.02, -187500.02, -187500.02, -187500.02, -187500.02, 185207.02, -187500.02, 337, 241, 657, 18:35:09.883
80, -187500.02, -187500.02, -187500.02, -187500.02, -187500.02, -187500.02, 185199.16, -187500.02, 337, 237, 655, 18:35:09.883
81, -187500.02, -187500.02, -187500.02, -187500.02, -187500.02, -187500.02, 185192.95, -187500.02, 337, 245, 657, 18:35:09.883
82, -187500.02, -187500.02, -187500.02, -187500.02, -187500.02, -187500.02, 185183.09, -187500.02, 337, 251, 655, 18:35:09.884
83, -187500.02, -187500.02, -187500.02, -187500.02, -187500.02, -187500.02, 185167.95, -187500.02, 337, 244, 657, 18:35:09.884
84, -187500.02, -187500.02, -187500.02, -187500.02, -187500.02, -187500.02, 185154.98, -187500.02, 337, 238, 657, 18:35:09.884
85, -187500.02, -187500.02, -187500.02, -187500.02, -187500.02, -187500.02, 185149.63, -187500.02, 337, 244, 655, 18:35:09.884
86, -187500.02, -187500.02, -187500.02, -187500.02, -187500.02, -187500.02, 185139.53, -187500.02, 337, 250, 657, 18:35:09.884
87, -187500.02, -187500.02, -187500.02, -187500.02, -187500.02, -187500.02, 185128.00, -187500.02, 337, 246, 655, 18:35:09.884
88, -187500.02, -187500.02, -187500.02, -187500.02, -187500.02, -187500.02, 185117.34, -187500.02, 337, 238, 656, 18:35:09.884
89, -187500.02, -187500.02, -187500.02, -187500.02, -187500.02, -187500.02, 185110.50, -187500.02, 337, 241, 655, 18:35:09.884
90, -187500.02, -187500.02, -187500.02, -187500.02, -187500.02, -187500.02, 185101.98, -187500.02, 337, 250, 657, 18:35:09.884
91, -187500.02, -187500.02, -187500.02, -187500.02, -187500.02, -187500.02, 185089.30, -187500.02, 337, 248, 655, 18:35:09.884
92, -187500.02, -187500.02, -187500.02, -187500.02, -187500.02, -187500.02, 185075.52, -187500.02, 337, 238, 657, 18:35:09.885
93, -187500.02, -187500.02, -187500.02, -187500.02, -187500.02, -187500.02, 185067.03, -187500.02, 337, 239, 654, 18:35:09.885
94, -187500.02, -187500.02, -187500.02, -187500.02, -187500.02, -187500.02, 185058.53, -187500.02, 338, 250, 657, 18:35:09.885
95, -187500.02, -187500.02, -187500.02, -187500.02, -187500.02, -187500.02, 185050.78, -187500.02, 337, 250, 655, 18:35:09.885
96, -187500.02, -187500.02, -187500.02, -187500.02, -187500.02, -187500.02, 185041.55, -187500.02, 337, 239, 657, 18:35:09.885
97, -187500.02, -187500.02, -187500.02, -187500.02, -187500.02, -187500.02, 185031.47, -187500.02, 337, 237, 655, 18:35:09.885
98, -187500.02, -187500.02, -187500.02, -187500.02, -187500.02, -187500.02, 185024.45, -187500.02, 337, 248, 656, 18:35:09.885
99, -187500.02, -187500.02, -187500.02, -187500.02, -187500.02, -187500.02, 185014.23, -187500.02, 337, 251, 655, 18:35:09.885
100, -187500.02, -187500.02, -187500.02, -187500.02, -187500.02, -187500.02, 185000.67, -187500.02, 338, 241, 657, 18:35:09.885
101, -187500.02, -187500.02, -187500.02, -187500.02, -187500.02, -187500.02, 184991.92, -187500.02, 337, 237, 657, 18:35:09.886
102, -187500.02, -187500.02, -187500.02, -187500.02, -187500.02, -187500.02, 184984.80, -187500.02, 337, 247, 656, 18:35:09.886
103, -187500.02, -187500.02, -187500.02, -187500.02, -187500.02, -187500.02, 184973.08, -187500.02, 338, 251, 657, 18:35:09.886
104, -187500.02, -187500.02, -187500.02, -187500.02, -187500.02, -187500.02, 184962.20, -187500.02, 337, 243, 654, 18:35:10.350
105, -187500.02, -187500.02, -187500.02, -187500.02, -187500.02, -187500.02, 184952.66, -187500.02, 337, 237, 657, 18:35:10.350
106, -187500.02, -187500.02, -187500.02, -187500.02, -187500.02, -187500.02, 184946.33, -187500.02, 337, 245, 656, 18:35:10.350
107, -187500.02, -187500.02, -187500.02, -187500.02, -187500.02, -187500.02, 184937.80, -187500.02, 337, 251, 656, 18:35:10.351
108, -187500.02, -187500.02, -187500.02, -187500.02, -187500.02, -187500.02, 184926.50, -187500.02, 337, 245, 656, 18:35:10.351
109, -187500.02, -187500.02, -187500.02, -187500.02, -187500.02, -187500.02, 184914.48, -187500.02, 337, 238, 657, 18:35:10.351
110, -187500.02, -187500.02, -187500.02, -187500.02, -187500.02, -187500.02, 184908.13, -187500.02, 337, 243, 655, 18:35:10.351
111, -187500.02, -187500.02, -187500.02, -187500.02, -187500.02, -187500.02, 184897.47, -187500.02, 337, 251, 657, 18:35:10.351
112, -187500.02, -187500.02, -187500.02, -187500.02, -187500.02, -187500.02, 184884.80, -187500.02, 337, 247, 656, 18:35:10.351
113, -187500.02, -187500.02, -187500.02, -187500.02, -187500.02, -187500.02, 184873.31, -187500.02, 337, 238, 656, 18:35:10.351
114, -187500.02, -187500.02, -187500.02, -187500.02, -187500.02, -187500.02, 184866.47, -187500.02, 337, 241, 656, 18:35:10.351
115, -187500.02, -187500.02, -187500.02, -187500.02, -187500.02, -187500.02, 184859.25, -187500.02, 338, 250, 657, 18:35:10.351
116, -187500.02, -187500.02, -187500.02, -187500.02, -187500.02, -187500.02, 184846.11, -187500.02, 337, 249, 655, 18:35:10.352
117, -187500.02, -187500.02, -187500.02, -187500.02, -187500.02, -187500.02, 184832.64, -187500.02, 337, 239, 656, 18:35:10.352
118, -187500.02, -187500.02, -187500.02, -187500.02, -187500.02, -187500.02, 184824.98, -187500.02, 337, 239, 657, 18:35:10.352
119, -187500.02, -187500.02, -187500.02, -187500.02, -187500.02, -187500.02, 184815.03, -187500.02, 337, 249, 657, 18:35:10.352
120, -187500.02, -187500.02, -187500.02, -187500.02, -187500.02, -187500.02, 184807.44, -187500.02, 337, 251, 657, 18:35:10.352
121, -187500.02, -187500.02, -187500.02, -187500.02, -187500.02, -187500.02, 184797.89, -187500.02, 337, 241, 656, 18:35:10.352
122, -187500.02, -187500.02, -187500.02, -187500.02, -187500.02, -187500.02, 184787.70, -187500.02, 337, 237, 657, 18:35:10.352
123, -187500.02, -187500.02, -187500.02, -187500.02, -187500.02, -187500.02, 184777.17, -187500.02, 337, 248, 656, 18:35:10.352
124, -187500.02, -187500.02, -187500.02, -187500.02, -187500.02, -187500.02, 184765.39, -187500.02, 337, 251, 655, 18:35:10.352
125, -187500.02, -187500.02, -187500.02, -187500.02, -187500.02, -187500.02, 184750.97, -187500.02, 337, 241, 656, 18:35:10.352
126, -187500.02, -187500.02, -187500.02, -187500.02, -187500.02, -187500.02, 184744.58, -187500.02, 337, 237, 657, 18:35:10.353
127, -187500.02, -187500.02, -187500.02, -187500.02, -187500.02, -187500.02, 184736.00, -187500.02, 337, 246, 657, 18:35:10.353
128, -187500.02, -187500.02, -187500.02, -187500.02, -187500.02, -187500.02, 184729.56, -187500.02, 337, 251, 657, 18:35:10.353
129, -187500.02, -187500.02, -187500.02, -187500.02, -187500.02, -187500.02, 184718.77, -187500.02, 337, 243, 657, 18:35:10.353
130, -187500.02, -187500.02, -187500.02, -187500.02, -187500.02, -187500.02, 184707.80, -187500.02, 337, 237, 654, 18:35:10.353
131, -187500.02, -187500.02, -187500.02, -187500.02, -187500.02, -187500.02, 184701.16, -187500.02, 338, 244, 657, 18:35:10.353
132, -187500.02, -187500.02, -187500.02, -187500.02, -187500.02, -187500.02, 184688.91, -187500.02, 338, 250, 657, 18:35:10.353
133, -187500.02, -187500.02, -187500.02, -187500.02, -187500.02, -187500.02, 184675.78, -187500.02, 337, 245, 656, 18:35:10.353
134, -187500.02, -187500.02, -187500.02, -187500.02, -187500.02, -187500.02, 184665.70, -187500.02, 337, 238, 656, 18:35:10.354
135, -187500.02, -187500.02, -187500.02, -187500.02, -187500.02, -187500.02, 184658.70, -187500.02, 337, 242, 655, 18:35:10.354
136, -187500.02, -187500.02, -187500.02, -187500.02, -187500.02, -187500.02, 184647.94, -187500.02, 338, 250, 655, 18:35:10.354
137, -187500.02, -187500.02, -187500.02, -187500.02, -187500.02, -187500.02, 184636.28, -187500.02, 337, 247, 657, 18:35:10.354
138, -187500.02, -187500.02, -187500.02, -187500.02, -187500.02, -187500.02, 184625.30, -187500.02, 337, 238, 657, 18:35:10.354
139, -187500.02, -187500.02, -187500.02, -187500.02, -187500.02, -187500.02, 184618.09, -187500.02, 337, 239, 657, 18:35:10.354
140, -187500.02, -187500.02, -187500.02, -187500.02, -187500.02, -187500.02, 184610.42, -187500.02, 337, 249, 656, 18:35:10.354
141, -187500.02, -187500.02, -187500.02, -187500.02, -187500.02, -187500.02, 184597.00, -187500.02, 337, 249, 654, 18:35:10.355
142, -187500.02, -187500.02, -187500.02, -187500.02, -187500.02, -187500.02, 184583.16, -187500.02, 337, 239, 656, 18:35:10.355
143, -187500.02, -187500.02, -187500.02, -187500.02, -187500.02, -187500.02, 184578.42, -187500.02, 337, 237, 657, 18:35:10.355
144, -187500.02, -187500.02, -187500.02, -187500.02, -187500.02, -187500.02, 184571.63, -187500.02, 338, 248, 657, 18:35:10.355
145, -187500.02, -187500.02, -187500.02, -187500.02, -187500.02, -187500.02, 184557.94, -187500.02, 337, 250, 657, 18:35:10.355
146, -187500.02, -187500.02, -187500.02, -187500.02, -187500.02, -187500.02, 184543.38, -187500.02, 337, 240, 656, 18:35:10.355
147, -187500.02, -187500.02, -187500.02, -187500.02, -187500.02, -187500.02, 184534.55, -187500.02, 337, 237, 654, 18:35:10.355
148, -187500.02, -187500.02, -187500.02, -187500.02, -187500.02, -187500.02, 184527.41, -187500.02, 337, 246, 657, 18:35:10.355
149, -187500.02, -187500.02, -187500.02, -187500.02, -187500.02, -187500.02, 184520.63, -187500.02, 338, 250, 655, 18:35:10.355
150, -187500.02, -187500.02, -187500.02, -187500.02, -187500.02, -187500.02, 184507.88, -187500.02, 337, 241, 657, 18:35:10.356
151, -187500.02, -187500.02, -187500.02, -187500.02, -187500.02, -187500.02, 184498.05, -187500.02, 337, 236, 655, 18:35:10.356
152, -187500.02, -187500.02, -187500.02, -187500.02, -187500.02, -187500.02, 184491.84, -187500.02, 337, 245, 657, 18:35:10.356
153, -187500.02, -187500.02, -187500.02, -187500.02, -187500.02, -187500.02, 184481.30, -187500.02, 337, 250, 657, 18:35:10.356
154, -187500.02, -187500.02, -187500.02, -187500.02, -187500.02, -187500.02, 184465.67, -187500.02, 337, 243, 657, 18:35:10.356
155, -187500.02, -187500.02, -187500.02, -187500.02, -187500.02, -187500.02, 184455.55, -187500.02, 337, 236, 657, 18:35:10.356
156, -187500.02, -187500.02, -187500.02, -187500.02, -187500.02, -187500.02, 184450.25, -187500.02, 338, 242, 657, 18:35:10.356
157, -187500.02, -187500.02, -187500.02, -187500.02, -187500.02, -187500.02, 184440.98, -187500.02, 337, 249, 656, 18:35:10.356
158, -187500.02, -187500.02, -187500.02, -187500.02, -187500.02, -187500.02, 184430.92, -187500.02, 337, 245, 657, 18:35:10.356
159, -187500.02, -187500.02, -187500.02, -187500.02, -187500.02, -187500.02, 184419.05, -187500.02, 337, 237, 657, 18:35:10.356
160, -187500.02, -187500.02, -187500.02, -187500.02, -187500.02, -187500.02, 184411.11, -187500.02, 337, 240, 657, 18:35:10.357
161, -187500.02, -187500.02, -187500.02, -187500.02, -187500.02, -187500.02, 184403.88, -187500.02, 337, 249, 657, 18:35:10.357
162, -187500.02, -187500.02, -187500.02, -187500.02, -187500.02, -187500.02, 184390.89, -187500.02, 337, 247, 657, 18:35:10.357
163, -187500.02, -187500.02, -187500.02, -187500.02, -187500.02, -187500.02, 184379.52, -187500.02, 337, 238, 655, 18:35:10.357
164, -187500.02, -187500.02, -187500.02, -187500.02, -187500.02, -187500.02, 184372.25, -187500.02, 337, 238, 657, 18:35:10.357
165, -187500.02, -187500.02, -187500.02, -187500.02, -187500.02, -187500.02, 184363.70, -187500.02, 337, 248, 654, 18:35:10.357
166, -187500.02, -187500.02, -187500.02, -187500.02, -187500.02, -187500.02, 184352.75, -187500.02, 338, 249, 656, 18:35:10.357
167, -187500.02, -187500.02, -187500.02, -187500.02, -187500.02, -187500.02, 184340.89, -187500.02, 337, 238, 655, 18:35:10.357
168, -187500.02, -187500.02, -187500.02, -187500.02, -187500.02, -187500.02, 184332.28, -187500.02, 337, 236, 657, 18:35:10.357
169, -187500.02, -187500.02, -187500.02, -187500.02, -187500.02, -187500.02, 184326.00, -187500.02, 337, 247, 656, 18:35:10.357
170, -187500.02, -187500.02, -187500.02, -187500.02, -187500.02, -187500.02, 184314.48, -187500.02, 337, 250, 656, 18:35:10.358
171, -187500.02, -187500.02, -187500.02, -187500.02, -187500.02, -187500.02, 184300.44, -187500.02, 337, 240, 657, 18:35:10.358
172, -187500.02, -187500.02, -187500.02, -187500.02, -187500.02, -187500.02, 184291.20, -187500.02, 337, 236, 657, 18:35:10.358
173, -187500.02, -187500.02, -187500.02, -187500.02, -187500.02, -187500.02, 184284.72, -187500.02, 337, 246, 655, 18:35:10.358
174, -187500.02, -187500.02, -187500.02, -187500.02, -187500.02, -187500.02, 184272.33, -187500.02, 337, 251, 657, 18:35:10.358
175, -187500.02, -187500.02, -187500.02, -187500.02, -187500.02, -187500.02, 184261.77, -187500.02, 337, 242, 655, 18:35:10.358
176, -187500.02, -187500.02, -187500.02, -187500.02, -187500.02, -187500.02, 184252.33, -187500.02, 337, 237, 657, 18:35:10.358
177, -187500.02, -187500.02, -187500.02, -187500.02, -187500.02, -187500.02, 184244.19, -187500.02, 337, 245, 657, 18:35:10.358
178, -187500.02, -187500.02, -187500.02, -187500.02, -187500.02, -187500.02, 184231.55, -187500.02, 337, 251, 657, 18:35:10.358
179, -187500.02, -187500.02, -187500.02, -187500.02, -187500.02, -187500.02, 184217.86, -187500.02, 337, 244, 657, 18:35:10.358
180, -187500.02, -187500.02, -187500.02, -187500.02, -187500.02, -187500.02, 184206.06, -187500.02, 337, 238, 657, 18:35:10.359
181, -187500.02, -187500.02, -187500.02, -187500.02, -187500.02, -187500.02, 184200.08, -187500.02, 337, 244, 656, 18:35:10.359
182, -187500.02, -187500.02, -187500.02, -187500.02, -187500.02, -187500.02, 184190.50, -187500.02, 337, 251, 656, 18:35:10.359
183, -187500.02, -187500.02, -187500.02, -187500.02, -187500.02, -187500.02, 184177.36, -187500.02, 337, 247, 657, 18:35:10.359
184, -187500.02, -187500.02, -187500.02, -187500.02, -187500.02, -187500.02, 184167.33, -187500.02, 338, 239, 657, 18:35:10.359
185, -187500.02, -187500.02, -187500.02, -187500.02, -187500.02, -187500.02, 184161.38, -187500.02, 337, 242, 657, 18:35:10.359
186, -187500.02, -187500.02, -187500.02, -187500.02, -187500.02, -187500.02, 184148.86, -187500.02, 337, 251, 656, 18:35:10.359
187, -187500.02, -187500.02, -187500.02, -187500.02, -187500.02, -187500.02, 184137.05, -187500.02, 337, 250, 654, 18:35:10.359
188, -187500.02, -187500.02, -187500.02, -187500.02, -187500.02, -187500.02, 184126.48, -187500.02, 337, 240, 657, 18:35:10.359
189, -187500.02, -187500.02, -187500.02, -187500.02, -187500.02, -187500.02, 184118.36, -187500.02, 337, 240, 655, 18:35:10.359
190, -187500.02, -187500.02, -187500.02, -187500.02, -187500.02, -187500.02, 184109.38, -187500.02, 337, 250, 656, 18:35:10.359
191, -187500.02, -187500.02, -187500.02, -187500.02, -187500.02, -187500.02, 184097.72, -187500.02, 337, 252, 655, 18:35:10.360
192, -187500.02, -187500.02, -187500.02, -187500.02, -187500.02, -187500.02, 184086.33, -187500.02, 337, 241, 656, 18:35:10.360
193, -187500.02, -187500.02, -187500.02, -187500.02, -187500.02, -187500.02, 184080.22, -187500.02, 337, 239, 657, 18:35:10.360
194, -187500.02, -187500.02, -187500.02, -187500.02, -187500.02, -187500.02, 184072.73, -187500.02, 337, 249, 657, 18:35:10.360
195, -187500.02, -187500.02, -187500.02, -187500.02, -187500.02, -187500.02, 184061.64, -187500.02, 337, 252, 657, 18:35:10.360
196, -187500.02, -187500.02, -187500.02, -187500.02, -187500.02, -187500.02, 184049.13, -187500.02, 337, 242, 657, 18:35:10.360
197, -187500.02, -187500.02, -187500.02, -187500.02, -187500.02, -187500.02, 184037.17, -187500.02, 337, 238, 654, 18:35:10.360
198, -187500.02, -187500.02, -187500.02, -187500.02, -187500.02, -187500.02, 184029.55, -187500.02, 337, 247, 656, 18:35:10.360
199, -187500.02, -187500.02, -187500.02, -187500.02, -187500.02, -187500.02, 184021.09, -187500.02, 338, 251, 655, 18:35:10.360
200, -187500.02, -187500.02, -187500.02, -187500.02, -187500.02, -187500.02, 184008.81, -187500.02, 337, 243, 657, 18:35:10.360
201, -187500.02, -187500.02, -187500.02, -187500.02, -187500.02, -187500.02, 183997.91, -187500.02, 337, 237, 655, 18:35:10.360
202, -187500.02, -187500.02, -187500.02, -187500.02, -187500.02, -187500.02, 183992.16, -187500.02, 337, 245, 656, 18:35:10.361
203, -187500.02, -187500.02, -187500.02, -187500.02, -187500.02, -187500.02, 183984.59, -187500.02, 338, 250, 657, 18:35:10.361
204, -187500.02, -187500.02, -187500.02, -187500.02, -187500.02, -187500.02, 183971.41, -187500.02, 337, 244, 657, 18:35:10.361
205, -187500.02, -187500.02, -187500.02, -187500.02, -187500.02, -187500.02, 183956.44, -187500.02, 337, 237, 657, 18:35:10.361
206, -187500.02, -187500.02, -187500.02, -187500.02, -187500.02, -187500.02, 183950.73, -187500.02, 337, 242, 655, 18:35:10.361
207, -187500.02, -187500.02, -187500.02, -187500.02, -187500.02, -187500.02, 183943.70, -187500.02, 337, 250, 656, 18:35:10.361
208, -187500.02, -187500.02, -187500.02, -187500.02, -187500.02, -187500.02, 183931.56, -187500.02, 337, 246, 654, 18:35:10.361
209, -187500.02, -187500.02, -187500.02, -187500.02, -187500.02, -187500.02, 183921.20, -187500.02, 337, 237, 657, 18:35:10.361
210, -187500.02, -187500.02, -187500.02, -187500.02, -187500.02, -187500.02, 183915.53, -187500.02, 337, 239, 655, 18:35:10.361
211, -187500.02, -187500.02, -187500.02, -187500.02, -187500.02, -187500.02, 183907.48, -187500.02, 337, 250, 657, 18:35:10.361
212, -187500.02, -187500.02, -187500.02, -187500.02, -187500.02, -187500.02, 183895.91, -187500.02, 337, 249, 654, 18:35:10.362
213, -187500.02, -187500.02, -187500.02, -187500.02, -187500.02, -187500.02, 183882.78, -187500.02, 337, 238, 657, 18:35:10.362
214, -187500.02, -187500.02, -187500.02, -187500.02, -187500.02, -187500.02, 183875.25, -187500.02, 337, 237, 656, 18:35:10.362
215, -187500.02, -187500.02, -187500.02, -187500.02, -187500.02, -187500.02, 183866.56, -187500.02, 337, 248, 657, 18:35:10.362
216, -187500.02, -187500.02, -187500.02, -187500.02, -187500.02, -187500.02, 183854.83, -187500.02, 337, 250, 655, 18:35:10.362
217, -187500.02, -187500.02, -187500.02, -187500.02, -187500.02, -187500.02, 183842.83, -187500.02, 337, 240, 657, 18:35:10.362
218, -187500.02, -187500.02, -187500.02, -187500.02, -187500.02, -187500.02, 183835.11, -187500.02, 337, 237, 655, 18:35:10.362
219, -187500.02, -187500.02, -187500.02, -187500.02, -187500.02, -187500.02, 183826.34, -187500.02, 337, 247, 657, 18:35:10.362
220, -187500.02, -187500.02, -187500.02, -187500.02, -187500.02, -187500.02, 183813.00, -187500.02, 337, 251, 655, 18:35:10.362
221, -187500.02, -187500.02, -187500.02, -187500.02, -187500.02, -187500.02, 183800.44, -187500.02, 337, 242, 657, 18:35:10.362
222, -187500.02, -187500.02, -187500.02, -187500.02, -187500.02, -187500.02, 183791.89, -187500.02, 337, 238, 655, 18:35:10.362
223, -187500.02, -187500.02, -187500.02, -187500.02, -187500.02, -187500.02, 183784.17, -187500.02, 337, 246, 657, 18:35:10.363
224, -187500.02, -187500.02, -187500.02, -187500.02, -187500.02, -187500.02, 183774.22, -187500.02, 337, 251, 655, 18:35:10.831
225, -187500.02, -187500.02, -187500.02, -187500.02, -187500.02, -187500.02, 183762.27, -187500.02, 337, 244, 656, 18:35:10.831
226, -187500.02, -187500.02, -187500.02, -187500.02, -187500.02, -187500.02, 183753.30, -187500.02, 337, 238, 655, 18:35:10.832
227, -187500.02, -187500.02, -187500.02, -187500.02, -187500.02, -187500.02, 183747.61, -187500.02, 337, 244, 657, 18:35:10.832
228, -187500.02, -187500.02, -187500.02, -187500.02, -187500.02, -187500.02, 183737.22, -187500.02, 337, 251, 657, 18:35:10.832
229, -187500.02, -187500.02, -187500.02, -187500.02, -187500.02, -187500.02, 183724.88, -187500.02, 337, 246, 656, 18:35:10.832
230, -187500.02, -187500.02, -187500.02, -187500.02, -187500.02, -187500.02, 183712.63, -187500.02, 337, 238, 655, 18:35:10.832
231, -187500.02, -187500.02, -187500.02, -187500.02, -187500.02, -187500.02, 183705.16, -187500.02, 337, 242, 657, 18:35:10.832
232, -187500.02, -187500.02, -187500.02, -187500.02, -187500.02, -187500.02, 183696.75, -187500.02, 337, 251, 655, 18:35:10.832
233, -187500.02, -187500.02, -187500.02, -187500.02, -187500.02, -187500.02, 183684.27, -187500.02, 337, 249, 657, 18:35:10.832
234, -187500.02, -187500.02, -187500.02, -187500.02, -187500.02, -187500.02, 183672.56, -187500.02, 337, 239, 655, 18:35:10.832
235, -187500.02, -187500.02, -187500.02, -187500.02, -187500.02, -187500.02, 183667.72, -187500.02, 337, 240, 657, 18:35:10.833
236, -187500.02, -187500.02, -187500.02, -187500.02, -187500.02, -187500.02, 183659.53, -187500.02, 337, 250, 657, 18:35:10.833
237, -187500.02, -187500.02, -187500.02, -187500.02, -187500.02, -187500.02, 183646.86, -187500.02, 337, 250, 657, 18:35:10.833
238, -187500.02, -187500.02, -187500.02, -187500.02, -187500.02, -187500.02, 183635.28, -187500.02, 337, 240, 657, 18:35:10.833
239, -187500.02, -187500.02, -187500.02, -187500.02, -187500.02, -187500.02, 183627.86, -187500.02, 337, 237, 657, 18:35:10.833
240, -187500.02, -187500.02, -187500.02, -187500.02, -187500.02, -187500.02, 183618.30, -187500.02, 337, 248, 655, 18:35:10.833
241, -187500.02, -187500.02, -187500.02, -187500.02, -187500.02, -187500.02, 183605.73, -187500.02, 337, 251, 657, 18:35:10.833
242, -187500.02, -187500.02, -187500.02, -187500.02, -187500.02, -187500.02, 183593.05, -187500.02, 337, 241, 657, 18:35:10.833
243, -187500.02, -187500.02, -187500.02, -187500.02, -187500.02, -187500.02, 183583.95, -187500.02, 337, 237, 657, 18:35:10.833
244, -187500.02, -187500.02, -187500.02, -187500.02, -187500.02, -187500.02, 183579.25, -187500.02, 337, 247, 657, 18:35:10.834
245, -187500.02, -187500.02, -187500.02, -187500.02, -187500.02, -187500.02, 183570.64, -187500.02, 337, 250, 656, 18:35:10.834
246, -187500.02, -187500.02, -187500.02, -187500.02, -187500.02, -187500.02, 183559.41, -187500.02, 337, 242, 656, 18:35:10.834
247, -187500.02, -187500.02, -187500.02, -187500.02, -187500.02, -187500.02, 183546.39, -187500.02, 338, 237, 657, 18:35:10.834
248, -187500.02, -187500.02, -187500.02, -187500.02, -187500.02, -187500.02, 183539.36, -187500.02, 337, 245, 655, 18:35:10.834
249, -187500.02, -187500.02, -187500.02, -187500.02, -187500.02, -187500.02, 183530.44, -187500.02, 337, 251, 655, 18:35:10.834
250, -187500.02, -187500.02, -187500.02, -187500.02, -187500.02, -187500.02, 183520.16, -187500.02, 337, 243, 657, 18:35:10.834
251, -187500.02, -187500.02, -187500.02, -187500.02, -187500.02, -187500.02, 183508.86, -187500.02, 337, 237, 657, 18:35:10.834
252, -187500.02, -187500.02, -187500.02, -187500.02, -187500.02, -187500.02, 183503.03, -187500.02, 337, 243, 657, 18:35:10.834
253, -187500.02, -187500.02, -187500.02, -187500.02, -187500.02, -187500.02, 183492.61, -187500.02, 337, 250, 657, 18:35:10.834
254, -187500.02, -187500.02, -187500.02, -187500.02, -187500.02, -187500.02, 183479.67, -187500.02, 337, 246, 657, 18:35:10.835
255, -187500.02, -187500.02, -187500.02, -187500.02, -187500.02, -187500.02, 183469.70, -187500.02, 337, 237, 656, 18:35:10.835
0, -187500.02, -187500.02, -187500.02, -187500.02, -187500.02, -187500.02, 183462.73, -187500.02, 337, 240, 657, 18:35:10.835
1, -187500.02, -187500.02, -187500.02, -187500.02, -187500.02, -187500.02, 183453.83, -187500.02, 337, 249, 657, 18:35:10.835
2, -187500.02, -187500.02, -187500.02, -187500.02, -187500.02, -187500.02, 183440.63, -187500.02, 337, 248, 657, 18:35:10.835
3, -187500.02, -187500.02, -187500.02, -187500.02, -187500.02, -187500.02, 183429.31, -187500.02, 337, 238, 662, 18:35:10.835
4, -187500.02, -187500.02, -187500.02, -187500.02, -187500.02, -187500.02, 183421.67, -187500.02, 337, 239, 656, 18:35:10.835
5, -187500.02, -187500.02, -187500.02, -187500.02, -187500.02, -187500.02, 183413.31, -187500.02, 338, 249, 655, 18:35:10.835
6, -187500.02, -187500.02, -187500.02, -187500.02, -187500.02, -187500.02, 183401.48, -187500.02, 338, 250, 657, 18:35:10.835
7, -187500.02, -187500.02, -187500.02, -187500.02, -187500.02, -187500.02, 183389.83, -187500.02, 337, 240, 657, 18:35:10.835
8, -187500.02, -187500.02, -187500.02, -187500.02, -187500.02, -187500.02, 183382.38, -187500.02, 337, 238, 657, 18:35:10.836
9, -187500.02, -187500.02, -187500.02, -187500.02, -187500.02, -187500.02, 183374.22, -187500.02, 337, 249, 656, 18:35:10.836
10, -187500.02, -187500.02, -187500.02, -187500.02, -187500.02, -187500.02, 183362.28, -187500.02, 338, 251, 657, 18:35:10.836
11, -187500.02, -187500.02, -187500.02, -187500.02, -187500.02, -187500.02, 183349.55, -187500.02, 337, 241, 657, 18:35:10.836
12, -187500.02, -187500.02, -187500.02, -187500.02, -187500.02, -187500.02, 183340.73, -187500.02, 337, 237, 656, 18:35:10.836
13, -187500.02, -187500.02, -187500.02, -187500.02, -187500.02, -187500.02, 183334.97, -187500.02, 337, 247, 656, 18:35:10.836
14, -187500.02, -187500.02, -187500.02, -187500.02, -187500.02, -187500.02, 183322.25, -187500.02, 338, 251, 655, 18:35:10.836
15, -187500.02, -187500.02, -187500.02, -187500.02, -187500.02, -187500.02, 183307.16, -187500.02, 337, 243, 657, 18:35:10.837
16, -187500.02, -187500.02, -187500.02, -187500.02, -187500.02, -187500.02, 183298.45, -187500.02, 337, 237, 657, 18:35:10.837
17, -187500.02, -187500.02, -187500.02, -187500.02, -187500.02, -187500.02, 183294.33, -187500.02, 337, 245, 657, 18:35:10.837
18, -187500.02, -187500.02, -187500.02, -187500.02, -187500.02, -187500.02, 183283.81, -187500.02, 337, 251, 657, 18:35:10.837
19, -187500.02, -187500.02, -187500.02, -187500.02, -187500.02, -187500.02, 183269.30, -187500.02, 338, 244, 655, 18:35:10.837
20, -187500.02, -187500.02, -187500.02, -187500.02, -187500.02, -187500.02, 183258.86, -187500.02, 337, 238, 657, 18:35:10.837
21, -187500.02, -187500.02, -187500.02, -187500.02, -187500.02, -187500.02, 183252.30, -187500.02, 337, 243, 657, 18:35:10.838
22, -187500.02, -187500.02, -187500.02, -187500.02, -187500.02, -187500.02, 183244.67, -187500.02, 337, 251, 656, 18:35:10.838
23, -187500.02, -187500.02, -187500.02, -187500.02, -187500.02, -187500.02, 183233.45, -187500.02, 338, 247, 656, 18:35:10.838
24, -187500.02, -187500.02, -187500.02, -187500.02, -187500.02, -187500.02, 183221.56, -187500.02, 337, 239, 655, 18:35:10.838
25, -187500.02, -187500.02, -187500.02, -187500.02, -187500.02, -187500.02, 183215.77, -187500.02, 337, 241, 657, 18:35:10.838
26, -187500.02, -187500.02, -187500.02, -187500.02, -187500.02, -187500.02, 183205.94, -187500.02, 337, 251, 655, 18:35:10.838
27, -187500.02, -187500.02, -187500.02, -187500.02, -187500.02, -187500.02, 183191.92, -187500.02, 337, 249, 656, 18:35:10.838
28, -187500.02, -187500.02, -187500.02, -187500.02, -187500.02, -187500.02, 183180.56, -187500.02, 337, 239, 657, 18:35:10.839
29, -187500.02, -187500.02, -187500.02, -187500.02, -187500.02, -187500.02, 183171.41, -187500.02, 337, 238, 657, 18:35:10.839
30, -187500.02, -187500.02, -187500.02, -187500.02, -187500.02, -187500.02, 183164.00, -187500.02, 337, 249, 657, 18:35:10.839
31, -187500.02, -187500.02, -187500.02, -187500.02, -187500.02, -187500.02, 183155.44, -187500.02, 337, 252, 657, 18:35:10.839
32, -187500.02, -187500.02, -187500.02, -187500.02, -187500.02, -187500.02, 183141.56, -187500.02, 337, 241, 655, 18:35:10.839
33, -187500.02, -187500.02, -187500.02, -187500.02, -187500.02, -187500.02, 183132.08, -187500.02, 337, 238, 657, 18:35:10.839
34, -187500.02, -187500.02, -187500.02, -187500.02, -187500.02, -187500.02, 183126.39, -187500.02, 337, 247, 655, 18:35:10.839
35, -187500.02, -187500.02, -187500.02, -187500.02, -187500.02, -187500.02, 183116.02, -187500.02, 337, 251, 657, 18:35:10.840
36, -187500.02, -187500.02, -187500.02, -187500.02, -187500.02, -187500.02, 183105.34, -187500.02, 337, 241, 655, 18:35:10.840
37, -187500.02, -187500.02, -187500.02, -187500.02, -187500.02, -187500.02, 183095.98, -187500.02, 337, 238, 657, 18:35:10.840
38, -187500.02, -187500.02, -187500.02, -187500.02, -187500.02, -187500.02, 183087.58, -187500.02, 337, 246, 657, 18:35:10.840
39, -187500.02, -187500.02, -187500.02, -187500.02, -187500.02, -187500.02, 183076.63, -187500.02, 337, 251, 657, 18:35:10.840
40, -187500.02, -187500.02, -187500.02, -187500.02, -187500.02, -187500.02, 183064.11, -187500.02, 337, 243, 656, 18:35:10.840
41, -187500.02, -187500.02, -187500.02, -187500.02, -187500.02, -187500.02, 183052.44, -187500.02, 337, 237, 657, 18:35:10.840
42, -187500.02, -187500.02, -187500.02, -187500.02, -187500.02, -187500.02, 183046.81, -187500.02, 337, 244, 655, 18:35:10.841
43, -187500.02, -187500.02, -187500.02, -187500.02, -187500.02, -187500.02, 183037.44, -187500.02, 337, 249, 656, 18:35:10.841
44, -187500.02, -187500.02, -187500.02, -187500.02, -187500.02, -187500.02, 183024.64, -187500.02, 337, 245, 655, 18:35:10.841
45, -187500.02, -187500.02, -187500.02, -187500.02, -187500.02, -187500.02, 183011.47, -187500.02, 337, 238, 656, 18:35:10.841
46, -187500.02, -187500.02, -187500.02, -187500.02, -187500.02, -187500.02, 183005.11, -187500.02, 337, 242, 654, 18:35:10.841
47, -187500.02, -187500.02, -187500.02, -187500.02, -187500.02, -187500.02, 182999.17, -187500.02, 337, 250, 657, 18:35:10.841
48, -187500.02, -187500.02, -187500.02, -187500.02, -187500.02, -187500.02, 182987.91, -187500.02, 337, 247, 657, 18:35:10.841
49, -187500.02, -187500.02, -187500.02, -187500.02, -187500.02, -187500.02, 182974.59, -187500.02, 337, 238, 656, 18:35:10.842
50, -187500.02, -187500.02, -187500.02, -187500.02, -187500.02, -187500.02, 182967.59, -187500.02, 337, 240, 656, 18:35:10.842
51, -187500.02, -187500.02, -187500.02, -187500.02, -187500.02, -187500.02, 182957.31, -187500.02, 337, 250, 657, 18:35:10.842
52, -187500.02, -187500.02, -187500.02, -187500.02, -187500.02, -187500.02, 182947.59, -187500.02, 337, 250, 655, 18:35:10.842
53, -187500.02, -187500.02, -187500.02, -187500.02, -187500.02, -187500.02, 182935.81, -187500.02, 337, 240, 657, 18:35:10.842
54, -187500.02, -187500.02, -187500.02, -187500.02, -187500.02, -187500.02, 182929.64, -187500.02, 337, 239, 655, 18:35:10.842
55, -187500.02, -187500.02, -187500.02, -187500.02, -187500.02, -187500.02, 182924.39, -187500.02, 337, 249, 656, 18:35:10.843
56, -187500.02, -187500.02, -187500.02, -187500.02, -187500.02, -187500.02, 182912.52, -187500.02, 337, 251, 657, 18:35:10.843
57, -187500.02, -187500.02, -187500.02, -187500.02, -187500.02, -187500.02, 182898.08, -187500.02, 337, 241, 657, 18:35:10.843
58, -187500.02, -187500.02, -187500.02, -187500.02, -187500.02, -187500.02, 182888.09, -187500.02, 337, 238, 657, 18:35:10.843
59, -187500.02, -187500.02, -187500.02, -187500.02, -187500.02, -187500.02, 182883.31, -187500.02, 337, 248, 656, 18:35:10.843
60, -187500.02, -187500.02, -187500.02, -187500.02, -187500.02, -187500.02, 182873.20, -187500.02, 337, 252, 657, 18:35:10.843
61, -187500.02, -187500.02, -187500.02, -187500.02, -187500.02, -187500.02, 182859.80, -187500.02, 337, 243, 657, 18:35:10.843
62, -187500.02, -187500.02, -187500.02, -187500.02, -187500.02, -187500.02, 182850.78, -187500.02, 337, 238, 655, 18:35:10.844
63, -187500.02, -187500.02, -187500.02, -187500.02, -187500.02, -187500.02, 182846.38, -187500.02, 337, 246, 657, 18:35:10.844
64, -187500.02, -187500.02, -187500.02, -187500.02, -187500.02, -187500.02, 182835.36, -187500.02, 337, 252, 655, 18:35:10.844
65, -187500.02, -187500.02, -187500.02, -187500.02, -187500.02, -187500.02, 182820.34, -187500.02, 337, 244, 657, 18:35:10.844
66, -187500.02, -187500.02, -187500.02, -187500.02, -187500.02, -187500.02, 182807.77, -187500.02, 337, 238, 657, 18:35:10.844
67, -187500.02, -187500.02, -187500.02, -187500.02, -187500.02, -187500.02, 182802.27, -187500.02, 337, 244, 657, 18:35:10.844
68, -187500.02, -187500.02, -187500.02, -187500.02, -187500.02, -187500.02, 182794.14, -187500.02, 337, 251, 657, 18:35:10.844
69, -187500.02, -187500.02, -187500.02, -187500.02, -187500.02, -187500.02, 182782.03, -187500.02, 337, 246, 656, 18:35:10.844
70, -187500.02, -187500.02, -187500.02, -187500.02, -187500.02, -187500.02, 182769.72, -187500.02, 337, 238, 655, 18:35:10.844
71, -187500.02, -187500.02, -187500.02, -187500.02, -187500.02, -187500.02, 182763.02, -187500.02, 337, 242, 656, 18:35:10.844
72, -187500.02, -187500.02, -187500.02, -187500.02, -187500.02, -187500.02, 182755.39, -187500.02, 337, 250, 657, 18:35:10.845
73, -187500.02, -187500.02, -187500.02, -187500.02, -187500.02, -187500.02, 182744.03, -187500.02, 337, 248, 657, 18:35:10.845
74, -187500.02, -187500.02, -187500.02, -187500.02, -187500.02, -187500.02, 182731.14, -187500.02, 337, 238, 657, 18:35:10.845
75, -187500.02, -187500.02, -187500.02, -187500.02, -187500.02, -187500.02, 182723.45, -187500.02, 337, 238, 657, 18:35:10.845
76, -187500.02, -187500.02, -187500.02, -187500.02, -187500.02, -187500.02, 182715.48, -187500.02, 337, 249, 656, 18:35:10.845
77, -187500.02, -187500.02, -187500.02, -187500.02, -187500.02, -187500.02, 182702.38, -187500.02, 338, 250, 657, 18:35:10.845
78, -187500.02, -187500.02, -187500.02, -187500.02, -187500.02, -187500.02, 182688.88, -187500.02, 337, 239, 655, 18:35:10.845
79, -187500.02, -187500.02, -187500.02, -187500.02, -187500.02, -187500.02, 182682.64, -187500.02, 337, 237, 657, 18:35:10.845
80, -187500.02, -187500.02, -187500.02, -187500.02, -187500.02, -187500.02, 182676.05, -187500.02, 338, 247, 657, 18:35:10.845
81, -187500.02, -187500.02, -187500.02, -187500.02, -187500.02, -187500.02, 182668.23, -187500.02, 338, 250, 657, 18:35:10.845
82, -187500.02, -187500.02, -187500.02, -187500.02, -187500.02, -187500.02, 182657.13, -187500.02, 338, 240, 657, 18:35:10.846
83, -187500.02, -187500.02, -187500.02, -187500.02, -187500.02, -187500.02, 182648.25, -187500.02, 337, 237, 655, 18:35:10.846
84, -187500.02, -187500.02, -187500.02, -187500.02, -187500.02, -187500.02, 182638.06, -187500.02, 337, 247, 657, 18:35:10.846
85, -187500.02, -187500.02, -187500.02, -187500.02, -187500.02, -187500.02, 182626.33, -187500.02, 337, 250, 657, 18:35:10.846
86, -187500.02, -187500.02, -187500.02, -187500.02, -187500.02, -187500.02, 182614.84, -187500.02, 337, 241, 657, 18:35:10.846
87, -187500.02, -187500.02, -187500.02, -187500.02, -187500.02, -187500.02, 182605.45, -187500.02, 337, 236, 655, 18:35:10.846
88, -187500.02, -187500.02, -187500.02, -187500.02, -187500.02, -187500.02, 182598.13, -187500.02, 337, 245, 657, 18:35:10.846
89, -187500.02, -187500.02, -187500.02, -187500.02, -187500.02, -187500.02, 182590.95, -187500.02, 337, 251, 655, 18:35:11.311
90, -187500.02, -187500.02, -187500.02, -187500.02, -187500.02, -187500.02, 182578.63, -187500.02, 337, 244, 657, 18:35:11.311
91, -187500.02, -187500.02, -187500.02, -187500.02, -187500.02, -187500.02, 182566.22, -187500.02, 337, 237, 655, 18:35:11.311
92, -187500.02, -187500.02, -187500.02, -187500.02, -187500.02, -187500.02, 182557.42, -187500.02, 337, 243, 657, 18:35:11.311
93, -187500.02, -187500.02, -187500.02, -187500.02, -187500.02, -187500.02, 182550.28, -187500.02, 337, 250, 655, 18:35:11.311
94, -187500.02, -187500.02, -187500.02, -187500.02, -187500.02, -187500.02, 182538.39, -187500.02, 337, 246, 657, 18:35:11.311
95, -187500.02, -187500.02, -187500.02, -187500.02, -187500.02, -187500.02, 182526.86, -187500.02, 337, 237, 654, 18:35:11.312
96, -187500.02, -187500.02, -187500.02, -187500.02, -187500.02, -187500.02, 182520.14, -187500.02, 337, 240, 657, 18:35:11.312
97, -187500.02, -187500.02, -187500.02, -187500.02, -187500.02, -187500.02, 182510.89, -187500.02, 337, 250, 656, 18:35:11.312
98, -187500.02, -187500.02, -187500.02, -187500.02, -187500.02, -187500.02, 182499.44, -187500.02, 337, 249, 656, 18:35:11.312
99, -187500.02, -187500.02, -187500.02, -187500.02, -187500.02, -187500.02, 182485.64, -187500.02, 337, 239, 657, 18:35:11.312
100, -187500.02, -187500.02, -187500.02, -187500.02, -187500.02, -187500.02, 182477.11, -187500.02, 337, 239, 656, 18:35:11.312
101, -187500.02, -187500.02, -187500.02, -187500.02, -187500.02, -187500.02, 182469.11, -187500.02, 337, 249, 655, 18:35:11.312
102, -187500.02, -187500.02, -187500.02, -187500.02, -187500.02, -187500.02, 182461.00, -187500.02, 337, 251, 656, 18:35:11.312
103, -187500.02, -187500.02, -187500.02, -187500.02, -187500.02, -187500.02, 182448.14, -187500.02, 337, 240, 657, 18:35:11.312
104, -187500.02, -187500.02, -187500.02, -187500.02, -187500.02, -187500.02, 182440.14, -187500.02, 337, 238, 657, 18:35:11.313
105, -187500.02, -187500.02, -187500.02, -187500.02, -187500.02, -187500.02, 182434.78, -187500.02, 337, 248, 657, 18:35:11.313
106, -187500.02, -187500.02, -187500.02, -187500.02, -187500.02, -187500.02, 182423.78, -187500.02, 337, 251, 656, 18:35:11.313
107, -187500.02, -187500.02, -187500.02, -187500.02, -187500.02, -187500.02, 182411.48, -187500.02, 337, 241, 654, 18:35:11.313
108, -187500.02, -187500.02, -187500.02, -187500.02, -187500.02, -187500.02, 182400.88, -187500.02, 338, 238, 657, 18:35:11.313
109, -187500.02, -187500.02, -187500.02, -187500.02, -187500.02, -187500.02, 182393.17, -187500.02, 337, 247, 655, 18:35:11.313
110, -187500.02, -187500.02, -187500.02, -187500.02, -187500.02, -187500.02, 182381.02, -187500.02, 337, 252, 657, 18:35:11.313
111, -187500.02, -187500.02, -187500.02, -187500.02, -187500.02, -187500.02, 182368.22, -187500.02, 337, 244, 655, 18:35:11.313
112, -187500.02, -187500.02, -187500.02, -187500.02, -187500.02, -187500.02, 182359.16, -187500.02, 337, 237, 657, 18:35:11.313
113, -187500.02, -187500.02, -187500.02, -187500.02, -187500.02, -187500.02, 182352.66, -187500.02, 337, 245, 657, 18:35:11.313
114, -187500.02, -187500.02, -187500.02, -187500.02, -187500.02, -187500.02, 182344.39, -187500.02, 337, 251, 656, 18:35:11.314
115, -187500.02, -187500.02, -187500.02, -187500.02, -187500.02, -187500.02, 182333.52, -187500.02, 337, 245, 657, 18:35:11.314
116, -187500.02, -187500.02, -187500.02, -187500.02, -187500.02, -187500.02, 182322.80, -187500.02, 337, 238, 657, 18:35:11.314
117, -187500.02, -187500.02, -187500.02, -187500.02, -187500.02, -187500.02, 182316.95, -187500.02, 337, 243, 655, 18:35:11.314
118, -187500.02, -187500.02, -187500.02, -187500.02, -187500.02, -187500.02, 182306.41, -187500.02, 337, 251, 655, 18:35:11.314
119, -187500.02, -187500.02, -187500.02, -187500.02, -187500.02, -187500.02, 182295.44, -187500.02, 337, 247, 657, 18:35:11.314
120, -187500.02, -187500.02, -187500.02, -187500.02, -187500.02, -187500.02, 182283.77, -187500.02, 337, 238, 657, 18:35:11.314
121, -187500.02, -187500.02, -187500.02, -187500.02, -187500.02, -187500.02, 182275.77, -187500.02, 337, 240, 657, 18:35:11.314
122, -187500.02, -187500.02, -187500.02, -187500.02, -187500.02, -187500.02, 182266.89, -187500.02, 337, 250, 656, 18:35:11.314
123, -187500.02, -187500.02, -187500.02, -187500.02, -187500.02, -187500.02, 182253.09, -187500.02, 337, 250, 657, 18:35:11.314
124, -187500.02, -187500.02, -187500.02, -187500.02, -187500.02, -187500.02, 182240.00, -187500.02, 337, 239, 657, 18:35:11.314
125, -187500.02, -187500.02, -187500.02, -187500.02, -187500.02, -187500.02, 182233.03, -187500.02, 337, 238, 656, 18:35:11.315
126, -187500.02, -187500.02, -187500.02, -187500.02, -187500.02, -187500.02, 182225.55, -187500.02, 337, 248, 656, 18:35:11.315
127, -187500.02, -187500.02, -187500.02, -187500.02, -187500.02, -187500.02, 182216.00, -187500.02, 337, 251, 657, 18:35:11.315
128, -187500.02, -187500.02, -187500.02, -187500.02, -187500.02, -187500.02, 182202.36, -187500.02, 337, 240, 656, 18:35:11.315
129, -187500.02, -187500.02, -187500.02, -187500.02, -187500.02, -187500.02, 182193.72, -187500.02, 337, 237, 655, 18:35:11.315
130, -187500.02, -187500.02, -187500.02, -187500.02, -187500.02, -187500.02, 182187.66, -187500.02, 337, 247, 655, 18:35:11.315
131, -187500.02, -187500.02, -187500.02, -187500.02, -187500.02, -187500.02, 182177.89, -187500.02, 337, 251, 657, 18:35:11.315
132, -187500.02, -187500.02, -187500.02, -187500.02, -187500.02, -187500.02, 182163.20, -187500.02, 337, 241, 657, 18:35:11.315
133, -187500.02, -187500.02, -187500.02, -187500.02, -187500.02, -187500.02, 182152.39, -187500.02, 337, 237, 657, 18:35:11.315
134, -187500.02, -187500.02, -187500.02, -187500.02, -187500.02, -187500.02, 182145.67, -187500.02, 337, 246, 657, 18:35:11.315
135, -187500.02, -187500.02, -187500.02, -187500.02, -187500.02, -187500.02, 182135.75, -187500.02, 338, 251, 657, 18:35:11.316
136, -187500.02, -187500.02, -187500.02, -187500.02, -187500.02, -187500.02, 182123.33, -187500.02, 337, 243, 657, 18:35:11.316
137, -187500.02, -187500.02, -187500.02, -187500.02, -187500.02, -187500.02, 182113.41, -187500.02, 337, 237, 657, 18:35:11.316
138, -187500.02, -187500.02, -187500.02, -187500.02, -187500.02, -187500.02, 182107.33, -187500.02, 337, 244, 655, 18:35:11.316
139, -187500.02, -187500.02, -187500.02, -187500.02, -187500.02, -187500.02, 182096.14, -187500.02, 337, 251, 656, 18:35:11.316
140, -187500.02, -187500.02, -187500.02, -187500.02, -187500.02, -187500.02, 182084.03, -187500.02, 338, 246, 655, 18:35:11.316
141, -187500.02, -187500.02, -187500.02, -187500.02, -187500.02, -187500.02, 182072.70, -187500.02, 337, 238, 657, 18:35:11.316
142, -187500.02, -187500.02, -187500.02, -187500.02, -187500.02, -187500.02, 182066.00, -187500.02, 337, 242, 655, 18:35:11.316
143, -187500.02, -187500.02, -187500.02, -187500.02, -187500.02, -187500.02, 182056.53, -187500.02, 337, 250, 657, 18:35:11.316
144, -187500.02, -187500.02, -187500.02, -187500.02, -187500.02, -187500.02, 182046.03, -187500.02, 337, 248, 657, 18:35:11.316
145, -187500.02, -187500.02, -187500.02, -187500.02, -187500.02, -187500.02, 182034.34, -187500.02, 337, 239, 656, 18:35:11.316
146, -187500.02, -187500.02, -187500.02, -187500.02, -187500.02, -187500.02, 182026.98, -187500.02, 337, 239, 657, 18:35:11.317
147, -187500.02, -187500.02, -187500.02, -187500.02, -187500.02, -187500.02, 182019.39, -187500.02, 337, 250, 657, 18:35:11.317
148, -187500.02, -187500.02, -187500.02, -187500.02, -187500.02, -187500.02, 182008.39, -187500.02, 337, 250, 657, 18:35:11.317
149, -187500.02, -187500.02, -187500.02, -187500.02, -187500.02, -187500.02, 181994.48, -187500.02, 337, 239, 657, 18:35:11.317
150, -187500.02, -187500.02, -187500.02, -187500.02, -187500.02, -187500.02, 181986.52, -187500.02, 337, 237, 655, 18:35:11.317
151, -187500.02, -187500.02, -187500.02, -187500.02, -187500.02, -187500.02, 181980.19, -187500.02, 337, 249, 657, 18:35:11.317
152, -187500.02, -187500.02, -187500.02, -187500.02, -187500.02, -187500.02, 181970.53, -187500.02, 337, 251, 656, 18:35:11.317
153, -187500.02, -187500.02, -187500.02, -187500.02, -187500.02, -187500.02, 181955.64, -187500.02, 337, 241, 657, 18:35:11.317
154, -187500.02, -187500.02, -187500.02, -187500.02, -187500.02, -187500.02, 181949.97, -187500.02, 337, 238, 656, 18:35:11.317
155, -187500.02, -187500.02, -187500.02, -187500.02, -187500.02, -187500.02, 181945.89, -187500.02, 337, 247, 656, 18:35:11.317
156, -187500.02, -187500.02, -187500.02, -187500.02, -187500.02, -187500.02, 181933.00, -187500.02, 337, 251, 654, 18:35:11.318
157, -187500.02, -187500.02, -187500.02, -187500.02, -187500.02, -187500.02, 181918.92, -187500.02, 337, 242, 656, 18:35:11.318
158, -187500.02, -187500.02, -187500.02, -187500.02, -187500.02, -187500.02, 181909.53, -187500.02, 337, 237, 654, 18:35:11.318
159, -187500.02, -187500.02, -187500.02, -187500.02, -187500.02, -187500.02, 181904.55, -187500.02, 337, 245, 657, 18:35:11.318
160, -187500.02, -187500.02, -187500.02, -187500.02, -187500.02, -187500.02, 181896.83, -187500.02, 337, 251, 655, 18:35:11.318
161, -187500.02, -187500.02, -187500.02, -187500.02, -187500.02, -187500.02, 181884.45, -187500.02, 337, 244, 657, 18:35:11.318
162, -187500.02, -187500.02, -187500.02, -187500.02, -187500.02, -187500.02, 181872.19, -187500.02, 337, 238, 657, 18:35:11.318
163, -187500.02, -187500.02, -187500.02, -187500.02, -187500.02, -187500.02, 181862.80, -187500.02, 337, 243, 657, 18:35:11.318
164, -187500.02, -187500.02, -187500.02, -187500.02, -187500.02, -187500.02, 181852.77, -187500.02, 337, 249, 657, 18:35:11.318
165, -187500.02, -187500.02, -187500.02, -187500.02, -187500.02, -187500.02, 181841.45, -187500.02, 337, 245, 656, 18:35:11.318
166, -187500.02, -187500.02, -187500.02, -187500.02, -187500.02, -187500.02, 181829.83, -187500.02, 337, 237, 655, 18:35:11.319
167, -187500.02, -187500.02, -187500.02, -187500.02, -187500.02, -187500.02, 181823.86, -187500.02, 337, 240, 657, 18:35:11.319
168, -187500.02, -187500.02, -187500.02, -187500.02, -187500.02, -187500.02, 181813.58, -187500.02, 337, 249, 655, 18:35:11.319
169, -187500.02, -187500.02, -187500.02, -187500.02, -187500.02, -187500.02, 181800.91, -187500.02, 337, 248, 657, 18:35:11.319
170, -187500.02, -187500.02, -187500.02, -187500.02, -187500.02, -187500.02, 181789.17, -187500.02, 337, 237, 656, 18:35:11.319
171, -187500.02, -187500.02, -187500.02, -187500.02, -187500.02, -187500.02, 181783.89, -187500.02, 337, 237, 656, 18:35:11.319
172, -187500.02, -187500.02, -187500.02, -187500.02, -187500.02, -187500.02, 181774.44, -187500.02, 337, 248, 656, 18:35:11.319
173, -187500.02, -187500.02, -187500.02, -187500.02, -187500.02, -187500.02, 181760.61, -187500.02, 338, 249, 657, 18:35:11.319
174, -187500.02, -187500.02, -187500.02, -187500.02, -187500.02, -187500.02, 181748.80, -187500.02, 337, 238, 655, 18:35:11.319
175, -187500.02, -187500.02, -187500.02, -187500.02, -187500.02, -187500.02, 181743.84, -187500.02, 337, 236, 657, 18:35:11.319
176, -187500.02, -187500.02, -187500.02, -187500.02, -187500.02, -187500.02, 181734.30, -187500.02, 337, 247, 655, 18:35:11.320
177, -187500.02, -187500.02, -187500.02, -187500.02, -187500.02, -187500.02, 181724.06, -187500.02, 337, 250, 657, 18:35:11.320
178, -187500.02, -187500.02, -187500.02, -187500.02, -187500.02, -187500.02, 181713.00, -187500.02, 337, 240, 655, 18:35:11.320
179, -187500.02, -187500.02, -187500.02, -187500.02, -187500.02, -187500.02, 181702.67, -187500.02, 337, 236, 657, 18:35:11.320
180, -187500.02, -187500.02, -187500.02, -187500.02, -187500.02, -187500.02, 181695.09, -187500.02, 337, 245, 657, 18:35:11.320
181, -187500.02, -187500.02, -187500.02, -187500.02, -187500.02, -187500.02, 181684.89, -187500.02, 337, 250, 656, 18:35:11.320
182, -187500.02, -187500.02, -187500.02, -187500.02, -187500.02, -187500.02, 181671.98, -187500.02, 337, 242, 657, 18:35:11.320
183, -187500.02, -187500.02, -187500.02, -187500.02, -187500.02, -187500.02, 181665.61, -187500.02, 337, 236, 657, 18:35:11.320
184, -187500.02, -187500.02, -187500.02, -187500.02, -187500.02, -187500.02, 181659.64, -187500.02, 337, 244, 656, 18:35:11.320
185, -187500.02, -187500.02, -187500.02, -187500.02, -187500.02, -187500.02, 181650.03, -187500.02, 338, 249, 657, 18:35:11.320
186, -187500.02, -187500.02, -187500.02, -187500.02, -187500.02, -187500.02, 181636.70, -187500.02, 337, 244, 657, 18:35:11.321
187, -187500.02, -187500.02, -187500.02, -187500.02, -187500.02, -187500.02, 181625.58, -187500.02, 337, 237, 657, 18:35:11.321
188, -187500.02, -187500.02, -187500.02, -187500.02, -187500.02, -187500.02, 181619.63, -187500.02, 337, 242, 655, 18:35:11.321
189, -187500.02, -187500.02, -187500.02, -187500.02, -187500.02, -187500.02, 181609.23, -187500.02, 338, 250, 657, 18:35:11.321
190, -187500.02, -187500.02, -187500.02, -187500.02, -187500.02, -187500.02, 181596.63, -187500.02, 337, 247, 655, 18:35:11.321
191, -187500.02, -187500.02, -187500.02, -187500.02, -187500.02, -187500.02, 181586.69, -187500.02, 337, 237, 657, 18:35:11.321
192, -187500.02, -187500.02, -187500.02, -187500.02, -187500.02, -187500.02, 181579.55, -187500.02, 337, 240, 657, 18:35:11.321
193, -187500.02, -187500.02, -187500.02, -187500.02, -187500.02, -187500.02, 181571.50, -187500.02, 337, 250, 656, 18:35:11.321
194, -187500.02, -187500.02, -187500.02, -187500.02, -187500.02, -187500.02, 181559.59, -187500.02, 337, 249, 657, 18:35:11.321
195, -187500.02, -187500.02, -187500.02, -187500.02, -187500.02, -187500.02, 181546.19, -187500.02, 337, 238, 657, 18:35:11.321
196, -187500.02, -187500.02, -187500.02, -187500.02, -187500.02, -187500.02, 181538.69, -187500.02, 337, 237, 655, 18:35:11.321
197, -187500.02, -187500.02, -187500.02, -187500.02, -187500.02, -187500.02, 181531.09, -187500.02, 337, 249, 656, 18:35:11.322
198, -187500.02, -187500.02, -187500.02, -187500.02, -187500.02, -187500.02, 181521.55, -187500.02, 337, 250, 655, 18:35:11.322
199, -187500.02, -187500.02, -187500.02, -187500.02, -187500.02, -187500.02, 181509.02, -187500.02, 337, 240, 657, 18:35:11.322
200, -187500.02, -187500.02, -187500.02, -187500.02, -187500.02, -187500.02, 181499.67, -187500.02, 337, 237, 655, 18:35:11.322
201, -187500.02, -187500.02, -187500.02, -187500.02, -187500.02, -187500.02, 181493.23, -187500.02, 337, 247, 657, 18:35:11.322
202, -187500.02, -187500.02, -187500.02, -187500.02, -187500.02, -187500.02, 181479.13, -187500.02, 337, 250, 656, 18:35:11.322
203, -187500.02, -187500.02, -187500.02, -187500.02, -187500.02, -187500.02, 181466.78, -187500.02, 337, 241, 656, 18:35:11.322
204, -187500.02, -187500.02, -187500.02, -187500.02, -187500.02, -187500.02, 181458.78, -187500.02, 337, 237, 656, 18:35:11.322
205, -187500.02, -187500.02, -187500.02, -187500.02, -187500.02, -187500.02, 181451.81, -187500.02, 337, 246, 657, 18:35:11.322
206, -187500.02, -187500.02, -187500.02, -187500.02, -187500.02, -187500.02, 181441.42, -187500.02, 337, 251, 655, 18:35:11.322
207, -187500.02, -187500.02, -187500.02, -187500.02, -187500.02, -187500.02, 181428.17, -187500.02, 337, 242, 657, 18:35:11.323
208, -187500.02, -187500.02, -187500.02, -187500.02, -187500.02, -187500.02, 181417.64, -187500.02, 337, 236, 655, 18:35:11.323
209, -187500.02, -187500.02, -187500.02, -187500.02, -187500.02, -187500.02, 181409.80, -187500.02, 338, 243, 656, 18:35:11.790
210, -187500.02, -187500.02, -187500.02, -187500.02, -187500.02, -187500.02, 181397.56, -187500.02, 337, 249, 655, 18:35:11.790
211, -187500.02, -187500.02, -187500.02, -187500.02, -187500.02, -187500.02, 181384.25, -187500.02, 337, 244, 657, 18:35:11.790
212, -187500.02, -187500.02, -187500.02, -187500.02, -187500.02, -187500.02, 181373.52, -187500.02, 337, 237, 657, 18:35:11.790
213, -187500.02, -187500.02, -187500.02, -187500.02, -187500.02, -187500.02, 181366.42, -187500.02, 337, 241, 656, 18:35:11.791
214, -187500.02, -187500.02, -187500.02, -187500.02, -187500.02, -187500.02, 181358.72, -187500.02, 337, 249, 657, 18:35:11.791
215, -187500.02, -187500.02, -187500.02, -187500.02, -187500.02, -187500.02, 181347.08, -187500.02, 337, 246, 657, 18:35:11.791
216, -187500.02, -187500.02, -187500.02, -187500.02, -187500.02, -187500.02, 181334.89, -187500.02, 337, 236, 655, 18:35:11.791
217, -187500.02, -187500.02, -187500.02, -187500.02, -187500.02, -187500.02, 181326.42, -187500.02, 337, 238, 656, 18:35:11.791
218, -187500.02, -187500.02, -187500.02, -187500.02, -187500.02, -187500.02, 181317.77, -187500.02, 337, 248, 655, 18:35:11.791
219, -187500.02, -187500.02, -187500.02, -187500.02, -187500.02, -187500.02, 181307.31, -187500.02, 337, 248, 656, 18:35:11.791
220, -187500.02, -187500.02, -187500.02, -187500.02, -187500.02, -187500.02, 181292.00, -187500.02, 337, 238, 655, 18:35:11.792
221, -187500.02, -187500.02, -187500.02, -187500.02, -187500.02, -187500.02, 181285.47, -187500.02, 337, 236, 657, 18:35:11.792
222, -187500.02, -187500.02, -187500.02, -187500.02, -187500.02, -187500.02, 181279.55, -187500.02, 337, 246, 657, 18:35:11.792
223, -187500.02, -187500.02, -187500.02, -187500.02, -187500.02, -187500.02, 181267.09, -187500.02, 337, 248, 654, 18:35:11.792
224, -187500.02, -187500.02, -187500.02, -187500.02, -187500.02, -187500.02, 181255.00, -187500.02, 337, 239, 657, 18:35:11.792
225, -187500.02, -187500.02, -187500.02, -187500.02, -187500.02, -187500.02, 181246.27, -187500.02, 337, 235, 655, 18:35:11.792
226, -187500.02, -187500.02, -187500.02, -187500.02, -187500.02, -187500.02, 181237.44, -187500.02, 337, 245, 657, 18:35:11.792
227, -187500.02, -187500.02, -187500.02, -187500.02, -187500.02, -187500.02, 181223.56, -187500.02, 337, 248, 655, 18:35:11.793
228, -187500.02, -187500.02, -187500.02, -187500.02, -187500.02, -187500.02, 181210.25, -187500.02, 337, 238, 657, 18:35:11.793
229, -187500.02, -187500.02, -187500.02, -187500.02, -187500.02, -187500.02, 181201.20, -187500.02, 337, 234, 656, 18:35:11.793
230, -187500.02, -187500.02, -187500.02, -187500.02, -187500.02, -187500.02, 181193.61, -187500.02, 337, 242, 657, 18:35:11.793
231, -187500.02, -187500.02, -187500.02, -187500.02, -187500.02, -187500.02, 181183.84, -187500.02, 337, 248, 656, 18:35:11.793
232, -187500.02, -187500.02, -187500.02, -187500.02, -187500.02, -187500.02, 181172.84, -187500.02, 337, 240, 657, 18:35:11.793
233, -187500.02, -187500.02, -187500.02, -187500.02, -187500.02, -187500.02, 181162.47, -187500.02, 337, 234, 655, 18:35:11.793
234, -187500.02, -187500.02, -187500.02, -187500.02, -187500.02, -187500.02, 181153.03, -187500.02, 337, 239, 657, 18:35:11.793
235, -187500.02, -187500.02, -187500.02, -187500.02, -187500.02, -187500.02, 181141.48, -187500.02, 337, 246, 655, 18:35:11.793
236, -187500.02, -187500.02, -187500.02, -187500.02, -187500.02, -187500.02, 181126.30, -187500.02, 337, 241, 656, 18:35:11.793
237, -187500.02, -187500.02, -187500.02, -187500.02, -187500.02, -187500.02, 181114.95, -187500.02, 337, 233, 656, 18:35:11.794
238, -187500.02, -187500.02, -187500.02, -187500.02, -187500.02, -187500.02, 181107.42, -187500.02, 337, 237, 657, 18:35:11.794
239, -187500.02, -187500.02, -187500.02, -187500.02, -187500.02, -187500.02, 181098.81, -187500.02, 337, 246, 655, 18:35:11.794
240, -187500.02, -187500.02, -187500.02, -187500.02, -187500.02, -187500.02, 181086.00, -187500.02, 337, 243, 657, 18:35:11.794
241, -187500.02, -187500.02, -187500.02, -187500.02, -187500.02, -187500.02, 181072.33, -187500.02, 337, 234, 657, 18:35:11.794
242, -187500.02, -187500.02, -187500.02, -187500.02, -187500.02, -187500.02, 181065.08, -187500.02, 337, 234, 657, 18:35:11.794
243, -187500.02, -187500.02, -187500.02, -187500.02, -187500.02, -187500.02, 181056.08, -187500.02, 337, 244, 657, 18:35:11.794
244, -187500.02, -187500.02, -187500.02, -187500.02, -187500.02, -187500.02, 181043.30, -187500.02, 337, 246, 656, 18:35:11.794
245, -187500.02, -187500.02, -187500.02, -187500.02, -187500.02, -187500.02, 181031.44, -187500.02, 337, 236, 656, 18:35:11.794
246, -187500.02, -187500.02, -187500.02, -187500.02, -187500.02, -187500.02, 181022.22, -187500.02, 337, 232, 656, 18:35:11.794
247, -187500.02, -187500.02, -187500.02, -187500.02, -187500.02, -187500.02, 181012.80, -187500.02, 337, 243, 657, 18:35:11.795
248, -187500.02, -187500.02, -187500.02, -187500.02, -187500.02, -187500.02, 181002.05, -187500.02, 337, 246, 657, 18:35:11.795
249, -187500.02, -187500.02, -187500.02, -187500.02, -187500.02, -187500.02, 180987.83, -187500.02, 337, 237, 657, 18:35:11.795
250, -187500.02, -187500.02, -187500.02, -187500.02, -187500.02, -187500.02, 180978.36, -187500.02, 338, 233, 656, 18:35:11.795
251, -187500.02, -187500.02, -187500.02, -187500.02, -187500.02, -187500.02, 180970.48, -187500.02, 337, 242, 657, 18:35:11.795
252, -187500.02, -187500.02, -187500.02, -187500.02, -187500.02, -187500.02, 180958.02, -187500.02, 338, 247, 656, 18:35:11.795
253, -187500.02, -187500.02, -187500.02, -187500.02, -187500.02, -187500.02, 180944.97, -187500.02, 337, 239, 657, 18:35:11.795
254, -187500.02, -187500.02, -187500.02, -187500.02, -187500.02, -187500.02, 180935.80, -187500.02, 338, 234, 657, 18:35:11.795
255, -187500.02, -187500.02, -187500.02, -187500.02, -187500.02, -187500.02, 180926.61, -187500.02, 337, 241, 656, 18:35:11.795
0, -187500.02, -187500.02, -187500.02, -187500.02, -187500.02, -187500.02, 180916.52, -187500.02, 337, 248, 656, 18:35:11.796
1, -187500.02, -187500.02, -187500.02, -187500.02, -187500.02, -187500.02, 180902.81, -187500.02, 337, 241, 656, 18:35:11.796
2, -187500.02, -187500.02, -187500.02, -187500.02, -187500.02, -187500.02, 180892.30, -187500.02, 337, 235, 656, 18:35:11.796
3, -187500.02, -187500.02, -187500.02, -187500.02, -187500.02, -187500.02, 180884.59, -187500.02, 337, 239, 657, 18:35:11.796
4, -187500.02, -187500.02, -187500.02, -187500.02, -187500.02, -187500.02, 180877.27, -187500.02, 337, 247, 655, 18:35:11.796
5, -187500.02, -187500.02, -187500.02, -187500.02, -187500.02, -187500.02, 180866.58, -187500.02, 337, 244, 656, 18:35:11.796
6, -187500.02, -187500.02, -187500.02, -187500.02, -187500.02, -187500.02, 180854.31, -187500.02, 337, 235, 657, 18:35:11.796
7, -187500.02, -187500.02, -187500.02, -187500.02, -187500.02, -187500.02, 180845.09, -187500.02, 337, 237, 657, 18:35:11.796
8, -187500.02, -187500.02, -187500.02, -187500.02, -187500.02, -187500.02, 180837.55, -187500.02, 337, 247, 657, 18:35:11.796
9, -187500.02, -187500.02, -187500.02, -187500.02, -187500.02, -187500.02, 180827.34, -187500.02, 337, 246, 657, 18:35:11.796
10, -187500.02, -187500.02, -187500.02, -187500.02, -187500.02, -187500.02, 180813.83, -187500.02, 337, 236, 654, 18:35:11.796
11, -187500.02, -187500.02, -187500.02, -187500.02, -187500.02, -187500.02, 180803.44, -187500.02, 337, 235, 656, 18:35:11.797
12, -187500.02, -187500.02, -187500.02, -187500.02, -187500.02, -187500.02, 180792.70, -187500.02, 338, 246, 657, 18:35:11.797
13, -187500.02, -187500.02, -187500.02, -187500.02, -187500.02, -187500.02, 180782.83, -187500.02, 338, 248, 657, 18:35:11.797
14, -187500.02, -187500.02, -187500.02, -187500.02, -187500.02, -187500.02, 180771.05, -187500.02, 337, 237, 657, 18:35:11.797
15, -187500.02, -187500.02, -187500.02, -187500.02, -187500.02, -187500.02, 180761.59, -187500.02, 337, 235, 657, 18:35:11.797
16, -187500.02, -187500.02, -187500.02, -187500.02, -187500.02, -187500.02, 180753.44, -187500.02, 337, 245, 655, 18:35:11.797
17, -187500.02, -187500.02, -187500.02, -187500.02, -187500.02, -187500.02, 180744.53, -187500.02, 338, 248, 657, 18:35:11.797
18, -187500.02, -187500.02, -187500.02, -187500.02, -187500.02, -187500.02, 180731.34, -187500.02, 337, 239, 655, 18:35:11.797
19, -187500.02, -187500.02, -187500.02, -187500.02, -187500.02, -187500.02, 180721.09, -187500.02, 337, 234, 657, 18:35:11.797
20, -187500.02, -187500.02, -187500.02, -187500.02, -187500.02, -187500.02, 180713.38, -187500.02, 337, 243, 655, 18:35:11.798
21, -187500.02, -187500.02, -187500.02, -187500.02, -187500.02, -187500.02, 180702.56, -187500.02, 337, 249, 657, 18:35:11.798
22, -187500.02, -187500.02, -187500.02, -187500.02, -187500.02, -187500.02, 180690.78, -187500.02, 337, 240, 657, 18:35:11.798
23, -187500.02, -187500.02, -187500.02, -187500.02, -187500.02, -187500.02, 180680.28, -187500.02, 337, 235, 656, 18:35:11.798
24, -187500.02, -187500.02, -187500.02, -187500.02, -187500.02, -187500.02, 180673.70, -187500.02, 337, 242, 657, 18:35:11.798
25, -187500.02, -187500.02, -187500.02, -187500.02, -187500.02, -187500.02, 180664.98, -187500.02, 337, 248, 657, 18:35:11.798
26, -187500.02, -187500.02, -187500.02, -187500.02, -187500.02, -187500.02, 180650.39, -187500.02, 337, 243, 655, 18:35:11.798
27, -187500.02, -187500.02, -187500.02, -187500.02, -187500.02, -187500.02, 180636.48, -187500.02, 337, 236, 656, 18:35:11.798
28, -187500.02, -187500.02, -187500.02, -187500.02, -187500.02, -187500.02, 180629.53, -187500.02, 337, 241, 654, 18:35:11.798
29, -187500.02, -187500.02, -187500.02, -187500.02, -187500.02, -187500.02, 180619.25, -187500.02, 338, 249, 656, 18:35:11.799
30, -187500.02, -187500.02, -187500.02, -187500.02, -187500.02, -187500.02, 180603.55, -187500.02, 337, 246, 657, 18:35:11.799
31, -187500.02, -187500.02, -187500.02, -187500.02, -187500.02, -187500.02, 180590.44, -187500.02, 337, 237, 657, 18:35:11.799
32, -187500.02, -187500.02, -187500.02, -187500.02, -187500.02, -187500.02, 180586.08, -187500.02, 337, 239, 657, 18:35:11.799
33, -187500.02, -187500.02, -187500.02, -187500.02, -187500.02, -187500.02, 180580.03, -187500.02, 337, 249, 656, 18:35:11.799
34, -187500.02, -187500.02, -187500.02, -187500.02, -187500.02, -187500.02, 180569.91, -187500.02, 338, 249, 657, 18:35:11.799
35, -187500.02, -187500.02, -187500.02, -187500.02, -187500.02, -187500.02, 180556.83, -187500.02, 337, 238, 658, 18:35:11.799
36, -187500.02, -187500.02, -187500.02, -187500.02, -187500.02, -187500.02, 180548.13, -187500.02, 337, 237, 657, 18:35:11.799
37, -187500.02, -187500.02, -187500.02, -187500.02, -187500.02, -187500.02, 180540.23, -187500.02, 337, 249, 657, 18:35:11.799
38, -187500.02, -187500.02, -187500.02, -187500.02, -187500.02, -187500.02, 180530.20, -187500.02, 337, 251, 657, 18:35:11.799
39, -187500.02, -187500.02, -187500.02, -187500.02, -187500.02, -187500.02, 180517.20, -187500.02, 337, 240, 656, 18:35:11.800
40, -187500.02, -187500.02, -187500.02, -187500.02, -187500.02, -187500.02, 180508.28, -187500.02, 338, 237, 655, 18:35:11.800
41, -187500.02, -187500.02, -187500.02, -187500.02, -187500.02, -187500.02, 180501.34, -187500.02, 337, 247, 657, 18:35:11.800
42, -187500.02, -187500.02, -187500.02, -187500.02, -187500.02, -187500.02, 180491.41, -187500.02, 337, 251, 656, 18:35:11.800
43, -187500.02, -187500.02, -187500.02, -187500.02, -187500.02, -187500.02, 180478.22, -187500.02, 337, 242, 657, 18:35:11.800
44, -187500.02, -187500.02, -187500.02, -187500.02, -187500.02, -187500.02, 180466.53, -187500.02, 337, 237, 657, 18:35:11.800
45, -187500.02, -187500.02, -187500.02, -187500.02, -187500.02, -187500.02, 180460.52, -187500.02, 337, 246, 657, 18:35:11.800
46, -187500.02, -187500.02, -187500.02, -187500.02, -187500.02, -187500.02, 180450.28, -187500.02, 337, 251, 655, 18:35:11.800
47, -187500.02, -187500.02, -187500.02, -187500.02, -187500.02, -187500.02, 180438.16, -187500.02, 337, 243, 656, 18:35:11.800
48, -187500.02, -187500.02, -187500.02, -187500.02, -187500.02, -187500.02, 180426.98, -187500.02, 337, 237, 655, 18:35:11.800
49, -187500.02, -187500.02, -187500.02, -187500.02, -187500.02, -187500.02, 180418.64, -187500.02, 337, 243, 656, 18:35:11.800
50, -187500.02, -187500.02, -187500.02, -187500.02, -187500.02, -187500.02, 180408.48, -187500.02, 337, 250, 655, 18:35:11.801
51, -187500.02, -187500.02, -187500.02, -187500.02, -187500.02, -187500.02, 180395.77, -187500.02, 337, 245, 657, 18:35:11.801
52, -187500.02, -187500.02, -187500.02, -187500.02, -187500.02, -187500.02, 180384.86, -187500.02, 337, 237, 657, 18:35:11.801
53, -187500.02, -187500.02, -187500.02, -187500.02, -187500.02, -187500.02, 180379.84, -187500.02, 337, 240, 657, 18:35:11.801
54, -187500.02, -187500.02, -187500.02, -187500.02, -187500.02, -187500.02, 180369.91, -187500.02, 337, 249, 656, 18:35:11.801
55, -187500.02, -187500.02, -187500.02, -187500.02, -187500.02, -187500.02, 180357.66, -187500.02, 338, 247, 657, 18:35:11.801
56, -187500.02, -187500.02, -187500.02, -187500.02, -187500.02, -187500.02, 180346.56, -187500.02, 337, 237, 655, 18:35:11.801
57, -187500.02, -187500.02, -187500.02, -187500.02, -187500.02, -187500.02, 180341.56, -187500.02, 337, 238, 657, 18:35:11.801
58, -187500.02, -187500.02, -187500.02, -187500.02, -187500.02, -187500.02, 180334.61, -187500.02, 337, 249, 655, 18:35:11.801
59, -187500.02, -187500.02, -187500.02, -187500.02, -187500.02, -187500.02, 180321.08, -187500.02, 337, 249, 656, 18:35:11.801
60, -187500.02, -187500.02, -187500.02, -187500.02, -187500.02, -187500.02, 180307.11, -187500.02, 337, 239, 657, 18:35:11.801
61, -187500.02, -187500.02, -187500.02, -187500.02, -187500.02, -187500.02, 180298.63, -187500.02, 337, 236, 655, 18:35:11.802
62, -187500.02, -187500.02, -187500.02, -187500.02, -187500.02, -187500.02, 180290.19, -187500.02, 337, 247, 657, 18:35:11.802
63, -187500.02, -187500.02, -187500.02, -187500.02, -187500.02, -187500.02, 180279.22, -187500.02, 337, 250, 656, 18:35:11.802
64, -187500.02, -187500.02, -187500.02, -187500.02, -187500.02, -187500.02, 180267.06, -187500.02, 337, 240, 657, 18:35:11.802
65, -187500.02, -187500.02, -187500.02, -187500.02, -187500.02, -187500.02, 180260.08, -187500.02, 337, 236, 657, 18:35:11.802
66, -187500.02, -187500.02, -187500.02, -187500.02, -187500.02, -187500.02, 180252.78, -187500.02, 337, 246, 657, 18:35:11.802
67, -187500.02, -187500.02, -187500.02, -187500.02, -187500.02, -187500.02, 180242.89, -187500.02, 337, 250, 656, 18:35:11.802
68, -187500.02, -187500.02, -187500.02, -187500.02, -187500.02, -187500.02, 180230.47, -187500.02, 337, 241, 657, 18:35:11.802
69, -187500.02, -187500.02, -187500.02, -187500.02, -187500.02, -187500.02, 180221.50, -187500.02, 337, 236, 656, 18:35:11.803
70, -187500.02, -187500.02, -187500.02, -187500.02, -187500.02, -187500.02, 180215.53, -187500.02, 337, 244, 657, 18:35:11.803
71, -187500.02, -187500.02, -187500.02, -187500.02, -187500.02, -187500.02, 180206.16, -187500.02, 338, 250, 655, 18:35:11.803
72, -187500.02, -187500.02, -187500.02, -187500.02, -187500.02, -187500.02, 180191.95, -187500.02, 337, 244, 657, 18:35:11.803
73, -187500.02, -187500.02, -187500.02, -187500.02, -187500.02, -187500.02, 180180.67, -187500.02, 337, 237, 655, 18:35:12.270
74, -187500.02, -187500.02, -187500.02, -187500.02, -187500.02, -187500.02, 180174.55, -187500.02, 337, 242, 656, 18:35:12.271
75, -187500.02, -187500.02, -187500.02, -187500.02, -187500.02, -187500.02, 180166.09, -187500.02, 337, 249, 655, 18:35:12.271
76, -187500.02, -187500.02, -187500.02, -187500.02, -187500.02, -187500.02, 180153.91, -187500.02, 337, 246, 657, 18:35:12.271
77, -187500.02, -187500.02, -187500.02, -187500.02, -187500.02, -187500.02, 180141.83, -187500.02, 337, 237, 655, 18:35:12.271
78, -187500.02, -187500.02, -187500.02, -187500.02, -187500.02, -187500.02, 180136.19, -187500.02, 337, 240, 657, 18:35:12.271
79, -187500.02, -187500.02, -187500.02, -187500.02, -187500.02, -187500.02, 180129.86, -187500.02, 337, 249, 655, 18:35:12.271
80, -187500.02, -187500.02, -187500.02, -187500.02, -187500.02, -187500.02, 180118.06, -187500.02, 337, 248, 657, 18:35:12.271
81, -187500.02, -187500.02, -187500.02, -187500.02, -187500.02, -187500.02, 180104.50, -187500.02, 337, 238, 655, 18:35:12.271
82, -187500.02, -187500.02, -187500.02, -187500.02, -187500.02, -187500.02, 180096.25, -187500.02, 337, 237, 657, 18:35:12.271
83, -187500.02, -187500.02, -187500.02, -187500.02, -187500.02, -187500.02, 180089.30, -187500.02, 337, 248, 655, 18:35:12.272
84, -187500.02, -187500.02, -187500.02, -187500.02, -187500.02, -187500.02, 180078.25, -187500.02, 337, 250, 656, 18:35:12.272
85, -187500.02, -187500.02, -187500.02, -187500.02, -187500.02, -187500.02, 180067.02, -187500.02, 337, 239, 655, 18:35:12.272
86, -187500.02, -187500.02, -187500.02, -187500.02, -187500.02, -187500.02, 180057.88, -187500.02, 337, 237, 657, 18:35:12.272
87, -187500.02, -187500.02, -187500.02, -187500.02, -187500.02, -187500.02, 180050.14, -187500.02, 337, 247, 657, 18:35:12.272
88, -187500.02, -187500.02, -187500.02, -187500.02, -187500.02, -187500.02, 180040.08, -187500.02, 337, 250, 657, 18:35:12.272
89, -187500.02, -187500.02, -187500.02, -187500.02, -187500.02, -187500.02, 180028.41, -187500.02, 337, 241, 656, 18:35:12.272
90, -187500.02, -187500.02, -187500.02, -187500.02, -187500.02, -187500.02, 180020.08, -187500.02, 337, 237, 657, 18:35:12.272
91, -187500.02, -187500.02, -187500.02, -187500.02, -187500.02, -187500.02, 180013.83, -187500.02, 337, 246, 656, 18:35:12.272
92, -187500.02, -187500.02, -187500.02, -187500.02, -187500.02, -187500.02, 180003.83, -187500.02, 337, 250, 657, 18:35:12.272
93, -187500.02, -187500.02, -187500.02, -187500.02, -187500.02, -187500.02, 179991.69, -187500.02, 337, 242, 657, 18:35:12.273
94, -187500.02, -187500.02, -187500.02, -187500.02, -187500.02, -187500.02, 179979.56, -187500.02, 337, 236, 657, 18:35:12.273
95, -187500.02, -187500.02, -187500.02, -187500.02, -187500.02, -187500.02, 179973.89, -187500.02, 337, 244, 656, 18:35:12.273
96, -187500.02, -187500.02, -187500.02, -187500.02, -187500.02, -187500.02, 179965.80, -187500.02, 337, 250, 657, 18:35:12.273
97, -187500.02, -187500.02, -187500.02, -187500.02, -187500.02, -187500.02, 179953.98, -187500.02, 337, 244, 655, 18:35:12.273
98, -187500.02, -187500.02, -187500.02, -187500.02, -187500.02, -187500.02, 179942.58, -187500.02, 337, 237, 657, 18:35:12.273
99, -187500.02, -187500.02, -187500.02, -187500.02, -187500.02, -187500.02, 179936.08, -187500.02, 337, 242, 655, 18:35:12.273
100, -187500.02, -187500.02, -187500.02, -187500.02, -187500.02, -187500.02, 179928.16, -187500.02, 337, 249, 657, 18:35:12.273
101, -187500.02, -187500.02, -187500.02, -187500.02, -187500.02, -187500.02, 179915.84, -187500.02, 337, 246, 656, 18:35:12.274
102, -187500.02, -187500.02, -187500.02, -187500.02, -187500.02, -187500.02, 179903.84, -187500.02, 337, 237, 657, 18:35:12.274
103, -187500.02, -187500.02, -187500.02, -187500.02, -187500.02, -187500.02, 179899.42, -187500.02, 337, 239, 656, 18:35:12.274
104, -187500.02, -187500.02, -187500.02, -187500.02, -187500.02, -187500.02, 179891.13, -187500.02, 338, 249, 657, 18:35:12.274
105, -187500.02, -187500.02, -187500.02, -187500.02, -187500.02, -187500.02, 179877.95, -187500.02, 337, 249, 657, 18:35:12.274
106, -187500.02, -187500.02, -187500.02, -187500.02, -187500.02, -187500.02, 179863.39, -187500.02, 337, 238, 657, 18:35:12.274
107, -187500.02, -187500.02, -187500.02, -187500.02, -187500.02, -187500.02, 179854.83, -187500.02, 337, 237, 657, 18:35:12.274
108, -187500.02, -187500.02, -187500.02, -187500.02, -187500.02, -187500.02, 179847.09, -187500.02, 338, 248, 657, 18:35:12.275
109, -187500.02, -187500.02, -187500.02, -187500.02, -187500.02, -187500.02, 179839.09, -187500.02, 337, 250, 656, 18:35:12.275
110, -187500.02, -187500.02, -187500.02, -187500.02, -187500.02, -187500.02, 179826.80, -187500.02, 337, 240, 657, 18:35:12.275
111, -187500.02, -187500.02, -187500.02, -187500.02, -187500.02, -187500.02, 179816.78, -187500.02, 337, 236, 656, 18:35:12.275
112, -187500.02, -187500.02, -187500.02, -187500.02, -187500.02, -187500.02, 179808.58, -187500.02, 338, 247, 655, 18:35:12.275
113, -187500.02, -187500.02, -187500.02, -187500.02, -187500.02, -187500.02, 179798.34, -187500.02, 337, 250, 657, 18:35:12.275
114, -187500.02, -187500.02, -187500.02, -187500.02, -187500.02, -187500.02, 179787.39, -187500.02, 337, 241, 655, 18:35:12.275
115, -187500.02, -187500.02, -187500.02, -187500.02, -187500.02, -187500.02, 179779.52, -187500.02, 337, 236, 655, 18:35:12.275
116, -187500.02, -187500.02, -187500.02, -187500.02, -187500.02, -187500.02, 179772.61, -187500.02, 337, 246, 657, 18:35:12.275
117, -187500.02, -187500.02, -187500.02, -187500.02, -187500.02, -187500.02, 179764.53, -187500.02, 337, 250, 657, 18:35:12.276
118, -187500.02, -187500.02, -187500.02, -187500.02, -187500.02, -187500.02, 179754.27, -187500.02, 337, 243, 657, 18:35:12.276
119, -187500.02, -187500.02, -187500.02, -187500.02, -187500.02, -187500.02, 179741.80, -187500.02, 337, 236, 657, 18:35:12.276
120, -187500.02, -187500.02, -187500.02, -187500.02, -187500.02, -187500.02, 179734.13, -187500.02, 337, 243, 656, 18:35:12.276
121, -187500.02, -187500.02, -187500.02, -187500.02, -187500.02, -187500.02, 179726.27, -187500.02, 338, 249, 657, 18:35:12.276
122, -187500.02, -187500.02, -187500.02, -187500.02, -187500.02, -187500.02, 179715.03, -187500.02, 338, 245, 657, 18:35:12.276
123, -187500.02, -187500.02, -187500.02, -187500.02, -187500.02, -187500.02, 179703.28, -187500.02, 337, 237, 655, 18:35:12.276
124, -187500.02, -187500.02, -187500.02, -187500.02, -187500.02, -187500.02, 179696.02, -187500.02, 337, 241, 655, 18:35:12.276
125, -187500.02, -187500.02, -187500.02, -187500.02, -187500.02, -187500.02, 179687.45, -187500.02, 337, 250, 657, 18:35:12.276
126, -187500.02, -187500.02, -187500.02, -187500.02, -187500.02, -187500.02, 179678.09, -187500.02, 337, 248, 657, 18:35:12.276
127, -187500.02, -187500.02, -187500.02, -187500.02, -187500.02, -187500.02, 179665.73, -187500.02, 337, 238, 656, 18:35:12.277
128, -187500.02, -187500.02, -187500.02, -187500.02, -187500.02, -187500.02, 179660.66, -187500.02, 337, 239, 657, 18:35:12.277
129, -187500.02, -187500.02, -187500.02, -187500.02, -187500.02, -187500.02, 179652.55, -187500.02, 338, 250, 655, 18:35:12.277
130, -187500.02, -187500.02, -187500.02, -187500.02, -187500.02, -187500.02, 179640.42, -187500.02, 337, 251, 657, 18:35:12.277
131, -187500.02, -187500.02, -187500.02, -187500.02, -187500.02, -187500.02, 179627.69, -187500.02, 337, 240, 655, 18:35:12.277
132, -187500.02, -187500.02, -187500.02, -187500.02, -187500.02, -187500.02, 179620.47, -187500.02, 337, 238, 657, 18:35:12.277
133, -187500.02, -187500.02, -187500.02, -187500.02, -187500.02, -187500.02, 179613.31, -187500.02, 337, 248, 657, 18:35:12.277
134, -187500.02, -187500.02, -187500.02, -187500.02, -187500.02, -187500.02, 179603.28, -187500.02, 337, 252, 657, 18:35:12.277
135, -187500.02, -187500.02, -187500.02, -187500.02, -187500.02, -187500.02, 179593.11, -187500.02, 337, 241, 657, 18:35:12.278
136, -187500.02, -187500.02, -187500.02, -187500.02, -187500.02, -187500.02, 179585.83, -187500.02, 337, 237, 656, 18:35:12.278
137, -187500.02, -187500.02, -187500.02, -187500.02, -187500.02, -187500.02, 179575.97, -187500.02, 337, 247, 655, 18:35:12.278
138, -187500.02, -187500.02, -187500.02, -187500.02, -187500.02, -187500.02, 179566.05, -187500.02, 337, 251, 656, 18:35:12.278
139, -187500.02, -187500.02, -187500.02, -187500.02, -187500.02, -187500.02, 179553.33, -187500.02, 337, 243, 657, 18:35:12.278
140, -187500.02, -187500.02, -187500.02, -187500.02, -187500.02, -187500.02, 179541.44, -187500.02, 337, 237, 657, 18:35:12.278
141, -187500.02, -187500.02, -187500.02, -187500.02, -187500.02, -187500.02, 179533.16, -187500.02, 337, 246, 656, 18:35:12.278
142, -187500.02, -187500.02, -187500.02, -187500.02, -187500.02, -187500.02, 179523.50, -187500.02, 337, 252, 657, 18:35:12.278
143, -187500.02, -187500.02, -187500.02, -187500.02, -187500.02, -187500.02, 179511.97, -187500.02, 337, 245, 655, 18:35:12.278
144, -187500.02, -187500.02, -187500.02, -187500.02, -187500.02, -187500.02, 179503.45, -187500.02, 337, 238, 657, 18:35:12.278
145, -187500.02, -187500.02, -187500.02, -187500.02, -187500.02, -187500.02, 179495.81, -187500.02, 337, 243, 655, 18:35:12.279
146, -187500.02, -187500.02, -187500.02, -187500.02, -187500.02, -187500.02, 179486.14, -187500.02, 337, 251, 657, 18:35:12.279
147, -187500.02, -187500.02, -187500.02, -187500.02, -187500.02, -187500.02, 179476.81, -187500.02, 337, 246, 657, 18:35:12.279
148, -187500.02, -187500.02, -187500.02, -187500.02, -187500.02, -187500.02, 179465.64, -187500.02, 337, 238, 657, 18:35:12.279
149, -187500.02, -187500.02, -187500.02, -187500.02, -187500.02, -187500.02, 179459.13, -187500.02, 337, 241, 657, 18:35:12.279
150, -187500.02, -187500.02, -187500.02, -187500.02, -187500.02, -187500.02, 179450.45, -187500.02, 337, 250, 657, 18:35:12.279
151, -187500.02, -187500.02, -187500.02, -187500.02, -187500.02, -187500.02, 179438.64, -187500.02, 337, 248, 655, 18:35:12.279
152, -187500.02, -187500.02, -187500.02, -187500.02, -187500.02, -187500.02, 179426.56, -187500.02, 337, 238, 657, 18:35:12.279
153, -187500.02, -187500.02, -187500.02, -187500.02, -187500.02, -187500.02, 179421.88, -187500.02, 337, 238, 655, 18:35:12.279
154, -187500.02, -187500.02, -187500.02, -187500.02, -187500.02, -187500.02, 179414.81, -187500.02, 337, 249, 657, 18:35:12.279
155, -187500.02, -187500.02, -187500.02, -187500.02, -187500.02, -187500.02, 179403.00, -187500.02, 337, 251, 655, 18:35:12.280
156, -187500.02, -187500.02, -187500.02, -187500.02, -187500.02, -187500.02, 179389.42, -187500.02, 337, 240, 657, 18:35:12.280
157, -187500.02, -187500.02, -187500.02, -187500.02, -187500.02, -187500.02, 179378.98, -187500.02, 337, 237, 656, 18:35:12.280
158, -187500.02, -187500.02, -187500.02, -187500.02, -187500.02, -187500.02, 179373.22, -187500.02, 337, 248, 657, 18:35:12.280
159, -187500.02, -187500.02, -187500.02, -187500.02, -187500.02, -187500.02, 179364.30, -187500.02, 337, 251, 656, 18:35:12.280
160, -187500.02, -187500.02, -187500.02, -187500.02, -187500.02, -187500.02, 179352.36, -187500.02, 337, 241, 657, 18:35:12.280
161, -187500.02, -187500.02, -187500.02, -187500.02, -187500.02, -187500.02, 179341.30, -187500.02, 337, 237, 655, 18:35:12.280
162, -187500.02, -187500.02, -187500.02, -187500.02, -187500.02, -187500.02, 179333.05, -187500.02, 337, 247, 657, 18:35:12.280
163, -187500.02, -187500.02, -187500.02, -187500.02, -187500.02, -187500.02, 179324.58, -187500.02, 337, 251, 655, 18:35:12.281
164, -187500.02, -187500.02, -187500.02, -187500.02, -187500.02, -187500.02, 179315.86, -187500.02, 337, 243, 657, 18:35:12.281
165, -187500.02, -187500.02, -187500.02, -187500.02, -187500.02, -187500.02, 179306.16, -187500.02, 337, 237, 657, 18:35:12.281
166, -187500.02, -187500.02, -187500.02, -187500.02, -187500.02, -187500.02, 179296.52, -187500.02, 337, 245, 657, 18:35:12.281
167, -187500.02, -187500.02, -187500.02, -187500.02, -187500.02, -187500.02, 179287.78, -187500.02, 338, 251, 657, 18:35:12.281
168, -187500.02, -187500.02, -187500.02, -187500.02, -187500.02, -187500.02, 179274.84, -187500.02, 337, 245, 656, 18:35:12.281
169, -187500.02, -187500.02, -187500.02, -187500.02, -187500.02, -187500.02, 179264.36, -187500.02, 337, 238, 655, 18:35:12.281
170, -187500.02, -187500.02, -187500.02, -187500.02, -187500.02, -187500.02, 179258.91, -187500.02, 337, 244, 656, 18:35:12.281
