%OpenBCI Raw EEG Data
%
%Sample Rate = 250.0 Hz
%First Column = SampleIndex
%Last Column = Timestamp 
%Other Columns = EEG data in microvolts followed by Accel Data (in G) interleaved with Aux Data
0, 0.00, 0.00, 0.00, 0.00, 0.00, 0.00, 0.00, 0.00, 0.414, 0.198, 0.874, 13:43:37.775
1, -34154.16, -36258.86, -62428.69, -100720.17, -85631.97, -23507.57, -91930.45, -100268.78, 0.000, 0.000, 0.000, 13:43:38.250
2, -34154.70, -36261.68, -62463.64, -100742.86, -85644.66, -23405.83, -91919.47, -100271.42, 0.000, 0.000, 0.000, 13:43:38.250
3, -34335.39, -36445.77, -62244.33, -100938.38, -85838.56, -23223.66, -92089.84, -100453.41, 0.000, 0.000, 0.000, 13:43:38.251
4, -34361.29, -36470.16, -62172.07, -100948.90, -85857.20, -23314.68, -92127.67, -100483.49, 0.000, 0.000, 0.000, 13:43:38.251
5, -34180.84, -36280.72, -62390.42, -100746.17, -85662.63, -23499.75, -91955.27, -100296.95, 0.000, 0.000, 0.000, 13:43:38.252
6, -34130.69, -36226.28, -62499.14, -100709.49, -85618.76, -23437.57, -91893.20, -100243.68, 0.000, 0.000, 0.000, 13:43:38.252
7, -34304.83, -36404.89, -62290.11, -100909.49, -85815.97, -23239.15, -92065.38, -100426.45, 0.426, 0.200, 0.864, 13:43:38.252
8, -34371.02, -36472.28, -62165.77, -100962.24, -85881.81, -23277.49, -92150.90, -100497.09, 0.000, 0.000, 0.000, 13:43:38.253
9, -34208.25, -36306.86, -62349.00, -100773.80, -85692.77, -23467.97, -91991.28, -100325.69, 0.000, 0.000, 0.000, 13:43:38.253
10, -34122.98, -36221.94, -62489.66, -100698.65, -85610.15, -23460.08, -91893.31, -100238.45, 0.000, 0.000, 0.000, 13:43:38.253
11, -34277.07, -36381.84, -62308.17, -100880.21, -85790.22, -23265.17, -92045.46, -100400.48, 0.000, 0.000, 0.000, 13:43:38.253
12, -34389.30, -36494.86, -62147.21, -100980.23, -85892.86, -23246.64, -92156.02, -100505.33, 0.000, 0.000, 0.000, 13:43:38.254
13, -34260.04, -36362.96, -62278.62, -100821.88, -85739.57, -23440.25, -92030.11, -100365.48, 0.000, 0.000, 0.000, 13:43:38.254
14, -34127.67, -36223.79, -62479.02, -100691.03, -85607.27, -23485.11, -91895.20, -100231.39, 0.000, 0.000, 0.000, 13:43:38.254
15, -34240.41, -36337.36, -62372.83, -100828.98, -85738.63, -23300.71, -91998.73, -100352.00, 0.000, 0.000, 0.000, 13:43:38.255
16, -34392.23, -36493.18, -62162.03, -100982.65, -85894.55, -23224.33, -92146.77, -100503.99, 0.000, 0.000, 0.000, 13:43:38.255
17, -34283.46, -36382.96, -62248.69, -100848.23, -85763.69, -23403.08, -92051.84, -100392.16, 0.414, 0.194, 0.862, 13:43:38.255
18, -34121.99, -36218.79, -62471.34, -100685.28, -85599.04, -23495.46, -91894.70, -100233.17, 0.000, 0.000, 0.000, 13:43:38.256
19, -34203.24, -36303.57, -62405.80, -100794.83, -85703.72, -23336.05, -91971.62, -100322.00, 0.000, 0.000, 0.000, 13:43:38.256
20, -34375.66, -36479.99, -62181.93, -100973.82, -85882.20, -23214.28, -92139.12, -100498.18, 0.000, 0.000, 0.000, 13:43:38.257
21, -34312.96, -36419.02, -62214.22, -100888.84, -85800.99, -23373.31, -92090.10, -100440.58, 0.000, 0.000, 0.000, 13:43:38.257
22, -34143.94, -36245.27, -62445.90, -100704.46, -85623.12, -23505.99, -91919.13, -100253.59, 0.000, 0.000, 0.000, 13:43:38.258
23, -34184.91, -36289.87, -62440.20, -100767.78, -85680.24, -23376.39, -91944.59, -100296.99, 0.000, 0.000, 0.000, 13:43:38.258
24, -34367.91, -36478.98, -62202.36, -100968.05, -85873.08, -23220.11, -92130.02, -100490.73, 0.000, 0.000, 0.000, 13:43:38.258
25, -34336.39, -36445.43, -62195.11, -100913.30, -85820.68, -23338.44, -92109.57, -100459.17, 0.000, 0.000, 0.000, 13:43:38.258
26, -34156.41, -36261.99, -62429.56, -100715.44, -85628.57, -23497.49, -91933.93, -100268.78, 0.430, 0.194, 0.862, 13:43:38.259
27, -34152.21, -36259.49, -62477.44, -100732.02, -85635.25, -23405.58, -91909.56, -100263.98, 0.000, 0.000, 0.000, 13:43:38.259
28, -34336.17, -36446.44, -62256.63, -100934.75, -85840.91, -23217.67, -92090.55, -100445.25, 0.000, 0.000, 0.000, 13:43:38.259
29, -34363.50, -36469.38, -62189.46, -100940.52, -85857.32, -23286.43, -92130.60, -100466.88, 0.000, 0.000, 0.000, 13:43:38.259
30, -34201.43, -36299.99, -62386.38, -100755.78, -85672.84, -23472.21, -91970.18, -100300.50, 0.000, 0.000, 0.000, 13:43:38.260
31, -34152.13, -36248.09, -62489.15, -100720.35, -85626.49, -23433.70, -91900.36, -100252.09, 0.000, 0.000, 0.000, 13:43:38.260
32, -34315.61, -36417.00, -62297.24, -100908.06, -85812.93, -23246.93, -92062.48, -100428.82, 0.000, 0.000, 0.000, 13:43:38.260
33, -34389.25, -36489.58, -62165.77, -100966.67, -85878.22, -23264.75, -92145.16, -100496.66, 0.000, 0.000, 0.000, 13:43:38.260
34, -34231.85, -36331.33, -62339.15, -100784.93, -85698.91, -23455.12, -91996.78, -100334.30, 0.000, 0.000, 0.000, 13:43:38.261
35, -34131.61, -36230.86, -62496.68, -100696.66, -85604.30, -23465.08, -91896.31, -100242.01, 0.000, 0.000, 0.000, 13:43:38.261
36, -34270.25, -36373.20, -62332.60, -100861.57, -85767.20, -23268.14, -92029.04, -100385.32, 0.442, 0.198, 0.870, 13:43:38.262
37, -34390.44, -36492.60, -62161.16, -100974.31, -85889.03, -23236.74, -92156.40, -100505.60, 0.000, 0.000, 0.000, 13:43:38.262
38, -34270.39, -36365.28, -62297.71, -100824.34, -85745.58, -23432.21, -92039.66, -100375.40, 0.000, 0.000, 0.000, 13:43:38.262
39, -34141.39, -36237.34, -62491.95, -100698.70, -85620.68, -23489.94, -91906.84, -100242.77, 0.000, 0.000, 0.000, 13:43:38.263
40, -34246.43, -36348.23, -62377.50, -100833.21, -85745.11, -23307.66, -91999.45, -100354.63, 0.000, 0.000, 0.000, 13:43:38.263
41, -34399.58, -36503.46, -62161.14, -100988.69, -85903.77, -23220.67, -92161.52, -100511.25, 0.000, 0.000, 0.000, 13:43:38.263
42, -34303.85, -36407.17, -62236.89, -100867.20, -85790.38, -23396.06, -92079.73, -100413.53, 0.000, 0.000, 0.000, 13:43:38.263
43, -34145.26, -36244.31, -62456.16, -100697.71, -85618.48, -23499.37, -91909.56, -100246.61, 0.000, 0.000, 0.000, 13:43:38.264
44, -34201.68, -36303.61, -62410.09, -100782.58, -85701.32, -23342.19, -91964.70, -100314.83, 0.000, 0.000, 0.000, 13:43:38.264
45, -34374.28, -36480.75, -62177.75, -100969.13, -85884.48, -23212.35, -92139.16, -100498.60, 0.000, 0.000, 0.000, 13:43:38.264
46, -34327.45, -36433.92, -62196.90, -100897.00, -85810.67, -23362.15, -92091.46, -100441.94, 0.450, 0.200, 0.868, 13:43:38.264
47, -34152.64, -36257.39, -62425.27, -100709.78, -85623.09, -23502.39, -91916.90, -100258.32, 0.000, 0.000, 0.000, 13:43:38.264
48, -34185.18, -36291.23, -62424.04, -100765.02, -85679.93, -23382.61, -91948.13, -100295.96, 0.000, 0.000, 0.000, 13:43:38.265
49, -34366.10, -36475.30, -62188.03, -100962.09, -85873.27, -23215.97, -92123.02, -100482.53, 0.000, 0.000, 0.000, 13:43:38.265
50, -34355.57, -36463.96, -62151.39, -100930.05, -85844.71, -23327.64, -92119.47, -100471.11, 0.000, 0.000, 0.000, 13:43:38.265
51, -34167.68, -36272.01, -62388.34, -100721.85, -85642.92, -23496.18, -91936.45, -100275.87, 0.000, 0.000, 0.000, 13:43:38.265
52, -34155.18, -36258.04, -62453.01, -100729.12, -85638.13, -23415.93, -91907.76, -100263.66, 0.000, 0.000, 0.000, 13:43:38.265
53, -34333.35, -36442.17, -62232.46, -100930.57, -85839.97, -23229.38, -92092.80, -100454.15, 0.000, 0.000, 0.000, 13:43:38.266
54, -34373.25, -36485.24, -62131.95, -100954.98, -85869.70, -23289.58, -92145.22, -100496.68, 0.000, 0.000, 0.000, 13:43:38.266
55, -34199.89, -36305.36, -62343.55, -100756.95, -85674.30, -23481.65, -91978.56, -100318.47, 0.450, 0.196, 0.866, 13:43:38.266
56, -34144.52, -36246.66, -62466.60, -100711.68, -85624.48, -23450.24, -91907.95, -100254.08, 0.000, 0.000, 0.000, 13:43:38.266
57, -34304.54, -36407.23, -62280.83, -100891.97, -85800.50, -23249.19, -92050.98, -100415.19, 0.000, 0.000, 0.000, 13:43:38.266
58, -34394.35, -36495.59, -62133.15, -100970.63, -85886.91, -23257.53, -92152.51, -100505.60, 0.000, 0.000, 0.000, 13:43:38.266
59, -34233.64, -36330.30, -62314.61, -100783.86, -85700.92, -23450.02, -91996.23, -100338.03, 0.000, 0.000, 0.000, 13:43:38.267
60, -34136.93, -36231.42, -62475.38, -100691.74, -85606.55, -23461.87, -91889.67, -100226.94, 0.000, 0.000, 0.000, 13:43:38.267
61, -34270.99, -36373.02, -62322.52, -100856.09, -85761.45, -23273.98, -92020.20, -100375.67, 0.000, 0.000, 0.000, 13:43:38.267
62, -34392.85, -36499.41, -62136.35, -100976.51, -85882.33, -23232.16, -92150.05, -100508.91, 0.000, 0.000, 0.000, 13:43:38.268
63, -34265.09, -36369.68, -62258.48, -100823.59, -85730.29, -23415.44, -92023.07, -100371.71, 0.000, 0.000, 0.000, 13:43:38.268
64, -34140.86, -36239.15, -62451.80, -100697.22, -85604.20, -23486.63, -91893.47, -100239.37, 0.000, 0.000, 0.000, 13:43:38.276
65, -34242.18, -36343.53, -62356.25, -100825.27, -85730.27, -23321.96, -91992.91, -100354.68, 0.440, 0.202, 0.864, 13:43:38.276
66, -34396.81, -36498.63, -62147.84, -100981.38, -85889.95, -23221.83, -92149.02, -100506.07, 0.000, 0.000, 0.000, 13:43:38.276
67, -34299.58, -36399.28, -62230.74, -100856.61, -85774.52, -23381.94, -92059.95, -100396.52, 0.000, 0.000, 0.000, 13:43:38.277
68, -34150.80, -36249.66, -62453.27, -100705.76, -85625.26, -23503.51, -91913.21, -100250.41, 0.000, 0.000, 0.000, 13:43:38.277
69, -34206.77, -36309.38, -62411.28, -100788.28, -85698.87, -23357.91, -91962.94, -100314.49, 0.000, 0.000, 0.000, 13:43:38.277
70, -34374.12, -36479.66, -62190.84, -100964.13, -85874.55, -23208.82, -92124.09, -100483.43, 0.000, 0.000, 0.000, 13:43:38.278
71, -34342.27, -36444.70, -62184.18, -100909.43, -85827.08, -23350.91, -92104.79, -100450.23, 0.000, 0.000, 0.000, 13:43:38.278
72, -34155.45, -36255.29, -62426.90, -100710.30, -85630.27, -23504.04, -91926.51, -100262.97, 0.000, 0.000, 0.000, 13:43:38.279
73, -34163.52, -36266.93, -62454.62, -100745.39, -85662.48, -23393.20, -91935.38, -100284.80, 0.000, 0.000, 0.000, 13:43:38.279
74, -34353.42, -36460.86, -62216.30, -100952.63, -85867.73, -23222.88, -92119.05, -100481.08, 0.440, 0.204, 0.864, 13:43:38.279
75, -34365.05, -36467.92, -62164.96, -100939.40, -85859.62, -23322.75, -92135.05, -100481.08, 0.000, 0.000, 0.000, 13:43:38.280
76, -34183.86, -36280.43, -62387.32, -100736.56, -85657.41, -23494.83, -91953.89, -100286.38, 0.000, 0.000, 0.000, 13:43:38.280
77, -34154.56, -36250.82, -62468.00, -100724.47, -85635.27, -23425.21, -91908.07, -100255.05, 0.000, 0.000, 0.000, 13:43:38.280
78, -34331.74, -36434.62, -62245.61, -100923.30, -85824.91, -23229.47, -92074.07, -100433.67, 0.000, 0.000, 0.000, 13:43:38.281
79, -34382.48, -36489.63, -62139.64, -100959.85, -85863.51, -23279.34, -92135.99, -100485.48, 0.000, 0.000, 0.000, 13:43:38.281
80, -34209.37, -36313.09, -62336.87, -100764.72, -85669.90, -23468.15, -91969.06, -100310.67, 0.000, 0.000, 0.000, 13:43:38.281
81, -34132.72, -36237.68, -62467.78, -100702.59, -85604.95, -23449.19, -91893.77, -100238.09, 0.000, 0.000, 0.000, 13:43:38.282
82, -34292.56, -36404.31, -62283.74, -100888.06, -85791.60, -23255.40, -92050.16, -100403.30, 0.000, 0.000, 0.000, 13:43:38.282
83, -34399.69, -36510.39, -62117.15, -100982.54, -85890.30, -23257.01, -92153.94, -100510.83, 0.000, 0.000, 0.000, 13:43:38.282
84, -34250.29, -36355.67, -62272.98, -100805.36, -85717.91, -23450.33, -92010.80, -100352.78, 0.448, 0.206, 0.866, 13:43:38.283
85, -34141.71, -36245.16, -62456.45, -100699.81, -85610.76, -23483.79, -91897.90, -100237.83, 0.000, 0.000, 0.000, 13:43:38.283
86, -34274.77, -36379.00, -62324.53, -100855.78, -85763.10, -23295.50, -92019.02, -100373.88, 0.000, 0.000, 0.000, 13:43:38.283
87, -34409.21, -36515.13, -62128.19, -100989.02, -85901.23, -23233.59, -92158.83, -100509.66, 0.000, 0.000, 0.000, 13:43:38.284
88, -34288.45, -36388.41, -62249.05, -100839.71, -85756.66, -23413.43, -92047.07, -100379.22, 0.000, 0.000, 0.000, 13:43:38.284
89, -34143.50, -36243.40, -62467.36, -100696.04, -85607.65, -23494.83, -91898.77, -100234.31, 0.000, 0.000, 0.000, 13:43:38.284
90, -34233.95, -36335.31, -62376.99, -100817.49, -85721.22, -23329.03, -91980.87, -100336.93, 0.000, 0.000, 0.000, 13:43:38.285
91, -34394.42, -36496.42, -62164.36, -100985.55, -85890.98, -23220.29, -92146.23, -100501.28, 0.000, 0.000, 0.000, 13:43:38.285
92, -34323.70, -36423.17, -62209.48, -100889.96, -85797.37, -23381.27, -92080.73, -100425.80, 0.000, 0.000, 0.000, 13:43:38.285
93, -34162.38, -36257.77, -62432.46, -100719.44, -85626.16, -23510.03, -91921.30, -100261.70, 0.432, 0.206, 0.870, 13:43:38.286
94, -34206.95, -36304.33, -62418.23, -100787.63, -85692.34, -23371.12, -91960.41, -100310.73, 0.000, 0.000, 0.000, 13:43:38.286
95, -34387.06, -36488.75, -62194.33, -100979.34, -85887.83, -23222.59, -92143.30, -100496.44, 0.000, 0.000, 0.000, 13:43:38.286
96, -34352.86, -36457.01, -62188.61, -100923.24, -85832.55, -23353.41, -92112.05, -100458.68, 0.000, 0.000, 0.000, 13:43:38.287
97, -34167.23, -36266.75, -62428.46, -100722.21, -85629.75, -23502.88, -91922.64, -100262.55, 0.000, 0.000, 0.000, 13:43:38.287
98, -34182.50, -36284.84, -62457.75, -100759.02, -85656.66, -23402.77, -91924.54, -100278.53, 0.000, 0.000, 0.000, 13:43:38.288
99, -34359.64, -36465.77, -62234.61, -100955.54, -85857.41, -23225.50, -92106.28, -100466.30, 0.000, 0.000, 0.000, 13:43:38.288
100, -34383.44, -36483.41, -62174.41, -100954.94, -85866.84, -23316.60, -92139.01, -100482.46, 0.000, 0.000, 0.000, 13:43:38.289
101, -34208.70, -36306.86, -62390.91, -100760.03, -85676.27, -23495.82, -91964.93, -100300.45, 0.000, 0.000, 0.000, 13:43:38.289
102, -34160.86, -36259.36, -62486.56, -100729.63, -85640.35, -23435.60, -91912.41, -100255.28, 0.000, 0.000, 0.000, 13:43:38.289
103, -34339.83, -36441.14, -62275.63, -100931.98, -85839.05, -23243.73, -92088.55, -100440.53, 0.434, 0.200, 0.874, 13:43:38.290
104, -34412.10, -36512.63, -62154.12, -100987.44, -85896.95, -23283.79, -92164.71, -100507.05, 0.000, 0.000, 0.000, 13:43:38.290
105, -34245.71, -36339.73, -62351.73, -100793.84, -85702.62, -23474.52, -91993.12, -100329.49, 0.000, 0.000, 0.000, 13:43:38.290
106, -34162.25, -36258.64, -62493.75, -100722.30, -85627.70, -23464.53, -91900.36, -100245.52, 0.000, 0.000, 0.000, 13:43:38.290
107, -34316.12, -36414.66, -62316.01, -100902.12, -85807.38, -23272.46, -92051.77, -100410.20, 0.000, 0.000, 0.000, 13:43:38.291
108, -34421.51, -36522.64, -62151.93, -101000.29, -85909.80, -23254.55, -92165.25, -100515.73, 0.000, 0.000, 0.000, 13:43:38.291
109, -34279.24, -36380.04, -62298.67, -100831.64, -85739.97, -23443.16, -92025.15, -100364.70, 0.000, 0.000, 0.000, 13:43:38.292
110, -34158.72, -36256.32, -62487.18, -100712.55, -85621.53, -23489.20, -91904.70, -100243.50, 0.000, 0.000, 0.000, 13:43:38.294
111, -34267.82, -36370.46, -62376.88, -100848.25, -85752.40, -23299.97, -92008.29, -100354.68, 0.000, 0.000, 0.000, 13:43:38.294
112, -34415.61, -36522.59, -62178.28, -100995.51, -85900.32, -23225.79, -92152.38, -100502.88, 0.000, 0.000, 0.000, 13:43:38.294
113, -34312.41, -36416.94, -62273.16, -100862.84, -85769.72, -23401.36, -92047.68, -100384.84, 0.428, 0.200, 0.872, 13:43:38.295
114, -34165.63, -36265.23, -62480.37, -100713.98, -85619.29, -23495.08, -91902.23, -100237.67, 0.000, 0.000, 0.000, 13:43:38.295
115, -34253.76, -36355.27, -62413.54, -100827.69, -85729.30, -23341.28, -91987.13, -100333.83, 0.000, 0.000, 0.000, 13:43:38.295
116, -34421.30, -36522.41, -62195.96, -101004.49, -85909.75, -23225.67, -92162.32, -100509.20, 0.000, 0.000, 0.000, 13:43:38.296
117, -34340.13, -36443.63, -62247.57, -100903.30, -85819.90, -23382.63, -92102.46, -100435.10, 0.000, 0.000, 0.000, 13:43:38.296
118, -34168.20, -36268.74, -62484.90, -100717.13, -85631.19, -23509.68, -91919.13, -100253.52, 0.000, 0.000, 0.000, 13:43:38.296
119, -34213.01, -36317.38, -62469.48, -100786.38, -85693.16, -23379.90, -91951.88, -100302.78, 0.000, 0.000, 0.000, 13:43:38.296
120, -34392.43, -36504.15, -62234.07, -100984.28, -85884.54, -23222.28, -92129.15, -100487.16, 0.000, 0.000, 0.000, 13:43:38.297
121, -34365.56, -36478.49, -62215.32, -100931.18, -85837.76, -23336.27, -92110.30, -100452.85, 0.000, 0.000, 0.000, 13:43:38.732
122, -34171.82, -36280.12, -62455.04, -100721.05, -85633.15, -23491.73, -91924.48, -100256.55, 0.424, 0.196, 0.868, 13:43:38.733
123, -34169.91, -36282.76, -62502.38, -100744.80, -85652.82, -23401.34, -91921.92, -100263.30, 0.000, 0.000, 0.000, 13:43:38.733
124, -34361.71, -36479.70, -62267.40, -100957.84, -85859.75, -23223.78, -92108.83, -100460.85, 0.000, 0.000, 0.000, 13:43:38.734
125, -34399.49, -36513.90, -62193.53, -100978.83, -85883.94, -23312.96, -92153.47, -100500.95, 0.000, 0.000, 0.000, 13:43:38.734
126, -34221.04, -36331.30, -62400.35, -100776.62, -85687.06, -23494.07, -91981.02, -100311.41, 0.000, 0.000, 0.000, 13:43:38.734
127, -34169.60, -36279.99, -62496.75, -100740.96, -85644.98, -23447.56, -91918.88, -100259.84, 0.000, 0.000, 0.000, 13:43:38.735
128, -34345.78, -36458.64, -62274.64, -100940.48, -85841.00, -23254.78, -92079.41, -100438.21, 0.000, 0.000, 0.000, 13:43:38.735
129, -34410.18, -36521.88, -62147.95, -100986.01, -85897.13, -23277.69, -92154.90, -100502.31, 0.000, 0.000, 0.000, 13:43:38.736
130, -34251.10, -36353.46, -62336.53, -100797.85, -85709.23, -23469.49, -92000.38, -100334.54, 0.000, 0.000, 0.000, 13:43:38.736
131, -34154.25, -36254.50, -62492.01, -100707.10, -85614.27, -23473.40, -91898.88, -100238.88, 0.000, 0.000, 0.000, 13:43:38.736
132, -34294.88, -36401.47, -62321.67, -100877.66, -85784.88, -23279.95, -92039.43, -100394.31, 0.436, 0.192, 0.870, 13:43:38.736
133, -34397.68, -36506.97, -62152.18, -100976.30, -85892.03, -23244.94, -92153.04, -100501.60, 0.000, 0.000, 0.000, 13:43:38.736
134, -34266.39, -36369.84, -62285.73, -100816.89, -85738.59, -23432.41, -92027.85, -100363.82, 0.000, 0.000, 0.000, 13:43:38.737
135, -34143.68, -36245.52, -62480.37, -100695.92, -85616.30, -23490.14, -91904.55, -100236.75, 0.000, 0.000, 0.000, 13:43:38.737
136, -34243.09, -36351.94, -62368.27, -100827.48, -85740.71, -23305.25, -92000.52, -100344.51, 0.000, 0.000, 0.000, 13:43:38.737
137, -34397.34, -36505.05, -62154.88, -100981.36, -85888.05, -23216.29, -92144.52, -100496.95, 0.000, 0.000, 0.000, 13:43:38.737
138, -34310.71, -36415.84, -62229.47, -100867.97, -85774.66, -23396.15, -92062.14, -100403.95, 0.000, 0.000, 0.000, 13:43:38.737
139, -34157.60, -36260.88, -62441.63, -100710.72, -85618.55, -23500.62, -91914.05, -100250.30, 0.000, 0.000, 0.000, 13:43:38.738
140, -34224.23, -36329.21, -62393.30, -100802.25, -85709.75, -23350.44, -91976.80, -100324.88, 0.000, 0.000, 0.000, 13:43:38.738
141, -34393.45, -36504.29, -62167.38, -100980.46, -85887.54, -23222.54, -92145.64, -100499.70, 0.438, 0.192, 0.864, 13:43:38.738
142, -34327.41, -36435.82, -62200.14, -100889.55, -85803.96, -23365.24, -92087.69, -100430.41, 0.000, 0.000, 0.000, 13:43:38.738
143, -34157.53, -36260.72, -62423.48, -100708.64, -85624.34, -23502.75, -91919.69, -100254.55, 0.000, 0.000, 0.000, 13:43:38.739
144, -34191.21, -36295.39, -62419.19, -100764.43, -85673.14, -23386.61, -91943.36, -100292.74, 0.000, 0.000, 0.000, 13:43:38.739
145, -34363.28, -36469.60, -62182.53, -100950.69, -85860.85, -23218.92, -92111.58, -100470.40, 0.000, 0.000, 0.000, 13:43:38.739
146, -34342.83, -36451.92, -62159.57, -100912.52, -85829.04, -23326.19, -92104.65, -100449.98, 0.000, 0.000, 0.000, 13:43:38.739
147, -34169.47, -36276.99, -62388.39, -100727.22, -85644.46, -23501.43, -91938.29, -100273.55, 0.000, 0.000, 0.000, 13:43:38.740
148, -34151.81, -36257.75, -62451.31, -100730.81, -85645.98, -23422.53, -91924.12, -100266.01, 0.000, 0.000, 0.000, 13:43:38.740
149, -34336.46, -36445.61, -62227.05, -100934.73, -85840.09, -23233.27, -92093.70, -100448.60, 0.000, 0.000, 0.000, 13:43:38.740
150, -34381.54, -36490.43, -62130.94, -100959.49, -85865.74, -23291.39, -92132.70, -100479.09, 0.000, 0.000, 0.000, 13:43:38.741
151, -34208.36, -36309.89, -62333.31, -100762.04, -85674.45, -23475.30, -91967.23, -100299.25, 0.434, 0.186, 0.864, 13:43:38.741
152, -34163.68, -36263.34, -62444.49, -100728.98, -85625.71, -23447.54, -91908.45, -100253.98, 0.000, 0.000, 0.000, 13:43:38.741
153, -34314.48, -36418.79, -62268.07, -100902.84, -85795.63, -23253.21, -92052.35, -100412.17, 0.000, 0.000, 0.000, 13:43:38.741
154, -34388.96, -36495.70, -62154.30, -100965.46, -85865.70, -23260.90, -92133.41, -100486.69, 0.000, 0.000, 0.000, 13:43:38.741
155, -34240.39, -36346.53, -62315.14, -100793.71, -85701.10, -23448.54, -91994.57, -100331.92, 0.000, 0.000, 0.000, 13:43:38.741
156, -34143.56, -36248.29, -62472.86, -100707.32, -85614.35, -23469.60, -91898.57, -100236.39, 0.000, 0.000, 0.000, 13:43:38.742
157, -34278.01, -36383.21, -62328.13, -100869.09, -85772.11, -23282.52, -92025.75, -100377.61, 0.000, 0.000, 0.000, 13:43:38.742
158, -34408.32, -36514.84, -62141.00, -100996.17, -85902.09, -23244.65, -92159.05, -100512.57, 0.000, 0.000, 0.000, 13:43:38.742
159, -34292.18, -36392.15, -62258.73, -100854.20, -85767.30, -23439.63, -92056.26, -100394.38, 0.000, 0.000, 0.000, 13:43:38.742
160, -34157.51, -36257.10, -62452.67, -100718.95, -85629.71, -23511.06, -91920.07, -100260.78, 0.430, 0.186, 0.868, 13:43:38.742
161, -34252.66, -36354.80, -62360.65, -100839.73, -85744.51, -23337.32, -92006.86, -100361.07, 0.000, 0.000, 0.000, 13:43:38.742
162, -34414.11, -36518.97, -62156.13, -101005.09, -85910.47, -23243.51, -92168.58, -100523.03, 0.000, 0.000, 0.000, 13:43:38.743
163, -34323.18, -36425.61, -62227.39, -100889.53, -85795.47, -23410.75, -92082.91, -100429.09, 0.000, 0.000, 0.000, 13:43:38.743
164, -34150.87, -36247.20, -62454.01, -100711.52, -85616.45, -23517.97, -91907.69, -100253.18, 0.000, 0.000, 0.000, 13:43:38.743
165, -34208.74, -36309.60, -62413.51, -100799.55, -85700.45, -23368.23, -91962.34, -100318.73, 0.000, 0.000, 0.000, 13:43:38.743
166, -34403.89, -36513.50, -62171.15, -101005.38, -85902.27, -23234.37, -92150.79, -100514.41, 0.000, 0.000, 0.000, 13:43:38.743
167, -34352.26, -36464.77, -62179.78, -100926.59, -85829.89, -23371.70, -92110.30, -100457.68, 0.000, 0.000, 0.000, 13:43:38.744
168, -34172.39, -36279.16, -62410.89, -100729.52, -85639.21, -23515.64, -91934.73, -100271.76, 0.000, 0.000, 0.000, 13:43:38.744
169, -34181.49, -36288.66, -62437.23, -100758.84, -85666.23, -23402.03, -91938.04, -100284.80, 0.000, 0.000, 0.000, 13:43:38.744
170, -34358.23, -36467.12, -62222.29, -100950.58, -85854.14, -23225.12, -92100.52, -100463.76, 0.430, 0.188, 0.878, 13:43:38.744
171, -34373.11, -36477.62, -62165.81, -100948.68, -85859.66, -23329.23, -92128.77, -100481.34, 0.000, 0.000, 0.000, 13:43:38.744
172, -34205.81, -36307.10, -62378.69, -100760.50, -85670.73, -23508.65, -91960.95, -100301.88, 0.000, 0.000, 0.000, 13:43:38.744
173, -34177.80, -36279.56, -62468.25, -100748.27, -85652.87, -23439.11, -91919.00, -100267.09, 0.000, 0.000, 0.000, 13:43:38.745
174, -34348.02, -36454.06, -62255.91, -100943.54, -85846.14, -23245.75, -92089.07, -100445.56, 0.000, 0.000, 0.000, 13:43:38.745
175, -34398.57, -36504.51, -62146.43, -100977.00, -85882.55, -23295.61, -92150.63, -100497.30, 0.000, 0.000, 0.000, 13:43:38.745
176, -34237.21, -36335.84, -62344.09, -100790.30, -85699.47, -23489.43, -91996.76, -100332.48, 0.000, 0.000, 0.000, 13:43:38.745
177, -34152.53, -36248.85, -62486.64, -100717.12, -85626.22, -23464.97, -91909.05, -100251.05, 0.000, 0.000, 0.000, 13:43:38.745
178, -34316.59, -36416.27, -62309.17, -100904.53, -85811.63, -23270.56, -92062.97, -100419.50, 0.000, 0.000, 0.000, 13:43:38.745
179, -34411.23, -36513.52, -62168.31, -100988.66, -85898.91, -23269.30, -92159.91, -100512.46, 0.000, 0.000, 0.000, 13:43:38.746
180, -34266.21, -36363.40, -62329.83, -100818.57, -85731.43, -23458.54, -92022.60, -100360.13, 0.432, 0.180, 0.870, 13:43:38.746
181, -34148.52, -36242.44, -62513.04, -100706.52, -85616.66, -23487.95, -91902.84, -100241.91, 0.000, 0.000, 0.000, 13:43:38.746
182, -34273.92, -36372.46, -62376.81, -100863.43, -85765.56, -23298.29, -92018.93, -100374.87, 0.000, 0.000, 0.000, 13:43:38.746
183, -34414.24, -36517.59, -62171.87, -101003.87, -85908.63, -23244.27, -92166.39, -100518.70, 0.000, 0.000, 0.000, 13:43:38.746
184, -34299.91, -36402.16, -62280.34, -100859.77, -85769.92, -23427.49, -92060.13, -100393.44, 0.000, 0.000, 0.000, 13:43:38.747
185, -34153.51, -36257.08, -62488.61, -100713.18, -85620.68, -23502.97, -91908.90, -100243.15, 0.000, 0.000, 0.000, 13:43:38.747
186, -34254.18, -36360.14, -62407.25, -100836.13, -85736.35, -23338.30, -91993.56, -100343.03, 0.000, 0.000, 0.000, 13:43:38.747
187, -34416.70, -36520.00, -62183.78, -101003.08, -85908.28, -23229.88, -92162.81, -100509.80, 0.000, 0.000, 0.000, 13:43:38.747
188, -34343.88, -36444.90, -62248.06, -100905.34, -85813.28, -23398.36, -92094.28, -100431.03, 0.000, 0.000, 0.000, 13:43:38.748
189, -34183.82, -36277.73, -62469.17, -100734.99, -85642.77, -23518.48, -91930.24, -100262.86, 0.434, 0.178, 0.864, 13:43:38.748
190, -34229.77, -36324.55, -62437.74, -100810.92, -85710.76, -23384.19, -91971.10, -100323.39, 0.000, 0.000, 0.000, 13:43:38.748
191, -34401.57, -36506.07, -62212.30, -100991.70, -85890.48, -23233.43, -92140.23, -100498.24, 0.000, 0.000, 0.000, 13:43:38.748
192, -34365.11, -36471.27, -62213.04, -100924.05, -85828.39, -23358.35, -92109.73, -100456.78, 0.000, 0.000, 0.000, 13:43:38.748
193, -34187.04, -36291.81, -62432.76, -100735.98, -85638.52, -23514.46, -91940.26, -100280.59, 0.000, 0.000, 0.000, 13:43:38.749
194, -34195.26, -36306.09, -62464.54, -100767.52, -85665.54, -23415.62, -91938.60, -100288.43, 0.000, 0.000, 0.000, 13:43:38.749
195, -34377.00, -36494.41, -62255.42, -100965.44, -85857.83, -23234.66, -92104.65, -100460.83, 0.000, 0.000, 0.000, 13:43:38.750
196, -34388.20, -36505.14, -62201.01, -100955.02, -85850.90, -23320.56, -92124.21, -100467.84, 0.000, 0.000, 0.000, 13:43:38.750
197, -34207.87, -36320.40, -62412.37, -100753.26, -85644.08, -23492.06, -91940.21, -100280.90, 0.000, 0.000, 0.000, 13:43:38.750
198, -34174.45, -36289.24, -62495.12, -100738.57, -85625.38, -23436.45, -91902.59, -100254.63, 0.000, 0.000, 0.000, 13:43:38.750
199, -34347.68, -36465.35, -62290.55, -100932.43, -85823.30, -23246.37, -92074.92, -100435.34, 0.430, 0.178, 0.864, 13:43:38.750
200, -34408.41, -36522.84, -62168.49, -100978.90, -85881.44, -23286.43, -92149.69, -100503.03, 0.000, 0.000, 0.000, 13:43:38.750
201, -34250.34, -36361.28, -62338.95, -100796.93, -85703.11, -23477.06, -91997.41, -100332.89, 0.000, 0.000, 0.000, 13:43:38.751
202, -34170.05, -36277.06, -62484.32, -100726.70, -85625.08, -23467.88, -91902.05, -100244.71, 0.000, 0.000, 0.000, 13:43:38.751
203, -34320.19, -36429.79, -62319.93, -100906.63, -85802.58, -23282.72, -92053.84, -100410.00, 0.000, 0.000, 0.000, 13:43:38.751
204, -34414.33, -36530.17, -62169.83, -100993.67, -85886.24, -23262.49, -92150.07, -100508.46, 0.000, 0.000, 0.000, 13:43:38.751
205, -34276.33, -36392.24, -62303.63, -100835.63, -85734.98, -23453.15, -92027.47, -100375.13, 0.000, 0.000, 0.000, 13:43:38.752
206, -34156.19, -36265.52, -62487.16, -100719.17, -85624.44, -23495.79, -91914.08, -100257.16, 0.000, 0.000, 0.000, 13:43:38.752
207, -34287.15, -36401.65, -62352.80, -100876.93, -85773.59, -23318.79, -92032.88, -100391.90, 0.000, 0.000, 0.000, 13:43:38.752
208, -34430.22, -36546.26, -62153.00, -101017.27, -85914.98, -23246.48, -92169.13, -100524.55, 0.442, 0.190, 0.866, 13:43:38.753
209, -34318.80, -36426.35, -62256.67, -100872.23, -85777.86, -23419.20, -92060.33, -100397.69, 0.000, 0.000, 0.000, 13:43:38.753
210, -34169.98, -36271.63, -62469.46, -100717.63, -85621.80, -23506.03, -91907.51, -100246.61, 0.000, 0.000, 0.000, 13:43:38.754
211, -34253.36, -36358.57, -62408.06, -100829.48, -85730.49, -23348.43, -91990.28, -100338.85, 0.000, 0.000, 0.000, 13:43:38.754
212, -34429.29, -36538.93, -62182.21, -101013.14, -85914.67, -23235.46, -92168.69, -100521.24, 0.000, 0.000, 0.000, 13:43:38.755
213, -34364.89, -36474.43, -62215.32, -100920.89, -85829.76, -23391.53, -92112.99, -100450.73, 0.000, 0.000, 0.000, 13:43:38.755
214, -34186.12, -36292.39, -62446.35, -100732.42, -85633.87, -23519.00, -91927.34, -100266.01, 0.000, 0.000, 0.000, 13:43:38.755
215, -34218.22, -36327.84, -62436.45, -100792.26, -85685.27, -23380.91, -91949.30, -100299.12, 0.000, 0.000, 0.000, 13:43:38.756
216, -34396.09, -36510.59, -62208.12, -100985.94, -85877.73, -23228.98, -92127.00, -100484.30, 0.000, 0.000, 0.000, 13:43:38.756
217, -34352.66, -36466.60, -62206.85, -100921.41, -85819.99, -23337.05, -92096.67, -100440.00, 0.000, 0.000, 0.000, 13:43:38.756
218, -34189.76, -36298.94, -62412.71, -100742.66, -85646.95, -23498.25, -91945.04, -100274.26, 0.442, 0.206, 0.864, 13:43:38.757
219, -34182.30, -36292.23, -62457.70, -100754.80, -85655.26, -23409.76, -91931.76, -100272.38, 0.000, 0.000, 0.000, 13:43:38.757
220, -34351.64, -36463.81, -62261.54, -100940.50, -85835.01, -23228.49, -92085.70, -100443.15, 0.000, 0.000, 0.000, 13:43:38.758
221, -34387.09, -36497.45, -62192.65, -100957.55, -85857.02, -23309.90, -92124.92, -100482.09, 0.000, 0.000, 0.000, 13:43:38.758
222, -34213.03, -36314.99, -62389.80, -100761.57, -85667.93, -23492.49, -91958.34, -100308.01, 0.000, 0.000, 0.000, 13:43:38.758
223, -34166.54, -36266.57, -62486.33, -100729.90, -85629.91, -23448.01, -91903.75, -100261.36, 0.000, 0.000, 0.000, 13:43:38.758
224, -34339.54, -36444.14, -62291.65, -100931.18, -85824.80, -23263.90, -92073.67, -100444.71, 0.000, 0.000, 0.000, 13:43:38.759
225, -34417.17, -36525.01, -62166.99, -100997.94, -85889.05, -23293.15, -92152.62, -100521.42, 0.000, 0.000, 0.000, 13:43:38.759
226, -34247.83, -36354.04, -62340.45, -100805.58, -85701.10, -23476.86, -91993.61, -100346.27, 0.000, 0.000, 0.000, 13:43:38.759
227, -34148.88, -36255.89, -62489.89, -100718.73, -85609.19, -23478.25, -91891.04, -100248.48, 0.442, 0.206, 0.866, 13:43:38.759
228, -34296.89, -36405.71, -62331.66, -100891.57, -85778.10, -23285.40, -92031.56, -100397.17, 0.000, 0.000, 0.000, 13:43:38.760
229, -34413.37, -36522.46, -62169.63, -101000.06, -85890.53, -23256.45, -92149.35, -100512.13, 0.000, 0.000, 0.000, 13:43:38.760
230, -34279.04, -36382.20, -62292.21, -100840.25, -85735.19, -23438.15, -92020.48, -100371.96, 0.000, 0.000, 0.000, 13:43:38.760
231, -34154.96, -36254.62, -62464.12, -100719.44, -85615.49, -23489.74, -91899.84, -100246.97, 0.000, 0.000, 0.000, 13:43:38.761
232, -34272.40, -36378.56, -62358.59, -100863.27, -85757.27, -23324.42, -92010.77, -100372.05, 0.000, 0.000, 0.000, 13:43:38.761
233, -34413.86, -36528.09, -62171.53, -101007.77, -85895.16, -23249.28, -92149.18, -100526.25, 0.000, 0.000, 0.000, 13:43:38.761
234, -34321.97, -36434.01, -62239.64, -100889.06, -85786.13, -23416.78, -92068.38, -100424.91, 0.000, 0.000, 0.000, 13:43:38.761
235, -34170.96, -36278.76, -62447.31, -100732.18, -85630.18, -23511.96, -91914.51, -100259.84, 0.000, 0.000, 0.000, 13:43:38.762
236, -34237.80, -36347.54, -62404.04, -100824.73, -85714.76, -23359.81, -91975.03, -100331.66, 0.000, 0.000, 0.000, 13:43:38.762
237, -34397.63, -36509.56, -62205.93, -100992.76, -85880.95, -23232.38, -92134.55, -100496.77, 0.442, 0.206, 0.870, 13:43:38.762
238, -34332.10, -36439.98, -62243.26, -100899.48, -85795.52, -23371.74, -92079.44, -100432.06, 0.000, 0.000, 0.000, 13:43:38.763
239, -34161.06, -36263.45, -62442.99, -100717.90, -85620.30, -23498.37, -91914.41, -100256.11, 0.000, 0.000, 0.000, 13:43:38.763
240, -34202.44, -36301.82, -62442.41, -100778.34, -85678.57, -23387.75, -91946.85, -100298.84, 0.000, 0.000, 0.000, 13:43:38.763
241, -34379.08, -36481.60, -62237.45, -100968.80, -85863.35, -23229.52, -92112.81, -100475.78, 0.000, 0.000, 0.000, 13:43:39.210
242, -34378.86, -36480.44, -62209.21, -100948.12, -85847.03, -23339.45, -92118.53, -100471.22, 0.000, 0.000, 0.000, 13:43:39.211
243, -34201.88, -36300.95, -62416.42, -100755.11, -85656.15, -23500.94, -91945.40, -100289.88, 0.000, 0.000, 0.000, 13:43:39.211
244, -34199.66, -36302.14, -62449.14, -100773.80, -85668.60, -23425.48, -91938.31, -100291.47, 0.000, 0.000, 0.000, 13:43:39.212
245, -34375.95, -36481.55, -62248.29, -100967.97, -85858.50, -23254.13, -92112.12, -100472.36, 0.000, 0.000, 0.000, 13:43:39.212
246, -34404.96, -36507.19, -62180.11, -100977.96, -85870.95, -23313.03, -92139.68, -100496.55, 0.000, 0.000, 0.000, 13:43:39.212
247, -34239.38, -36337.54, -62359.91, -100790.02, -85689.34, -23490.32, -91976.38, -100324.48, 0.438, 0.200, 0.884, 13:43:39.213
248, -34180.49, -36281.60, -62465.66, -100745.70, -85642.05, -23458.40, -91915.16, -100268.85, 0.000, 0.000, 0.000, 13:43:39.213
249, -34335.32, -36437.23, -62300.84, -100922.39, -85816.59, -23270.89, -92066.63, -100429.55, 0.000, 0.000, 0.000, 13:43:39.214
250, -34407.94, -36512.24, -62180.61, -100987.15, -85889.50, -23281.49, -92154.36, -100509.35, 0.000, 0.000, 0.000, 13:43:39.214
251, -34259.39, -36362.15, -62323.57, -100813.88, -85718.91, -23463.83, -92008.34, -100353.95, 0.000, 0.000, 0.000, 13:43:39.215
252, -34165.63, -36266.69, -62468.00, -100721.94, -85616.48, -23475.43, -91890.30, -100249.49, 0.000, 0.000, 0.000, 13:43:39.215
253, -34303.55, -36409.02, -62335.37, -100886.23, -85782.53, -23294.76, -92029.26, -100393.57, 0.000, 0.000, 0.000, 13:43:39.215
254, -34429.02, -36538.80, -62171.06, -101011.02, -85910.96, -23262.71, -92164.91, -100524.40, 0.000, 0.000, 0.000, 13:43:39.216
255, -34300.47, -36407.75, -62283.34, -100858.16, -85760.02, -23438.96, -92042.09, -100389.93, 0.000, 0.000, 0.000, 13:43:39.216
0, -34173.67, -36276.23, -62458.28, -100728.67, -85628.86, -23499.53, -91908.07, -100255.88, 0.434, 0.200, 0.888, 13:43:39.216
1, -34275.82, -36383.77, -62363.76, -100856.03, -85751.50, -23334.46, -92002.80, -100361.25, 0.000, 0.000, 0.000, 13:43:39.216
2, -34415.63, -36526.23, -62188.00, -101000.31, -85899.20, -23243.15, -92149.34, -100504.66, 0.000, 0.000, 0.000, 13:43:39.217
3, -34319.58, -36430.21, -62254.12, -100886.09, -85791.05, -23400.15, -92068.73, -100410.16, 0.000, 0.000, 0.000, 13:43:39.217
4, -34163.88, -36273.86, -62443.48, -100727.77, -85628.39, -23505.70, -91911.69, -100253.96, 0.000, 0.000, 0.000, 13:43:39.217
5, -34226.02, -36335.91, -62404.32, -100811.08, -85705.13, -23363.16, -91959.59, -100317.91, 0.000, 0.000, 0.000, 13:43:39.218
6, -34400.50, -36509.34, -62210.74, -100992.40, -85887.85, -23237.68, -92132.10, -100494.84, 0.000, 0.000, 0.000, 13:43:39.218
7, -34357.58, -36465.62, -62217.42, -100924.49, -85823.52, -23369.13, -92096.16, -100447.33, 0.000, 0.000, 0.000, 13:43:39.218
8, -34176.71, -36284.37, -62415.99, -100732.83, -85633.84, -23503.82, -91924.54, -100266.62, 0.000, 0.000, 0.000, 13:43:39.220
9, -34197.14, -36306.99, -62425.80, -100776.50, -85671.77, -23398.52, -91939.18, -100294.48, 0.000, 0.000, 0.000, 13:43:39.220
10, -34372.76, -36484.66, -62226.00, -100967.09, -85860.91, -23242.62, -92111.47, -100475.05, 0.420, 0.192, 0.888, 13:43:39.220
11, -34367.41, -36479.88, -62195.22, -100944.54, -85841.49, -23336.61, -92114.84, -100468.25, 0.000, 0.000, 0.000, 13:43:39.221
12, -34203.18, -36312.57, -62369.23, -100764.39, -85669.59, -23500.02, -91963.70, -100301.37, 0.000, 0.000, 0.000, 13:43:39.221
13, -34173.94, -36282.11, -62438.48, -100751.73, -85651.84, -23433.54, -91925.28, -100273.09, 0.000, 0.000, 0.000, 13:43:39.221
14, -34344.17, -36455.85, -62254.97, -100943.98, -85837.11, -23254.31, -92084.18, -100447.71, 0.000, 0.000, 0.000, 13:43:39.221
15, -34386.75, -36499.97, -62170.48, -100973.84, -85869.81, -23305.40, -92134.02, -100491.52, 0.000, 0.000, 0.000, 13:43:39.221
16, -34215.51, -36326.64, -62342.66, -100783.27, -85685.34, -23476.86, -91975.16, -100315.45, 0.000, 0.000, 0.000, 13:43:39.221
17, -34149.66, -36259.42, -62453.25, -100730.41, -85628.41, -23454.06, -91905.61, -100252.29, 0.000, 0.000, 0.000, 13:43:39.221
18, -34307.85, -36425.27, -62292.16, -100914.86, -85813.30, -23277.75, -92062.05, -100420.84, 0.000, 0.000, 0.000, 13:43:39.222
19, -34408.50, -36527.73, -62151.44, -101006.10, -85908.93, -23283.50, -92164.15, -100523.16, 0.418, 0.190, 0.886, 13:43:39.222
20, -34272.82, -36385.09, -62280.03, -100842.17, -85751.28, -23467.28, -92033.84, -100379.00, 0.000, 0.000, 0.000, 13:43:39.222
21, -34168.15, -36277.30, -62429.36, -100741.30, -85644.26, -23496.13, -91925.70, -100274.10, 0.000, 0.000, 0.000, 13:43:39.222
22, -34290.41, -36403.26, -62312.91, -100889.94, -85788.32, -23324.85, -92046.67, -100405.80, 0.000, 0.000, 0.000, 13:43:39.222
23, -34410.15, -36528.05, -62156.24, -101006.95, -85905.38, -23272.28, -92165.02, -100526.43, 0.000, 0.000, 0.000, 13:43:39.222
24, -34285.56, -36399.61, -62259.38, -100855.49, -85762.05, -23435.71, -92050.02, -100397.59, 0.000, 0.000, 0.000, 13:43:39.223
25, -34147.74, -36258.35, -62434.70, -100715.10, -85620.50, -23501.32, -91910.13, -100257.23, 0.000, 0.000, 0.000, 13:43:39.223
26, -34242.67, -36355.96, -62358.50, -100835.27, -85734.63, -23344.92, -91996.63, -100357.45, 0.000, 0.000, 0.000, 13:43:39.223
27, -34405.73, -36521.32, -62172.56, -101000.24, -85898.65, -23243.85, -92151.21, -100511.23, 0.000, 0.000, 0.000, 13:43:39.223
28, -34326.58, -36441.70, -62221.13, -100894.12, -85796.59, -23389.56, -92078.57, -100423.16, 0.000, 0.000, 0.000, 13:43:39.223
29, -34175.44, -36285.53, -62407.59, -100731.27, -85633.58, -23496.31, -91920.12, -100261.12, 0.418, 0.192, 0.888, 13:43:39.223
30, -34237.48, -36348.27, -62366.15, -100813.05, -85710.31, -23370.07, -91970.59, -100324.26, 0.000, 0.000, 0.000, 13:43:39.224
31, -34407.54, -36520.67, -62190.08, -100986.72, -85885.48, -23236.96, -92137.48, -100489.28, 0.000, 0.000, 0.000, 13:43:39.224
32, -34384.20, -36495.05, -62184.27, -100934.80, -85831.32, -23356.21, -92102.59, -100453.84, 0.000, 0.000, 0.000, 13:43:39.224
33, -34224.68, -36329.50, -62362.06, -100754.82, -85656.71, -23498.14, -91942.58, -100286.30, 0.000, 0.000, 0.000, 13:43:39.224
34, -34245.98, -36349.84, -62371.91, -100796.40, -85695.83, -23413.16, -91959.52, -100314.60, 0.000, 0.000, 0.000, 13:43:39.224
35, -34420.30, -36527.80, -62197.73, -100979.05, -85877.55, -23257.55, -92124.55, -100487.29, 0.000, 0.000, 0.000, 13:43:39.224
36, -34430.54, -36538.13, -62160.64, -100964.05, -85867.80, -23340.16, -92137.22, -100489.95, 0.000, 0.000, 0.000, 13:43:39.224
37, -34266.61, -36366.18, -62330.45, -100778.38, -85683.38, -23500.65, -91972.73, -100316.23, 0.000, 0.000, 0.000, 13:43:39.225
38, -34231.94, -36334.12, -62413.85, -100753.73, -85657.85, -23447.58, -91930.46, -100279.11, 0.408, 0.210, 0.894, 13:43:39.225
39, -34406.80, -36515.91, -62251.53, -100948.99, -85850.90, -23279.68, -92100.00, -100458.30, 0.000, 0.000, 0.000, 13:43:39.225
40, -34482.71, -36589.07, -62153.92, -100998.74, -85893.44, -23317.72, -92156.93, -100515.84, 0.000, 0.000, 0.000, 13:43:39.226
41, -34346.05, -36452.77, -62287.58, -100825.72, -85714.53, -23488.02, -92000.13, -100353.48, 0.000, 0.000, 0.000, 13:43:39.226
42, -34275.59, -36374.38, -62409.96, -100749.32, -85639.79, -23475.99, -91914.48, -100265.50, 0.000, 0.000, 0.000, 13:43:39.226
43, -34438.23, -36535.45, -62285.52, -100920.27, -85807.77, -23302.95, -92056.33, -100416.82, 0.000, 0.000, 0.000, 13:43:39.227
44, -34550.75, -36651.47, -62162.77, -101016.54, -85904.77, -23294.21, -92163.93, -100521.63, 0.000, 0.000, 0.000, 13:43:39.227
45, -34419.54, -36516.58, -62276.79, -100853.37, -85750.37, -23459.12, -92035.45, -100377.63, 0.000, 0.000, 0.000, 13:43:39.227
46, -34314.31, -36411.73, -62418.27, -100745.39, -85642.47, -23489.34, -91918.84, -100265.02, 0.000, 0.000, 0.000, 13:43:39.227
47, -34437.91, -36538.53, -62325.69, -100886.67, -85784.14, -23330.64, -92035.45, -100388.92, 0.000, 0.000, 0.000, 13:43:39.228
48, -34576.56, -36678.63, -62185.14, -101016.85, -85915.97, -23272.97, -92171.17, -100520.13, 0.404, 0.222, 0.904, 13:43:39.228
49, -34474.14, -36578.88, -62251.42, -100890.16, -85790.73, -23425.88, -92069.27, -100408.88, 0.000, 0.000, 0.000, 13:43:39.228
50, -34337.38, -36441.88, -62402.05, -100749.03, -85642.67, -23498.97, -91923.53, -100267.40, 0.000, 0.000, 0.000, 13:43:39.228
51, -34409.62, -36515.64, -62364.65, -100842.82, -85733.78, -23355.14, -91992.49, -100346.09, 0.000, 0.000, 0.000, 13:43:39.228
52, -34575.55, -36684.66, -62187.22, -101020.54, -85914.96, -23261.10, -92165.20, -100522.92, 0.000, 0.000, 0.000, 13:43:39.229
53, -34505.26, -36612.45, -62217.44, -100924.70, -85825.89, -23398.34, -92099.02, -100446.41, 0.000, 0.000, 0.000, 13:43:39.229
54, -34348.39, -36453.01, -62369.46, -100762.80, -85667.10, -23507.93, -91949.09, -100290.33, 0.000, 0.000, 0.000, 13:43:39.229
55, -34378.46, -36482.72, -62359.62, -100819.64, -85721.89, -23396.04, -91983.64, -100332.20, 0.000, 0.000, 0.000, 13:43:39.229
56, -34525.93, -36636.99, -62209.26, -100989.78, -85889.86, -23261.17, -92137.91, -100494.71, 0.000, 0.000, 0.000, 13:43:39.229
57, -34499.34, -36614.73, -62176.79, -100960.23, -85863.44, -23369.11, -92133.09, -100482.69, 0.000, 0.000, 0.000, 13:43:39.229
58, -34321.46, -36429.86, -62326.27, -100775.72, -85680.24, -23506.90, -91966.92, -100309.28, 0.380, 0.228, 0.906, 13:43:39.229
59, -34301.34, -36408.64, -62373.19, -100781.77, -85687.91, -23419.73, -91952.77, -100298.58, 0.000, 0.000, 0.000, 13:43:39.230
60, -34462.16, -36576.33, -62217.02, -100967.38, -85869.23, -23263.96, -92117.70, -100471.78, 0.000, 0.000, 0.000, 13:43:39.230
61, -34472.29, -36587.93, -62170.17, -100970.85, -85880.43, -23333.12, -92147.34, -100492.73, 0.000, 0.000, 0.000, 13:43:39.230
62, -34300.32, -36418.77, -62305.69, -100794.61, -85700.07, -23482.85, -91987.64, -100324.59, 0.000, 0.000, 0.000, 13:43:39.230
63, -34235.74, -36356.34, -62373.70, -100742.26, -85646.95, -23431.87, -91924.41, -100269.90, 0.000, 0.000, 0.000, 13:43:39.230
64, -34392.72, -36515.51, -62233.38, -100928.45, -85832.75, -23270.42, -92083.24, -100437.52, 0.000, 0.000, 0.000, 13:43:39.231
65, -34453.07, -36575.59, -62151.19, -100984.30, -85899.36, -23294.45, -92157.06, -100499.97, 0.000, 0.000, 0.000, 13:43:39.231
66, -34307.45, -36431.53, -62265.63, -100830.19, -85742.41, -23460.08, -92022.30, -100355.22, 0.000, 0.000, 0.000, 13:43:39.231
67, -34189.05, -36309.58, -62367.71, -100721.02, -85638.23, -23445.15, -91913.95, -100250.45, 0.346, 0.198, 0.910, 13:43:39.231
68, -34322.42, -36442.77, -62264.87, -100877.30, -85792.05, -23290.67, -92043.85, -100397.06, 0.000, 0.000, 0.000, 13:43:39.231
69, -34412.16, -36537.77, -62158.88, -100965.89, -85890.24, -23270.15, -92148.26, -100498.54, 0.000, 0.000, 0.000, 13:43:39.231
70, -34286.21, -36413.05, -62243.84, -100824.07, -85747.59, -23422.88, -92029.30, -100368.63, 0.000, 0.000, 0.000, 13:43:39.232
71, -34167.25, -36295.19, -62356.94, -100719.30, -85628.55, -23457.95, -91914.21, -100253.54, 0.000, 0.000, 0.000, 13:43:39.232
72, -34266.70, -36398.50, -62286.75, -100843.85, -85758.73, -23311.84, -92016.34, -100360.63, 0.000, 0.000, 0.000, 13:43:39.233
73, -34399.07, -36531.15, -62163.89, -100978.41, -85893.82, -23248.67, -92150.00, -100492.23, 0.000, 0.000, 0.000, 13:43:39.234
74, -34318.96, -36449.17, -62203.00, -100882.41, -85797.70, -23399.50, -92072.84, -100408.32, 0.000, 0.000, 0.000, 13:43:39.234
75, -34171.26, -36301.22, -62333.29, -100732.34, -85651.41, -23479.17, -91929.93, -100260.29, 0.000, 0.000, 0.000, 13:43:39.234
76, -34225.53, -36356.32, -62310.65, -100810.70, -85720.41, -23334.71, -91976.20, -100316.44, 0.000, 0.000, 0.000, 13:43:39.235
77, -34392.36, -36528.09, -62167.96, -100993.27, -85900.21, -23245.23, -92147.74, -100491.90, 0.318, 0.190, 0.914, 13:43:39.235
78, -34325.28, -36464.21, -62186.55, -100909.05, -85826.25, -23366.49, -92098.03, -100430.34, 0.000, 0.000, 0.000, 13:43:39.235
79, -34152.86, -36291.34, -62336.04, -100729.67, -85657.23, -23475.30, -91941.28, -100266.84, 0.000, 0.000, 0.000, 13:43:39.236
80, -34181.49, -36323.55, -62340.42, -100780.95, -85695.52, -23375.43, -91966.83, -100306.94, 0.000, 0.000, 0.000, 13:43:39.236
81, -34348.53, -36493.47, -62199.80, -100962.20, -85875.24, -23253.12, -92129.48, -100479.07, 0.000, 0.000, 0.000, 13:43:39.236
82, -34335.32, -36485.62, -62168.40, -100937.28, -85853.85, -23344.05, -92126.53, -100466.62, 0.000, 0.000, 0.000, 13:43:39.236
83, -34177.34, -36326.28, -62288.30, -100760.52, -85683.73, -23475.97, -91971.37, -100301.80, 0.000, 0.000, 0.000, 13:43:39.237
84, -34160.59, -36315.23, -62324.95, -100765.39, -85681.72, -23404.09, -91957.24, -100288.38, 0.000, 0.000, 0.000, 13:43:39.237
85, -34330.51, -36488.80, -62213.13, -100951.34, -85865.43, -23261.48, -92120.30, -100453.41, 0.000, 0.000, 0.000, 13:43:39.237
86, -34350.81, -36510.30, -62150.39, -100958.96, -85877.91, -23309.02, -92144.68, -100473.95, 0.306, 0.186, 0.924, 13:43:39.237
87, -34176.20, -36340.74, -62264.00, -100775.72, -85706.02, -23445.73, -91990.61, -100306.06, 0.000, 0.000, 0.000, 13:43:39.238
88, -34120.34, -36291.32, -62339.71, -100738.41, -85657.05, -23418.06, -91927.67, -100258.77, 0.000, 0.000, 0.000, 13:43:39.238
89, -34269.05, -36447.20, -62246.41, -100910.32, -85825.04, -23278.13, -92073.67, -100419.99, 0.000, 0.000, 0.000, 13:43:39.238
90, -34339.27, -36519.13, -62162.75, -100974.13, -85892.23, -23294.81, -92153.94, -100496.16, 0.000, 0.000, 0.000, 13:43:39.239
91, -34195.02, -36377.33, -62240.51, -100810.88, -85736.13, -23440.99, -92029.93, -100354.34, 0.000, 0.000, 0.000, 13:43:39.239
92, -34088.73, -36277.75, -62350.10, -100713.20, -85639.77, -23452.34, -91919.69, -100254.86, 0.000, 0.000, 0.000, 13:43:39.239
93, -34205.41, -36400.38, -62279.11, -100853.02, -85777.19, -23302.18, -92036.41, -100377.92, 0.000, 0.000, 0.000, 13:43:39.240
94, -34315.45, -36515.80, -62186.15, -100961.04, -85887.18, -23270.24, -92148.39, -100488.74, 0.000, 0.000, 0.000, 13:43:39.240
95, -34204.83, -36406.79, -62242.14, -100831.53, -85759.08, -23413.43, -92044.57, -100374.91, 0.000, 0.000, 0.000, 13:43:39.240
96, -34088.80, -36291.59, -62345.76, -100721.07, -85650.38, -23459.99, -91933.70, -100258.88, 0.286, 0.198, 0.938, 13:43:39.241
97, -34197.07, -36404.87, -62289.57, -100849.46, -85769.34, -23331.24, -92023.29, -100362.62, 0.000, 0.000, 0.000, 13:43:39.241
98, -34333.53, -36543.49, -62187.54, -100985.60, -85906.40, -23267.92, -92156.62, -100497.75, 0.000, 0.000, 0.000, 13:43:39.241
99, -34243.14, -36450.91, -62222.67, -100874.36, -85801.91, -23391.90, -92075.68, -100403.23, 0.000, 0.000, 0.000, 13:43:39.242
100, -34099.86, -36309.45, -62343.98, -100725.61, -85652.75, -23463.45, -91933.55, -100257.12, 0.000, 0.000, 0.000, 13:43:39.242
101, -34159.30, -36374.38, -62313.35, -100805.41, -85727.90, -23351.11, -91989.59, -100324.39, 0.000, 0.000, 0.000, 13:43:39.242
102, -34311.09, -36534.28, -62199.79, -100966.52, -85890.42, -23258.24, -92143.43, -100483.83, 0.000, 0.000, 0.000, 13:43:39.243
103, -34268.15, -36493.16, -62196.99, -100906.08, -85834.77, -23369.13, -92105.43, -100440.55, 0.000, 0.000, 0.000, 13:43:39.246
104, -34115.80, -36337.12, -62314.67, -100741.34, -85673.43, -23478.21, -91954.60, -100283.96, 0.000, 0.000, 0.000, 13:43:39.246
105, -34135.16, -36356.59, -62330.96, -100781.17, -85704.34, -23393.29, -91972.15, -100310.38, 0.260, 0.198, 0.940, 13:43:39.247
106, -34300.56, -36524.16, -62217.44, -100962.49, -85884.45, -23272.57, -92136.44, -100480.27, 0.000, 0.000, 0.000, 13:43:39.690
107, -34296.98, -36523.84, -62196.88, -100943.91, -85865.85, -23352.59, -92135.20, -100472.92, 0.000, 0.000, 0.000, 13:43:39.690
108, -34137.53, -36365.88, -62296.12, -100771.90, -85690.46, -23472.44, -91975.95, -100308.97, 0.000, 0.000, 0.000, 13:43:39.690
109, -34111.09, -36337.18, -62354.01, -100756.52, -85673.36, -23412.09, -91944.61, -100279.34, 0.000, 0.000, 0.000, 13:43:39.690
110, -34275.10, -36500.42, -62264.74, -100932.92, -85850.79, -23274.65, -92101.84, -100441.72, 0.000, 0.000, 0.000, 13:43:39.691
111, -34322.53, -36548.10, -62215.65, -100965.76, -85889.84, -23319.28, -92151.75, -100483.45, 0.000, 0.000, 0.000, 13:43:39.691
112, -34168.73, -36396.28, -62306.91, -100796.06, -85720.44, -23452.34, -92001.81, -100324.35, 0.000, 0.000, 0.000, 13:43:39.691
113, -34102.82, -36332.56, -62380.01, -100741.08, -85661.25, -23430.26, -91934.78, -100259.91, 0.000, 0.000, 0.000, 13:43:39.691
114, -34226.46, -36458.69, -62306.13, -100882.00, -85803.09, -23282.11, -92055.01, -100391.70, 0.000, 0.000, 0.000, 13:43:39.691
115, -34305.75, -36541.86, -62230.88, -100955.95, -85882.22, -23287.81, -92141.60, -100476.20, 0.242, 0.196, 0.932, 13:43:39.691
116, -34175.21, -36411.91, -62298.02, -100808.09, -85744.41, -23426.08, -92021.15, -100343.70, 0.000, 0.000, 0.000, 13:43:39.692
117, -34073.20, -36306.77, -62386.67, -100707.39, -85628.28, -23434.15, -91910.28, -100238.95, 0.000, 0.000, 0.000, 13:43:39.692
118, -34201.81, -36433.61, -62322.50, -100852.01, -85776.91, -23302.56, -92033.62, -100370.64, 0.000, 0.000, 0.000, 13:43:39.693
119, -34324.95, -36555.83, -62233.89, -100969.20, -85897.88, -23278.85, -92158.01, -100492.92, 0.000, 0.000, 0.000, 13:43:39.693
120, -34211.27, -36444.16, -62274.91, -100833.45, -85768.18, -23406.66, -92048.59, -100374.73, 0.000, 0.000, 0.000, 13:43:39.693
121, -34078.00, -36312.53, -62379.18, -100696.30, -85635.43, -23447.34, -91913.99, -100238.61, 0.000, 0.000, 0.000, 13:43:39.694
122, -34167.93, -36402.99, -62345.43, -100806.52, -85742.77, -23328.58, -91999.38, -100333.71, 0.000, 0.000, 0.000, 13:43:39.694
123, -34300.14, -36535.58, -62262.39, -100944.27, -85881.70, -23259.80, -92134.06, -100468.56, 0.000, 0.000, 0.000, 13:43:39.694
124, -34249.06, -36487.81, -62253.54, -100878.98, -85815.67, -23383.77, -92088.05, -100416.44, 0.000, 0.000, 0.000, 13:43:39.694
125, -34103.22, -36341.59, -62352.67, -100725.36, -85662.48, -23466.02, -91944.92, -100266.68, 0.234, 0.202, 0.932, 13:43:39.695
126, -34148.75, -36385.20, -62346.08, -100788.57, -85720.99, -23362.47, -91982.37, -100315.72, 0.000, 0.000, 0.000, 13:43:39.695
127, -34300.41, -36533.03, -62255.91, -100943.94, -85873.50, -23261.33, -92124.59, -100463.47, 0.000, 0.000, 0.000, 13:43:39.695
128, -34278.70, -36508.69, -62242.99, -100902.48, -85838.41, -23356.16, -92107.63, -100436.33, 0.000, 0.000, 0.000, 13:43:39.696
129, -34123.13, -36350.21, -62354.79, -100733.88, -85670.45, -23459.81, -91954.11, -100275.64, 0.000, 0.000, 0.000, 13:43:39.696
130, -34117.86, -36344.25, -62397.66, -100744.94, -85677.56, -23377.53, -91943.95, -100273.66, 0.000, 0.000, 0.000, 13:43:39.696
131, -34278.99, -36508.49, -62311.61, -100920.38, -85847.44, -23257.97, -92097.48, -100436.47, 0.000, 0.000, 0.000, 13:43:39.696
132, -34294.84, -36526.46, -62285.01, -100923.35, -85855.46, -23331.17, -92121.08, -100451.91, 0.000, 0.000, 0.000, 13:43:39.696
133, -34138.69, -36370.18, -62379.83, -100755.55, -85692.56, -23453.71, -91973.49, -100295.88, 0.000, 0.000, 0.000, 13:43:39.696
134, -34111.53, -36344.47, -62423.32, -100742.55, -85677.99, -23409.79, -91944.70, -100273.43, 0.216, 0.200, 0.932, 13:43:39.697
135, -34248.30, -36480.15, -62360.34, -100892.82, -85823.79, -23278.38, -92074.55, -100412.13, 0.000, 0.000, 0.000, 13:43:39.697
136, -34302.68, -36533.41, -62321.64, -100934.87, -85866.34, -23310.14, -92129.13, -100460.74, 0.000, 0.000, 0.000, 13:43:39.697
137, -34173.63, -36399.84, -62387.76, -100786.41, -85722.67, -23441.48, -92003.55, -100324.44, 0.000, 0.000, 0.000, 13:43:39.697
138, -34113.57, -36334.70, -62455.38, -100732.31, -85668.27, -23432.63, -91939.59, -100262.10, 0.000, 0.000, 0.000, 13:43:39.697
139, -34245.04, -36467.09, -62396.39, -100882.00, -85810.11, -23303.26, -92060.59, -100396.03, 0.000, 0.000, 0.000, 13:43:39.697
140, -34342.80, -36566.31, -62320.15, -100974.85, -85901.46, -23305.34, -92155.79, -100492.23, 0.000, 0.000, 0.000, 13:43:39.697
141, -34222.66, -36445.03, -62367.94, -100837.45, -85767.17, -23433.52, -92039.88, -100368.91, 0.000, 0.000, 0.000, 13:43:39.698
142, -34119.33, -36341.23, -62449.03, -100735.89, -85668.06, -23455.18, -91937.62, -100267.93, 0.000, 0.000, 0.000, 13:43:39.698
143, -34227.00, -36444.99, -62415.64, -100860.63, -85792.83, -23334.79, -92040.66, -100377.28, 0.000, 0.000, 0.000, 13:43:39.698
144, -34338.58, -36559.09, -62347.04, -100971.86, -85892.37, -23288.82, -92145.60, -100486.48, 0.198, 0.206, 0.946, 13:43:39.698
145, -34240.50, -36463.05, -62379.00, -100857.93, -85784.05, -23404.29, -92056.88, -100387.78, 0.000, 0.000, 0.000, 13:43:39.698
146, -34125.55, -36345.05, -62455.46, -100741.12, -85675.82, -23461.31, -91951.07, -100274.55, 0.000, 0.000, 0.000, 13:43:39.698
147, -34192.11, -36411.57, -62438.52, -100830.59, -85757.59, -23355.90, -92011.87, -100348.47, 0.000, 0.000, 0.000, 13:43:39.698
148, -34330.07, -36553.24, -62361.19, -100972.80, -85899.31, -23283.28, -92150.18, -100487.31, 0.000, 0.000, 0.000, 13:43:39.699
149, -34266.05, -36487.57, -62376.50, -100890.67, -85828.17, -23389.92, -92097.86, -100423.77, 0.000, 0.000, 0.000, 13:43:39.699
150, -34120.81, -36339.96, -62472.07, -100743.66, -85683.53, -23471.14, -91960.41, -100282.38, 0.000, 0.000, 0.000, 13:43:39.699
151, -34152.84, -36371.67, -62486.24, -100788.13, -85719.95, -23372.91, -91980.35, -100310.58, 0.000, 0.000, 0.000, 13:43:39.699
152, -34306.75, -36529.90, -62406.05, -100945.41, -85878.80, -23270.04, -92124.79, -100459.95, 0.000, 0.000, 0.000, 13:43:39.700
153, -34283.46, -36512.13, -62394.04, -100912.06, -85848.89, -23356.19, -92114.46, -100440.00, 0.182, 0.206, 0.946, 13:43:39.700
154, -34140.50, -36368.01, -62475.05, -100757.32, -85692.36, -23457.87, -91971.91, -100292.77, 0.000, 0.000, 0.000, 13:43:39.700
155, -34139.72, -36364.90, -62506.11, -100768.45, -85700.81, -23397.60, -91964.13, -100294.84, 0.000, 0.000, 0.000, 13:43:39.700
156, -34282.81, -36505.45, -62442.17, -100922.59, -85861.16, -23281.58, -92111.20, -100444.80, 0.000, 0.000, 0.000, 13:43:39.700
157, -34310.95, -36531.82, -62410.00, -100937.03, -85879.04, -23339.78, -92140.17, -100469.05, 0.000, 0.000, 0.000, 13:43:39.700
158, -34166.45, -36387.45, -62487.68, -100778.55, -85720.55, -23456.75, -91996.49, -100319.63, 0.000, 0.000, 0.000, 13:43:39.700
159, -34116.52, -36336.11, -62557.52, -100739.51, -85681.07, -23414.01, -91942.71, -100269.45, 0.000, 0.000, 0.000, 13:43:39.700
160, -34264.80, -36484.08, -62488.81, -100906.37, -85843.75, -23292.06, -92088.71, -100423.61, 0.000, 0.000, 0.000, 13:43:39.701
161, -34324.88, -36544.63, -62442.57, -100959.16, -85897.30, -23321.79, -92153.65, -100483.09, 0.000, 0.000, 0.000, 13:43:39.701
162, -34196.78, -36418.61, -62495.34, -100815.88, -85751.17, -23441.66, -92029.10, -100350.34, 0.000, 0.000, 0.000, 13:43:39.702
163, -34118.46, -36338.06, -62567.02, -100738.70, -85679.82, -23433.14, -91948.91, -100270.97, 0.166, 0.196, 0.944, 13:43:39.702
164, -34230.96, -36449.12, -62521.94, -100872.03, -85814.06, -23307.93, -92063.79, -100394.55, 0.000, 0.000, 0.000, 13:43:39.702
165, -34321.84, -36541.46, -62467.00, -100959.34, -85902.31, -23298.94, -92160.09, -100489.48, 0.000, 0.000, 0.000, 13:43:39.702
166, -34205.88, -36422.23, -62525.52, -100822.21, -85772.63, -23419.24, -92048.93, -100368.91, 0.000, 0.000, 0.000, 13:43:39.702
167, -34099.71, -36311.73, -62613.89, -100717.43, -85668.80, -23445.32, -91941.87, -100264.45, 0.000, 0.000, 0.000, 13:43:39.702
168, -34203.89, -36415.75, -62567.11, -100843.16, -85792.97, -23337.10, -92050.38, -100382.22, 0.000, 0.000, 0.000, 13:43:39.703
169, -34318.58, -36532.83, -62500.68, -100957.44, -85912.26, -23291.37, -92171.08, -100497.89, 0.000, 0.000, 0.000, 13:43:39.703
170, -34240.30, -36457.57, -62522.23, -100863.61, -85822.63, -23402.30, -92099.58, -100417.09, 0.000, 0.000, 0.000, 13:43:39.703
171, -34102.91, -36318.07, -62620.73, -100721.92, -85676.71, -23454.45, -91956.10, -100274.03, 0.000, 0.000, 0.000, 13:43:39.703
172, -34159.36, -36375.09, -62617.05, -100801.09, -85747.34, -23347.60, -92005.99, -100335.44, 0.156, 0.188, 0.936, 13:43:39.703
173, -34292.09, -36508.71, -62557.52, -100941.52, -85889.44, -23275.18, -92143.19, -100472.56, 0.000, 0.000, 0.000, 13:43:39.703
174, -34240.84, -36459.72, -62565.53, -100875.68, -85829.04, -23371.45, -92101.12, -100421.22, 0.000, 0.000, 0.000, 13:43:39.703
175, -34107.49, -36323.84, -62655.47, -100732.47, -85690.38, -23455.47, -91970.43, -100283.04, 0.000, 0.000, 0.000, 13:43:39.703
176, -34133.10, -36347.73, -62676.50, -100771.14, -85724.95, -23370.98, -91984.82, -100309.64, 0.000, 0.000, 0.000, 13:43:39.704
177, -34273.80, -36488.71, -62623.89, -100916.91, -85873.48, -23268.68, -92116.95, -100449.72, 0.000, 0.000, 0.000, 13:43:39.704
178, -34264.87, -36479.07, -62608.31, -100892.84, -85848.66, -23346.20, -92115.47, -100440.40, 0.000, 0.000, 0.000, 13:43:39.704
179, -34126.91, -36336.98, -62685.15, -100741.66, -85698.28, -23449.55, -91973.71, -100300.48, 0.000, 0.000, 0.000, 13:43:39.704
180, -34115.60, -36324.09, -62731.09, -100743.49, -85699.27, -23398.65, -91963.08, -100295.11, 0.000, 0.000, 0.000, 13:43:39.704
181, -34261.16, -36473.66, -62669.59, -100906.55, -85859.57, -23288.51, -92105.01, -100449.14, 0.000, 0.000, 0.000, 13:43:39.704
182, -34288.04, -36510.21, -62629.52, -100926.82, -85882.55, -23340.83, -92142.02, -100481.80, 0.136, 0.186, 0.942, 13:43:39.704
183, -34142.76, -36367.49, -62694.32, -100771.34, -85727.85, -23456.32, -92003.40, -100339.59, 0.000, 0.000, 0.000, 13:43:39.705
184, -34099.21, -36319.62, -62750.93, -100735.80, -85693.10, -23433.70, -91954.72, -100295.78, 0.000, 0.000, 0.000, 13:43:39.705
185, -34228.10, -36447.56, -62714.88, -100877.27, -85833.11, -23313.03, -92078.08, -100422.20, 0.000, 0.000, 0.000, 13:43:39.705
186, -34296.11, -36516.54, -62682.05, -100936.49, -85891.88, -23324.29, -92145.04, -100483.16, 0.000, 0.000, 0.000, 13:43:39.705
187, -34178.52, -36399.57, -62730.37, -100800.35, -85759.66, -23440.70, -92029.93, -100360.76, 0.000, 0.000, 0.000, 13:43:39.705
188, -34098.73, -36313.74, -62790.90, -100721.36, -85683.87, -23440.59, -91949.87, -100279.24, 0.000, 0.000, 0.000, 13:43:39.705
189, -34203.62, -36418.52, -62772.12, -100842.55, -85803.02, -23323.57, -92052.62, -100385.84, 0.000, 0.000, 0.000, 13:43:39.706
190, -34309.05, -36527.42, -62717.07, -100950.45, -85898.38, -23305.47, -92147.57, -100488.61, 0.000, 0.000, 0.000, 13:43:39.706
191, -34213.05, -36431.20, -62742.33, -100836.90, -85785.45, -23420.85, -92054.09, -100386.69, 0.000, 0.000, 0.000, 13:43:39.706
192, -34100.63, -36317.16, -62816.91, -100719.08, -85671.91, -23447.40, -91938.80, -100267.04, 0.122, 0.196, 0.952, 13:43:39.706
193, -34186.86, -36403.03, -62809.72, -100823.27, -85769.23, -23342.44, -92025.95, -100357.30, 0.000, 0.000, 0.000, 13:43:39.706
194, -34301.59, -36521.09, -62759.83, -100943.38, -85892.77, -23293.82, -92144.26, -100478.73, 0.000, 0.000, 0.000, 13:43:39.707
195, -34229.32, -36447.67, -62771.99, -100852.32, -85802.42, -23396.04, -92066.63, -100399.83, 0.000, 0.000, 0.000, 13:43:39.707
196, -34107.58, -36321.58, -62846.53, -100724.73, -85679.84, -23458.69, -91948.21, -100276.18, 0.000, 0.000, 0.000, 13:43:39.707
197, -34163.39, -36375.94, -62851.58, -100796.55, -85748.44, -23369.15, -92001.97, -100334.45, 0.000, 0.000, 0.000, 13:43:39.707
198, -34298.77, -36508.46, -62792.89, -100933.75, -85888.09, -23290.54, -92134.05, -100469.27, 0.000, 0.000, 0.000, 13:43:39.708
199, -34256.28, -36469.39, -62791.05, -100877.30, -85830.12, -23373.35, -92091.24, -100421.47, 0.000, 0.000, 0.000, 13:43:39.708
200, -34120.88, -36337.95, -62857.57, -100737.90, -85692.09, -23457.39, -91959.95, -100284.49, 0.000, 0.000, 0.000, 13:43:39.708
201, -34137.59, -36353.79, -62882.05, -100765.52, -85718.96, -23383.86, -91972.20, -100303.77, 0.104, 0.206, 0.948, 13:43:39.709
202, -34287.29, -36503.23, -62820.92, -100923.30, -85875.98, -23287.92, -92116.77, -100451.44, 0.000, 0.000, 0.000, 13:43:39.709
203, -34282.05, -36500.62, -62808.58, -100904.47, -85855.73, -23350.84, -92109.30, -100438.27, 0.000, 0.000, 0.000, 13:43:39.709
204, -34137.84, -36355.63, -62872.32, -100750.57, -85703.05, -23444.95, -91969.70, -100294.30, 0.000, 0.000, 0.000, 13:43:39.709
205, -34116.07, -36336.83, -62908.09, -100743.89, -85697.75, -23396.82, -91954.67, -100280.52, 0.000, 0.000, 0.000, 13:43:39.709
206, -34254.05, -36472.95, -62856.21, -100890.90, -85841.91, -23284.75, -92085.30, -100418.18, 0.000, 0.000, 0.000, 13:43:39.710
207, -34290.91, -36509.00, -62827.67, -100915.89, -85868.67, -23321.96, -92118.63, -100450.88, 0.000, 0.000, 0.000, 13:43:39.710
208, -34163.10, -36380.88, -62874.38, -100777.87, -85736.75, -23435.20, -91998.39, -100321.38, 0.000, 0.000, 0.000, 13:43:39.710
209, -34111.29, -36326.55, -62914.68, -100734.37, -85689.48, -23413.88, -91947.27, -100270.81, 0.000, 0.000, 0.000, 13:43:39.710
210, -34242.29, -36457.17, -62858.63, -100880.02, -85833.63, -23301.92, -92072.71, -100405.13, 0.000, 0.000, 0.000, 13:43:39.710
211, -34307.85, -36526.57, -62818.82, -100940.45, -85894.13, -23311.01, -92141.80, -100472.88, 0.104, 0.226, 0.952, 13:43:39.710
212, -34193.94, -36418.05, -62843.13, -100813.31, -85768.71, -23425.32, -92030.17, -100359.62, 0.000, 0.000, 0.000, 13:43:39.710
213, -34104.76, -36324.24, -62901.65, -100726.48, -85682.86, -23436.81, -91941.84, -100271.27, 0.000, 0.000, 0.000, 13:43:39.710
214, -34207.36, -36426.57, -62872.37, -100848.32, -85801.17, -23325.52, -92046.29, -100377.26, 0.000, 0.000, 0.000, 13:43:39.711
215, -34309.05, -36531.55, -62814.99, -100948.16, -85899.54, -23301.92, -92141.40, -100477.50, 0.000, 0.000, 0.000, 13:43:39.711
216, -34203.78, -36426.64, -62847.54, -100828.09, -85779.47, -23406.86, -92042.98, -100371.04, 0.000, 0.000, 0.000, 13:43:39.711
217, -34093.50, -36311.79, -62917.16, -100717.76, -85670.08, -23442.84, -91933.17, -100261.00, 0.000, 0.000, 0.000, 13:43:39.711
218, -34186.25, -36398.03, -62887.77, -100820.49, -85773.34, -23343.51, -92018.15, -100351.20, 0.000, 0.000, 0.000, 13:43:39.711
219, -34314.06, -36523.38, -62836.25, -100940.90, -85898.33, -23288.79, -92140.80, -100470.88, 0.000, 0.000, 0.000, 13:43:39.711
220, -34260.24, -36473.66, -62833.97, -100871.01, -85827.34, -23387.90, -92081.98, -100410.63, 0.110, 0.242, 0.960, 13:43:39.712
221, -34123.38, -36335.24, -62909.59, -100725.77, -85684.56, -23454.29, -91946.09, -100270.19, 0.000, 0.000, 0.000, 13:43:39.712
222, -34160.89, -36373.57, -62922.30, -100780.77, -85736.28, -23365.39, -91980.27, -100312.99, 0.000, 0.000, 0.000, 13:43:39.712
223, -34295.62, -36514.46, -62865.06, -100926.20, -85877.52, -23282.29, -92114.82, -100452.09, 0.000, 0.000, 0.000, 13:43:39.712
224, -34266.90, -36486.09, -62855.43, -100886.61, -85838.09, -23363.52, -92092.85, -100423.19, 0.000, 0.000, 0.000, 13:43:39.712
225, -34130.29, -36344.58, -62917.86, -100738.46, -85691.80, -23449.64, -91956.77, -100283.58, 0.000, 0.000, 0.000, 13:43:39.713
226, -34131.87, -36346.68, -62941.88, -100751.98, -85706.80, -23382.14, -91958.60, -100289.52, 0.000, 0.000, 0.000, 13:43:40.171
227, -34268.49, -36484.73, -62882.70, -100899.70, -85848.33, -23276.17, -92090.21, -100427.28, 0.000, 0.000, 0.000, 13:43:40.171
228, -34287.33, -36505.00, -62852.12, -100905.98, -85857.72, -23336.65, -92112.48, -100443.04, 0.000, 0.000, 0.000, 13:43:40.171
229, -34160.17, -36373.08, -62907.93, -100763.88, -85720.39, -23442.08, -91985.13, -100308.13, 0.000, 0.000, 0.000, 13:43:40.171
230, -34142.47, -36355.83, -62928.65, -100756.14, -85707.85, -23404.49, -91956.88, -100291.63, 0.122, 0.248, 0.958, 13:43:40.172
231, -34277.45, -36492.93, -62875.75, -100904.17, -85847.84, -23302.83, -92090.10, -100429.23, 0.000, 0.000, 0.000, 13:43:40.172
232, -34313.84, -36525.97, -62845.66, -100930.23, -85880.63, -23330.04, -92132.63, -100465.05, 0.000, 0.000, 0.000, 13:43:40.172
233, -34185.34, -36397.02, -62890.48, -100786.78, -85741.11, -23436.18, -92006.68, -100332.75, 0.000, 0.000, 0.000, 13:43:40.172
234, -34127.31, -36339.96, -62937.39, -100735.62, -85690.08, -23423.31, -91949.51, -100275.48, 0.000, 0.000, 0.000, 13:43:40.172
235, -34256.21, -36469.26, -62885.20, -100881.66, -85831.91, -23313.05, -92072.89, -100406.76, 0.000, 0.000, 0.000, 13:43:40.173
236, -34327.34, -36539.20, -62853.21, -100943.31, -85894.35, -23310.77, -92144.26, -100471.24, 0.000, 0.000, 0.000, 13:43:40.173
237, -34223.36, -36431.87, -62885.38, -100823.58, -85774.50, -23419.69, -92038.20, -100361.03, 0.000, 0.000, 0.000, 13:43:40.173
238, -34133.95, -36343.76, -62938.73, -100739.38, -85686.68, -23435.11, -91948.91, -100270.73, 0.000, 0.000, 0.000, 13:43:40.173
239, -34215.94, -36429.05, -62926.17, -100839.35, -85784.30, -23323.20, -92028.92, -100359.71, 0.132, 0.242, 0.954, 13:43:40.174
240, -34328.75, -36544.27, -62867.70, -100955.90, -85901.13, -23295.57, -92145.35, -100482.13, 0.000, 0.000, 0.000, 13:43:40.174
241, -34252.68, -36466.58, -62873.02, -100861.55, -85810.00, -23407.44, -92072.95, -100402.78, 0.000, 0.000, 0.000, 13:43:40.174
242, -34133.04, -36340.74, -62934.84, -100737.23, -85688.27, -23450.13, -91952.97, -100281.50, 0.000, 0.000, 0.000, 13:43:40.174
243, -34196.36, -36401.36, -62929.17, -100813.25, -85765.83, -23353.44, -92014.44, -100348.02, 0.000, 0.000, 0.000, 13:43:40.175
244, -34328.61, -36534.66, -62876.50, -100949.77, -85902.04, -23294.05, -92145.11, -100482.73, 0.000, 0.000, 0.000, 13:43:40.175
245, -34280.69, -36493.22, -62866.98, -100887.81, -85841.94, -23394.47, -92101.19, -100437.38, 0.000, 0.000, 0.000, 13:43:40.175
246, -34151.48, -36363.94, -62920.49, -100753.66, -85708.12, -23465.51, -91975.13, -100309.24, 0.000, 0.000, 0.000, 13:43:40.175
247, -34179.77, -36387.79, -62926.06, -100796.53, -85751.66, -23385.33, -92004.05, -100341.72, 0.000, 0.000, 0.000, 13:43:40.176
248, -34310.93, -36519.38, -62884.29, -100937.14, -85890.24, -23301.87, -92134.94, -100475.87, 0.000, 0.000, 0.000, 13:43:40.176
249, -34295.53, -36504.89, -62875.21, -100908.06, -85860.94, -23377.60, -92120.16, -100454.57, 0.138, 0.226, 0.944, 13:43:40.176
250, -34163.68, -36369.17, -62941.32, -100762.63, -85718.02, -23463.34, -91987.13, -100313.15, 0.000, 0.000, 0.000, 13:43:40.176
251, -34161.87, -36365.19, -62963.66, -100774.98, -85726.09, -23399.97, -91979.44, -100313.09, 0.000, 0.000, 0.000, 13:43:40.176
252, -34316.79, -36518.37, -62901.65, -100939.00, -85890.51, -23305.85, -92129.13, -100467.20, 0.000, 0.000, 0.000, 13:43:40.176
253, -34320.68, -36522.77, -62890.63, -100929.09, -85884.95, -23352.74, -92137.93, -100466.57, 0.000, 0.000, 0.000, 13:43:40.177
254, -34190.21, -36391.68, -62937.35, -100787.81, -85745.96, -23451.79, -92008.98, -100333.05, 0.000, 0.000, 0.000, 13:43:40.177
255, -34155.52, -36354.44, -62978.30, -100760.81, -85719.65, -23419.55, -91971.75, -100297.23, 0.000, 0.000, 0.000, 13:43:40.177
0, -34283.55, -36482.20, -62937.35, -100901.45, -85860.89, -23310.21, -92097.70, -100427.88, 0.000, 0.000, 0.000, 13:43:40.177
1, -34332.12, -36534.39, -62904.31, -100941.95, -85904.16, -23331.82, -92151.70, -100476.16, 0.000, 0.000, 0.000, 13:43:40.177
2, -34216.34, -36417.65, -62936.23, -100810.30, -85775.29, -23437.90, -92035.49, -100353.07, 0.000, 0.000, 0.000, 13:43:40.177
3, -34148.73, -36348.43, -62972.37, -100748.49, -85702.76, -23432.43, -91957.15, -100283.02, 0.142, 0.214, 0.940, 13:43:40.177
4, -34255.43, -36453.10, -62943.16, -100869.44, -85818.36, -23321.07, -92058.72, -100390.17, 0.000, 0.000, 0.000, 13:43:40.178
5, -34342.47, -36540.05, -62902.10, -100951.18, -85901.75, -23312.89, -92145.04, -100476.54, 0.000, 0.000, 0.000, 13:43:40.178
6, -34227.76, -36429.83, -62938.98, -100826.39, -85777.25, -23421.28, -92038.06, -100363.04, 0.000, 0.000, 0.000, 13:43:40.178
7, -34127.25, -36330.61, -62996.58, -100733.14, -85678.48, -23442.73, -91934.55, -100265.07, 0.000, 0.000, 0.000, 13:43:40.178
8, -34227.47, -36430.37, -62966.96, -100849.86, -85795.94, -23341.43, -92030.87, -100365.90, 0.000, 0.000, 0.000, 13:43:40.178
9, -34339.92, -36542.35, -62912.56, -100959.95, -85913.35, -23303.95, -92146.72, -100479.23, 0.000, 0.000, 0.000, 13:43:40.178
10, -34255.43, -36460.30, -62927.54, -100862.27, -85816.37, -23405.14, -92066.20, -100395.41, 0.000, 0.000, 0.000, 13:43:40.178
11, -34140.19, -36345.61, -62987.66, -100743.60, -85697.48, -23457.53, -91951.92, -100279.24, 0.000, 0.000, 0.000, 13:43:40.179
12, -34195.57, -36397.56, -62981.65, -100812.89, -85763.35, -23364.03, -92003.17, -100336.95, 0.134, 0.222, 0.950, 13:43:40.179
13, -34324.88, -36529.14, -62935.07, -100948.59, -85900.91, -23299.46, -92134.54, -100470.08, 0.000, 0.000, 0.000, 13:43:40.179
14, -34273.65, -36483.45, -62927.07, -100888.08, -85842.92, -23389.58, -92093.90, -100423.68, 0.000, 0.000, 0.000, 13:43:40.179
15, -34141.33, -36350.39, -62966.58, -100750.30, -85707.45, -23462.89, -91966.56, -100293.93, 0.000, 0.000, 0.000, 13:43:40.179
16, -34162.94, -36370.63, -62971.10, -100787.77, -85745.00, -23388.15, -91991.30, -100320.13, 0.000, 0.000, 0.000, 13:43:40.179
17, -34296.00, -36502.79, -62920.43, -100933.30, -85888.52, -23297.67, -92122.47, -100458.50, 0.000, 0.000, 0.000, 13:43:40.179
18, -34287.06, -36492.93, -62907.29, -100909.52, -85865.99, -23368.81, -92113.84, -100445.54, 0.000, 0.000, 0.000, 13:43:40.179
19, -34150.76, -36358.17, -62959.59, -100757.48, -85713.95, -23458.02, -91973.16, -100302.94, 0.000, 0.000, 0.000, 13:43:40.179
20, -34143.68, -36353.79, -62981.11, -100759.67, -85712.16, -23405.34, -91959.59, -100296.01, 0.000, 0.000, 0.000, 13:43:40.180
21, -34289.79, -36502.23, -62914.55, -100921.12, -85872.80, -23303.86, -92106.33, -100447.57, 0.000, 0.000, 0.000, 13:43:40.180
22, -34319.23, -36530.66, -62885.42, -100937.45, -85893.86, -23353.37, -92138.78, -100470.91, 0.122, 0.214, 0.964, 13:43:40.180
23, -34187.53, -36397.80, -62935.16, -100788.84, -85747.32, -23455.61, -92004.27, -100328.15, 0.000, 0.000, 0.000, 13:43:40.180
24, -34139.92, -36347.51, -62968.97, -100751.94, -85710.48, -23427.53, -91958.02, -100285.95, 0.000, 0.000, 0.000, 13:43:40.180
25, -34261.42, -36469.20, -62925.88, -100891.10, -85845.45, -23314.86, -92078.97, -100414.94, 0.000, 0.000, 0.000, 13:43:40.180
26, -34317.32, -36525.97, -62892.58, -100935.55, -85894.76, -23325.90, -92137.66, -100469.32, 0.000, 0.000, 0.000, 13:43:40.180
27, -34195.62, -36401.91, -62927.63, -100794.16, -85760.87, -23429.70, -92017.75, -100341.16, 0.000, 0.000, 0.000, 13:43:40.181
28, -34123.78, -36326.86, -62969.06, -100724.09, -85693.39, -23428.49, -91941.80, -100267.91, 0.000, 0.000, 0.000, 13:43:40.181
29, -34220.90, -36429.12, -62945.24, -100841.97, -85802.33, -23316.49, -92038.60, -100374.23, 0.000, 0.000, 0.000, 13:43:40.181
30, -34319.18, -36533.10, -62886.90, -100939.20, -85903.05, -23303.30, -92142.91, -100478.51, 0.000, 0.000, 0.000, 13:43:40.181
31, -34225.73, -36438.13, -62893.16, -100826.68, -85795.18, -23413.27, -92052.28, -100380.43, 0.116, 0.206, 0.972, 13:43:40.181
32, -34120.32, -36332.27, -62949.53, -100719.84, -85690.13, -23443.92, -91946.60, -100273.86, 0.000, 0.000, 0.000, 13:43:40.181
33, -34207.67, -36419.02, -62931.78, -100824.40, -85789.73, -23340.21, -92029.21, -100362.44, 0.000, 0.000, 0.000, 13:43:40.181
34, -34319.02, -36531.11, -62894.27, -100938.62, -85903.95, -23292.01, -92142.38, -100473.16, 0.000, 0.000, 0.000, 13:43:40.182
35, -34248.39, -36460.43, -62896.93, -100854.33, -85823.23, -23389.22, -92075.35, -100399.16, 0.000, 0.000, 0.000, 13:43:40.182
36, -34129.93, -36344.47, -62939.92, -100734.46, -85699.31, -23449.68, -91956.86, -100279.29, 0.000, 0.000, 0.000, 13:43:40.182
37, -34176.20, -36391.05, -62939.47, -100798.02, -85756.40, -23359.90, -91999.02, -100328.98, 0.000, 0.000, 0.000, 13:43:40.182
38, -34310.29, -36526.39, -62889.83, -100939.70, -85899.23, -23286.09, -92135.05, -100466.44, 0.000, 0.000, 0.000, 13:43:40.183
39, -34274.50, -36489.24, -62878.11, -100889.42, -85850.70, -23375.39, -92101.16, -100428.66, 0.000, 0.000, 0.000, 13:43:40.183
40, -34141.71, -36354.98, -62921.59, -100749.52, -85715.61, -23462.04, -91972.44, -100297.10, 0.000, 0.000, 0.000, 13:43:40.183
41, -34150.56, -36362.69, -62939.27, -100771.90, -85735.90, -23390.65, -91980.64, -100310.85, 0.096, 0.192, 0.976, 13:43:40.184
42, -34293.99, -36502.34, -62890.43, -100921.88, -85886.33, -23294.32, -92118.27, -100451.75, 0.000, 0.000, 0.000, 13:43:40.184
43, -34280.36, -36492.39, -62875.66, -100898.52, -85866.39, -23355.16, -92112.27, -100439.37, 0.000, 0.000, 0.000, 13:43:40.184
44, -34137.24, -36348.99, -62930.89, -100744.54, -85714.38, -23450.73, -91970.18, -100294.04, 0.000, 0.000, 0.000, 13:43:40.184
45, -34123.74, -36331.60, -62963.97, -100741.52, -85709.51, -23407.95, -91955.43, -100283.09, 0.000, 0.000, 0.000, 13:43:40.184
46, -34264.02, -36475.23, -62920.63, -100900.33, -85862.99, -23303.68, -92097.97, -100428.53, 0.000, 0.000, 0.000, 13:43:40.184
47, -34300.45, -36518.01, -62883.59, -100933.68, -85891.41, -23345.10, -92134.36, -100465.84, 0.000, 0.000, 0.000, 13:43:40.184
48, -34160.97, -36379.32, -62929.70, -100783.16, -85742.97, -23452.92, -92000.16, -100322.20, 0.000, 0.000, 0.000, 13:43:40.184
49, -34106.97, -36328.04, -62957.24, -100740.34, -85692.98, -23430.75, -91940.97, -100271.48, 0.000, 0.000, 0.000, 13:43:40.185
50, -34237.15, -36461.33, -62913.81, -100884.23, -85831.30, -23320.69, -92065.06, -100402.94, 0.096, 0.200, 0.984, 13:43:40.185
51, -34309.50, -36536.25, -62870.70, -100951.18, -85903.59, -23331.80, -92144.39, -100475.45, 0.000, 0.000, 0.000, 13:43:40.185
52, -34189.09, -36416.27, -62907.89, -100814.50, -85769.01, -23440.92, -92026.63, -100350.37, 0.000, 0.000, 0.000, 13:43:40.185
53, -34118.15, -36345.05, -62942.89, -100747.78, -85701.19, -23455.79, -91953.46, -100280.65, 0.000, 0.000, 0.000, 13:43:40.185
54, -34219.38, -36446.11, -62909.18, -100867.07, -85820.52, -23348.63, -92055.63, -100388.30, 0.000, 0.000, 0.000, 13:43:40.185
55, -34311.69, -36537.25, -62869.42, -100956.43, -85911.74, -23318.68, -92150.23, -100478.35, 0.000, 0.000, 0.000, 13:43:40.185
56, -34224.45, -36450.69, -62882.43, -100850.04, -85802.13, -23423.93, -92055.34, -100382.53, 0.000, 0.000, 0.000, 13:43:40.185
57, -34116.54, -36341.68, -62934.51, -100742.04, -85696.92, -23463.05, -91950.29, -100274.73, 0.000, 0.000, 0.000, 13:43:40.186
58, -34196.29, -36416.82, -62909.30, -100834.39, -85787.16, -23359.72, -92023.78, -100356.36, 0.000, 0.000, 0.000, 13:43:40.186
59, -34322.09, -36546.09, -62847.00, -100963.59, -85917.89, -23307.28, -92152.08, -100486.53, 0.000, 0.000, 0.000, 13:43:40.186
60, -34259.88, -36482.16, -62849.48, -100880.93, -85837.71, -23406.39, -92089.34, -100414.60, 0.100, 0.198, 0.982, 13:43:40.186
61, -34134.98, -36351.07, -62899.95, -100746.26, -85701.28, -23470.94, -91957.87, -100281.73, 0.000, 0.000, 0.000, 13:43:40.186
62, -34176.75, -36392.62, -62896.87, -100802.68, -85755.95, -23381.60, -91996.63, -100325.17, 0.000, 0.000, 0.000, 13:43:40.186
63, -34317.32, -36535.04, -62843.78, -100951.05, -85904.05, -23302.68, -92137.62, -100469.08, 0.000, 0.000, 0.000, 13:43:40.187
64, -34286.84, -36503.48, -62835.63, -100902.95, -85857.90, -23383.48, -92105.10, -100430.84, 0.000, 0.000, 0.000, 13:43:40.187
65, -34144.23, -36357.14, -62897.85, -100750.30, -85706.17, -23465.89, -91963.55, -100282.91, 0.000, 0.000, 0.000, 13:43:40.187
66, -34156.53, -36365.59, -62914.61, -100773.15, -85731.30, -23395.03, -91975.34, -100297.70, 0.000, 0.000, 0.000, 13:43:40.187
67, -34303.82, -36515.48, -62850.58, -100931.82, -85883.18, -23294.50, -92113.26, -100447.15, 0.000, 0.000, 0.000, 13:43:40.187
68, -34311.54, -36525.90, -62825.97, -100925.77, -85880.16, -23355.76, -92122.96, -100451.04, 0.000, 0.000, 0.000, 13:43:40.187
69, -34179.97, -36389.91, -62864.70, -100781.69, -85737.69, -23460.52, -91991.33, -100314.63, 0.000, 0.000, 0.000, 13:43:40.188
70, -34146.80, -36352.36, -62896.02, -100758.80, -85707.76, -23417.01, -91953.89, -100280.27, 0.110, 0.194, 0.982, 13:43:40.188
71, -34286.19, -36494.95, -62834.15, -100915.98, -85859.48, -23306.03, -92089.14, -100424.15, 0.000, 0.000, 0.000, 13:43:40.188
72, -34332.86, -36543.18, -62797.54, -100953.02, -85899.34, -23339.67, -92140.39, -100469.55, 0.000, 0.000, 0.000, 13:43:40.188
73, -34199.84, -36409.25, -62844.01, -100800.48, -85752.22, -23453.13, -92011.51, -100331.55, 0.000, 0.000, 0.000, 13:43:40.189
74, -34133.97, -36342.46, -62899.64, -100740.47, -85691.65, -23440.77, -91941.80, -100267.09, 0.000, 0.000, 0.000, 13:43:40.189
75, -34261.22, -36468.32, -62851.49, -100886.25, -85834.05, -23330.28, -92066.09, -100401.30, 0.000, 0.000, 0.000, 13:43:40.189
76, -34341.00, -36546.40, -62809.05, -100956.23, -85908.77, -23331.00, -92148.84, -100480.38, 0.000, 0.000, 0.000, 13:43:40.190
77, -34235.18, -36440.92, -62829.39, -100833.27, -85788.20, -23446.35, -92042.76, -100369.52, 0.000, 0.000, 0.000, 13:43:40.190
78, -34140.86, -36342.59, -62883.75, -100741.68, -85692.61, -23467.34, -91945.10, -100273.37, 0.000, 0.000, 0.000, 13:43:40.190
79, -34235.56, -36434.26, -62872.23, -100846.84, -85796.74, -23357.26, -92034.24, -100367.87, 0.116, 0.194, 0.986, 13:43:40.190
80, -34348.33, -36553.37, -62824.47, -100958.98, -85912.95, -23321.88, -92149.55, -100481.46, 0.000, 0.000, 0.000, 13:43:40.190
81, -34256.04, -36464.28, -62831.04, -100850.71, -85805.44, -23426.68, -92062.90, -100385.68, 0.000, 0.000, 0.000, 13:43:40.190
82, -34139.63, -36342.80, -62887.84, -100731.17, -85692.18, -23470.31, -91949.17, -100268.36, 0.000, 0.000, 0.000, 13:43:40.190
83, -34200.87, -36404.20, -62888.31, -100807.98, -85765.63, -23367.88, -92005.61, -100331.21, 0.000, 0.000, 0.000, 13:43:40.191
84, -34332.64, -36539.36, -62838.33, -100946.94, -85903.54, -23306.59, -92135.81, -100465.99, 0.000, 0.000, 0.000, 13:43:40.191
85, -34295.11, -36502.43, -62826.44, -100895.57, -85850.63, -23413.05, -92099.40, -100424.38, 0.000, 0.000, 0.000, 13:43:40.191
86, -34160.93, -36362.29, -62896.51, -100754.13, -85703.67, -23484.89, -91959.97, -100282.69, 0.000, 0.000, 0.000, 13:43:40.191
87, -34195.57, -36393.60, -62900.58, -100803.55, -85746.14, -23399.24, -91984.02, -100319.61, 0.000, 0.000, 0.000, 13:43:40.191
88, -34341.69, -36544.45, -62840.72, -100957.28, -85901.20, -23315.80, -92129.62, -100469.92, 0.000, 0.000, 0.000, 13:43:40.191
89, -34317.57, -36528.65, -62818.17, -100918.77, -85867.69, -23395.14, -92114.02, -100446.81, 0.118, 0.200, 0.986, 13:43:40.191
90, -34167.88, -36377.53, -62883.81, -100754.51, -85707.00, -23483.81, -91962.47, -100289.34, 0.000, 0.000, 0.000, 13:43:40.650
91, -34161.64, -36367.85, -62915.51, -100760.12, -85710.78, -23416.85, -91951.54, -100284.14, 0.000, 0.000, 0.000, 13:43:40.650
92, -34310.53, -36514.50, -62861.75, -100918.77, -85869.97, -23310.39, -92096.72, -100432.33, 0.000, 0.000, 0.000, 13:43:40.650
93, -34337.51, -36539.11, -62830.19, -100932.70, -85883.94, -23367.79, -92122.53, -100454.97, 0.000, 0.000, 0.000, 13:43:40.650
94, -34206.13, -36409.47, -62864.86, -100787.84, -85741.47, -23475.81, -91993.32, -100321.91, 0.000, 0.000, 0.000, 13:43:40.650
95, -34166.92, -36368.88, -62892.44, -100756.84, -85711.70, -23441.59, -91952.59, -100285.03, 0.000, 0.000, 0.000, 13:43:40.650
96, -34306.11, -36507.71, -62834.53, -100908.96, -85863.58, -23330.13, -92089.05, -100426.14, 0.000, 0.000, 0.000, 13:43:40.650
97, -34359.86, -36559.50, -62797.83, -100951.67, -85906.47, -23352.81, -92140.59, -100474.69, 0.000, 0.000, 0.000, 13:43:40.651
98, -34229.28, -36428.74, -62836.94, -100807.84, -85763.23, -23464.88, -92015.34, -100342.79, 0.112, 0.198, 0.976, 13:43:40.651
99, -34161.36, -36360.30, -62896.18, -100745.92, -85700.63, -23461.08, -91947.05, -100271.98, 0.000, 0.000, 0.000, 13:43:40.651
100, -34280.40, -36479.99, -62860.50, -100881.47, -85831.70, -23345.93, -92060.59, -100394.00, 0.000, 0.000, 0.000, 13:43:40.651
101, -34368.27, -36569.24, -62818.21, -100964.93, -85915.43, -23342.35, -92147.45, -100482.58, 0.000, 0.000, 0.000, 13:43:40.651
102, -34254.79, -36453.44, -62846.55, -100833.01, -85786.57, -23452.68, -92037.95, -100365.86, 0.000, 0.000, 0.000, 13:43:40.651
103, -34149.11, -36348.50, -62909.09, -100731.73, -85684.52, -23473.11, -91935.85, -100263.62, 0.000, 0.000, 0.000, 13:43:40.651
104, -34237.44, -36442.53, -62882.74, -100841.30, -85792.41, -23364.48, -92023.78, -100364.34, 0.000, 0.000, 0.000, 13:43:40.651
105, -34356.04, -36560.88, -62834.24, -100955.70, -85904.81, -23324.49, -92136.77, -100476.66, 0.000, 0.000, 0.000, 13:43:40.652
106, -34275.10, -36482.38, -62852.25, -100857.55, -85807.09, -23427.58, -92054.36, -100385.95, 0.000, 0.000, 0.000, 13:43:40.652
107, -34158.52, -36363.27, -62906.97, -100739.17, -85687.13, -23479.70, -91937.13, -100264.49, 0.000, 0.000, 0.000, 13:43:40.652
108, -34220.59, -36426.41, -62897.38, -100820.06, -85764.00, -23382.40, -91996.02, -100330.96, 0.108, 0.192, 0.976, 13:43:40.652
109, -34358.03, -36560.77, -62836.41, -100961.73, -85910.45, -23315.75, -92138.72, -100471.96, 0.000, 0.000, 0.000, 13:43:40.652
110, -34308.34, -36506.54, -62849.04, -100892.44, -85847.10, -23409.83, -92087.62, -100414.20, 0.000, 0.000, 0.000, 13:43:40.652
111, -34170.45, -36367.25, -62908.58, -100750.26, -85704.21, -23485.69, -91952.32, -100277.81, 0.000, 0.000, 0.000, 13:43:40.652
112, -34194.30, -36390.74, -62906.90, -100788.75, -85742.43, -23405.96, -91978.43, -100310.52, 0.000, 0.000, 0.000, 13:43:40.652
113, -34337.98, -36537.55, -62846.46, -100941.62, -85900.27, -23316.18, -92125.84, -100460.85, 0.000, 0.000, 0.000, 13:43:40.652
114, -34330.25, -36531.60, -62824.70, -100917.92, -85878.77, -23392.42, -92121.17, -100451.58, 0.000, 0.000, 0.000, 13:43:40.653
115, -34192.18, -36392.10, -62876.55, -100769.62, -85727.45, -23491.79, -91981.25, -100309.77, 0.000, 0.000, 0.000, 13:43:40.653
116, -34177.94, -36374.63, -62904.00, -100766.98, -85722.42, -23435.04, -91963.41, -100296.09, 0.000, 0.000, 0.000, 13:43:40.653
117, -34317.19, -36516.36, -62866.65, -100917.72, -85872.98, -23326.93, -92098.93, -100435.08, 0.114, 0.184, 0.972, 13:43:40.653
118, -34344.53, -36545.08, -62839.27, -100936.14, -85898.17, -23374.67, -92135.59, -100463.13, 0.000, 0.000, 0.000, 13:43:40.653
119, -34212.50, -36410.27, -62885.82, -100787.88, -85751.77, -23480.44, -92002.98, -100322.72, 0.000, 0.000, 0.000, 13:43:40.654
120, -34165.67, -36357.82, -62926.30, -100747.91, -85705.34, -23451.63, -91945.89, -100276.00, 0.000, 0.000, 0.000, 13:43:40.654
121, -34306.51, -36496.11, -62870.45, -100902.05, -85860.65, -23336.99, -92082.57, -100421.20, 0.000, 0.000, 0.000, 13:43:40.654
122, -34367.46, -36558.71, -62823.82, -100953.98, -85916.57, -23352.90, -92149.38, -100481.91, 0.000, 0.000, 0.000, 13:43:40.654
123, -34246.92, -36437.84, -62848.95, -100819.28, -85786.98, -23466.96, -92035.54, -100359.30, 0.000, 0.000, 0.000, 13:43:40.654
124, -34169.91, -36356.88, -62898.99, -100745.77, -85712.16, -23467.79, -91954.09, -100278.21, 0.000, 0.000, 0.000, 13:43:40.655
125, -34281.96, -36468.03, -62864.52, -100874.96, -85835.75, -23352.50, -92061.65, -100392.63, 0.000, 0.000, 0.000, 13:43:40.655
126, -34372.38, -36560.21, -62816.98, -100962.27, -85922.94, -23334.57, -92153.13, -100484.21, 0.000, 0.000, 0.000, 13:43:40.655
127, -34272.29, -36463.47, -62831.22, -100846.82, -85808.32, -23446.78, -92056.20, -100384.48, 0.124, 0.174, 0.966, 13:43:40.655
128, -34153.06, -36343.09, -62904.36, -100726.37, -85690.33, -23477.51, -91939.63, -100266.01, 0.000, 0.000, 0.000, 13:43:40.655
129, -34238.00, -36426.77, -62895.88, -100830.77, -85790.06, -23371.25, -92019.71, -100357.45, 0.000, 0.000, 0.000, 13:43:40.655
130, -34366.88, -36556.23, -62840.61, -100961.87, -85917.94, -23327.02, -92147.16, -100488.14, 0.000, 0.000, 0.000, 13:43:40.655
131, -34290.28, -36476.79, -62838.73, -100869.04, -85824.48, -23431.33, -92070.23, -100407.97, 0.000, 0.000, 0.000, 13:43:40.656
132, -34168.51, -36355.13, -62893.61, -100746.98, -85705.57, -23497.40, -91952.88, -100287.22, 0.000, 0.000, 0.000, 13:43:40.656
133, -34227.80, -36413.61, -62893.98, -100817.85, -85773.41, -23409.52, -92003.71, -100344.51, 0.000, 0.000, 0.000, 13:43:40.656
134, -34368.89, -36554.62, -62841.59, -100962.00, -85913.66, -23334.68, -92137.33, -100484.07, 0.000, 0.000, 0.000, 13:43:40.656
135, -34329.51, -36514.99, -62836.74, -100908.87, -85864.02, -23421.28, -92102.53, -100441.70, 0.000, 0.000, 0.000, 13:43:40.656
136, -34193.12, -36378.89, -62894.36, -100763.13, -85719.30, -23502.84, -91966.05, -100300.34, 0.000, 0.000, 0.000, 13:43:40.656
137, -34207.04, -36394.52, -62912.94, -100792.70, -85743.70, -23428.03, -91975.05, -100318.11, 0.134, 0.180, 0.976, 13:43:40.656
138, -34360.24, -36551.02, -62843.74, -100957.57, -85908.91, -23335.09, -92130.58, -100478.15, 0.000, 0.000, 0.000, 13:43:40.656
139, -34353.38, -36545.57, -62821.30, -100932.63, -85891.47, -23404.78, -92131.07, -100466.44, 0.000, 0.000, 0.000, 13:43:40.657
140, -34199.80, -36389.69, -62889.27, -100765.55, -85722.00, -23499.86, -91969.85, -100307.70, 0.000, 0.000, 0.000, 13:43:40.657
141, -34186.75, -36375.05, -62914.10, -100766.24, -85721.02, -23452.08, -91957.94, -100301.91, 0.000, 0.000, 0.000, 13:43:40.657
142, -34330.27, -36522.75, -62858.64, -100923.64, -85877.77, -23343.60, -92103.98, -100447.10, 0.000, 0.000, 0.000, 13:43:40.657
143, -34371.42, -36564.64, -62819.17, -100952.19, -85903.77, -23382.54, -92139.84, -100482.82, 0.000, 0.000, 0.000, 13:43:40.657
144, -34241.15, -36431.75, -62852.57, -100808.69, -85762.57, -23496.18, -92011.47, -100351.71, 0.000, 0.000, 0.000, 13:43:40.657
145, -34179.41, -36365.37, -62907.91, -100755.27, -85709.59, -23475.03, -91951.70, -100289.16, 0.000, 0.000, 0.000, 13:43:40.657
146, -34307.33, -36495.30, -62867.43, -100898.23, -85850.97, -23357.77, -92075.15, -100419.92, 0.132, 0.178, 0.974, 13:43:40.657
147, -34380.94, -36568.59, -62815.71, -100966.54, -85922.78, -23362.06, -92153.49, -100495.25, 0.000, 0.000, 0.000, 13:43:40.657
148, -34267.77, -36455.83, -62840.95, -100839.38, -85794.76, -23478.81, -92042.96, -100378.93, 0.000, 0.000, 0.000, 13:43:40.658
149, -34181.88, -36368.68, -62897.79, -100756.09, -85709.20, -23491.48, -91954.20, -100292.23, 0.000, 0.000, 0.000, 13:43:40.658
150, -34281.14, -36468.05, -62876.13, -100873.17, -85823.43, -23378.70, -92052.02, -100396.48, 0.000, 0.000, 0.000, 13:43:40.658
151, -34385.07, -36572.71, -62828.11, -100972.30, -85925.40, -23351.60, -92156.80, -100498.11, 0.000, 0.000, 0.000, 13:43:40.658
152, -34291.48, -36481.09, -62845.48, -100865.10, -85819.97, -23462.42, -92066.77, -100401.98, 0.000, 0.000, 0.000, 13:43:40.658
153, -34181.54, -36370.51, -62907.35, -100757.16, -85710.29, -23503.93, -91959.41, -100293.64, 0.000, 0.000, 0.000, 13:43:40.658
154, -34260.89, -36445.61, -62895.44, -100848.25, -85795.20, -23401.65, -92028.74, -100372.31, 0.000, 0.000, 0.000, 13:43:40.658
155, -34378.50, -36565.33, -62844.86, -100967.32, -85917.73, -23340.21, -92148.35, -100491.96, 0.000, 0.000, 0.000, 13:43:40.658
156, -34318.11, -36506.48, -62843.65, -100892.09, -85844.98, -23440.32, -92091.66, -100430.61, 0.132, 0.176, 0.972, 13:43:40.658
157, -34196.58, -36386.31, -62894.48, -100765.70, -85721.69, -23510.03, -91973.45, -100307.18, 0.000, 0.000, 0.000, 13:43:40.658
158, -34245.46, -36433.83, -62897.34, -100826.70, -85780.27, -23423.46, -92017.26, -100357.48, 0.000, 0.000, 0.000, 13:43:40.659
159, -34385.03, -36572.13, -62841.04, -100970.00, -85925.20, -23340.23, -92156.15, -100499.20, 0.000, 0.000, 0.000, 13:43:40.659
160, -34355.77, -36548.16, -62824.16, -100927.11, -85884.27, -23423.85, -92130.55, -100465.05, 0.000, 0.000, 0.000, 13:43:40.659
161, -34218.38, -36407.68, -62870.11, -100777.58, -85735.86, -23512.47, -91988.22, -100323.99, 0.000, 0.000, 0.000, 13:43:40.659
162, -34218.62, -36405.45, -62893.14, -100792.30, -85748.76, -23446.20, -91988.24, -100330.32, 0.000, 0.000, 0.000, 13:43:40.659
163, -34360.04, -36547.14, -62849.91, -100944.03, -85902.71, -23344.59, -92130.13, -100476.56, 0.000, 0.000, 0.000, 13:43:40.659
164, -34370.05, -36558.22, -62826.15, -100943.24, -85899.67, -23405.56, -92138.56, -100485.91, 0.000, 0.000, 0.000, 13:43:40.659
165, -34225.64, -36414.05, -62889.63, -100785.04, -85743.45, -23511.29, -91997.92, -100337.42, 0.136, 0.180, 0.970, 13:43:40.659
166, -34197.25, -36383.70, -62929.43, -100766.27, -85723.05, -23466.96, -91964.95, -100306.87, 0.000, 0.000, 0.000, 13:43:40.660
167, -34337.33, -36524.98, -62868.46, -100921.34, -85877.03, -23354.49, -92103.91, -100449.88, 0.000, 0.000, 0.000, 13:43:40.660
168, -34385.65, -36569.55, -62830.82, -100958.24, -85915.45, -23386.99, -92152.71, -100492.45, 0.000, 0.000, 0.000, 13:43:40.660
169, -34258.56, -36439.54, -62874.32, -100814.45, -85778.08, -23500.36, -92029.44, -100359.87, 0.000, 0.000, 0.000, 13:43:40.660
170, -34199.53, -36379.50, -62917.52, -100762.13, -85722.87, -23487.19, -91968.20, -100300.01, 0.000, 0.000, 0.000, 13:43:40.660
171, -34320.34, -36499.84, -62875.39, -100902.43, -85862.23, -23372.03, -92091.44, -100428.55, 0.000, 0.000, 0.000, 13:43:40.660
172, -34405.35, -36586.50, -62820.63, -100982.67, -85937.18, -23371.92, -92166.92, -100511.30, 0.000, 0.000, 0.000, 13:43:40.660
173, -34290.19, -36469.08, -62850.73, -100848.81, -85805.33, -23487.35, -92052.05, -100389.10, 0.000, 0.000, 0.000, 13:43:40.661
174, -34187.84, -36367.16, -62916.29, -100751.05, -85707.29, -23498.97, -91949.71, -100286.93, 0.000, 0.000, 0.000, 13:43:40.661
175, -34297.50, -36479.48, -62876.48, -100878.85, -85831.77, -23389.58, -92056.13, -100401.02, 0.140, 0.180, 0.966, 13:43:40.661
176, -34415.00, -36596.55, -62823.02, -100989.13, -85942.50, -23358.87, -92167.30, -100511.21, 0.000, 0.000, 0.000, 13:43:40.661
177, -34329.75, -36510.66, -62829.81, -100883.81, -85843.19, -23465.98, -92083.73, -100418.41, 0.000, 0.000, 0.000, 13:43:40.661
178, -34207.31, -36382.45, -62892.49, -100758.33, -85721.44, -23511.82, -91963.50, -100295.16, 0.000, 0.000, 0.000, 13:43:40.661
179, -34266.81, -36441.43, -62889.00, -100835.45, -85795.27, -23405.09, -92021.32, -100360.27, 0.000, 0.000, 0.000, 13:43:40.661
180, -34392.72, -36573.09, -62833.07, -100968.57, -85926.41, -23340.18, -92153.04, -100490.04, 0.000, 0.000, 0.000, 13:43:40.661
181, -34334.58, -36517.83, -62833.30, -100896.91, -85856.80, -23435.74, -92100.41, -100430.90, 0.000, 0.000, 0.000, 13:43:40.661
182, -34198.68, -36379.65, -62892.82, -100756.09, -85715.61, -23507.04, -91964.59, -100292.59, 0.000, 0.000, 0.000, 13:43:40.661
183, -34230.55, -36414.93, -62895.93, -100808.98, -85762.84, -23423.93, -91998.68, -100330.43, 0.000, 0.000, 0.000, 13:43:40.662
184, -34378.12, -36568.84, -62820.83, -100969.58, -85918.49, -23338.57, -92145.02, -100482.35, 0.130, 0.182, 0.968, 13:43:40.662
185, -34354.05, -36548.43, -62799.44, -100932.74, -85887.05, -23418.73, -92129.08, -100459.84, 0.000, 0.000, 0.000, 13:43:40.662
186, -34209.48, -36405.04, -62860.57, -100783.16, -85740.38, -23513.39, -91992.31, -100319.23, 0.000, 0.000, 0.000, 13:43:40.662
187, -34204.79, -36398.45, -62895.23, -100791.27, -85742.32, -23452.28, -91980.91, -100315.27, 0.000, 0.000, 0.000, 13:43:40.662
188, -34350.29, -36543.69, -62831.63, -100951.90, -85899.02, -23350.46, -92126.63, -100469.10, 0.000, 0.000, 0.000, 13:43:40.662
189, -34359.17, -36553.15, -62799.37, -100946.73, -85899.70, -23404.02, -92139.72, -100478.33, 0.000, 0.000, 0.000, 13:43:40.662
190, -34223.22, -36417.38, -62844.07, -100796.91, -85750.68, -23511.17, -92003.11, -100337.54, 0.000, 0.000, 0.000, 13:43:40.662
191, -34187.02, -36376.03, -62880.71, -100767.74, -85725.87, -23477.51, -91966.72, -100299.96, 0.000, 0.000, 0.000, 13:43:40.662
192, -34312.43, -36501.31, -62837.95, -100907.46, -85869.01, -23356.99, -92093.03, -100430.56, 0.000, 0.000, 0.000, 13:43:40.663
193, -34363.05, -36552.19, -62806.21, -100947.54, -85906.18, -23376.26, -92139.74, -100477.97, 0.000, 0.000, 0.000, 13:43:40.663
194, -34239.83, -36426.21, -62849.71, -100807.13, -85767.69, -23490.90, -92016.52, -100348.02, 0.122, 0.188, 0.976, 13:43:40.663
195, -34163.88, -36349.28, -62898.54, -100738.21, -85697.86, -23482.56, -91941.23, -100272.20, 0.000, 0.000, 0.000, 13:43:40.663
196, -34286.55, -36474.54, -62851.18, -100878.47, -85836.30, -23368.17, -92059.32, -100399.88, 0.000, 0.000, 0.000, 13:43:40.663
197, -34384.43, -36576.01, -62787.93, -100969.29, -85929.13, -23363.99, -92157.27, -100496.75, 0.000, 0.000, 0.000, 13:43:40.663
198, -34263.37, -36455.87, -62826.59, -100832.78, -85795.67, -23475.52, -92042.34, -100373.97, 0.000, 0.000, 0.000, 13:43:40.663
199, -34158.65, -36349.68, -62897.34, -100731.44, -85690.73, -23496.89, -91937.84, -100269.70, 0.000, 0.000, 0.000, 13:43:40.663
200, -34259.25, -36448.68, -62877.24, -100848.84, -85800.30, -23387.90, -92028.07, -100370.55, 0.000, 0.000, 0.000, 13:43:40.663
201, -34381.03, -36570.52, -62817.25, -100970.74, -85916.33, -23347.89, -92145.87, -100489.30, 0.000, 0.000, 0.000, 13:43:40.663
202, -34302.26, -36492.82, -62828.94, -100872.57, -85822.67, -23455.07, -92069.38, -100404.34, 0.000, 0.000, 0.000, 13:43:40.664
203, -34186.10, -36375.38, -62884.15, -100754.55, -85705.46, -23512.27, -91954.94, -100288.50, 0.000, 0.000, 0.000, 13:43:40.664
204, -34239.50, -36429.97, -62873.49, -100826.41, -85779.27, -23414.81, -92012.34, -100349.88, 0.130, 0.188, 0.972, 13:43:40.664
205, -34375.93, -36564.23, -62815.71, -100964.73, -85916.34, -23340.56, -92144.80, -100482.42, 0.000, 0.000, 0.000, 13:43:40.664
206, -34323.92, -36512.40, -62824.70, -100896.24, -85853.80, -23432.09, -92098.28, -100426.18, 0.000, 0.000, 0.000, 13:43:40.664
207, -34186.37, -36372.97, -62890.70, -100750.75, -85709.88, -23510.01, -91960.23, -100287.55, 0.000, 0.000, 0.000, 13:43:40.664
208, -34215.16, -36397.13, -62904.00, -100792.23, -85747.21, -23429.46, -91981.52, -100316.99, 0.000, 0.000, 0.000, 13:43:40.664
209, -34371.84, -36555.27, -62825.52, -100963.74, -85912.08, -23342.35, -92135.74, -100478.33, 0.000, 0.000, 0.000, 13:43:40.664
210, -34364.98, -36550.22, -62803.93, -100941.80, -85890.62, -23422.57, -92132.50, -100464.29, 0.000, 0.000, 0.000, 13:43:41.130
211, -34212.56, -36393.42, -62881.09, -100774.11, -85724.77, -23514.50, -91977.52, -100305.04, 0.000, 0.000, 0.000, 13:43:41.130
212, -34202.59, -36379.50, -62913.70, -100777.69, -85721.15, -23455.45, -91959.08, -100296.88, 0.000, 0.000, 0.000, 13:43:41.130
213, -34360.75, -36536.29, -62845.26, -100947.91, -85888.05, -23352.56, -92113.52, -100457.27, 0.140, 0.186, 0.962, 13:43:41.131
214, -34395.69, -36571.79, -62807.82, -100971.23, -85912.19, -23404.89, -92149.69, -100486.76, 0.000, 0.000, 0.000, 13:43:41.131
215, -34251.30, -36426.91, -62871.23, -100810.77, -85753.23, -23510.14, -92005.68, -100334.95, 0.000, 0.000, 0.000, 13:43:41.131
216, -34196.47, -36372.57, -62923.27, -100765.17, -85708.70, -23474.61, -91950.98, -100283.22, 0.000, 0.000, 0.000, 13:43:41.131
217, -34326.94, -36501.27, -62878.67, -100909.80, -85850.30, -23355.87, -92078.99, -100415.19, 0.000, 0.000, 0.000, 13:43:41.131
218, -34386.50, -36563.63, -62840.36, -100960.44, -85901.46, -23371.03, -92138.27, -100471.52, 0.000, 0.000, 0.000, 13:43:41.131
219, -34267.57, -36441.99, -62876.33, -100822.44, -85765.90, -23485.71, -92017.70, -100347.86, 0.000, 0.000, 0.000, 13:43:41.131
220, -34197.27, -36370.40, -62920.94, -100756.74, -85699.58, -23492.55, -91945.98, -100279.66, 0.000, 0.000, 0.000, 13:43:41.131
221, -34313.82, -36492.86, -62873.98, -100892.33, -85831.57, -23384.24, -92063.34, -100403.90, 0.000, 0.000, 0.000, 13:43:41.131
222, -34406.42, -36584.80, -62823.18, -100981.63, -85920.04, -23365.98, -92156.71, -100494.49, 0.000, 0.000, 0.000, 13:43:41.131
223, -34300.16, -36475.61, -62853.19, -100855.85, -85799.34, -23475.84, -92052.26, -100382.44, 0.142, 0.186, 0.966, 13:43:41.132
224, -34189.59, -36364.61, -62924.54, -100746.44, -85688.52, -23504.36, -91939.90, -100270.64, 0.000, 0.000, 0.000, 13:43:41.132
225, -34280.47, -36457.62, -62895.30, -100856.59, -85797.08, -23398.32, -92029.86, -100368.31, 0.000, 0.000, 0.000, 13:43:41.132
226, -34403.94, -36577.11, -62830.91, -100975.55, -85921.73, -23352.03, -92153.55, -100491.77, 0.000, 0.000, 0.000, 13:43:41.132
227, -34336.35, -36511.51, -62826.59, -100891.70, -85839.10, -23459.36, -92086.14, -100421.83, 0.000, 0.000, 0.000, 13:43:41.132
228, -34205.07, -36375.09, -62896.64, -100754.11, -85704.05, -23519.89, -91956.39, -100287.54, 0.000, 0.000, 0.000, 13:43:41.132
229, -34258.05, -36428.34, -62893.94, -100824.67, -85774.44, -23425.61, -92009.92, -100348.91, 0.000, 0.000, 0.000, 13:43:41.132
230, -34408.59, -36580.46, -62816.83, -100980.35, -85930.02, -23352.90, -92155.03, -100499.01, 0.000, 0.000, 0.000, 13:43:41.132
231, -34368.78, -36542.66, -62806.95, -100924.09, -85874.55, -23444.79, -92116.52, -100454.10, 0.000, 0.000, 0.000, 13:43:41.132
232, -34229.89, -36401.85, -62875.12, -100774.73, -85723.25, -23527.31, -91976.58, -100311.20, 0.144, 0.182, 0.968, 13:43:41.133
233, -34243.90, -36412.00, -62893.27, -100801.00, -85751.30, -23452.70, -91989.48, -100328.46, 0.000, 0.000, 0.000, 13:43:41.133
234, -34390.08, -36559.65, -62836.47, -100957.40, -85906.65, -23351.85, -92131.95, -100474.58, 0.000, 0.000, 0.000, 13:43:41.133
235, -34390.62, -36561.93, -62815.53, -100943.18, -85898.84, -23421.41, -92137.58, -100471.98, 0.000, 0.000, 0.000, 13:43:41.133
236, -34245.15, -36418.43, -62879.05, -100788.05, -85742.77, -23519.82, -91993.01, -100325.96, 0.000, 0.000, 0.000, 13:43:41.133
237, -34221.77, -36390.07, -62918.86, -100774.31, -85727.48, -23466.54, -91964.84, -100301.80, 0.000, 0.000, 0.000, 13:43:41.133
238, -34364.33, -36532.72, -62859.45, -100931.45, -85885.26, -23354.69, -92108.98, -100449.52, 0.000, 0.000, 0.000, 13:43:41.133
239, -34407.18, -36575.41, -62816.76, -100960.34, -85917.58, -23394.43, -92152.02, -100489.13, 0.000, 0.000, 0.000, 13:43:41.133
240, -34272.78, -36436.85, -62862.09, -100805.45, -85766.16, -23506.84, -92017.41, -100346.30, 0.000, 0.000, 0.000, 13:43:41.133
241, -34207.38, -36369.46, -62915.60, -100750.10, -85708.59, -23481.87, -91952.10, -100283.52, 0.000, 0.000, 0.000, 13:43:41.133
242, -34330.51, -36498.12, -62872.64, -100892.06, -85848.29, -23363.50, -92075.15, -100411.84, 0.142, 0.188, 0.978, 13:43:41.134
243, -34398.98, -36574.43, -62826.26, -100957.88, -85909.95, -23371.05, -92142.47, -100482.42, 0.000, 0.000, 0.000, 13:43:41.134
244, -34273.58, -36447.18, -62865.96, -100815.23, -85771.84, -23485.87, -92021.77, -100355.13, 0.000, 0.000, 0.000, 13:43:41.134
245, -34183.80, -36353.25, -62928.47, -100730.19, -85687.91, -23494.70, -91933.33, -100268.49, 0.000, 0.000, 0.000, 13:43:41.134
246, -34297.54, -36465.02, -62889.89, -100860.50, -85817.53, -23381.29, -92045.20, -100385.19, 0.000, 0.000, 0.000, 13:43:41.134
247, -34411.89, -36575.30, -62827.87, -100971.12, -85929.63, -23361.17, -92158.66, -100497.04, 0.000, 0.000, 0.000, 13:43:41.134
248, -34327.09, -36488.06, -62834.35, -100866.87, -85824.86, -23475.97, -92070.05, -100404.01, 0.000, 0.000, 0.000, 13:43:41.135
249, -34206.97, -36364.41, -62897.61, -100742.98, -85701.59, -23511.31, -91948.75, -100281.12, 0.000, 0.000, 0.000, 13:43:41.135
250, -34279.66, -36441.63, -62891.28, -100830.19, -85784.98, -23403.73, -92015.36, -100353.67, 0.000, 0.000, 0.000, 13:43:41.135
251, -34416.66, -36579.41, -62834.53, -100969.84, -85921.80, -23348.54, -92146.72, -100487.70, 0.000, 0.000, 0.000, 13:43:41.135
252, -34352.20, -36516.04, -62830.30, -100888.26, -85841.36, -23446.98, -92082.41, -100419.61, 0.136, 0.186, 0.978, 13:43:41.135
253, -34223.80, -36388.53, -62889.49, -100755.65, -85710.80, -23515.24, -91956.26, -100290.87, 0.000, 0.000, 0.000, 13:43:41.135
254, -34266.56, -36433.75, -62889.89, -100817.74, -85769.25, -23429.28, -91999.55, -100339.66, 0.000, 0.000, 0.000, 13:43:41.136
255, -34405.91, -36574.98, -62835.71, -100963.52, -85912.81, -23345.73, -92135.09, -100480.34, 0.000, 0.000, 0.000, 13:43:41.136
0, -34368.18, -36536.25, -62830.53, -100910.16, -85861.59, -23426.77, -92100.85, -100441.16, 0.000, 0.000, 0.000, 13:43:41.136
1, -34212.34, -36375.96, -62910.41, -100740.78, -85699.13, -23507.26, -91948.77, -100284.23, 0.000, 0.000, 0.000, 13:43:41.136
2, -34217.52, -36379.68, -62937.35, -100760.77, -85715.90, -23434.26, -91951.07, -100291.94, 0.000, 0.000, 0.000, 13:43:41.136
3, -34380.91, -36546.02, -62853.33, -100940.63, -85894.24, -23336.38, -92116.16, -100461.39, 0.000, 0.000, 0.000, 13:43:41.136
4, -34390.57, -36556.52, -62821.86, -100937.05, -85896.50, -23402.37, -92132.03, -100467.96, 0.000, 0.000, 0.000, 13:43:41.136
5, -34243.86, -36408.29, -62891.41, -100774.96, -85738.05, -23505.67, -91986.41, -100313.66, 0.138, 0.180, 0.976, 13:43:41.136
6, -34217.10, -36383.36, -62922.39, -100761.80, -85722.71, -23461.46, -91958.63, -100292.07, 0.000, 0.000, 0.000, 13:43:41.136
7, -34355.39, -36524.18, -62861.35, -100914.39, -85874.30, -23349.73, -92097.27, -100437.13, 0.000, 0.000, 0.000, 13:43:41.137
8, -34403.51, -36571.52, -62818.28, -100952.01, -85911.66, -23384.10, -92146.27, -100484.50, 0.000, 0.000, 0.000, 13:43:41.137
9, -34260.39, -36431.55, -62874.09, -100795.75, -85759.57, -23495.39, -92011.06, -100341.73, 0.000, 0.000, 0.000, 13:43:41.137
10, -34205.05, -36373.98, -62912.49, -100747.83, -85706.51, -23481.58, -91947.56, -100285.61, 0.000, 0.000, 0.000, 13:43:41.137
11, -34334.58, -36499.04, -62862.31, -100894.63, -85851.21, -23369.91, -92074.25, -100418.72, 0.000, 0.000, 0.000, 13:43:41.137
12, -34420.14, -36581.64, -62809.16, -100971.12, -85930.98, -23376.04, -92160.82, -100502.07, 0.000, 0.000, 0.000, 13:43:41.137
13, -34307.63, -36469.21, -62842.15, -100839.51, -85802.33, -23490.45, -92046.29, -100383.02, 0.000, 0.000, 0.000, 13:43:41.137
14, -34205.07, -36363.79, -62907.35, -100741.92, -85701.37, -23504.04, -91944.23, -100282.04, 0.000, 0.000, 0.000, 13:43:41.137
15, -34302.24, -36458.46, -62885.67, -100853.62, -85808.32, -23390.09, -92034.69, -100379.73, 0.136, 0.182, 0.972, 13:43:41.137
16, -34415.11, -36573.13, -62829.70, -100966.00, -85918.78, -23357.66, -92144.98, -100490.34, 0.000, 0.000, 0.000, 13:43:41.138
17, -34326.27, -36488.93, -62846.89, -100860.81, -85818.20, -23467.74, -92060.73, -100397.70, 0.000, 0.000, 0.000, 13:43:41.138
18, -34205.52, -36368.97, -62903.89, -100740.25, -85696.95, -23511.87, -91943.77, -100279.84, 0.000, 0.000, 0.000, 13:43:41.138
19, -34263.19, -36431.69, -62892.04, -100819.46, -85772.67, -23410.39, -92004.29, -100348.49, 0.000, 0.000, 0.000, 13:43:41.138
20, -34391.64, -36561.95, -62832.79, -100951.36, -85908.97, -23347.31, -92136.44, -100482.06, 0.000, 0.000, 0.000, 13:43:41.138
21, -34337.91, -36506.28, -62828.89, -100878.49, -85844.20, -23446.31, -92088.20, -100426.48, 0.000, 0.000, 0.000, 13:43:41.138
22, -34199.98, -36363.43, -62900.62, -100733.43, -85699.80, -23516.65, -91950.73, -100284.61, 0.000, 0.000, 0.000, 13:43:41.138
23, -34235.74, -36398.92, -62905.45, -100788.28, -85749.52, -23432.43, -91983.48, -100325.98, 0.000, 0.000, 0.000, 13:43:41.138
24, -34390.39, -36552.75, -62836.27, -100953.41, -85912.97, -23349.23, -92134.49, -100482.91, 0.138, 0.180, 0.970, 13:43:41.138
25, -34374.79, -36539.76, -62816.87, -100925.25, -85887.63, -23434.98, -92124.99, -100463.91, 0.000, 0.000, 0.000, 13:43:41.138
26, -34232.68, -36398.92, -62882.83, -100775.36, -85737.63, -23527.63, -91987.20, -100318.27, 0.000, 0.000, 0.000, 13:43:41.139
27, -34237.04, -36406.52, -62898.19, -100793.11, -85749.36, -23468.68, -91982.59, -100323.59, 0.000, 0.000, 0.000, 13:43:41.139
28, -34371.26, -36540.72, -62856.66, -100936.85, -85891.63, -23362.09, -92113.62, -100458.95, 0.000, 0.000, 0.000, 13:43:41.139
29, -34393.90, -36567.61, -62823.93, -100946.24, -85900.37, -23414.37, -92135.77, -100478.91, 0.000, 0.000, 0.000, 13:43:41.139
30, -34258.83, -36433.10, -62874.61, -100797.52, -85750.38, -23526.64, -91999.98, -100339.80, 0.000, 0.000, 0.000, 13:43:41.139
31, -34218.78, -36393.31, -62907.84, -100772.19, -85720.26, -23487.37, -91958.27, -100303.90, 0.000, 0.000, 0.000, 13:43:41.139
32, -34356.17, -36534.53, -62843.00, -100925.23, -85872.52, -23371.63, -92092.18, -100446.63, 0.000, 0.000, 0.000, 13:43:41.139
33, -34410.64, -36588.57, -62798.50, -100970.59, -85921.98, -23394.23, -92151.48, -100499.61, 0.000, 0.000, 0.000, 13:43:41.139
34, -34286.30, -36461.77, -62837.70, -100825.52, -85782.46, -23507.51, -92028.23, -100365.19, 0.142, 0.178, 0.976, 13:43:41.139
35, -34209.39, -36376.73, -62907.86, -100749.86, -85704.59, -23496.76, -91941.23, -100281.95, 0.000, 0.000, 0.000, 13:43:41.139
36, -34328.25, -36494.12, -62876.55, -100883.97, -85839.08, -23380.68, -92057.98, -100406.00, 0.000, 0.000, 0.000, 13:43:41.139
37, -34414.71, -36583.14, -62831.02, -100965.77, -85921.42, -23372.68, -92148.77, -100493.30, 0.000, 0.000, 0.000, 13:43:41.140
38, -34315.92, -36483.90, -62849.37, -100849.08, -85808.23, -23488.02, -92052.05, -100390.06, 0.000, 0.000, 0.000, 13:43:41.140
39, -34218.24, -36384.21, -62907.48, -100751.38, -85710.16, -23515.13, -91953.76, -100289.62, 0.000, 0.000, 0.000, 13:43:41.140
40, -34307.31, -36469.15, -62882.23, -100856.03, -85817.38, -23404.69, -92044.16, -100386.17, 0.000, 0.000, 0.000, 13:43:41.140
41, -34427.21, -36590.79, -62817.81, -100976.46, -85936.20, -23363.94, -92162.81, -100507.90, 0.000, 0.000, 0.000, 13:43:41.140
42, -34338.07, -36501.22, -62838.62, -100868.28, -85834.07, -23467.19, -92078.25, -100415.79, 0.000, 0.000, 0.000, 13:43:41.140
43, -34215.54, -36375.38, -62909.90, -100744.20, -85709.73, -23517.23, -91957.78, -100291.65, 0.144, 0.176, 0.968, 13:43:41.140
44, -34281.90, -36442.04, -62894.43, -100832.05, -85790.95, -23420.89, -92023.41, -100362.50, 0.000, 0.000, 0.000, 13:43:41.140
45, -34416.34, -36580.02, -62832.56, -100969.46, -85931.26, -23351.85, -92157.09, -100498.94, 0.000, 0.000, 0.000, 13:43:41.140
46, -34369.63, -36536.85, -62820.85, -100905.16, -85871.58, -23447.02, -92113.95, -100450.77, 0.000, 0.000, 0.000, 13:43:41.140
47, -34227.58, -36390.34, -62896.11, -100755.49, -85719.01, -23525.41, -91969.52, -100305.30, 0.000, 0.000, 0.000, 13:43:41.140
48, -34256.86, -36419.13, -62898.99, -100800.30, -85763.44, -23444.83, -91998.37, -100338.97, 0.000, 0.000, 0.000, 13:43:41.141
49, -34404.12, -36569.51, -62820.20, -100954.65, -85923.55, -23353.08, -92147.55, -100489.77, 0.000, 0.000, 0.000, 13:43:41.141
50, -34390.62, -36559.50, -62801.38, -100925.48, -85900.10, -23427.51, -92137.93, -100471.40, 0.000, 0.000, 0.000, 13:43:41.141
51, -34248.46, -36414.39, -62857.30, -100772.59, -85745.11, -23521.37, -91992.18, -100327.14, 0.000, 0.000, 0.000, 13:43:41.141
52, -34232.05, -36397.56, -62888.53, -100772.21, -85740.77, -23465.04, -91975.52, -100316.81, 0.000, 0.000, 0.000, 13:43:41.141
53, -34367.21, -36535.63, -62843.80, -100925.07, -85890.91, -23355.02, -92109.99, -100458.77, 0.156, 0.178, 0.970, 13:43:41.141
54, -34394.95, -36564.91, -62815.91, -100939.13, -85904.45, -23401.74, -92135.16, -100480.85, 0.000, 0.000, 0.000, 13:43:41.141
55, -34262.92, -36433.36, -62866.45, -100791.32, -85757.09, -23508.49, -92000.20, -100341.65, 0.000, 0.000, 0.000, 13:43:41.141
56, -34226.31, -36392.30, -62891.73, -100761.37, -85728.52, -23483.17, -91963.39, -100306.89, 0.000, 0.000, 0.000, 13:43:41.141
57, -34356.84, -36523.62, -62838.13, -100905.59, -85867.17, -23369.49, -92085.63, -100437.60, 0.000, 0.000, 0.000, 13:43:41.142
58, -34413.26, -36580.66, -62795.61, -100952.37, -85916.02, -23381.62, -92143.21, -100489.88, 0.000, 0.000, 0.000, 13:43:41.142
59, -34291.42, -36458.55, -62832.94, -100818.48, -85783.40, -23498.41, -92027.88, -100367.42, 0.000, 0.000, 0.000, 13:43:41.142
60, -34208.20, -36371.52, -62890.16, -100741.66, -85706.30, -23497.20, -91944.57, -100284.38, 0.000, 0.000, 0.000, 13:43:41.142
61, -34321.73, -36487.25, -62845.14, -100873.28, -85833.36, -23376.64, -92052.80, -100397.82, 0.000, 0.000, 0.000, 13:43:41.142
62, -34423.85, -36590.77, -62777.15, -100971.34, -85935.05, -23362.31, -92160.11, -100499.50, 0.000, 0.000, 0.000, 13:43:41.142
63, -34318.64, -36485.55, -62801.65, -100849.26, -85817.02, -23475.08, -92060.71, -100393.41, 0.164, 0.190, 0.966, 13:43:41.142
64, -34213.97, -36378.89, -62861.20, -100744.00, -85711.36, -23507.11, -91955.01, -100287.83, 0.000, 0.000, 0.000, 13:43:41.142
65, -34298.84, -36461.21, -62834.73, -100845.73, -85810.31, -23396.75, -92036.30, -100377.03, 0.000, 0.000, 0.000, 13:43:41.142
66, -34420.07, -36582.20, -62766.54, -100968.99, -85933.45, -23349.39, -92159.23, -100499.20, 0.000, 0.000, 0.000, 13:43:41.142
67, -34343.48, -36507.75, -62765.51, -100879.66, -85845.88, -23455.99, -92090.84, -100422.61, 0.000, 0.000, 0.000, 13:43:41.142
68, -34206.44, -36364.01, -62839.56, -100736.09, -85698.71, -23514.01, -91944.70, -100281.73, 0.000, 0.000, 0.000, 13:43:41.143
69, -34256.33, -36414.77, -62833.79, -100804.45, -85765.25, -23418.86, -91992.05, -100337.54, 0.000, 0.000, 0.000, 13:43:41.143
70, -34401.05, -36565.35, -62757.75, -100959.18, -85919.63, -23347.71, -92140.19, -100487.38, 0.000, 0.000, 0.000, 13:43:41.143
71, -34354.52, -36518.79, -62757.59, -100896.02, -85857.23, -23436.68, -92096.56, -100438.52, 0.000, 0.000, 0.000, 13:43:41.143
72, -34210.17, -36374.27, -62831.73, -100745.05, -85710.13, -23513.95, -91958.52, -100295.90, 0.160, 0.202, 0.968, 13:43:41.143
73, -34234.18, -36399.46, -62840.70, -100786.11, -85754.07, -23444.65, -91989.92, -100330.32, 0.000, 0.000, 0.000, 13:43:41.143
74, -34375.55, -36545.68, -62775.97, -100938.48, -85903.18, -23350.22, -92127.98, -100476.50, 0.000, 0.000, 0.000, 13:43:41.143
75, -34370.81, -36541.14, -62759.32, -100919.84, -85888.12, -23416.49, -92125.82, -100467.34, 0.000, 0.000, 0.000, 13:43:41.611
76, -34233.57, -36400.51, -62810.84, -100771.41, -85740.82, -23517.07, -91989.79, -100327.10, 0.000, 0.000, 0.000, 13:43:41.611
77, -34224.03, -36388.30, -62843.40, -100770.35, -85735.48, -23472.50, -91973.27, -100313.48, 0.000, 0.000, 0.000, 13:43:41.611
78, -34362.09, -36525.45, -62789.33, -100921.68, -85883.09, -23361.82, -92108.30, -100451.69, 0.000, 0.000, 0.000, 13:43:41.611
79, -34395.04, -36563.63, -62756.90, -100950.20, -85910.24, -23400.91, -92147.50, -100486.38, 0.000, 0.000, 0.000, 13:43:41.612
80, -34260.44, -36430.04, -62814.23, -100800.77, -85761.12, -23512.63, -92014.71, -100345.13, 0.000, 0.000, 0.000, 13:43:41.612
81, -34192.11, -36361.35, -62880.42, -100741.92, -85699.73, -23483.35, -91945.84, -100279.09, 0.000, 0.000, 0.000, 13:43:41.612
82, -34323.54, -36493.51, -62824.20, -100890.20, -85846.59, -23367.74, -92074.03, -100415.45, 0.160, 0.200, 0.966, 13:43:41.612
83, -34398.08, -36570.34, -62771.77, -100957.48, -85917.45, -23378.83, -92151.14, -100489.69, 0.000, 0.000, 0.000, 13:43:41.612
84, -34287.82, -36454.80, -62804.76, -100826.62, -85788.61, -23497.20, -92040.73, -100372.83, 0.000, 0.000, 0.000, 13:43:41.613
85, -34201.48, -36366.67, -62869.46, -100745.30, -85700.99, -23506.23, -91948.75, -100284.45, 0.000, 0.000, 0.000, 13:43:41.613
86, -34314.00, -36478.61, -62823.84, -100877.53, -85831.63, -23398.07, -92060.57, -100403.54, 0.000, 0.000, 0.000, 13:43:41.613
87, -34424.17, -36588.42, -62760.63, -100983.84, -85940.15, -23378.07, -92170.30, -100511.45, 0.000, 0.000, 0.000, 13:43:41.613
88, -34323.49, -36488.80, -62781.04, -100865.10, -85826.65, -23489.96, -92076.13, -100407.30, 0.000, 0.000, 0.000, 13:43:41.613
89, -34201.16, -36363.18, -62860.19, -100743.20, -85707.05, -23523.47, -91956.57, -100285.03, 0.000, 0.000, 0.000, 13:43:41.613
90, -34282.19, -36450.64, -62831.67, -100846.02, -85803.90, -23416.45, -92031.52, -100372.94, 0.000, 0.000, 0.000, 13:43:41.613
91, -34408.95, -36580.66, -62758.29, -100974.12, -85935.21, -23362.40, -92163.48, -100504.41, 0.156, 0.196, 0.964, 13:43:41.614
92, -34339.12, -36508.06, -62775.12, -100881.38, -85848.17, -23464.82, -92095.09, -100428.20, 0.000, 0.000, 0.000, 13:43:41.614
93, -34203.40, -36367.29, -62845.59, -100741.99, -85707.07, -23524.81, -91957.82, -100292.03, 0.000, 0.000, 0.000, 13:43:41.614
94, -34245.53, -36406.09, -62846.11, -100799.70, -85758.79, -23431.20, -91994.05, -100335.77, 0.000, 0.000, 0.000, 13:43:41.614
95, -34387.73, -36550.20, -62780.53, -100953.23, -85910.31, -23350.35, -92138.38, -100484.59, 0.000, 0.000, 0.000, 13:43:41.614
96, -34367.68, -36532.56, -62756.28, -100918.93, -85879.22, -23440.81, -92124.08, -100462.68, 0.000, 0.000, 0.000, 13:43:41.614
97, -34220.14, -36382.36, -62831.29, -100760.68, -85722.52, -23527.15, -91980.38, -100310.09, 0.000, 0.000, 0.000, 13:43:41.614
98, -34229.04, -36387.99, -62860.57, -100781.04, -85740.26, -23455.63, -91980.22, -100318.85, 0.000, 0.000, 0.000, 13:43:41.614
99, -34374.64, -36537.66, -62792.17, -100942.04, -85904.10, -23356.54, -92132.57, -100473.48, 0.000, 0.000, 0.000, 13:43:41.614
100, -34375.08, -36541.61, -62763.79, -100930.38, -85896.95, -23415.75, -92139.85, -100472.45, 0.000, 0.000, 0.000, 13:43:41.615
101, -34230.78, -36396.86, -62826.95, -100772.52, -85743.28, -23517.25, -91998.13, -100326.34, 0.158, 0.190, 0.962, 13:43:41.615
102, -34194.95, -36360.83, -62874.76, -100749.16, -85717.71, -23472.01, -91961.94, -100296.72, 0.000, 0.000, 0.000, 13:43:41.615
103, -34343.01, -36506.86, -62811.21, -100908.09, -85876.49, -23357.19, -92102.73, -100444.31, 0.000, 0.000, 0.000, 13:43:41.615
104, -34399.91, -36560.70, -62765.66, -100948.34, -85919.16, -23394.50, -92156.53, -100491.79, 0.000, 0.000, 0.000, 13:43:41.615
105, -34276.22, -36432.79, -62810.41, -100806.19, -85776.47, -23510.46, -92030.11, -100359.20, 0.000, 0.000, 0.000, 13:43:41.615
106, -34207.64, -36364.43, -62863.43, -100744.02, -85710.24, -23493.40, -91957.98, -100291.31, 0.000, 0.000, 0.000, 13:43:41.615
107, -34328.75, -36484.55, -62812.63, -100880.80, -85847.21, -23375.63, -92078.81, -100416.41, 0.000, 0.000, 0.000, 13:43:41.615
108, -34411.85, -36571.50, -62754.91, -100958.31, -85928.20, -23380.37, -92165.05, -100499.45, 0.000, 0.000, 0.000, 13:43:41.615
109, -34294.37, -36452.72, -62792.17, -100821.70, -85792.88, -23494.88, -92048.34, -100377.28, 0.000, 0.000, 0.000, 13:43:41.616
110, -34204.18, -36355.29, -62859.38, -100732.09, -85700.77, -23509.18, -91951.25, -100283.60, 0.166, 0.188, 0.966, 13:43:41.616
111, -34311.58, -36464.19, -62813.68, -100859.31, -85826.88, -23399.17, -92058.65, -100397.15, 0.000, 0.000, 0.000, 13:43:41.617
112, -34418.49, -36574.16, -62756.79, -100963.59, -85934.50, -23365.48, -92168.55, -100502.23, 0.000, 0.000, 0.000, 13:43:41.617
113, -34334.20, -36486.14, -62764.50, -100860.86, -85834.88, -23473.35, -92085.72, -100412.37, 0.000, 0.000, 0.000, 13:43:41.617
114, -34215.94, -36364.12, -62826.88, -100740.34, -85712.16, -23520.67, -91961.65, -100291.72, 0.000, 0.000, 0.000, 13:43:41.617
115, -34281.59, -36433.77, -62808.67, -100824.23, -85792.36, -23419.55, -92022.82, -100362.52, 0.000, 0.000, 0.000, 13:43:41.617
116, -34409.95, -36560.93, -62743.69, -100954.96, -85925.16, -23357.93, -92154.48, -100492.41, 0.000, 0.000, 0.000, 13:43:41.617
117, -34353.45, -36504.31, -62747.65, -100878.16, -85854.52, -23452.84, -92100.45, -100426.98, 0.000, 0.000, 0.000, 13:43:41.618
118, -34214.20, -36365.19, -62821.07, -100735.42, -85709.66, -23522.13, -91961.22, -100287.94, 0.000, 0.000, 0.000, 13:43:41.618
119, -34245.09, -36396.11, -62825.32, -100781.87, -85759.20, -23435.85, -91994.05, -100327.92, 0.000, 0.000, 0.000, 13:43:41.618
120, -34390.73, -36539.56, -62758.89, -100931.98, -85915.77, -23351.31, -92139.74, -100476.50, 0.158, 0.184, 0.966, 13:43:41.618
121, -34365.56, -36515.24, -62752.39, -100889.60, -85875.45, -23429.97, -92117.33, -100446.55, 0.000, 0.000, 0.000, 13:43:41.618
122, -34220.45, -36370.73, -62824.80, -100737.41, -85721.15, -23518.10, -91974.99, -100301.04, 0.000, 0.000, 0.000, 13:43:41.618
123, -34227.54, -36376.84, -62836.94, -100766.04, -85743.39, -23459.41, -91983.04, -100318.42, 0.000, 0.000, 0.000, 13:43:41.618
124, -34374.66, -36523.51, -62771.96, -100922.75, -85898.51, -23357.64, -92126.65, -100467.00, 0.000, 0.000, 0.000, 13:43:41.619
125, -34379.86, -36527.36, -62758.78, -100910.34, -85888.16, -23407.13, -92130.55, -100465.88, 0.000, 0.000, 0.000, 13:43:41.619
126, -34242.71, -36389.80, -62816.34, -100760.16, -85741.83, -23507.31, -91998.03, -100325.96, 0.000, 0.000, 0.000, 13:43:41.619
127, -34214.80, -36362.53, -62840.36, -100746.26, -85725.17, -23474.43, -91968.30, -100301.86, 0.000, 0.000, 0.000, 13:43:41.619
128, -34356.69, -36505.58, -62773.06, -100904.00, -85875.76, -23365.84, -92101.77, -100444.84, 0.000, 0.000, 0.000, 13:43:41.619
129, -34399.20, -36551.34, -62743.29, -100934.98, -85906.67, -23390.68, -92141.73, -100483.54, 0.000, 0.000, 0.000, 13:43:41.619
130, -34275.75, -36429.86, -62787.32, -100796.02, -85768.38, -23504.65, -92017.73, -100356.73, 0.152, 0.180, 0.966, 13:43:41.619
131, -34205.19, -36357.28, -62843.87, -100734.77, -85703.54, -23501.43, -91948.46, -100291.42, 0.000, 0.000, 0.000, 13:43:41.619
132, -34314.48, -36463.61, -62801.16, -100859.59, -85826.67, -23382.74, -92052.20, -100408.16, 0.000, 0.000, 0.000, 13:43:41.619
133, -34410.60, -36560.21, -62740.20, -100948.77, -85921.35, -23375.77, -92147.48, -100502.60, 0.000, 0.000, 0.000, 13:43:41.620
134, -34308.52, -36456.30, -62759.27, -100830.64, -85805.62, -23494.59, -92049.40, -100397.69, 0.000, 0.000, 0.000, 13:43:41.620
135, -34203.96, -36350.84, -62830.68, -100729.81, -85704.27, -23517.81, -91946.49, -100292.92, 0.000, 0.000, 0.000, 13:43:41.620
136, -34294.59, -36443.49, -62803.88, -100839.78, -85811.54, -23407.44, -92038.42, -100388.30, 0.000, 0.000, 0.000, 13:43:41.620
137, -34402.95, -36552.72, -62753.91, -100949.88, -85918.45, -23362.65, -92146.43, -100494.53, 0.000, 0.000, 0.000, 13:43:41.620
138, -34326.33, -36478.43, -62767.63, -100856.25, -85825.80, -23468.57, -92069.76, -100409.27, 0.000, 0.000, 0.000, 13:43:41.620
139, -34201.41, -36348.76, -62843.22, -100726.39, -85696.23, -23515.24, -91943.38, -100279.35, 0.144, 0.180, 0.972, 13:43:41.620
140, -34276.36, -36423.73, -62817.03, -100820.45, -85787.22, -23421.39, -92014.95, -100356.91, 0.000, 0.000, 0.000, 13:43:41.620
141, -34402.84, -36552.75, -62754.46, -100949.39, -85916.80, -23352.74, -92144.59, -100482.95, 0.000, 0.000, 0.000, 13:43:41.620
142, -34353.45, -36502.30, -62757.73, -100882.74, -85848.80, -23444.54, -92090.86, -100424.73, 0.000, 0.000, 0.000, 13:43:41.620
143, -34207.78, -36355.02, -62845.10, -100729.14, -85691.96, -23517.37, -91943.05, -100276.45, 0.000, 0.000, 0.000, 13:43:41.621
144, -34244.28, -36392.98, -62840.56, -100783.86, -85744.13, -23434.75, -91978.48, -100321.27, 0.000, 0.000, 0.000, 13:43:41.621
145, -34399.47, -36548.57, -62757.37, -100946.20, -85908.13, -23348.68, -92133.59, -100478.27, 0.000, 0.000, 0.000, 13:43:41.621
146, -34385.23, -36536.52, -62741.03, -100915.98, -85883.94, -23426.64, -92125.26, -100461.39, 0.000, 0.000, 0.000, 13:43:41.621
147, -34234.82, -36385.64, -62817.16, -100755.36, -85725.44, -23521.12, -91978.90, -100311.09, 0.000, 0.000, 0.000, 13:43:41.621
148, -34226.02, -36376.59, -62840.95, -100761.77, -85731.39, -23464.79, -91971.86, -100311.02, 0.000, 0.000, 0.000, 13:43:41.621
149, -34365.00, -36517.18, -62783.21, -100912.52, -85880.18, -23359.20, -92109.62, -100454.75, 0.148, 0.176, 0.970, 13:43:41.621
150, -34387.29, -36536.81, -62762.29, -100920.54, -85888.61, -23404.33, -92129.35, -100470.64, 0.000, 0.000, 0.000, 13:43:41.621
151, -34258.56, -36406.50, -62804.29, -100776.59, -85745.91, -23512.78, -91997.56, -100335.41, 0.000, 0.000, 0.000, 13:43:41.621
152, -34212.88, -36358.80, -62846.78, -100740.13, -85707.72, -23484.24, -91949.17, -100288.41, 0.000, 0.000, 0.000, 13:43:41.621
153, -34346.02, -36490.38, -62790.68, -100888.93, -85853.98, -23370.40, -92078.70, -100424.26, 0.000, 0.000, 0.000, 13:43:41.621
154, -34408.21, -36553.10, -62745.05, -100941.41, -85913.22, -23389.89, -92147.99, -100486.71, 0.000, 0.000, 0.000, 13:43:41.622
155, -34283.82, -36433.83, -62786.96, -100801.88, -85774.46, -23502.79, -92024.77, -100360.83, 0.000, 0.000, 0.000, 13:43:41.622
156, -34211.27, -36359.29, -62847.27, -100733.43, -85702.09, -23507.37, -91947.12, -100286.98, 0.000, 0.000, 0.000, 13:43:41.622
157, -34320.45, -36466.87, -62812.78, -100864.63, -85825.91, -23391.26, -92052.39, -100399.52, 0.000, 0.000, 0.000, 13:43:41.622
158, -34410.53, -36557.04, -62755.47, -100950.09, -85913.71, -23371.47, -92144.48, -100490.66, 0.156, 0.184, 0.970, 13:43:41.622
159, -34308.00, -36455.45, -62786.79, -100826.55, -85792.90, -23485.58, -92041.87, -100383.58, 0.000, 0.000, 0.000, 13:43:41.622
160, -34210.44, -36357.28, -62845.64, -100729.45, -85694.10, -23516.74, -91941.08, -100283.49, 0.000, 0.000, 0.000, 13:43:41.622
161, -34286.26, -36431.66, -62831.96, -100822.46, -85782.66, -23407.15, -92015.87, -100365.03, 0.000, 0.000, 0.000, 13:43:41.622
162, -34410.09, -36559.76, -62762.18, -100954.42, -85916.10, -23363.43, -92146.02, -100499.38, 0.000, 0.000, 0.000, 13:43:41.622
163, -34342.83, -36496.15, -62762.13, -100872.46, -85840.91, -23477.31, -92088.42, -100432.66, 0.000, 0.000, 0.000, 13:43:41.622
