%OpenBCI Raw EEG Data
%
%Sample Rate = 250.0 Hz
%First Column = SampleIndex
%5 Columns before Timestamp are Frequency Power factors DELTA THETA ALPHA BETA GAMMA
%Last Column = Timestamp 
%Other Columns = EEG data in microvolts followed by Accel Data (in G) interleaved with Aux Data
0.000000, 0.000000, 0.000000, 0.000000, 0.000000, 0.000000, 0.000000, 0.000000, 0.000, 0.000, 0.000,0.0,0.0,0.0,0.0,0.0, 14:39:54.658
42870.062500, 33858.554688, 116097.390625, 65742.828125, 91494.046875, 76013.742188, 87889.312500, 102781.789063, 0.294, 0.190, 0.924,0.0,0.0,0.0,0.0,0.0, 14:39:55.144
42937.117188, 33929.140625, 116057.671875, 65593.984375, 91531.218750, 75822.078125, 87868.367188, 102772.851563, 0.000, 0.000, 0.000,0.0,0.0,0.0,0.0,0.0, 14:39:55.145
43012.398438, 34004.804688, 116047.171875, 65034.207031, 91597.312500, 75572.500000, 87854.578125, 102814.242188, 0.000, 0.000, 0.000,0.0,0.0,0.0,0.0,0.0, 14:39:55.145
42957.480469, 33945.816406, 116095.898438, 65139.441406, 91567.585938, 75751.000000, 87878.875000, 102827.367188, 0.000, 0.000, 0.000,0.0,0.0,0.0,0.0,0.0, 14:39:55.146
42886.804688, 33875.765625, 116110.242188, 65680.398438, 91505.515625, 76008.757813, 87898.679688, 102796.164063, 0.000, 0.000, 0.000,0.0,0.0,0.0,0.0,0.0, 14:39:55.148
42927.285156, 33920.312500, 116065.453125, 65663.187500, 91527.687500, 75875.718750, 87880.304688, 102777.140625, 0.000, 0.000, 0.000,0.0,0.0,0.0,0.0,0.0, 14:39:55.148
43013.964844, 33995.750000, 116040.687500, 65100.527344, 91593.218750, 75588.750000, 87856.257813, 102806.554688, 0.314, 0.198, 0.916,0.0,0.0,0.0,0.0,0.0, 14:39:55.149
42969.976563, 33950.933594, 116082.328125, 65063.667969, 91575.695313, 75696.054688, 87870.117188, 102823.500000, 0.000, 0.000, 0.000,0.0,0.0,0.0,0.0,0.0, 14:39:55.149
42880.433594, 33860.699219, 116104.632813, 65604.960938, 91502.632813, 75980.593750, 87885.875000, 102793.187500, 0.000, 0.000, 0.000,0.0,0.0,0.0,0.0,0.0, 14:39:55.150
42905.355469, 33891.816406, 116064.851563, 65715.515625, 91510.539063, 75921.679688, 87877.867188, 102775.734375, 0.000, 0.000, 0.000,0.0,0.0,0.0,0.0,0.0, 14:39:55.151
42991.031250, 33983.613281, 116030.429688, 65178.445313, 91579.968750, 75621.179688, 87857.039063, 102799.046875, 0.000, 0.000, 0.000,0.0,0.0,0.0,0.0,0.0, 14:39:55.151
42972.769531, 33963.070313, 116063.820313, 64981.949219, 91587.078125, 75645.117188, 87868.101563, 102829.375000, 0.000, 0.000, 0.000,0.0,0.0,0.0,0.0,0.0, 14:39:55.152
42876.703125, 33864.613281, 116099.203125, 65482.718750, 91512.554688, 75945.992188, 87884.195313, 102804.476563, 0.000, 0.000, 0.000,0.0,0.0,0.0,0.0,0.0, 14:39:55.152
42880.078125, 33865.863281, 116073.742188, 65755.343750, 91497.335938, 75967.539063, 87878.828125, 102772.289063, 0.000, 0.000, 0.000,0.0,0.0,0.0,0.0,0.0, 14:39:55.153
42973.531250, 33963.050781, 116028.546875, 65283.675781, 91565.015625, 75667.734375, 87853.101563, 102789.945313, 0.000, 0.000, 0.000,0.0,0.0,0.0,0.0,0.0, 14:39:55.153
42981.597656, 33973.242188, 116053.453125, 64949.273438, 91590.468750, 75607.703125, 87856.367188, 102828.953125, 0.000, 0.000, 0.000,0.0,0.0,0.0,0.0,0.0, 14:39:55.154
42891.519531, 33879.031250, 116095.671875, 65369.687500, 91528.179688, 75896.398438, 87882.765625, 102815.203125, 0.322, 0.208, 0.910,0.0,0.0,0.0,0.0,0.0, 14:39:55.156
42868.207031, 33857.414063, 116082.484375, 65749.375000, 91498.117188, 75992.304688, 87885.851563, 102778.281250, 0.000, 0.000, 0.000,0.0,0.0,0.0,0.0,0.0, 14:39:55.156
42960.097656, 33956.343750, 116037.242188, 65371.742188, 91558.914063, 75720.867188, 87863.718750, 102791.023438, 0.000, 0.000, 0.000,0.0,0.0,0.0,0.0,0.0, 14:39:55.156
42996.617188, 33988.308594, 116045.695313, 64924.976563, 91600.421875, 75579.359375, 87858.804688, 102826.648438, 0.000, 0.000, 0.000,0.0,0.0,0.0,0.0,0.0, 14:39:55.157
42908.128906, 33893.937500, 116090.125000, 65255.109375, 91539.507813, 75838.750000, 87877.039063, 102812.898438, 0.000, 0.000, 0.000,0.0,0.0,0.0,0.0,0.0, 14:39:55.157
42865.750000, 33849.906250, 116085.882813, 65719.421875, 91495.656250, 76005.851563, 87884.687500, 102776.468750, 0.000, 0.000, 0.000,0.0,0.0,0.0,0.0,0.0, 14:39:55.157
42942.617188, 33932.203125, 116042.453125, 65462.246094, 91544.937500, 75778.757813, 87865.867188, 102781.632813, 0.000, 0.000, 0.000,0.0,0.0,0.0,0.0,0.0, 14:39:55.158
42992.707031, 33988.753906, 116039.343750, 64946.589844, 91598.359375, 75571.601563, 87856.367188, 102817.976563, 0.000, 0.000, 0.000,0.0,0.0,0.0,0.0,0.0, 14:39:55.158
42912.488281, 33909.203125, 116076.937500, 65142.054688, 91553.007813, 75786.937500, 87876.484375, 102821.085938, 0.000, 0.000, 0.000,0.0,0.0,0.0,0.0,0.0, 14:39:55.158
42845.519531, 33840.718750, 116081.296875, 65670.179688, 91491.992188, 76011.734375, 87885.398438, 102782.015625, 0.332, 0.216, 0.916,0.0,0.0,0.0,0.0,0.0, 14:39:55.159
42918.386719, 33910.636719, 116035.656250, 65546.398438, 91526.500000, 75834.031250, 87865.578125, 102773.203125, 0.000, 0.000, 0.000,0.0,0.0,0.0,0.0,0.0, 14:39:55.159
42996.707031, 33989.445313, 116028.101563, 64988.589844, 91597.578125, 75577.054688, 87852.656250, 102811.625000, 0.000, 0.000, 0.000,0.0,0.0,0.0,0.0,0.0, 14:39:55.159
42941.566406, 33935.402344, 116076.156250, 65052.761719, 91573.101563, 75734.617188, 87876.976563, 102826.648438, 0.000, 0.000, 0.000,0.0,0.0,0.0,0.0,0.0, 14:39:55.160
42866.597656, 33860.457031, 116096.343750, 65594.367188, 91505.890625, 75999.773438, 87892.421875, 102796.898438, 0.000, 0.000, 0.000,0.0,0.0,0.0,0.0,0.0, 14:39:55.160
42917.648438, 33907.347656, 116059.593750, 65619.914063, 91520.710938, 75890.250000, 87874.937500, 102777.453125, 0.000, 0.000, 0.000,0.0,0.0,0.0,0.0,0.0, 14:39:55.160
43003.613281, 33998.386719, 116036.867188, 65064.628906, 91591.453125, 75595.320313, 87853.171875, 102804.070313, 0.000, 0.000, 0.000,0.0,0.0,0.0,0.0,0.0, 14:39:55.161
42969.753906, 33961.394531, 116081.968750, 64989.035156, 91583.054688, 75678.218750, 87868.992188, 102825.820313, 0.000, 0.000, 0.000,0.0,0.0,0.0,0.0,0.0, 14:39:55.162
42887.609375, 33874.089844, 116110.046875, 65524.070313, 91512.484375, 75968.148438, 87887.656250, 102797.007813, 0.000, 0.000, 0.000,0.0,0.0,0.0,0.0,0.0, 14:39:55.162
42907.792969, 33894.718750, 116077.078125, 65683.125000, 91516.507813, 75930.351563, 87879.765625, 102774.390625, 0.000, 0.000, 0.000,0.0,0.0,0.0,0.0,0.0, 14:39:55.163
42998.988281, 33989.984375, 116043.679688, 65163.179688, 91591.414063, 75632.085938, 87857.398438, 102801.968750, 0.316, 0.216, 0.910,0.0,0.0,0.0,0.0,0.0, 14:39:55.163
42986.785156, 33979.433594, 116073.523438, 64920.550781, 91602.343750, 75635.328125, 87867.968750, 102834.179688, 0.000, 0.000, 0.000,0.0,0.0,0.0,0.0,0.0, 14:39:55.164
42894.160156, 33885.175781, 116118.851563, 65415.441406, 91532.312500, 75934.484375, 87892.289063, 102810.218750, 0.000, 0.000, 0.000,0.0,0.0,0.0,0.0,0.0, 14:39:55.164
42889.152344, 33875.007813, 116093.703125, 65712.359375, 91511.906250, 75972.726563, 87886.273438, 102775.507813, 0.000, 0.000, 0.000,0.0,0.0,0.0,0.0,0.0, 14:39:55.165
42979.722656, 33971.992188, 116050.078125, 65263.785156, 91575.984375, 75680.703125, 87859.968750, 102789.609375, 0.000, 0.000, 0.000,0.0,0.0,0.0,0.0,0.0, 14:39:55.165
42995.457031, 33989.156250, 116075.171875, 64910.847656, 91601.601563, 75601.914063, 87860.859375, 102827.382813, 0.000, 0.000, 0.000,0.0,0.0,0.0,0.0,0.0, 14:39:55.166
42903.882813, 33887.859375, 116119.273438, 65322.457031, 91533.609375, 75886.648438, 87882.562500, 102813.617188, 0.000, 0.000, 0.000,0.0,0.0,0.0,0.0,0.0, 14:39:55.166
42874.421875, 33860.523438, 116102.710938, 65728.367188, 91502.117188, 76003.390625, 87887.835938, 102780.023438, 0.000, 0.000, 0.000,0.0,0.0,0.0,0.0,0.0, 14:39:55.167
42959.203125, 33957.171875, 116052.734375, 65374.582031, 91567.179688, 75741.250000, 87869.554688, 102793.593750, 0.000, 0.000, 0.000,0.0,0.0,0.0,0.0,0.0, 14:39:55.168
42996.238281, 33993.984375, 116064.359375, 64916.750000, 91609.429688, 75582.531250, 87860.726563, 102828.281250, 0.000, 0.000, 0.000,0.0,0.0,0.0,0.0,0.0, 14:39:55.169
42917.000000, 33908.980469, 116105.726563, 65213.269531, 91552.921875, 75832.718750, 87885.132813, 102825.125000, 0.314, 0.218, 0.914,0.0,0.0,0.0,0.0,0.0, 14:39:55.170
42874.218750, 33863.250000, 116105.906250, 65702.437500, 91507.945313, 76019.421875, 87899.593750, 102791.109375, 0.000, 0.000, 0.000,0.0,0.0,0.0,0.0,0.0, 14:39:55.170
42947.332031, 33942.843750, 116058.570313, 65482.988281, 91549.500000, 75798.695313, 87872.726563, 102785.164063, 0.000, 0.000, 0.000,0.0,0.0,0.0,0.0,0.0, 14:39:55.170
43007.683594, 34008.667969, 116050.054688, 64937.605469, 91609.132813, 75569.929688, 87859.921875, 102824.593750, 0.000, 0.000, 0.000,0.0,0.0,0.0,0.0,0.0, 14:39:55.177
42942.750000, 33932.093750, 116094.867188, 65096.593750, 91571.562500, 75772.656250, 87882.968750, 102831.921875, 0.000, 0.000, 0.000,0.0,0.0,0.0,0.0,0.0, 14:39:55.178
42867.066406, 33855.000000, 116106.828125, 65645.750000, 91508.578125, 76012.398438, 87894.882813, 102792.226563, 0.000, 0.000, 0.000,0.0,0.0,0.0,0.0,0.0, 14:39:55.178
42922.769531, 33915.953125, 116055.484375, 65556.632813, 91538.570313, 75850.914063, 87873.820313, 102781.164063, 0.000, 0.000, 0.000,0.0,0.0,0.0,0.0,0.0, 14:39:55.178
42997.914063, 33994.566406, 116035.523438, 64987.894531, 91605.289063, 75578.710938, 87855.898438, 102816.921875, 0.000, 0.000, 0.000,0.0,0.0,0.0,0.0,0.0, 14:39:55.179
42947.757813, 33941.839844, 116079.023438, 65014.093750, 91578.710938, 75716.890625, 87871.406250, 102831.679688, 0.000, 0.000, 0.000,0.0,0.0,0.0,0.0,0.0, 14:39:55.179
42869.347656, 33863.359375, 116101.664063, 65567.585938, 91510.632813, 75995.015625, 87892.289063, 102800.250000, 0.326, 0.222, 0.914,0.0,0.0,0.0,0.0,0.0, 14:39:55.180
42908.285156, 33907.683594, 116061.250000, 65627.289063, 91524.828125, 75902.765625, 87878.945313, 102780.718750, 0.000, 0.000, 0.000,0.0,0.0,0.0,0.0,0.0, 14:39:55.180
43000.710938, 33999.347656, 116035.164063, 65075.449219, 91596.484375, 75607.429688, 87857.820313, 102810.328125, 0.000, 0.000, 0.000,0.0,0.0,0.0,0.0,0.0, 14:39:55.180
42967.023438, 33965.082031, 116075.554688, 64956.042969, 91588.304688, 75670.132813, 87869.507813, 102834.273438, 0.000, 0.000, 0.000,0.0,0.0,0.0,0.0,0.0, 14:39:55.181
42879.316406, 33872.859375, 116104.210938, 65481.085938, 91515.835938, 75963.898438, 87889.671875, 102806.484375, 0.000, 0.000, 0.000,0.0,0.0,0.0,0.0,0.0, 14:39:55.181
42896.593750, 33889.578125, 116075.312500, 65680.062500, 91513.898438, 75950.242188, 87882.968750, 102780.492188, 0.000, 0.000, 0.000,0.0,0.0,0.0,0.0,0.0, 14:39:55.181
42988.371094, 33988.328125, 116036.125000, 65171.582031, 91584.437500, 75650.351563, 87860.992188, 102804.742188, 0.000, 0.000, 0.000,0.0,0.0,0.0,0.0,0.0, 14:39:55.183
42980.906250, 33980.820313, 116064.757813, 64906.109375, 91600.710938, 75629.406250, 87870.429688, 102834.000000, 0.000, 0.000, 0.000,0.0,0.0,0.0,0.0,0.0, 14:39:55.184
42890.292969, 33882.269531, 116106.218750, 65379.609375, 91531.218750, 75922.257813, 87893.226563, 102811.625000, 0.000, 0.000, 0.000,0.0,0.0,0.0,0.0,0.0, 14:39:55.184
42885.531250, 33878.000000, 116086.437500, 65703.195313, 91507.906250, 75980.726563, 87886.140625, 102779.328125, 0.000, 0.000, 0.000,0.0,0.0,0.0,0.0,0.0, 14:39:55.185
42971.675781, 33970.695313, 116041.242188, 65284.660156, 91569.820313, 75694.312500, 87862.046875, 102790.125000, 0.332, 0.228, 0.916,0.0,0.0,0.0,0.0,0.0, 14:39:55.185
42995.187500, 33991.347656, 116055.593750, 64885.882813, 91604.304688, 75587.851563, 87862.265625, 102827.679688, 0.000, 0.000, 0.000,0.0,0.0,0.0,0.0,0.0, 14:39:55.185
42908.464844, 33901.539063, 116095.875000, 65259.203125, 91541.835938, 75860.945313, 87883.500000, 102811.781250, 0.000, 0.000, 0.000,0.0,0.0,0.0,0.0,0.0, 14:39:55.186
42881.640625, 33878.023438, 116085.007813, 65687.820313, 91502.296875, 75994.367188, 87886.046875, 102774.789063, 0.000, 0.000, 0.000,0.0,0.0,0.0,0.0,0.0, 14:39:55.186
42962.890625, 33967.410156, 116044.328125, 65376.144531, 91556.007813, 75743.195313, 87861.242188, 102781.835938, 0.000, 0.000, 0.000,0.0,0.0,0.0,0.0,0.0, 14:39:55.186
43012.218750, 34010.031250, 116052.242188, 64898.289063, 91599.773438, 75570.242188, 87849.328125, 102816.835938, 0.000, 0.000, 0.000,0.0,0.0,0.0,0.0,0.0, 14:39:55.186
42932.000000, 33921.339844, 116093.257813, 65161.414063, 91545.632813, 75811.460938, 87870.000000, 102816.703125, 0.000, 0.000, 0.000,0.0,0.0,0.0,0.0,0.0, 14:39:55.187
42876.007813, 33866.578125, 116086.062500, 65660.796875, 91490.851563, 76009.429688, 87880.218750, 102783.085938, 0.000, 0.000, 0.000,0.0,0.0,0.0,0.0,0.0, 14:39:55.187
42942.972656, 33939.871094, 116037.492188, 65471.878906, 91534.164063, 75807.593750, 87862.781250, 102780.695313, 0.000, 0.000, 0.000,0.0,0.0,0.0,0.0,0.0, 14:39:55.187
43005.136719, 34006.500000, 116031.546875, 64930.898438, 91595.078125, 75570.593750, 87849.101563, 102814.531250, 0.330, 0.220, 0.908,0.0,0.0,0.0,0.0,0.0, 14:39:55.187
42937.542969, 33933.277344, 116075.468750, 65052.292969, 91558.351563, 75753.789063, 87864.640625, 102821.085938, 0.000, 0.000, 0.000,5.3494937E-6,7.0861593E-6,8.710305E-6,2.7402564E-5,3.4800792E-5, 14:39:55.188
42865.101563, 33859.785156, 116091.406250, 65607.304688, 91496.015625, 76002.656250, 87878.804688, 102783.351563, 0.000, 0.000, 0.000,5.3494937E-6,7.0861593E-6,8.710305E-6,2.7402564E-5,3.4800792E-5, 14:39:55.188
42917.449219, 33917.230469, 116042.921875, 65561.867188, 91523.796875, 75860.078125, 87858.914063, 102767.953125, 0.000, 0.000, 0.000,5.3494937E-6,7.0861593E-6,8.710305E-6,2.7402564E-5,3.4800792E-5, 14:39:55.188
43001.558594, 34008.558594, 116023.679688, 64986.375000, 91601.359375, 75580.875000, 87845.953125, 102805.054688, 0.000, 0.000, 0.000,5.3494937E-6,7.0861593E-6,8.710305E-6,2.7402564E-5,3.4800792E-5, 14:39:55.189
42959.695313, 33961.687500, 116075.156250, 64968.828125, 91589.375000, 75701.218750, 87867.562500, 102825.039063, 0.000, 0.000, 0.000,5.3494937E-6,7.0861593E-6,8.710305E-6,2.7402564E-5,3.4800792E-5, 14:39:55.189
42879.832031, 33873.398438, 116107.335938, 65528.046875, 91520.601563, 75982.851563, 87888.351563, 102790.640625, 0.000, 0.000, 0.000,5.3494937E-6,7.0861593E-6,8.710305E-6,2.7402564E-5,3.4800792E-5, 14:39:55.189
42919.191406, 33915.285156, 116071.062500, 65622.375000, 91532.289063, 75909.625000, 87879.882813, 102770.546875, 0.000, 0.000, 0.000,5.3494937E-6,7.0861593E-6,8.710305E-6,2.7402564E-5,3.4800792E-5, 14:39:55.191
43004.531250, 34006.746094, 116037.625000, 65077.503906, 91598.671875, 75607.585938, 87853.171875, 102792.312500, 0.000, 0.000, 0.000,5.3494937E-6,7.0861593E-6,8.710305E-6,2.7402564E-5,3.4800792E-5, 14:39:55.192
42983.832031, 33985.023438, 116072.851563, 64902.019531, 91598.585938, 75644.718750, 87864.031250, 102821.460938, 0.000, 0.000, 0.000,5.3494937E-6,7.0861593E-6,8.710305E-6,2.7402564E-5,3.4800792E-5, 14:39:55.192
42893.375000, 33888.371094, 116109.421875, 65416.089844, 91526.593750, 75941.859375, 87887.484375, 102797.140625, 0.332, 0.222, 0.908,5.3494937E-6,7.0861593E-6,8.710305E-6,2.7402564E-5,3.4800792E-5, 14:39:55.192
42898.988281, 33894.050781, 116081.835938, 65662.515625, 91513.203125, 75948.562500, 87878.406250, 102767.101563, 0.000, 0.000, 0.000,5.3494937E-6,7.0861593E-6,8.710305E-6,2.7402564E-5,3.4800792E-5, 14:39:55.192
42992.617188, 33988.621094, 116043.078125, 65180.500000, 91583.742188, 75658.171875, 87857.796875, 102794.484375, 0.000, 0.000, 0.000,5.3494937E-6,7.0861593E-6,8.710305E-6,2.7402564E-5,3.4800792E-5, 14:39:55.193
42995.433594, 33996.710938, 116067.929688, 64872.539063, 91602.187500, 75620.062500, 87866.203125, 102833.171875, 0.000, 0.000, 0.000,5.3494937E-6,7.0861593E-6,8.710305E-6,2.7402564E-5,3.4800792E-5, 14:39:55.193
42896.816406, 33899.144531, 116106.062500, 65326.457031, 91531.195313, 75914.031250, 87888.218750, 102812.570313, 0.000, 0.000, 0.000,5.3494937E-6,7.0861593E-6,8.710305E-6,2.7402564E-5,3.4800792E-5, 14:39:55.193
42881.550781, 33883.476563, 116081.726563, 65674.875000, 91506.789063, 75995.726563, 87889.000000, 102783.625000, 0.000, 0.000, 0.000,5.3494937E-6,7.0861593E-6,8.710305E-6,2.7402564E-5,3.4800792E-5, 14:39:55.194
42964.074219, 33967.273438, 116039.773438, 65293.824219, 91563.179688, 75722.835938, 87860.726563, 102790.976563, 0.000, 0.000, 0.000,5.3494937E-6,7.0861593E-6,8.710305E-6,2.7402564E-5,3.4800792E-5, 14:39:55.194
42990.718750, 33994.566406, 116056.828125, 64889.054688, 91597.914063, 75598.562500, 87855.609375, 102827.382813, 0.000, 0.000, 0.000,5.3494937E-6,7.0861593E-6,8.710305E-6,2.7402564E-5,3.4800792E-5, 14:39:55.194
42906.718750, 33907.929688, 116099.804688, 65237.476563, 91538.976563, 75865.234375, 87878.359375, 102820.460938, 0.000, 0.000, 0.000,5.3494937E-6,7.0861593E-6,8.710305E-6,2.7402564E-5,3.4800792E-5, 14:39:55.194
42887.542969, 33879.007813, 116092.093750, 65679.171875, 91503.656250, 76017.992188, 87888.132813, 102788.382813, 0.000, 0.000, 0.000,5.3494937E-6,7.0861593E-6,8.710305E-6,2.7402564E-5,3.4800792E-5, 14:39:55.195
42971.496094, 33962.425781, 116051.195313, 65405.246094, 91559.601563, 75778.359375, 87867.585938, 102790.062500, 0.328, 0.226, 0.908,5.3494937E-6,7.0861593E-6,8.710305E-6,2.7402564E-5,3.4800792E-5, 14:39:55.195
43019.820313, 34012.468750, 116058.390625, 64912.054688, 91611.234375, 75581.703125, 87859.046875, 102825.398438, 0.000, 0.000, 0.000,5.3494937E-6,7.0861593E-6,8.710305E-6,2.7402564E-5,3.4800792E-5, 14:39:55.195
42942.101563, 33934.753906, 116100.234375, 65129.269531, 91563.070313, 75802.296875, 87875.210938, 102824.257813, 0.000, 0.000, 0.000,5.3494937E-6,7.0861593E-6,8.710305E-6,2.7402564E-5,3.4800792E-5, 14:39:55.195
42885.218750, 33879.812500, 116107.609375, 65647.945313, 91508.062500, 76016.023438, 87889.109375, 102787.781250, 0.000, 0.000, 0.000,5.3494937E-6,7.0861593E-6,8.710305E-6,2.7402564E-5,3.4800792E-5, 14:39:55.196
42949.367188, 33949.191406, 116063.351563, 65500.085938, 91547.648438, 75827.554688, 87872.304688, 102783.507813, 0.000, 0.000, 0.000,5.3494937E-6,7.0861593E-6,8.710305E-6,2.7402564E-5,3.4800792E-5, 14:39:55.196
43015.328125, 34014.882813, 116054.585938, 64952.804688, 91610.054688, 75575.382813, 87857.304688, 102818.335938, 0.000, 0.000, 0.000,5.3494937E-6,7.0861593E-6,8.710305E-6,2.7402564E-5,3.4800792E-5, 14:39:55.196
42955.335938, 33948.945313, 116093.187500, 65037.515625, 91579.187500, 75743.085938, 87877.757813, 102832.257813, 0.000, 0.000, 0.000,5.3494937E-6,7.0861593E-6,8.710305E-6,2.7402564E-5,3.4800792E-5, 14:39:55.197
42877.597656, 33868.167969, 116107.359375, 65582.921875, 91512.328125, 76004.578125, 87893.156250, 102800.187500, 0.000, 0.000, 0.000,5.3494937E-6,7.0861593E-6,8.710305E-6,2.7402564E-5,3.4800792E-5, 14:39:55.197
42922.746094, 33919.687500, 116061.609375, 65573.671875, 91533.296875, 75880.304688, 87875.187500, 102781.609375, 0.000, 0.000, 0.000,5.3494937E-6,7.0861593E-6,8.710305E-6,2.7402564E-5,3.4800792E-5, 14:39:55.198
43005.960938, 34008.511719, 116035.835938, 65009.777344, 91604.734375, 75593.617188, 87854.625000, 102811.585938, 0.320, 0.224, 0.908,5.3494937E-6,7.0861593E-6,8.710305E-6,2.7402564E-5,3.4800792E-5, 14:39:55.199
42969.015625, 33966.132813, 116077.585938, 64945.718750, 91591.234375, 75689.867188, 87869.640625, 102834.671875, 0.000, 0.000, 0.000,5.3494937E-6,7.0861593E-6,8.710305E-6,2.7402564E-5,3.4800792E-5, 14:39:55.199
42883.921875, 33872.882813, 116104.476563, 65475.945313, 91517.023438, 75975.078125, 87886.632813, 102802.398438, 0.000, 0.000, 0.000,5.3494937E-6,7.0861593E-6,8.710305E-6,2.7402564E-5,3.4800792E-5, 14:39:55.200
42902.429688, 33894.429688, 116074.507813, 65635.585938, 91511.367188, 75927.468750, 87871.273438, 102770.906250, 0.000, 0.000, 0.000,5.3494937E-6,7.0861593E-6,8.710305E-6,2.7402564E-5,3.4800792E-5, 14:39:55.200
42992.664063, 33993.648438, 116032.687500, 65105.308594, 91583.992188, 75622.679688, 87847.875000, 102797.078125, 0.000, 0.000, 0.000,5.3494937E-6,7.0861593E-6,8.710305E-6,2.7402564E-5,3.4800792E-5, 14:39:55.200
42979.542969, 33977.757813, 116067.664063, 64895.828125, 91593.914063, 75641.070313, 87861.171875, 102829.085938, 0.000, 0.000, 0.000,5.3494937E-6,7.0861593E-6,8.710305E-6,2.7402564E-5,3.4800792E-5, 14:39:55.201
42889.621094, 33882.917969, 116105.710938, 65404.175781, 91522.187500, 75940.515625, 87881.539063, 102802.757813, 0.000, 0.000, 0.000,5.3494937E-6,7.0861593E-6,8.710305E-6,2.7402564E-5,3.4800792E-5, 14:39:55.201
42899.007813, 33895.390625, 116079.312500, 65669.289063, 91511.343750, 75965.351563, 87878.851563, 102775.976563, 0.000, 0.000, 0.000,5.3494937E-6,7.0861593E-6,8.710305E-6,2.7402564E-5,3.4800792E-5, 14:39:55.201
42987.410156, 33986.160156, 116035.523438, 65200.574219, 91575.476563, 75670.304688, 87852.570313, 102791.132813, 0.000, 0.000, 0.000,5.3494937E-6,7.0861593E-6,8.710305E-6,2.7402564E-5,3.4800792E-5, 14:39:55.202
42995.949219, 33994.253906, 116057.539063, 64857.718750, 91603.164063, 75602.984375, 87857.640625, 102827.320313, 0.000, 0.000, 0.000,5.3494937E-6,7.0861593E-6,8.710305E-6,2.7402564E-5,3.4800792E-5, 14:39:55.202
42906.117188, 33899.101563, 116097.593750, 65274.511719, 91532.781250, 75887.812500, 87878.875000, 102812.031250, 0.320, 0.224, 0.910,5.3494937E-6,7.0861593E-6,8.710305E-6,2.7402564E-5,3.4800792E-5, 14:39:55.202
42887.878906, 33879.855469, 116087.890625, 65667.054688, 91500.460938, 75994.367188, 87881.578125, 102782.820313, 0.000, 0.000, 0.000,5.3494937E-6,7.0861593E-6,8.710305E-6,2.7402564E-5,3.4800792E-5, 14:39:55.202
42973.261719, 33974.113281, 116044.265625, 65301.312500, 91570.335938, 75727.570313, 87866.109375, 102800.093750, 0.000, 0.000, 0.000,5.3494937E-6,7.0861593E-6,8.710305E-6,2.7402564E-5,3.4800792E-5, 14:39:55.203
43006.968750, 34006.726563, 116055.351563, 64855.683594, 91612.554688, 75586.085938, 87862.226563, 102836.773438, 0.000, 0.000, 0.000,5.3494937E-6,7.0861593E-6,8.710305E-6,2.7402564E-5,3.4800792E-5, 14:39:55.203
42922.386719, 33916.246094, 116100.250000, 65176.433594, 91552.656250, 75844.789063, 87883.945313, 102829.218750, 0.000, 0.000, 0.000,5.3494937E-6,7.0861593E-6,8.710305E-6,2.7402564E-5,3.4800792E-5, 14:39:55.203
42875.472656, 33864.992188, 116098.757813, 65661.976563, 91503.007813, 76018.101563, 87892.640625, 102791.843750, 0.000, 0.000, 0.000,5.3494937E-6,7.0861593E-6,8.710305E-6,2.7402564E-5,3.4800792E-5, 14:39:55.203
42957.792969, 33950.152344, 116054.679688, 65427.511719, 91558.773438, 75792.773438, 87878.718750, 102794.640625, 0.000, 0.000, 0.000,5.3494937E-6,7.0861593E-6,8.710305E-6,2.7402564E-5,3.4800792E-5, 14:39:55.203
43010.386719, 34009.117188, 116050.187500, 64901.910156, 91610.500000, 75575.960938, 87855.632813, 102824.906250, 0.000, 0.000, 0.000,5.3494937E-6,7.0861593E-6,8.710305E-6,2.7402564E-5,3.4800792E-5, 14:39:55.205
42943.867188, 33936.585938, 116095.203125, 65079.804688, 91569.304688, 75785.015625, 87875.546875, 102828.679688, 0.000, 0.000, 0.000,0.0,0.0,0.0,0.0,0.0, 14:39:55.625
42880.390625, 33870.511719, 116108.750000, 65606.414063, 91516.148438, 76016.539063, 87897.585938, 102795.468750, 0.330, 0.216, 0.910,0.0,0.0,0.0,0.0,0.0, 14:39:55.626
42934.593750, 33926.839844, 116059.281250, 65494.855469, 91545.273438, 75843.023438, 87876.257813, 102784.203125, 0.000, 0.000, 0.000,0.0,0.0,0.0,0.0,0.0, 14:39:55.626
43010.363281, 34004.980469, 116043.906250, 64927.570313, 91612.132813, 75579.984375, 87858.156250, 102821.125000, 0.000, 0.000, 0.000,0.0,0.0,0.0,0.0,0.0, 14:39:55.627
42957.191406, 33948.031250, 116093.929688, 64985.324219, 91585.398438, 75733.562500, 87880.085938, 102836.195313, 0.000, 0.000, 0.000,0.0,0.0,0.0,0.0,0.0, 14:39:55.628
42883.070313, 33872.816406, 116112.257813, 65535.648438, 91517.226563, 76000.601563, 87897.382813, 102803.914063, 0.000, 0.000, 0.000,0.0,0.0,0.0,0.0,0.0, 14:39:55.628
42929.609375, 33921.296875, 116070.523438, 65562.406250, 91537.273438, 75896.351563, 87881.265625, 102787.820313, 0.000, 0.000, 0.000,0.0,0.0,0.0,0.0,0.0, 14:39:55.629
43012.511719, 34005.628906, 116045.312500, 65008.503906, 91602.226563, 75603.406250, 87855.070313, 102812.921875, 0.000, 0.000, 0.000,0.0,0.0,0.0,0.0,0.0, 14:39:55.630
42982.066406, 33973.355469, 116085.257813, 64915.429688, 91595.437500, 75681.820313, 87869.781250, 102836.843750, 0.000, 0.000, 0.000,0.0,0.0,0.0,0.0,0.0, 14:39:55.631
42895.097656, 33885.691406, 116113.351563, 65450.218750, 91526.523438, 75971.765625, 87891.679688, 102810.289063, 0.000, 0.000, 0.000,0.0,0.0,0.0,0.0,0.0, 14:39:55.631
42908.417969, 33895.570313, 116081.257813, 65628.343750, 91525.828125, 75939.203125, 87886.429688, 102782.953125, 0.000, 0.000, 0.000,0.0,0.0,0.0,0.0,0.0, 14:39:55.632
42997.246094, 33989.605469, 116046.585938, 65112.617188, 91597.710938, 75636.828125, 87864.031250, 102804.585938, 0.332, 0.212, 0.900,0.0,0.0,0.0,0.0,0.0, 14:39:55.632
42987.230469, 33976.328125, 116075.578125, 64867.867188, 91606.500000, 75627.843750, 87867.500000, 102832.015625, 0.000, 0.000, 0.000,0.0,0.0,0.0,0.0,0.0, 14:39:55.632
42894.828125, 33882.425781, 116109.039063, 65343.667969, 91534.234375, 75919.421875, 87886.031250, 102807.781250, 0.000, 0.000, 0.000,0.0,0.0,0.0,0.0,0.0, 14:39:55.635
42891.253906, 33877.800781, 116081.453125, 65642.687500, 91513.718750, 75965.640625, 87882.500000, 102776.734375, 0.000, 0.000, 0.000,0.0,0.0,0.0,0.0,0.0, 14:39:55.635
42982.917969, 33974.449219, 116033.687500, 65198.851563, 91579.500000, 75677.546875, 87858.937500, 102793.906250, 0.000, 0.000, 0.000,0.0,0.0,0.0,0.0,0.0, 14:39:55.636
42993.398438, 33990.609375, 116053.648438, 64833.066406, 91604.757813, 75588.835938, 87857.351563, 102829.976563, 0.000, 0.000, 0.000,0.0,0.0,0.0,0.0,0.0, 14:39:55.636
42905.019531, 33897.828125, 116094.265625, 65220.398438, 91540.515625, 75866.781250, 87880.195313, 102820.078125, 0.000, 0.000, 0.000,0.0,0.0,0.0,0.0,0.0, 14:39:55.636
42882.042969, 33870.984375, 116089.390625, 65646.890625, 91500.976563, 75994.679688, 87882.671875, 102782.992188, 0.000, 0.000, 0.000,0.0,0.0,0.0,0.0,0.0, 14:39:55.636
42967.226563, 33960.414063, 116043.570313, 65309.515625, 91563.671875, 75737.656250, 87863.382813, 102791.867188, 0.000, 0.000, 0.000,0.0,0.0,0.0,0.0,0.0, 14:39:55.637
43005.492188, 33999.574219, 116051.617188, 64851.101563, 91606.679688, 75572.046875, 87852.273438, 102822.984375, 0.332, 0.214, 0.904,0.0,0.0,0.0,0.0,0.0, 14:39:55.637
42923.996094, 33914.390625, 116093.679688, 65131.058594, 91552.945313, 75813.695313, 87872.328125, 102816.210938, 0.000, 0.000, 0.000,0.0,0.0,0.0,0.0,0.0, 14:39:55.637
42870.398438, 33859.023438, 116096.453125, 65632.453125, 91500.039063, 75999.125000, 87880.890625, 102776.132813, 0.000, 0.000, 0.000,0.0,0.0,0.0,0.0,0.0, 14:39:55.637
42949.234375, 33942.777344, 116046.812500, 65418.726563, 91548.898438, 75783.367188, 87863.695313, 102777.046875, 0.000, 0.000, 0.000,0.0,0.0,0.0,0.0,0.0, 14:39:55.637
43012.019531, 34010.835938, 116038.765625, 64873.121094, 91612.085938, 75552.382813, 87852.656250, 102815.718750, 0.000, 0.000, 0.000,0.0,0.0,0.0,0.0,0.0, 14:39:55.638
42949.949219, 33943.203125, 116080.453125, 65006.605469, 91575.492188, 75747.843750, 87875.078125, 102825.281250, 0.000, 0.000, 0.000,0.0,0.0,0.0,0.0,0.0, 14:39:55.638
42886.402344, 33872.660156, 116099.023438, 65549.882813, 91513.265625, 75992.687500, 87893.289063, 102791.914063, 0.000, 0.000, 0.000,0.0,0.0,0.0,0.0,0.0, 14:39:55.638
42938.281250, 33929.613281, 116056.828125, 65473.265625, 91543.492188, 75839.375000, 87877.039063, 102783.601563, 0.000, 0.000, 0.000,0.0,0.0,0.0,0.0,0.0, 14:39:55.638
43007.570313, 34005.519531, 116038.453125, 64918.316406, 91606.695313, 75567.132813, 87855.250000, 102812.343750, 0.000, 0.000, 0.000,0.0,0.0,0.0,0.0,0.0, 14:39:55.638
42965.906250, 33954.152344, 116076.539063, 64914.605469, 91588.593750, 75699.476563, 87877.335938, 102833.398438, 0.000, 0.000, 0.000,0.0,0.0,0.0,0.0,0.0, 14:39:55.639
42883.386719, 33867.183594, 116100.187500, 65467.074219, 91519.976563, 75980.882813, 87898.679688, 102802.085938, 0.332, 0.212, 0.902,0.0,0.0,0.0,0.0,0.0, 14:39:55.639
42914.429688, 33905.964844, 116059.195313, 65539.578125, 91526.453125, 75897.554688, 87882.296875, 102781.164063, 0.000, 0.000, 0.000,0.0,0.0,0.0,0.0,0.0, 14:39:55.639
43000.105469, 33998.613281, 116023.343750, 64987.695313, 91590.453125, 75595.921875, 87854.828125, 102805.304688, 0.000, 0.000, 0.000,0.0,0.0,0.0,0.0,0.0, 14:39:55.639
42977.730469, 33976.750000, 116064.132813, 64847.148438, 91594.179688, 75652.648438, 87872.617188, 102834.898438, 0.000, 0.000, 0.000,0.0,0.0,0.0,0.0,0.0, 14:39:55.639
42889.621094, 33886.496094, 116097.484375, 65373.753906, 91523.484375, 75947.914063, 87890.453125, 102807.109375, 0.000, 0.000, 0.000,0.0,0.0,0.0,0.0,0.0, 14:39:55.640
42899.746094, 33899.078125, 116066.148438, 65585.734375, 91516.132813, 75937.164063, 87881.046875, 102776.804688, 0.000, 0.000, 0.000,0.0,0.0,0.0,0.0,0.0, 14:39:55.640
42992.105469, 33991.996094, 116025.242188, 65087.136719, 91588.054688, 75636.531250, 87858.804688, 102799.851563, 0.000, 0.000, 0.000,0.0,0.0,0.0,0.0,0.0, 14:39:55.640
42989.867188, 33984.238281, 116053.359375, 64807.472656, 91602.968750, 75609.890625, 87864.414063, 102832.570313, 0.000, 0.000, 0.000,0.0,0.0,0.0,0.0,0.0, 14:39:55.640
42905.265625, 33896.062500, 116094.710938, 65254.261719, 91542.617188, 75904.796875, 87892.781250, 102819.742188, 0.000, 0.000, 0.000,0.0,0.0,0.0,0.0,0.0, 14:39:55.640
42892.636719, 33880.238281, 116081.882813, 65599.664063, 91520.601563, 75978.289063, 87894.632813, 102786.195313, 0.000, 0.000, 0.000,0.0,0.0,0.0,0.0,0.0, 14:39:55.640
42983.164063, 33973.933594, 116039.546875, 65190.738281, 91586.226563, 75697.000000, 87873.015625, 102800.765625, 0.330, 0.216, 0.908,0.0,0.0,0.0,0.0,0.0, 14:39:55.641
43007.011719, 34000.644531, 116059.953125, 64785.902344, 91625.500000, 75589.171875, 87874.648438, 102843.101563, 0.000, 0.000, 0.000,0.0,0.0,0.0,0.0,0.0, 14:39:55.641
42914.699219, 33909.539063, 116107.632813, 65151.687500, 91567.984375, 75866.601563, 87901.023438, 102834.179688, 0.000, 0.000, 0.000,0.0,0.0,0.0,0.0,0.0, 14:39:55.641
42878.398438, 33873.597656, 116095.671875, 65591.390625, 91526.007813, 76008.203125, 87906.054688, 102797.703125, 0.000, 0.000, 0.000,0.0,0.0,0.0,0.0,0.0, 14:39:55.642
42958.664063, 33956.210938, 116045.695313, 65304.621094, 91567.921875, 75757.906250, 87873.351563, 102792.695313, 0.000, 0.000, 0.000,0.0,0.0,0.0,0.0,0.0, 14:39:55.642
43016.734375, 34009.562500, 116045.671875, 64805.593750, 91618.679688, 75570.242188, 87861.593750, 102832.460938, 0.000, 0.000, 0.000,0.0,0.0,0.0,0.0,0.0, 14:39:55.642
42937.183594, 33928.292969, 116092.187500, 65049.140625, 91573.171875, 75804.148438, 87886.187500, 102834.335938, 0.000, 0.000, 0.000,0.0,0.0,0.0,0.0,0.0, 14:39:55.642
42878.558594, 33869.687500, 116098.351563, 65570.609375, 91516.085938, 76010.460938, 87896.062500, 102795.867188, 0.000, 0.000, 0.000,0.0,0.0,0.0,0.0,0.0, 14:39:55.643
42943.757813, 33938.910156, 116044.351563, 65394.273438, 91556.835938, 75809.000000, 87875.992188, 102789.609375, 0.000, 0.000, 0.000,0.0,0.0,0.0,0.0,0.0, 14:39:55.643
43007.996094, 34009.339844, 116034.671875, 64840.195313, 91621.671875, 75562.617188, 87863.164063, 102825.328125, 0.328, 0.218, 0.912,0.0,0.0,0.0,0.0,0.0, 14:39:55.643
42946.281250, 33945.101563, 116081.968750, 64943.011719, 91589.781250, 75740.828125, 87887.343750, 102838.468750, 0.000, 0.000, 0.000,0.0,0.0,0.0,0.0,0.0, 14:39:55.644
42879.449219, 33866.847656, 116102.531250, 65488.867188, 91525.851563, 75998.164063, 87906.570313, 102803.070313, 0.000, 0.000, 0.000,0.0,0.0,0.0,0.0,0.0, 14:39:55.644
42933.789063, 33924.785156, 116061.945313, 65457.105469, 91553.546875, 75861.953125, 87891.882813, 102789.078125, 0.000, 0.000, 0.000,0.0,0.0,0.0,0.0,0.0, 14:39:55.644
43011.394531, 34011.152344, 116047.953125, 64903.250000, 91622.343750, 75578.445313, 87870.093750, 102817.015625, 0.000, 0.000, 0.000,0.0,0.0,0.0,0.0,0.0, 14:39:55.644
42968.230469, 33964.503906, 116088.632813, 64871.398438, 91600.281250, 75685.976563, 87879.929688, 102834.695313, 0.000, 0.000, 0.000,0.0,0.0,0.0,0.0,0.0, 14:39:55.645
42887.117188, 33876.437500, 116115.117188, 65425.386719, 91529.406250, 75972.281250, 87897.875000, 102802.734375, 0.000, 0.000, 0.000,0.0,0.0,0.0,0.0,0.0, 14:39:55.645
42923.593750, 33911.550781, 116079.960938, 65539.250000, 91540.273438, 75909.453125, 87890.679688, 102784.914063, 0.000, 0.000, 0.000,0.0,0.0,0.0,0.0,0.0, 14:39:55.645
43015.886719, 34005.136719, 116045.085938, 64989.238281, 91613.781250, 75608.039063, 87869.328125, 102813.664063, 0.000, 0.000, 0.000,0.0,0.0,0.0,0.0,0.0, 14:39:55.646
42993.667969, 33982.160156, 116081.679688, 64807.472656, 91621.406250, 75644.875000, 87885.109375, 102845.671875, 0.000, 0.000, 0.000,0.0,0.0,0.0,0.0,0.0, 14:39:55.646
42900.730469, 33885.289063, 116111.765625, 65307.300781, 91550.460938, 75941.101563, 87903.890625, 102821.906250, 0.324, 0.220, 0.912,0.0,0.0,0.0,0.0,0.0, 14:39:55.646
42902.093750, 33890.316406, 116086.890625, 65563.296875, 91531.109375, 75956.210938, 87890.875000, 102792.117188, 0.000, 0.000, 0.000,0.0,0.0,0.0,0.0,0.0, 14:39:55.647
42994.675781, 33985.582031, 116044.171875, 65092.277344, 91601.890625, 75658.375000, 87872.484375, 102811.921875, 0.000, 0.000, 0.000,0.0,0.0,0.0,0.0,0.0, 14:39:55.647
43003.792969, 33988.820313, 116065.320313, 64773.207031, 91622.859375, 75606.898438, 87877.242188, 102844.421875, 0.000, 0.000, 0.000,0.0,0.0,0.0,0.0,0.0, 14:39:55.648
42913.960938, 33896.105469, 116108.929688, 65210.472656, 91553.078125, 75896.484375, 87897.273438, 102824.546875, 0.000, 0.000, 0.000,0.0,0.0,0.0,0.0,0.0, 14:39:55.649
42892.660156, 33880.484375, 116092.250000, 65580.796875, 91523.843750, 75985.398438, 87896.804688, 102791.023438, 0.000, 0.000, 0.000,0.0,0.0,0.0,0.0,0.0, 14:39:55.649
42981.933594, 33973.285156, 116048.289063, 65210.562500, 91587.296875, 75716.265625, 87875.453125, 102802.484375, 0.000, 0.000, 0.000,0.0,0.0,0.0,0.0,0.0, 14:39:55.649
43017.406250, 34012.113281, 116060.359375, 64782.058594, 91629.632813, 75584.117188, 87875.414063, 102845.734375, 0.000, 0.000, 0.000,0.0,0.0,0.0,0.0,0.0, 14:39:55.650
42929.519531, 33916.804688, 116109.437500, 65121.937500, 91572.609375, 75848.164063, 87900.218750, 102838.742188, 0.000, 0.000, 0.000,0.0,0.0,0.0,0.0,0.0, 14:39:55.650
42898.003906, 33884.371094, 116102.914063, 65577.062500, 91531.304688, 76007.796875, 87909.992188, 102808.117188, 0.326, 0.226, 0.918,0.0,0.0,0.0,0.0,0.0, 14:39:55.650
42970.691406, 33962.738281, 116059.460938, 65318.320313, 91575.226563, 75775.023438, 87884.085938, 102805.679688, 0.000, 0.000, 0.000,0.0,0.0,0.0,0.0,0.0, 14:39:55.651
43019.328125, 34017.429688, 116061.515625, 64824.371094, 91622.859375, 75572.406250, 87869.601563, 102837.375000, 0.000, 0.000, 0.000,0.0,0.0,0.0,0.0,0.0, 14:39:55.651
42941.765625, 33935.511719, 116106.398438, 65046.925781, 91574.445313, 75793.312500, 87890.718750, 102840.906250, 0.000, 0.000, 0.000,0.0,0.0,0.0,0.0,0.0, 14:39:55.651
42880.234375, 33871.988281, 116109.398438, 65577.421875, 91520.039063, 76013.203125, 87906.437500, 102806.507813, 0.000, 0.000, 0.000,0.0,0.0,0.0,0.0,0.0, 14:39:55.652
42950.753906, 33941.925781, 116060.132813, 65441.433594, 91560.718750, 75830.007813, 87890.585938, 102798.507813, 0.000, 0.000, 0.000,0.0,0.0,0.0,0.0,0.0, 14:39:55.652
43019.773438, 34014.125000, 116048.085938, 64888.789063, 91619.015625, 75570.593750, 87868.882813, 102828.835938, 0.000, 0.000, 0.000,0.0,0.0,0.0,0.0,0.0, 14:39:55.652
42961.035156, 33951.828125, 116091.046875, 64957.855469, 91591.882813, 75729.515625, 87888.953125, 102844.437500, 0.000, 0.000, 0.000,0.0,0.0,0.0,0.0,0.0, 14:39:55.653
42877.214844, 33869.394531, 116105.148438, 65500.757813, 91526.078125, 75992.796875, 87905.070313, 102810.328125, 0.000, 0.000, 0.000,0.0,0.0,0.0,0.0,0.0, 14:39:55.653
42923.976563, 33919.976563, 116060.265625, 65496.175781, 91548.296875, 75875.164063, 87891.390625, 102795.781250, 0.000, 0.000, 0.000,0.0,0.0,0.0,0.0,0.0, 14:39:55.653
43007.191406, 34003.125000, 116038.406250, 64935.929688, 91615.437500, 75585.101563, 87868.976563, 102820.593750, 0.318, 0.218, 0.916,0.0,0.0,0.0,0.0,0.0, 14:39:55.654
42965.101563, 33959.406250, 116079.000000, 64872.539063, 91601.203125, 75673.546875, 87883.187500, 102837.421875, 0.000, 0.000, 0.000,0.0,0.0,0.0,0.0,0.0, 14:39:55.654
42879.921875, 33873.753906, 116110.312500, 65413.761719, 91531.195313, 75961.414063, 87903.085938, 102808.945313, 0.000, 0.000, 0.000,0.0,0.0,0.0,0.0,0.0, 14:39:55.654
42909.425781, 33903.660156, 116076.453125, 65561.617188, 91534.234375, 75916.937500, 87891.210938, 102786.367188, 0.000, 0.000, 0.000,0.0,0.0,0.0,0.0,0.0, 14:39:55.654
43001.847656, 33998.253906, 116043.523438, 65040.332031, 91607.859375, 75620.445313, 87873.421875, 102815.898438, 0.000, 0.000, 0.000,0.0,0.0,0.0,0.0,0.0, 14:39:55.655
42995.566406, 33984.285156, 116079.132813, 64821.261719, 91621.273438, 75632.648438, 87889.203125, 102851.992188, 0.000, 0.000, 0.000,0.0,0.0,0.0,0.0,0.0, 14:39:55.655
42905.781250, 33888.976563, 116116.640625, 65306.722656, 91557.484375, 75930.929688, 87916.757813, 102833.820313, 0.000, 0.000, 0.000,0.0,0.0,0.0,0.0,0.0, 14:39:55.655
42898.515625, 33885.781250, 116093.437500, 65588.554688, 91534.726563, 75965.664063, 87904.085938, 102798.421875, 0.000, 0.000, 0.000,0.0,0.0,0.0,0.0,0.0, 14:39:55.656
42988.953125, 33985.738281, 116055.617188, 65142.570313, 91602.500000, 75674.351563, 87879.992188, 102815.718750, 0.000, 0.000, 0.000,0.0,0.0,0.0,0.0,0.0, 14:39:55.656
43003.300781, 34003.125000, 116081.789063, 64794.195313, 91633.117188, 75598.000000, 87883.414063, 102851.257813, 0.320, 0.222, 0.912,0.0,0.0,0.0,0.0,0.0, 14:39:55.656
42910.093750, 33901.917969, 116124.546875, 65211.703125, 91565.617188, 75878.757813, 87906.929688, 102830.804688, 0.000, 0.000, 0.000,0.0,0.0,0.0,0.0,0.0, 14:39:55.657
42891.765625, 33881.308594, 116106.062500, 65603.375000, 91530.789063, 75987.031250, 87906.187500, 102793.703125, 0.000, 0.000, 0.000,0.0,0.0,0.0,0.0,0.0, 14:39:55.657
42980.191406, 33978.046875, 116055.703125, 65233.027344, 91591.453125, 75718.453125, 87880.531250, 102803.625000, 0.000, 0.000, 0.000,0.0,0.0,0.0,0.0,0.0, 14:39:55.658
43012.488281, 34009.140625, 116072.695313, 64800.812500, 91628.046875, 75568.921875, 87872.796875, 102836.328125, 0.000, 0.000, 0.000,0.0,0.0,0.0,0.0,0.0, 14:39:55.658
42928.335938, 33920.289063, 116106.781250, 65095.519531, 91568.453125, 75816.062500, 87892.171875, 102830.046875, 0.000, 0.000, 0.000,0.0,0.0,0.0,0.0,0.0, 14:39:55.658
42880.925781, 33870.402344, 116099.781250, 65563.812500, 91518.054688, 75992.445313, 87900.039063, 102794.414063, 0.000, 0.000, 0.000,0.0,0.0,0.0,0.0,0.0, 14:39:55.659
42947.378906, 33940.117188, 116048.578125, 65336.761719, 91559.132813, 75771.765625, 87873.039063, 102788.875000, 0.000, 0.000, 0.000,0.0,0.0,0.0,0.0,0.0, 14:39:55.659
43004.687500, 33998.945313, 116044.914063, 64815.472656, 91617.296875, 75554.171875, 87863.609375, 102824.437500, 0.000, 0.000, 0.000,0.0,0.0,0.0,0.0,0.0, 14:39:55.659
42938.058594, 33930.371094, 116090.375000, 64988.925781, 91578.890625, 75762.148438, 87889.492188, 102831.296875, 0.000, 0.000, 0.000,0.0,0.0,0.0,0.0,0.0, 14:39:55.660
42874.289063, 33868.011719, 116103.492188, 65524.046875, 91518.898438, 75999.101563, 87902.414063, 102799.109375, 0.320, 0.218, 0.906,0.0,0.0,0.0,0.0,0.0, 14:39:55.660
42933.945313, 33926.773438, 116060.085938, 65431.242188, 91551.781250, 75834.281250, 87884.554688, 102789.726563, 0.000, 0.000, 0.000,0.0,0.0,0.0,0.0,0.0, 14:39:55.660
43010.343750, 34004.714844, 116044.421875, 64878.753906, 91615.929688, 75566.148438, 87866.421875, 102819.789063, 0.000, 0.000, 0.000,0.0,0.0,0.0,0.0,0.0, 14:39:55.660
42960.722656, 33954.867188, 116089.007813, 64913.062500, 91593.351563, 75713.421875, 87885.179688, 102837.625000, 0.000, 0.000, 0.000,0.0,0.0,0.0,0.0,0.0, 14:39:55.661
42887.164063, 33880.035156, 116110.851563, 65459.183594, 91530.750000, 75985.648438, 87906.031250, 102808.031250, 0.000, 0.000, 0.000,0.0,0.0,0.0,0.0,0.0, 14:39:55.661
42924.421875, 33920.761719, 116073.007813, 65502.410156, 91547.195313, 75885.601563, 87894.078125, 102790.257813, 0.000, 0.000, 0.000,0.0,0.0,0.0,0.0,0.0, 14:39:55.661
43011.214844, 34007.863281, 116049.601563, 64958.726563, 91618.187500, 75590.023438, 87874.140625, 102818.203125, 0.000, 0.000, 0.000,0.0,0.0,0.0,0.0,0.0, 14:39:55.662
42980.792969, 33977.062500, 116087.601563, 64840.484375, 91613.070313, 75653.054688, 87886.500000, 102841.851563, 0.000, 0.000, 0.000,0.0,0.0,0.0,0.0,0.0, 14:39:55.662
42893.375000, 33887.457031, 116123.585938, 65368.859375, 91546.507813, 75946.890625, 87909.500000, 102816.945313, 0.000, 0.000, 0.000,0.0,0.0,0.0,0.0,0.0, 14:39:55.662
42910.183594, 33904.621094, 116097.820313, 65563.250000, 91542.484375, 75929.117188, 87901.945313, 102789.187500, 0.000, 0.000, 0.000,0.0,0.0,0.0,0.0,0.0, 14:39:55.663
43002.878906, 34000.847656, 116063.281250, 65071.113281, 91608.289063, 75630.546875, 87873.804688, 102809.664063, 0.316, 0.216, 0.906,0.0,0.0,0.0,0.0,0.0, 14:39:55.664
43006.050781, 34000.175781, 116092.679688, 64807.605469, 91627.445313, 75617.445313, 87885.468750, 102848.109375, 0.000, 0.000, 0.000,0.0,0.0,0.0,0.0,0.0, 14:39:55.664
42913.089844, 33904.062500, 116128.398438, 65274.265625, 91559.156250, 75913.429688, 87909.406250, 102827.835938, 0.000, 0.000, 0.000,0.0,0.0,0.0,0.0,0.0, 14:39:55.664
42903.679688, 33895.906250, 116101.148438, 65584.445313, 91536.718750, 75970.718750, 87908.937500, 102796.609375, 0.000, 0.000, 0.000,0.0,0.0,0.0,0.0,0.0, 14:39:55.665
42992.617188, 33989.828125, 116063.015625, 65164.808594, 91600.554688, 75686.289063, 87884.578125, 102811.132813, 0.000, 0.000, 0.000,0.0,0.0,0.0,0.0,0.0, 14:39:55.665
43015.593750, 34018.636719, 116085.296875, 64783.535156, 91628.562500, 75588.343750, 87878.429688, 102848.890625, 0.000, 0.000, 0.000,0.0,0.0,0.0,0.0,0.0, 14:39:55.666
42938.058594, 33929.074219, 116129.039063, 65160.675781, 91564.992188, 75863.851563, 87903.867188, 102838.406250, 0.000, 0.000, 0.000,0.0,0.0,0.0,0.0,0.0, 14:39:55.666
42909.359375, 33896.398438, 116123.078125, 65583.234375, 91530.703125, 75995.304688, 87914.484375, 102805.210938, 0.000, 0.000, 0.000,0.0,0.0,0.0,0.0,0.0, 14:39:55.667
42989.308594, 33980.617188, 116078.687500, 65264.968750, 91589.664063, 75740.585938, 87895.039063, 102809.281250, 0.000, 0.000, 0.000,0.0,0.0,0.0,0.0,0.0, 14:39:55.667
43032.156250, 34027.265625, 116086.039063, 64783.847656, 91641.968750, 75567.804688, 87888.531250, 102846.695313, 0.320, 0.216, 0.910,0.0,0.0,0.0,0.0,0.0, 14:39:55.667
42951.000000, 33941.679688, 116138.140625, 65059.621094, 91592.570313, 75812.890625, 87911.507813, 102841.218750, 0.000, 0.000, 0.000,0.0,0.0,0.0,0.0,0.0, 14:39:55.668
42897.781250, 33887.054688, 116141.468750, 65571.234375, 91537.921875, 76010.593750, 87920.070313, 102803.023438, 0.000, 0.000, 0.000,0.0,0.0,0.0,0.0,0.0, 14:39:55.668
42970.421875, 33963.429688, 116094.195313, 65384.929688, 91580.640625, 75805.468750, 87898.187500, 102802.507813, 0.000, 0.000, 0.000,0.0,0.0,0.0,0.0,0.0, 14:39:55.668
43035.019531, 34031.960938, 116085.101563, 64851.863281, 91640.250000, 75569.773438, 87883.859375, 102839.234375, 0.000, 0.000, 0.000,0.0,0.0,0.0,0.0,0.0, 14:39:56.104
42967.269531, 33961.976563, 116123.656250, 64986.980469, 91602.632813, 75759.601563, 87906.031250, 102847.570313, 0.000, 0.000, 0.000,0.0,0.0,0.0,0.0,0.0, 14:39:56.104
42898.003906, 33888.976563, 116134.320313, 65526.460938, 91542.546875, 76006.257813, 87922.867188, 102813.773438, 0.000, 0.000, 0.000,0.0,0.0,0.0,0.0,0.0, 14:39:56.105
42950.394531, 33943.605469, 116094.328125, 65471.812500, 91565.843750, 75860.453125, 87900.156250, 102798.421875, 0.000, 0.000, 0.000,0.0,0.0,0.0,0.0,0.0, 14:39:56.106
43025.250000, 34023.398438, 116073.632813, 64911.164063, 91627.820313, 75581.460938, 87876.304688, 102829.132813, 0.000, 0.000, 0.000,0.0,0.0,0.0,0.0,0.0, 14:39:56.107
42969.527344, 33970.335938, 116107.453125, 64901.281250, 91606.273438, 75702.585938, 87892.289063, 102846.007813, 0.000, 0.000, 0.000,0.0,0.0,0.0,0.0,0.0, 14:39:56.107
42890.023438, 33884.640625, 116129.578125, 65459.406250, 91535.015625, 75984.773438, 87911.843750, 102812.812500, 0.312, 0.212, 0.910,0.0,0.0,0.0,0.0,0.0, 14:39:56.107
42928.468750, 33920.023438, 116092.210938, 65542.531250, 91544.562500, 75907.593750, 87898.164063, 102791.507813, 0.000, 0.000, 0.000,0.0,0.0,0.0,0.0,0.0, 14:39:56.108
43013.605469, 34008.824219, 116063.531250, 65013.691406, 91613.359375, 75609.960938, 87876.078125, 102814.914063, 0.000, 0.000, 0.000,0.0,0.0,0.0,0.0,0.0, 14:39:56.108
42993.937500, 33986.675781, 116095.648438, 64852.625000, 91618.476563, 75654.148438, 87892.445313, 102848.664063, 0.000, 0.000, 0.000,0.0,0.0,0.0,0.0,0.0, 14:39:56.108
42901.265625, 33883.296875, 116137.562500, 65387.253906, 91551.781250, 75954.890625, 87919.171875, 102825.843750, 0.000, 0.000, 0.000,0.0,0.0,0.0,0.0,0.0, 14:39:56.108
42914.945313, 33903.460938, 116111.320313, 65608.984375, 91549.437500, 75955.000000, 87916.000000, 102804.523438, 0.000, 0.000, 0.000,0.0,0.0,0.0,0.0,0.0, 14:39:56.108
43005.066406, 34007.597656, 116065.273438, 65114.808594, 91605.335938, 75649.859375, 87879.765625, 102814.109375, 0.000, 0.000, 0.000,0.0,0.0,0.0,0.0,0.0, 14:39:56.109
43003.035156, 34006.882813, 116082.820313, 64813.953125, 91618.906250, 75607.210938, 87879.679688, 102845.398438, 0.000, 0.000, 0.000,0.0,0.0,0.0,0.0,0.0, 14:39:56.109
42908.218750, 33909.449219, 116121.039063, 65262.195313, 91551.312500, 75896.796875, 87903.796875, 102825.867188, 0.000, 0.000, 0.000,0.0,0.0,0.0,0.0,0.0, 14:39:56.109
42891.050781, 33892.351563, 116104.476563, 65612.914063, 91524.671875, 75974.960938, 87903.328125, 102790.039063, 0.306, 0.216, 0.914,0.0,0.0,0.0,0.0,0.0, 14:39:56.109
42972.277344, 33979.210938, 116060.421875, 65222.296875, 91583.296875, 75696.281250, 87876.078125, 102799.312500, 0.000, 0.000, 0.000,0.0,0.0,0.0,0.0,0.0, 14:39:56.109
42994.070313, 34004.402344, 116070.414063, 64808.457031, 91615.664063, 75570.617188, 87871.500000, 102831.031250, 0.000, 0.000, 0.000,0.0,0.0,0.0,0.0,0.0, 14:39:56.109
42902.921875, 33907.527344, 116116.171875, 65161.500000, 91558.757813, 75841.273438, 87897.648438, 102822.781250, 0.000, 0.000, 0.000,0.0,0.0,0.0,0.0,0.0, 14:39:56.110
42860.316406, 33865.417969, 116108.343750, 65619.664063, 91506.296875, 75990.718750, 87890.210938, 102779.484375, 0.000, 0.000, 0.000,0.0,0.0,0.0,0.0,0.0, 14:39:56.110
42939.308594, 33949.148438, 116056.000000, 65337.187500, 91554.398438, 75745.078125, 87866.851563, 102780.250000, 0.000, 0.000, 0.000,0.0,0.0,0.0,0.0,0.0, 14:39:56.110
42985.152344, 33994.343750, 116057.898438, 64838.363281, 91606.875000, 75552.445313, 87859.117188, 102819.117188, 0.000, 0.000, 0.000,0.0,0.0,0.0,0.0,0.0, 14:39:56.110
42908.820313, 33909.183594, 116106.804688, 65085.261719, 91559.851563, 75785.507813, 87883.656250, 102818.554688, 0.000, 0.000, 0.000,0.0,0.0,0.0,0.0,0.0, 14:39:56.111
42855.714844, 33855.714844, 116108.101563, 65598.921875, 91511.726563, 75998.070313, 87900.554688, 102789.234375, 0.000, 0.000, 0.000,0.0,0.0,0.0,0.0,0.0, 14:39:56.111
42913.695313, 33918.703125, 116060.781250, 65448.500000, 91541.992188, 75806.921875, 87873.554688, 102781.968750, 0.000, 0.000, 0.000,0.0,0.0,0.0,0.0,0.0, 14:39:56.111
42979.898438, 33988.484375, 116048.976563, 64907.988281, 91599.437500, 75559.867188, 87854.335938, 102815.960938, 0.318, 0.212, 0.914,0.0,0.0,0.0,0.0,0.0, 14:39:56.111
42916.308594, 33923.375000, 116088.453125, 65003.699219, 91566.625000, 75732.335938, 87877.265625, 102829.507813, 0.000, 0.000, 0.000,0.0,0.0,0.0,0.0,0.0, 14:39:56.112
42837.273438, 33844.250000, 116106.109375, 65558.085938, 91504.617188, 75994.406250, 87898.234375, 102798.593750, 0.000, 0.000, 0.000,0.0,0.0,0.0,0.0,0.0, 14:39:56.113
42882.355469, 33892.707031, 116063.437500, 65558.937500, 91526.593750, 75866.109375, 87880.507813, 102782.031250, 0.000, 0.000, 0.000,0.0,0.0,0.0,0.0,0.0, 14:39:56.114
42963.718750, 33983.523438, 116039.437500, 65000.257813, 91595.500000, 75581.015625, 87858.179688, 102813.906250, 0.000, 0.000, 0.000,0.0,0.0,0.0,0.0,0.0, 14:39:56.114
42923.148438, 33941.769531, 116079.132813, 64953.429688, 91580.773438, 75686.289063, 87874.453125, 102837.492188, 0.000, 0.000, 0.000,0.0,0.0,0.0,0.0,0.0, 14:39:56.114
42848.406250, 33860.812500, 116103.156250, 65489.402344, 91515.976563, 75972.546875, 87899.125000, 102812.031250, 0.000, 0.000, 0.000,0.0,0.0,0.0,0.0,0.0, 14:39:56.114
42881.863281, 33892.039063, 116067.265625, 65606.859375, 91521.156250, 75915.460938, 87886.226563, 102787.976563, 0.000, 0.000, 0.000,0.0,0.0,0.0,0.0,0.0, 14:39:56.115
42967.023438, 33979.433594, 116036.640625, 65088.300781, 91585.289063, 75614.296875, 87857.617188, 102804.117188, 0.000, 0.000, 0.000,0.0,0.0,0.0,0.0,0.0, 14:39:56.115
42939.531250, 33952.007813, 116070.726563, 64911.609375, 91583.031250, 75634.593750, 87860.414063, 102822.070313, 0.326, 0.216, 0.910,0.0,0.0,0.0,0.0,0.0, 14:39:56.115
42855.042969, 33865.773438, 116101.101563, 65409.003906, 91521.000000, 75929.585938, 87887.859375, 102800.695313, 0.000, 0.000, 0.000,0.0,0.0,0.0,0.0,0.0, 14:39:56.115
42861.972656, 33874.828125, 116077.945313, 65668.796875, 91512.796875, 75954.976563, 87886.656250, 102774.906250, 0.000, 0.000, 0.000,0.0,0.0,0.0,0.0,0.0, 14:39:56.116
42951.019531, 33965.308594, 116040.734375, 65215.281250, 91579.656250, 75661.726563, 87865.460938, 102791.335938, 0.000, 0.000, 0.000,0.0,0.0,0.0,0.0,0.0, 14:39:56.116
42959.312500, 33973.914063, 116065.031250, 64890.957031, 91604.578125, 75599.789063, 87869.640625, 102827.007813, 0.000, 0.000, 0.000,0.0,0.0,0.0,0.0,0.0, 14:39:56.116
42865.457031, 33878.605469, 116107.898438, 65316.289063, 91540.468750, 75888.546875, 87894.585938, 102814.132813, 0.000, 0.000, 0.000,0.0,0.0,0.0,0.0,0.0, 14:39:56.116
42841.585938, 33853.234375, 116094.796875, 65713.500000, 91501.648438, 75988.906250, 87892.710938, 102776.804688, 0.000, 0.000, 0.000,0.0,0.0,0.0,0.0,0.0, 14:39:56.116
42930.121094, 33947.960938, 116050.367188, 65356.542969, 91561.015625, 75721.132813, 87870.312500, 102789.898438, 0.000, 0.000, 0.000,0.0,0.0,0.0,0.0,0.0, 14:39:56.117
42965.011719, 33983.187500, 116058.656250, 64919.746094, 91606.210938, 75580.898438, 87866.695313, 102829.710938, 0.000, 0.000, 0.000,0.0,0.0,0.0,0.0,0.0, 14:39:56.117
42887.652344, 33900.824219, 116099.960938, 65236.000000, 91557.812500, 75842.304688, 87897.382813, 102828.210938, 0.000, 0.000, 0.000,0.0,0.0,0.0,0.0,0.0, 14:39:56.117
42849.453125, 33862.332031, 116101.304688, 65700.085938, 91513.265625, 76015.015625, 87903.953125, 102796.828125, 0.326, 0.222, 0.910,0.0,0.0,0.0,0.0,0.0, 14:39:56.117
42925.765625, 33942.910156, 116062.414063, 65457.082031, 91559.804688, 75790.203125, 87882.539063, 102799.828125, 0.000, 0.000, 0.000,0.0,0.0,0.0,0.0,0.0, 14:39:56.117
42979.832031, 33995.617188, 116063.242188, 64952.089844, 91614.007813, 75582.109375, 87867.703125, 102835.656250, 0.000, 0.000, 0.000,0.0,0.0,0.0,0.0,0.0, 14:39:56.117
42908.171875, 33921.519531, 116107.179688, 65153.523438, 91572.210938, 75797.984375, 87889.000000, 102839.523438, 0.000, 0.000, 0.000,0.0,0.0,0.0,0.0,0.0, 14:39:56.117
42841.250000, 33854.351563, 116117.445313, 65695.460938, 91508.664063, 76023.507813, 87899.906250, 102798.554688, 0.000, 0.000, 0.000,0.0,0.0,0.0,0.0,0.0, 14:39:56.118
42904.687500, 33920.402344, 116066.617188, 65578.093750, 91544.515625, 75845.929688, 87880.281250, 102791.265625, 0.000, 0.000, 0.000,0.0,0.0,0.0,0.0,0.0, 14:39:56.118
42977.597656, 33993.582031, 116049.601563, 65028.957031, 91607.101563, 75585.570313, 87862.359375, 102824.773438, 0.000, 0.000, 0.000,0.0,0.0,0.0,0.0,0.0, 14:39:56.118
42919.281250, 33935.246094, 116086.953125, 65076.675781, 91580.882813, 75738.234375, 87878.945313, 102840.101563, 0.000, 0.000, 0.000,0.0,0.0,0.0,0.0,0.0, 14:39:56.118
42838.906250, 33850.933594, 116105.062500, 65629.523438, 91512.664063, 76004.757813, 87896.734375, 102803.070313, 0.000, 0.000, 0.000,0.0,0.0,0.0,0.0,0.0, 14:39:56.118
42887.675781, 33903.503906, 116064.890625, 65653.195313, 91533.406250, 75895.835938, 87882.695313, 102784.914063, 0.000, 0.000, 0.000,0.0,0.0,0.0,0.0,0.0, 14:39:56.118
42972.566406, 33989.960938, 116043.773438, 65097.488281, 91604.867188, 75606.671875, 87863.031250, 102815.429688, 0.330, 0.224, 0.906,0.0,0.0,0.0,0.0,0.0, 14:39:56.118
42939.375000, 33952.500000, 116082.507813, 65008.437500, 91591.898438, 75687.070313, 87874.273438, 102834.781250, 0.000, 0.000, 0.000,0.0,0.0,0.0,0.0,0.0, 14:39:56.119
42852.898438, 33860.902344, 116112.500000, 65551.429688, 91514.898438, 75977.648438, 87890.500000, 102800.500000, 0.000, 0.000, 0.000,0.0,0.0,0.0,0.0,0.0, 14:39:56.120
42869.796875, 33886.070313, 116078.484375, 65721.257813, 91512.265625, 75939.062500, 87881.085938, 102773.023438, 0.000, 0.000, 0.000,0.0,0.0,0.0,0.0,0.0, 14:39:56.121
42965.125000, 33986.250000, 116044.351563, 65202.027344, 91585.781250, 75637.718750, 87861.421875, 102798.773438, 0.000, 0.000, 0.000,0.0,0.0,0.0,0.0,0.0, 14:39:56.121
42959.539063, 33974.562500, 116077.992188, 64971.781250, 91597.984375, 75637.492188, 87871.476563, 102826.515625, 0.000, 0.000, 0.000,0.0,0.0,0.0,0.0,0.0, 14:39:56.121
42871.917969, 33880.773438, 116112.320313, 65448.699219, 91527.531250, 75930.367188, 87888.820313, 102804.054688, 0.000, 0.000, 0.000,0.0,0.0,0.0,0.0,0.0, 14:39:56.121
42865.324219, 33876.480469, 116088.031250, 65747.789063, 91506.968750, 75974.914063, 87886.968750, 102772.132813, 0.000, 0.000, 0.000,0.0,0.0,0.0,0.0,0.0, 14:39:56.122
42950.843750, 33966.425781, 116040.398438, 65309.539063, 91569.820313, 75680.812500, 87860.812500, 102784.742188, 0.000, 0.000, 0.000,0.0,0.0,0.0,0.0,0.0, 14:39:56.122
42965.125000, 33981.734375, 116058.765625, 64936.800781, 91603.750000, 75595.031250, 87866.406250, 102825.125000, 0.326, 0.220, 0.912,0.0,0.0,0.0,0.0,0.0, 14:39:56.122
42873.082031, 33885.175781, 116103.406250, 65339.757813, 91540.109375, 75878.937500, 87890.835938, 102810.062500, 0.000, 0.000, 0.000,0.0,0.0,0.0,0.0,0.0, 14:39:56.122
42846.882813, 33855.558594, 116090.617188, 65750.156250, 91504.617188, 75997.250000, 87893.875000, 102773.562500, 0.000, 0.000, 0.000,0.0,0.0,0.0,0.0,0.0, 14:39:56.122
42926.902344, 33940.273438, 116045.132813, 65425.656250, 91554.976563, 75738.031250, 87866.359375, 102780.226563, 0.000, 0.000, 0.000,0.0,0.0,0.0,0.0,0.0, 14:39:56.122
42966.847656, 33984.574219, 116049.757813, 64963.308594, 91599.140625, 75575.718750, 87858.937500, 102821.125000, 0.000, 0.000, 0.000,0.0,0.0,0.0,0.0,0.0, 14:39:56.122
42890.960938, 33904.531250, 116094.976563, 65243.644531, 91553.343750, 75824.578125, 87884.734375, 102821.398438, 0.000, 0.000, 0.000,0.0,0.0,0.0,0.0,0.0, 14:39:56.123
42838.726563, 33851.738281, 116098.421875, 65734.000000, 91504.039063, 76010.703125, 87897.585938, 102783.937500, 0.000, 0.000, 0.000,0.0,0.0,0.0,0.0,0.0, 14:39:56.123
42908.554688, 33923.687500, 116053.250000, 65526.683594, 91545.835938, 75793.218750, 87875.476563, 102779.484375, 0.000, 0.000, 0.000,0.0,0.0,0.0,0.0,0.0, 14:39:56.123
42966.847656, 33987.480469, 116050.273438, 65001.640625, 91602.945313, 75569.750000, 87859.023438, 102816.140625, 0.000, 0.000, 0.000,0.0,0.0,0.0,0.0,0.0, 14:39:56.123
42901.242188, 33921.164063, 116097.390625, 65156.359375, 91567.406250, 75770.445313, 87880.750000, 102826.421875, 0.000, 0.000, 0.000,0.0,0.0,0.0,0.0,0.0, 14:39:56.123
42838.503906, 33852.097656, 116113.304688, 65693.203125, 91510.875000, 76014.679688, 87900.156250, 102794.101563, 0.320, 0.220, 0.904,0.0,0.0,0.0,0.0,0.0, 14:39:56.123
42886.000000, 33900.910156, 116077.835938, 65634.421875, 91544.429688, 75865.328125, 87888.601563, 102782.171875, 0.000, 0.000, 0.000,0.0,0.0,0.0,0.0,0.0, 14:39:56.123
42966.644531, 33986.742188, 116051.351563, 65075.984375, 91601.875000, 75585.015625, 87859.179688, 102808.054688, 0.000, 0.000, 0.000,0.0,0.0,0.0,0.0,0.0, 14:39:56.124
42922.835938, 33939.179688, 116084.046875, 65077.371094, 91573.218750, 75710.945313, 87869.195313, 102820.078125, 0.000, 0.000, 0.000,0.0,0.0,0.0,0.0,0.0, 14:39:56.124
42842.929688, 33858.199219, 116104.007813, 65622.125000, 91506.851563, 75986.335938, 87889.093750, 102788.539063, 0.000, 0.000, 0.000,0.0,0.0,0.0,0.0,0.0, 14:39:56.124
42878.781250, 33898.476563, 116062.460938, 65671.367188, 91524.179688, 75896.328125, 87881.109375, 102773.359375, 0.000, 0.000, 0.000,0.0,0.0,0.0,0.0,0.0, 14:39:56.124
42958.574219, 33982.875000, 116036.171875, 65124.441406, 91588.257813, 75601.328125, 87853.171875, 102798.062500, 0.000, 0.000, 0.000,0.0,0.0,0.0,0.0,0.0, 14:39:56.124
42928.667969, 33949.882813, 116072.468750, 64999.921875, 91580.546875, 75663.492188, 87862.960938, 102822.312500, 0.000, 0.000, 0.000,0.0,0.0,0.0,0.0,0.0, 14:39:56.124
42842.035156, 33863.093750, 116097.039063, 65510.433594, 91516.796875, 75956.390625, 87891.054688, 102800.898438, 0.000, 0.000, 0.000,0.0,0.0,0.0,0.0,0.0, 14:39:56.125
42855.890625, 33879.589844, 116068.406250, 65704.468750, 91512.843750, 75943.601563, 87885.000000, 102775.617188, 0.316, 0.220, 0.910,0.0,0.0,0.0,0.0,0.0, 14:39:56.125
42946.664063, 33973.218750, 116035.257813, 65211.570313, 91576.437500, 75644.718750, 87856.210938, 102795.601563, 0.000, 0.000, 0.000,0.0,0.0,0.0,0.0,0.0, 14:39:56.125
42941.542969, 33966.917969, 116066.968750, 64949.921875, 91591.210938, 75623.281250, 87862.000000, 102827.093750, 0.000, 0.000, 0.000,0.0,0.0,0.0,0.0,0.0, 14:39:56.125
42848.179688, 33871.808594, 116098.914063, 65412.175781, 91521.781250, 75913.046875, 87883.164063, 102806.304688, 0.000, 0.000, 0.000,0.0,0.0,0.0,0.0,0.0, 14:39:56.125
42829.808594, 33857.886719, 116078.796875, 65746.671875, 91496.414063, 75977.289063, 87882.515625, 102772.890625, 0.000, 0.000, 0.000,0.0,0.0,0.0,0.0,0.0, 14:39:56.125
42927.375000, 33955.742188, 116029.843750, 65323.777344, 91562.734375, 75686.734375, 87860.437500, 102787.757813, 0.000, 0.000, 0.000,0.0,0.0,0.0,0.0,0.0, 14:39:56.126
42956.074219, 33982.765625, 116044.734375, 64918.515625, 91597.445313, 75579.492188, 87858.984375, 102822.984375, 0.000, 0.000, 0.000,0.0,0.0,0.0,0.0,0.0, 14:39:56.127
42859.714844, 33884.171875, 116093.726563, 65305.000000, 91532.890625, 75856.382813, 87879.343750, 102804.585938, 0.000, 0.000, 0.000,0.0,0.0,0.0,0.0,0.0, 14:39:56.127
42834.746094, 33855.761719, 116083.687500, 65734.757813, 91495.656250, 75993.109375, 87883.164063, 102769.984375, 0.000, 0.000, 0.000,0.0,0.0,0.0,0.0,0.0, 14:39:56.128
42923.953125, 33946.777344, 116036.617188, 65412.578125, 91552.140625, 75743.531250, 87863.296875, 102781.632813, 0.000, 0.000, 0.000,0.0,0.0,0.0,0.0,0.0, 14:39:56.128
42969.730469, 33994.296875, 116045.960938, 64920.328125, 91606.406250, 75566.039063, 87858.671875, 102823.898438, 0.324, 0.220, 0.908,0.0,0.0,0.0,0.0,0.0, 14:39:56.128
42888.503906, 33907.503906, 116087.851563, 65162.976563, 91554.734375, 75799.945313, 87881.156250, 102822.804688, 0.000, 0.000, 0.000,0.0,0.0,0.0,0.0,0.0, 14:39:56.129
42829.136719, 33844.875000, 116092.523438, 65672.304688, 91497.156250, 76003.328125, 87892.289063, 102786.101563, 0.000, 0.000, 0.000,0.0,0.0,0.0,0.0,0.0, 14:39:56.129
42896.437500, 33917.519531, 116046.992188, 65497.738281, 91537.585938, 75805.914063, 87872.929688, 102786.523438, 0.000, 0.000, 0.000,0.0,0.0,0.0,0.0,0.0, 14:39:56.129
42962.914063, 33983.546875, 116038.382813, 64950.457031, 91601.445313, 75567.851563, 87860.476563, 102824.257813, 0.000, 0.000, 0.000,0.0,0.0,0.0,0.0,0.0, 14:39:56.130
42904.617188, 33921.117188, 116083.445313, 65067.175781, 91572.789063, 75752.515625, 87887.328125, 102837.445313, 0.000, 0.000, 0.000,0.0,0.0,0.0,0.0,0.0, 14:39:56.130
42825.046875, 33846.417969, 116099.718750, 65608.515625, 91505.179688, 76004.531250, 87899.929688, 102799.578125, 0.000, 0.000, 0.000,0.0,0.0,0.0,0.0,0.0, 14:39:56.130
42872.367188, 33898.117188, 116055.328125, 65576.906250, 91529.250000, 75865.484375, 87881.335938, 102783.468750, 0.000, 0.000, 0.000,0.0,0.0,0.0,0.0,0.0, 14:39:56.131
42958.441406, 33983.167969, 116030.515625, 65009.421875, 91598.742188, 75584.859375, 87861.593750, 102816.140625, 0.000, 0.000, 0.000,0.0,0.0,0.0,0.0,0.0, 14:39:56.131
42917.738281, 33935.109375, 116071.085938, 64985.953125, 91580.148438, 75703.921875, 87878.296875, 102833.937500, 0.322, 0.216, 0.906,0.0,0.0,0.0,0.0,0.0, 14:39:56.131
42835.082031, 33850.464844, 116098.085938, 65534.777344, 91510.187500, 75987.859375, 87896.421875, 102803.132813, 0.000, 0.000, 0.000,0.0,0.0,0.0,0.0,0.0, 14:39:56.131
42864.093750, 33888.460938, 116063.039063, 65640.343750, 91516.687500, 75916.960938, 87882.070313, 102782.523438, 0.000, 0.000, 0.000,0.0,0.0,0.0,0.0,0.0, 14:39:56.132
42950.195313, 33980.664063, 116030.875000, 65103.789063, 91587.562500, 75614.632813, 87857.890625, 102807.382813, 0.000, 0.000, 0.000,0.0,0.0,0.0,0.0,0.0, 14:39:56.132
42935.105469, 33962.894531, 116065.007813, 64932.933594, 91593.507813, 75652.539063, 87872.906250, 102839.054688, 0.000, 0.000, 0.000,0.0,0.0,0.0,0.0,0.0, 14:39:56.132
42843.777344, 33865.820313, 116100.078125, 65442.796875, 91525.671875, 75948.476563, 87898.906250, 102815.046875, 0.000, 0.000, 0.000,0.0,0.0,0.0,0.0,0.0, 14:39:56.132
42852.382813, 33876.750000, 116071.531250, 65669.515625, 91519.078125, 75954.468750, 87896.398438, 102787.648438, 0.000, 0.000, 0.000,0.0,0.0,0.0,0.0,0.0, 14:39:56.132
42938.773438, 33967.410156, 116037.890625, 65186.312500, 91586.937500, 75660.476563, 87871.898438, 102806.218750, 0.000, 0.000, 0.000,0.0,0.0,0.0,0.0,0.0, 14:39:56.133
42940.761719, 33966.917969, 116069.968750, 64897.191406, 91605.203125, 75616.351563, 87875.234375, 102837.398438, 0.000, 0.000, 0.000,0.0,0.0,0.0,0.0,0.0, 14:39:56.133
42851.644531, 33874.984375, 116107.070313, 65332.828125, 91538.640625, 75903.234375, 87896.578125, 102819.671875, 0.000, 0.000, 0.000,0.0,0.0,0.0,0.0,0.0, 14:39:56.133
42836.847656, 33861.503906, 116087.445313, 65683.304688, 91511.304688, 75987.125000, 87895.039063, 102786.703125, 0.322, 0.220, 0.904,0.0,0.0,0.0,0.0,0.0, 14:39:56.134
42915.550781, 33949.394531, 116042.851563, 65301.421875, 91564.250000, 75711.367188, 87864.523438, 102790.906250, 0.000, 0.000, 0.000,0.0,0.0,0.0,0.0,0.0, 14:39:56.134
42948.742188, 33976.707031, 116050.078125, 64874.394531, 91604.085938, 75580.078125, 87861.484375, 102827.093750, 0.000, 0.000, 0.000,0.0,0.0,0.0,0.0,0.0, 14:39:56.134
42867.671875, 33887.882813, 116091.203125, 65207.011719, 91550.820313, 75845.765625, 87887.906250, 102822.695313, 0.000, 0.000, 0.000,0.0,0.0,0.0,0.0,0.0, 14:39:56.135
42828.644531, 33847.335938, 116083.359375, 65659.226563, 91505.289063, 76000.781250, 87892.507813, 102784.804688, 0.000, 0.000, 0.000,0.0,0.0,0.0,0.0,0.0, 14:39:56.135
42900.820313, 33924.203125, 116038.789063, 65392.082031, 91553.835938, 75759.578125, 87870.562500, 102781.609375, 0.000, 0.000, 0.000,0.0,0.0,0.0,0.0,0.0, 14:39:56.136
42953.210938, 33981.175781, 116041.132813, 64888.609375, 91610.562500, 75557.140625, 87865.554688, 102818.960938, 0.000, 0.000, 0.000,0.0,0.0,0.0,0.0,0.0, 14:39:56.137
42880.570313, 33902.812500, 116086.664063, 65109.242188, 91557.460938, 75779.742188, 87876.171875, 102817.484375, 0.000, 0.000, 0.000,0.0,0.0,0.0,0.0,0.0, 14:39:56.138
42830.546875, 33853.078125, 116095.718750, 65620.296875, 91507.234375, 75995.390625, 87892.468750, 102785.859375, 0.000, 0.000, 0.000,0.0,0.0,0.0,0.0,0.0, 14:39:56.138
42896.035156, 33924.402344, 116053.093750, 65476.886719, 91547.398438, 75809.757813, 87877.421875, 102781.031250, 0.000, 0.000, 0.000,0.0,0.0,0.0,0.0,0.8297339, 14:39:56.586
42961.257813, 33993.136719, 116045.695313, 64936.578125, 91602.921875, 75558.484375, 87855.851563, 102811.851563, 0.324, 0.222, 0.904,0.0,0.0,0.0,0.0,0.8297339, 14:39:56.587
42902.429688, 33934.730469, 116087.515625, 65017.355469, 91571.453125, 75723.617188, 87875.453125, 102824.906250, 0.000, 0.000, 0.000,0.0,0.0,0.0,0.0,0.8297339, 14:39:56.587
42821.402344, 33849.035156, 116104.921875, 65573.375000, 91500.546875, 75985.851563, 87888.554688, 102785.078125, 0.000, 0.000, 0.000,0.0,0.0,0.0,0.0,0.8297339, 14:39:56.587
42869.125000, 33899.257813, 116060.109375, 65574.406250, 91521.429688, 75862.757813, 87871.789063, 102768.507813, 0.000, 0.000, 0.000,0.0,0.0,0.0,0.0,0.8297339, 14:39:56.588
42960.699219, 33995.191406, 116036.796875, 65008.035156, 91596.304688, 75576.789063, 87855.828125, 102803.539063, 0.000, 0.000, 0.000,0.0,0.0,0.0,0.0,0.8297339, 14:39:56.588
42922.992188, 33954.222656, 116079.664063, 64941.804688, 91585.953125, 75674.554688, 87875.007813, 102826.937500, 0.000, 0.000, 0.000,0.0,0.0,0.0,0.0,0.8297339, 14:39:56.588
42842.636719, 33867.453125, 116111.320313, 65477.488281, 91521.406250, 75968.257813, 87899.281250, 102802.015625, 0.000, 0.000, 0.000,0.0,0.0,0.0,0.0,0.8297339, 14:39:56.589
42864.519531, 33889.937500, 116082.906250, 65626.890625, 91523.039063, 75923.929688, 87890.898438, 102778.617188, 0.000, 0.000, 0.000,0.0,0.0,0.0,0.0,0.8297339, 14:39:56.589
42955.761719, 33984.128906, 116048.375000, 65104.683594, 91594.070313, 75619.750000, 87867.320313, 102803.179688, 0.000, 0.000, 0.000,0.0,0.0,0.0,0.0,0.8297339, 14:39:56.590
42944.425781, 33970.023438, 116079.351563, 64879.019531, 91605.914063, 75629.960938, 87876.039063, 102837.289063, 0.324, 0.220, 0.902,0.0,0.0,0.0,0.0,0.8297339, 14:39:56.590
42844.468750, 33868.187500, 116120.460938, 65379.675781, 91536.578125, 75930.039063, 87900.984375, 102817.750000, 0.000, 0.000, 0.000,0.0,0.0,0.0,0.0,0.8297339, 14:39:56.591
42843.175781, 33867.296875, 116092.968750, 65656.171875, 91526.187500, 75960.414063, 87902.054688, 102789.945313, 0.000, 0.000, 0.000,0.0,0.0,0.0,0.0,0.8297339, 14:39:56.591
42938.058594, 33963.453125, 116049.515625, 65202.406250, 91590.406250, 75665.617188, 87873.664063, 102802.460938, 0.000, 0.000, 0.000,0.0,0.0,0.0,0.0,0.8297339, 14:39:56.591
42954.597656, 33980.507813, 116072.875000, 64864.246094, 91614.429688, 75595.359375, 87873.085938, 102835.835938, 0.000, 0.000, 0.000,0.0,0.0,0.0,0.0,0.8297339, 14:39:56.591
42859.984375, 33881.218750, 116110.695313, 65278.582031, 91545.140625, 75877.953125, 87893.445313, 102817.710938, 0.000, 0.000, 0.000,0.0,0.0,0.0,0.0,0.8297339, 14:39:56.592
42832.332031, 33854.488281, 116093.859375, 65668.484375, 91511.257813, 75982.945313, 87897.046875, 102785.500000, 0.000, 0.000, 0.000,0.0,0.0,0.0,0.0,0.8297339, 14:39:56.592
42917.785156, 33945.816406, 116052.328125, 65309.222656, 91572.656250, 75718.835938, 87879.140625, 102796.718750, 0.000, 0.000, 0.000,0.0,0.0,0.0,0.0,0.8297339, 14:39:56.592
42957.191406, 33981.937500, 116064.937500, 64861.988281, 91615.664063, 75572.093750, 87873.687500, 102831.523438, 0.000, 0.000, 0.000,0.0,0.0,0.0,0.0,0.8297339, 14:39:56.592
42872.296875, 33890.183594, 116110.109375, 65169.996094, 91562.820313, 75827.929688, 87895.640625, 102825.554688, 0.000, 0.000, 0.000,0.0,0.0,0.0,0.0,0.8297339, 14:39:56.593
42829.023438, 33848.808594, 116107.140625, 65645.820313, 91520.156250, 76003.351563, 87908.648438, 102792.898438, 0.324, 0.214, 0.908,0.0,0.0,0.0,0.0,0.8297339, 14:39:56.593
42906.160156, 33933.343750, 116060.578125, 65400.753906, 91571.273438, 75779.898438, 87891.906250, 102798.890625, 0.000, 0.000, 0.000,0.0,0.0,0.0,0.0,0.8297339, 14:39:56.593
42956.363281, 33982.718750, 116058.945313, 64882.394531, 91622.210938, 75563.601563, 87873.468750, 102831.718750, 0.000, 0.000, 0.000,0.0,0.0,0.0,0.0,0.8297339, 14:39:56.593
42883.027344, 33906.945313, 116099.828125, 65068.898438, 91576.281250, 75768.945313, 87892.375000, 102834.156250, 0.000, 0.000, 0.000,0.0,0.0,0.0,0.0,0.8297339, 14:39:56.593
42827.773438, 33844.875000, 116106.960938, 65593.937500, 91520.000000, 76001.562500, 87909.320313, 102801.593750, 0.000, 0.000, 0.000,0.0,0.0,0.0,0.0,0.8297339, 14:39:56.593
42886.781250, 33904.175781, 116060.851563, 65497.226563, 91548.984375, 75835.687500, 87890.656250, 102786.703125, 0.000, 0.000, 0.000,0.0,0.0,0.0,0.0,0.8297339, 14:39:56.594
42962.195313, 33986.003906, 116042.226563, 64936.507813, 91613.921875, 75573.343750, 87873.039063, 102822.648438, 0.000, 0.000, 0.000,0.0,0.0,0.0,0.0,0.8297339, 14:39:56.594
42909.828125, 33930.953125, 116086.734375, 64981.593750, 91588.820313, 75723.726563, 87893.023438, 102839.164063, 0.000, 0.000, 0.000,0.0,0.0,0.0,0.0,0.8297339, 14:39:56.595
42832.734375, 33848.183594, 116105.640625, 65529.187500, 91522.031250, 75994.765625, 87910.343750, 102805.820313, 0.000, 0.000, 0.000,0.0,0.0,0.0,0.0,0.8297339, 14:39:56.595
42869.953125, 33887.343750, 116064.804688, 65568.367188, 91538.796875, 75893.203125, 87897.117188, 102786.367188, 0.322, 0.220, 0.906,0.0,0.0,0.0,0.0,0.8297339, 14:39:56.595
42953.367188, 33976.863281, 116037.046875, 65014.742188, 91610.656250, 75598.851563, 87875.429688, 102817.304688, 0.000, 0.000, 0.000,0.0,0.0,0.0,0.0,0.8297339, 14:39:56.596
42919.460938, 33941.437500, 116072.312500, 64903.339844, 91603.640625, 75670.578125, 87891.593750, 102843.437500, 0.000, 0.000, 0.000,0.0,0.0,0.0,0.0,0.8297339, 14:39:56.596
42823.480469, 33839.109375, 116104.992188, 65446.441406, 91526.523438, 75963.382813, 87909.117188, 102810.687500, 0.000, 0.000, 0.000,0.0,0.0,0.0,0.0,0.8297339, 14:39:56.596
42848.335938, 33867.941406, 116069.898438, 65621.187500, 91527.507813, 75933.453125, 87898.054688, 102786.367188, 0.000, 0.000, 0.000,0.0,0.0,0.0,0.0,0.8297339, 14:39:56.596
42947.066406, 33972.437500, 116035.703125, 65102.269531, 91603.257813, 75632.914063, 87877.109375, 102813.906250, 0.000, 0.000, 0.000,0.0,0.0,0.0,0.0,0.8297339, 14:39:56.596
42938.371094, 33961.843750, 116069.859375, 64859.417969, 91615.640625, 75624.554688, 87888.304688, 102844.664063, 0.000, 0.000, 0.000,0.0,0.0,0.0,0.0,0.8297339, 14:39:56.596
42844.222656, 33864.992188, 116106.046875, 65332.246094, 91545.453125, 75914.992188, 87909.679688, 102822.398438, 0.000, 0.000, 0.000,0.0,0.0,0.0,0.0,0.8297339, 14:39:56.596
42840.714844, 33864.457031, 116081.117188, 65625.320313, 91525.000000, 75963.968750, 87907.148438, 102793.523438, 0.000, 0.000, 0.000,0.0,0.0,0.0,0.0,0.8297339, 14:39:56.597
42926.925781, 33954.867188, 116043.812500, 65199.722656, 91587.187500, 75680.593750, 87879.945313, 102806.109375, 0.000, 0.000, 0.000,0.0,0.0,0.0,0.0,0.8297339, 14:39:56.597
42941.566406, 33968.457031, 116064.335938, 64839.546875, 91608.484375, 75591.406250, 87873.734375, 102841.179688, 0.324, 0.214, 0.914,0.0,0.0,0.0,0.0,0.8297339, 14:39:56.597
42854.328125, 33877.464844, 116104.968750, 65228.066406, 91544.921875, 75869.929688, 87895.390625, 102828.500000, 0.000, 0.000, 0.000,0.0,0.0,0.0,0.0,0.8297339, 14:39:56.597
42823.636719, 33848.808594, 116094.218750, 65646.218750, 91511.703125, 75999.257813, 87900.890625, 102795.867188, 0.000, 0.000, 0.000,0.0,0.0,0.0,0.0,0.8297339, 14:39:56.597
42905.582031, 33937.902344, 116043.968750, 65312.175781, 91570.242188, 75741.031250, 87880.242188, 102802.914063, 0.000, 0.000, 0.000,0.0,0.0,0.0,0.0,0.8297339, 14:39:56.598
42949.007813, 33979.992188, 116051.546875, 64849.562500, 91615.507813, 75571.601563, 87875.656250, 102834.875000, 0.000, 0.000, 0.000,0.0,0.0,0.0,0.0,0.8297339, 14:39:56.598
42872.050781, 33896.976563, 116092.992188, 65117.535156, 91562.843750, 75810.562500, 87897.875000, 102831.250000, 0.000, 0.000, 0.000,0.0,0.0,0.0,0.0,0.8297339, 14:39:56.598
42823.503906, 33845.906250, 116092.429688, 65615.507813, 91511.484375, 76000.664063, 87906.593750, 102790.148438, 0.000, 0.000, 0.000,0.0,0.0,0.0,0.0,0.8297339, 14:39:56.598
42898.339844, 33925.343750, 116045.828125, 65406.386719, 91557.968750, 75789.085938, 87889.695313, 102791.843750, 0.000, 0.000, 0.000,0.0,0.0,0.0,0.0,0.8297339, 14:39:56.599
42960.117188, 33993.335938, 116044.171875, 64874.281250, 91612.375000, 75557.859375, 87870.226563, 102827.054688, 0.000, 0.000, 0.000,0.0,0.0,0.0,0.0,0.8297339, 14:39:56.599
42896.484375, 33929.523438, 116089.343750, 65014.203125, 91575.296875, 75749.765625, 87891.664063, 102835.140625, 0.000, 0.000, 0.000,0.0,0.0,0.0,0.0,0.8297339, 14:39:56.599
42833.652344, 33863.472656, 116106.359375, 65549.375000, 91518.367188, 75994.164063, 87909.812500, 102803.023438, 0.326, 0.222, 0.910,0.0,0.0,0.0,0.0,0.8297339, 14:39:56.599
42887.945313, 33916.468750, 116068.312500, 65492.375000, 91546.375000, 75843.109375, 87892.843750, 102786.546875, 0.000, 0.000, 0.000,0.0,0.0,0.0,0.0,0.8297339, 14:39:56.600
42963.136719, 33990.609375, 116052.109375, 64946.054688, 91611.546875, 75569.320313, 87872.820313, 102816.593750, 0.000, 0.000, 0.000,0.0,0.0,0.0,0.0,0.8297339, 14:39:56.600
42918.230469, 33937.792969, 116094.507813, 64946.812500, 91593.375000, 75699.523438, 87888.914063, 102837.937500, 0.000, 0.000, 0.000,0.0,0.0,0.0,0.0,0.8297339, 14:39:56.600
42835.687500, 33856.812500, 116118.132813, 65492.753906, 91522.812500, 75976.843750, 87905.023438, 102805.390625, 0.000, 0.000, 0.000,0.0,0.0,0.0,0.0,0.8297339, 14:39:56.601
42865.324219, 33891.433594, 116078.234375, 65565.304688, 91534.164063, 75892.976563, 87894.390625, 102783.867188, 0.000, 0.000, 0.000,0.0,0.0,0.0,0.0,0.8297339, 14:39:56.602
42948.339844, 33976.820313, 116048.328125, 65024.550781, 91602.609375, 75597.085938, 87871.054688, 102807.429688, 0.000, 0.000, 0.000,0.0,0.0,0.0,0.0,0.8297339, 14:39:56.602
42922.992188, 33952.433594, 116079.468750, 64879.871094, 91599.281250, 75648.960938, 87882.609375, 102836.125000, 0.000, 0.000, 0.000,0.0,0.0,0.0,0.0,0.8297339, 14:39:56.602
42837.675781, 33863.449219, 116114.359375, 65390.921875, 91532.601563, 75947.382813, 87908.757813, 102818.867188, 0.000, 0.000, 0.000,0.0,0.0,0.0,0.0,0.8297339, 14:39:56.602
42852.425781, 33882.046875, 116088.187500, 65606.257813, 91528.828125, 75944.359375, 87907.578125, 102794.171875, 0.326, 0.228, 0.906,0.0,0.0,0.0,0.0,0.8297339, 14:39:56.602
42944.941406, 33978.183594, 116053.093750, 65113.781250, 91597.046875, 75645.320313, 87883.390625, 102812.093750, 0.000, 0.000, 0.000,0.0,0.0,0.0,0.0,0.8297339, 14:39:56.602
42939.152344, 33971.273438, 116081.257813, 64841.156250, 91610.210938, 75613.625000, 87885.890625, 102842.007813, 0.000, 0.000, 0.000,0.0,0.0,0.0,0.0,0.8297339, 14:39:56.603
42849.968750, 33879.230469, 116118.000000, 65294.070313, 91545.187500, 75909.296875, 87908.578125, 102827.898438, 0.000, 0.000, 0.000,0.0,0.0,0.0,0.0,0.8297339, 14:39:56.603
42833.183594, 33867.003906, 116097.210938, 65629.187500, 91520.062500, 75980.328125, 87904.890625, 102795.578125, 0.000, 0.000, 0.000,0.0,0.0,0.0,0.0,0.8297339, 14:39:56.603
42918.164063, 33958.667969, 116053.203125, 65235.039063, 91580.031250, 75699.703125, 87879.789063, 102804.835938, 0.000, 0.000, 0.000,0.0,0.0,0.0,0.0,0.8297339, 14:39:56.603
42946.394531, 33984.730469, 116068.468750, 64834.832031, 91617.382813, 75582.820313, 87881.179688, 102841.179688, 0.000, 0.000, 0.000,0.0,0.0,0.0,0.0,0.8297339, 14:39:56.603
42864.429688, 33893.335938, 116109.507813, 65182.175781, 91561.617188, 75851.289063, 87907.109375, 102836.820313, 0.000, 0.000, 0.000,0.0,0.0,0.0,0.0,0.8297339, 14:39:56.603
42829.988281, 33854.957031, 116101.460938, 65622.484375, 91517.226563, 75994.898438, 87909.765625, 102799.203125, 0.000, 0.000, 0.000,0.0,0.0,0.0,0.0,0.8297339, 14:39:56.603
42912.800781, 33944.296875, 116059.882813, 65328.042969, 91571.984375, 75749.031250, 87886.812500, 102803.671875, 0.000, 0.000, 0.000,0.0,0.0,0.0,0.0,0.8297339, 14:39:56.604
42959.828125, 33989.179688, 116066.343750, 64852.445313, 91617.632813, 75563.710938, 87875.414063, 102835.367188, 0.326, 0.220, 0.910,0.0,0.0,0.0,0.0,0.8297339, 14:39:56.604
42886.937500, 33912.246094, 116105.460938, 65094.894531, 91569.351563, 75795.476563, 87896.890625, 102836.039063, 0.000, 0.000, 0.000,0.0,0.0,0.0,0.0,0.8297339, 14:39:56.604
42829.406250, 33855.292969, 116109.304688, 65604.359375, 91515.101563, 76002.546875, 87908.335938, 102799.804688, 0.000, 0.000, 0.000,0.0,0.0,0.0,0.0,0.8297339, 14:39:56.604
42893.757813, 33922.972656, 116061.921875, 65445.257813, 91552.789063, 75807.437500, 87885.601563, 102791.085938, 0.000, 0.000, 0.000,0.0,0.0,0.0,0.0,0.8297339, 14:39:56.605
42967.023438, 33994.855469, 116051.976563, 64896.210938, 91616.601563, 75562.257813, 87870.601563, 102828.664063, 0.000, 0.000, 0.000,0.0,0.0,0.0,0.0,0.8297339, 14:39:56.605
42902.851563, 33925.835938, 116101.375000, 65008.863281, 91583.609375, 75741.500000, 87892.398438, 102837.781250, 0.000, 0.000, 0.000,0.0,0.0,0.0,0.0,0.8297339, 14:39:56.605
42828.781250, 33849.457031, 116112.007813, 65545.976563, 91518.789063, 75992.617188, 87905.046875, 102802.398438, 0.000, 0.000, 0.000,0.0,0.0,0.0,0.0,0.8297339, 14:39:56.605
42874.109375, 33901.156250, 116066.859375, 65517.542969, 91541.585938, 75859.937500, 87888.773438, 102788.382813, 0.000, 0.000, 0.000,0.0,0.0,0.0,0.0,0.8297339, 14:39:56.606
42956.722656, 33986.945313, 116043.859375, 64955.285156, 91608.554688, 75576.789063, 87869.328125, 102822.023438, 0.000, 0.000, 0.000,0.0,0.0,0.0,0.0,0.8297339, 14:39:56.606
42911.996094, 33940.273438, 116084.273438, 64910.023438, 91592.906250, 75684.437500, 87887.148438, 102843.320313, 0.330, 0.216, 0.908,0.0,0.0,0.0,0.0,0.8297339, 14:39:56.606
42827.417969, 33855.089844, 116112.523438, 65458.265625, 91521.539063, 75971.226563, 87905.250000, 102813.726563, 0.000, 0.000, 0.000,0.0,0.0,0.0,0.0,0.8297339, 14:39:56.606
42854.238281, 33888.195313, 116076.492188, 65575.234375, 91526.968750, 75909.921875, 87894.968750, 102789.367188, 0.000, 0.000, 0.000,0.0,0.0,0.0,0.0,0.8297339, 14:39:56.606
42950.195313, 33985.738281, 116045.718750, 65039.058594, 91595.882813, 75611.414063, 87868.015625, 102815.140625, 0.000, 0.000, 0.000,0.0,0.0,0.0,0.0,0.8297339, 14:39:56.606
42930.792969, 33962.738281, 116080.632813, 64862.210938, 91599.210938, 75641.250000, 87878.828125, 102842.609375, 0.000, 0.000, 0.000,0.0,0.0,0.0,0.0,0.8297339, 14:39:56.606
42837.921875, 33864.457031, 116110.695313, 65369.082031, 91524.421875, 75933.078125, 87899.726563, 102814.156250, 0.000, 0.000, 0.000,0.0,0.0,0.0,0.0,0.8297339, 14:39:56.607
42847.757813, 33876.214844, 116083.492188, 65616.226563, 91513.000000, 75948.789063, 87896.328125, 102788.742188, 0.000, 0.000, 0.000,0.0,0.0,0.0,0.0,0.8297339, 14:39:56.607
42938.707031, 33973.042969, 116048.398438, 65150.906250, 91585.625000, 75656.648438, 87876.750000, 102810.734375, 0.000, 0.000, 0.000,0.0,0.0,0.0,0.0,0.8297339, 14:39:56.607
42942.191406, 33977.890625, 116072.226563, 64833.445313, 91606.367188, 75601.578125, 87878.093750, 102844.578125, 0.000, 0.000, 0.000,0.0,0.0,0.0,0.0,0.8297339, 14:39:56.608
42851.847656, 33883.343750, 116114.023438, 65271.828125, 91540.406250, 75891.906250, 87902.476563, 102827.718750, 0.000, 0.000, 0.000,0.0,0.0,0.0,0.0,0.8297339, 14:39:56.608
42839.531250, 33870.246094, 116094.664063, 65630.578125, 91515.882813, 75980.484375, 87905.070313, 102797.140625, 0.328, 0.222, 0.906,0.0,0.0,0.0,0.0,0.8297339, 14:39:56.608
42928.355469, 33959.765625, 116050.968750, 65245.523438, 91578.242188, 75707.234375, 87881.515625, 102807.046875, 0.000, 0.000, 0.000,0.0,0.0,0.0,0.0,0.8297339, 14:39:56.608
42952.988281, 33983.679688, 116064.265625, 64823.230469, 91613.921875, 75573.750000, 87877.335938, 102839.054688, 0.000, 0.000, 0.000,0.0,0.0,0.0,0.0,0.8297339, 14:39:56.609
42866.105469, 33896.464844, 116104.140625, 65151.488281, 91553.929688, 75832.156250, 87897.765625, 102830.312500, 0.000, 0.000, 0.000,0.0,0.0,0.0,0.0,0.8297339, 14:39:56.609
42829.203125, 33856.476563, 116101.039063, 65615.804688, 91505.890625, 75994.859375, 87901.429688, 102792.828125, 0.000, 0.000, 0.000,0.0,0.0,0.0,0.0,0.8297339, 14:39:56.609
42909.691406, 33942.574219, 116052.195313, 65356.968750, 91558.843750, 75762.460938, 87880.953125, 102795.937500, 0.000, 0.000, 0.000,0.0,0.0,0.0,0.0,0.8297339, 14:39:56.609
42964.855469, 33998.613281, 116051.523438, 64839.546875, 91615.593750, 75557.234375, 87870.250000, 102833.000000, 0.000, 0.000, 0.000,0.0,0.0,0.0,0.0,0.8297339, 14:39:56.610
42889.085938, 33918.234375, 116098.328125, 65048.089844, 91568.609375, 75773.843750, 87889.382813, 102834.359375, 0.000, 0.000, 0.000,0.0,0.0,0.0,0.0,0.5045088, 14:39:56.610
42827.863281, 33858.445313, 116106.914063, 65573.109375, 91512.867188, 75995.171875, 87902.906250, 102799.226563, 0.000, 0.000, 0.000,0.0,0.0,0.0,0.0,0.5045088, 14:39:56.610
42889.039063, 33923.464844, 116069.343750, 65458.691406, 91548.648438, 75818.992188, 87884.265625, 102788.156250, 0.320, 0.226, 0.914,0.0,0.0,0.0,0.0,0.5045088, 14:39:56.611
42966.691406, 34000.019531, 116057.179688, 64907.808594, 91616.085938, 75560.156250, 87871.234375, 102824.546875, 0.000, 0.000, 0.000,0.0,0.0,0.0,0.0,0.5045088, 14:39:56.611
42910.566406, 33939.246094, 116104.656250, 64969.144531, 91587.992188, 75723.039063, 87892.890625, 102842.968750, 0.000, 0.000, 0.000,0.0,0.0,0.0,0.0,0.5045088, 14:39:56.611
42833.832031, 33860.925781, 116121.976563, 65516.515625, 91520.843750, 75988.640625, 87910.882813, 102810.710938, 0.000, 0.000, 0.000,0.0,0.0,0.0,0.0,0.5045088, 14:39:56.612
42878.085938, 33912.019531, 116080.648438, 65529.144531, 91538.257813, 75877.289063, 87893.132813, 102796.945313, 0.000, 0.000, 0.000,0.0,0.0,0.0,0.0,0.5045088, 14:39:56.612
42963.203125, 34001.898438, 116060.804688, 64979.246094, 91603.750000, 75587.273438, 87868.148438, 102823.539063, 0.000, 0.000, 0.000,0.0,0.0,0.0,0.0,0.5045088, 14:39:56.612
42925.605469, 33964.726563, 116099.562500, 64899.316406, 91593.804688, 75673.703125, 87881.445313, 102844.281250, 0.000, 0.000, 0.000,0.0,0.0,0.0,0.0,0.5045088, 14:39:56.612
42829.292969, 33868.769531, 116122.156250, 65439.265625, 91518.117188, 75959.921875, 87897.539063, 102808.562500, 0.000, 0.000, 0.000,0.0,0.0,0.0,0.0,0.5045088, 14:39:56.612
42850.730469, 33893.648438, 116089.460938, 65596.468750, 91522.656250, 75921.742188, 87892.507813, 102787.000000, 0.000, 0.000, 0.000,0.0,0.0,0.0,0.0,0.5045088, 14:39:56.613
42952.472656, 33990.945313, 116051.281250, 65068.519531, 91597.757813, 75623.281250, 87874.023438, 102816.078125, 0.000, 0.000, 0.000,0.0,0.0,0.0,0.0,0.5045088, 14:39:56.613
42940.070313, 33971.453125, 116080.492188, 64839.570313, 91604.460938, 75629.828125, 87879.570313, 102846.093750, 0.320, 0.224, 0.918,0.0,0.0,0.0,0.0,0.5045088, 14:39:56.613
42844.468750, 33872.121094, 116118.914063, 65333.453125, 91532.156250, 75926.664063, 87900.781250, 102820.476563, 0.000, 0.000, 0.000,0.0,0.0,0.0,0.0,0.5045088, 14:39:56.613
42850.953125, 33881.128906, 116089.726563, 65605.835938, 91521.382813, 75958.601563, 87899.773438, 102791.085938, 0.000, 0.000, 0.000,0.0,0.0,0.0,0.0,0.5045088, 14:39:56.614
42944.652344, 33979.277344, 116048.953125, 65148.136719, 91590.585938, 75665.882813, 87876.015625, 102809.570313, 0.000, 0.000, 0.000,0.0,0.0,0.0,0.0,0.5045088, 14:39:56.614
42953.925781, 33988.152344, 116067.710938, 64784.941406, 91619.593750, 75588.273438, 87878.695313, 102846.656250, 0.000, 0.000, 0.000,0.0,0.0,0.0,0.0,0.5045088, 14:39:56.614
42856.250000, 33888.171875, 116114.226563, 65200.304688, 91550.398438, 75876.773438, 87897.023438, 102825.953125, 0.000, 0.000, 0.000,0.0,0.0,0.0,0.0,0.5045088, 14:39:56.615
42830.320313, 33863.988281, 116100.812500, 65608.695313, 91513.757813, 75988.507813, 87898.835938, 102787.062500, 0.000, 0.000, 0.000,0.0,0.0,0.0,0.0,0.5045088, 14:39:56.615
42914.832031, 33949.167969, 116057.671875, 65271.183594, 91570.000000, 75722.406250, 87875.078125, 102795.468750, 0.000, 0.000, 0.000,0.0,0.0,0.0,0.0,0.5045088, 14:39:56.615
42952.472656, 33990.093750, 116070.992188, 64826.894531, 91611.460938, 75568.007813, 87870.468750, 102835.546875, 0.000, 0.000, 0.000,0.0,0.0,0.0,0.0,0.5045088, 14:39:56.616
42874.464844, 33909.562500, 116115.320313, 65121.828125, 91562.710938, 75824.132813, 87899.039063, 102839.750000, 0.000, 0.000, 0.000,0.0,0.0,0.0,0.0,0.5045088, 14:39:56.616
42833.070313, 33864.144531, 116116.343750, 65597.828125, 91524.492188, 76009.585938, 87916.718750, 102810.625000, 0.324, 0.218, 0.916,0.0,0.0,0.0,0.0,0.5045088, 14:39:56.616
42909.515625, 33941.480469, 116073.234375, 65374.468750, 91568.007813, 75789.640625, 87893.179688, 102805.929688, 0.000, 0.000, 0.000,0.0,0.0,0.0,0.0,0.5045088, 14:39:56.616
42976.457031, 34013.496094, 116069.742188, 64841.761719, 91628.046875, 75568.476563, 87881.828125, 102844.125000, 0.000, 0.000, 0.000,0.0,0.0,0.0,0.0,0.5045088, 14:39:56.617
42917.605469, 33946.957031, 116120.015625, 65003.988281, 91592.593750, 75774.843750, 87905.117188, 102852.484375, 0.000, 0.000, 0.000,0.0,0.0,0.0,0.0,0.5045088, 14:39:56.617
42849.210938, 33872.414063, 116138.273438, 65558.781250, 91527.843750, 76014.281250, 87917.656250, 102812.054688, 0.000, 0.000, 0.000,0.047517996,0.075418554,0.042340245,0.057702325,0.024128532, 14:39:57.065
42904.820313, 33935.468750, 116087.335938, 65468.882813, 91556.898438, 75847.648438, 87899.304688, 102801.257813, 0.000, 0.000, 0.000,0.047517996,0.075418554,0.042340245,0.057702325,0.024128532, 14:39:57.065
42975.628906, 34015.375000, 116066.882813, 64897.863281, 91617.070313, 75574.445313, 87875.343750, 102831.742188, 0.000, 0.000, 0.000,0.047517996,0.075418554,0.042340245,0.057702325,0.024128532, 14:39:57.066
42914.273438, 33953.460938, 116109.195313, 64931.992188, 91586.757813, 75712.914063, 87889.539063, 102841.531250, 0.000, 0.000, 0.000,0.047517996,0.075418554,0.042340245,0.057702325,0.024128532, 14:39:57.066
42830.230469, 33862.109375, 116123.765625, 65487.054688, 91514.226563, 75982.562500, 87904.085938, 102803.289063, 0.000, 0.000, 0.000,0.047517996,0.075418554,0.042340245,0.057702325,0.024128532, 14:39:57.066
42869.437500, 33899.906250, 116079.664063, 65542.062500, 91529.203125, 75888.125000, 87888.195313, 102785.296875, 0.332, 0.218, 0.906,0.047517996,0.075418554,0.042340245,0.057702325,0.024128532, 14:39:57.067
42953.882813, 33993.023438, 116048.601563, 64995.292969, 91597.960938, 75595.539063, 87865.132813, 102816.546875, 0.000, 0.000, 0.000,0.047517996,0.075418554,0.042340245,0.057702325,0.024128532, 14:39:57.067
42922.878906, 33962.714844, 116083.421875, 64877.546875, 91591.117188, 75658.617188, 87875.476563, 102838.921875, 0.000, 0.000, 0.000,0.047517996,0.075418554,0.042340245,0.057702325,0.024128532, 14:39:57.067
42831.550781, 33870.757813, 116114.000000, 65406.699219, 91523.593750, 75949.906250, 87899.507813, 102809.351563, 0.000, 0.000, 0.000,0.047517996,0.075418554,0.042340245,0.057702325,0.024128532, 14:39:57.068
42851.062500, 33886.628906, 116079.625000, 65597.585938, 91516.796875, 75930.929688, 87887.328125, 102783.015625, 0.000, 0.000, 0.000,0.047517996,0.075418554,0.042340245,0.057702325,0.024128532, 14:39:57.068
42952.808594, 33986.250000, 116043.617188, 65102.023438, 91585.507813, 75633.828125, 87864.390625, 102805.078125, 0.000, 0.000, 0.000,0.047517996,0.075418554,0.042340245,0.057702325,0.024128532, 14:39:57.068
42952.050781, 33984.664063, 116074.796875, 64844.597656, 91600.351563, 75618.320313, 87872.351563, 102840.148438, 0.000, 0.000, 0.000,0.047517996,0.075418554,0.042340245,0.057702325,0.024128532, 14:39:57.069
42858.933594, 33888.597656, 116112.031250, 65305.714844, 91533.429688, 75909.359375, 87897.359375, 102820.906250, 0.000, 0.000, 0.000,0.047517996,0.075418554,0.042340245,0.057702325,0.024128532, 14:39:57.069
42847.554688, 33876.882813, 116088.343750, 65630.125000, 91509.734375, 75965.531250, 87895.101563, 102785.164063, 0.000, 0.000, 0.000,0.047517996,0.075418554,0.042340245,0.057702325,0.024128532, 14:39:57.070
42943.085938, 33975.164063, 116042.117188, 65201.914063, 91578.023438, 75680.812500, 87873.531250, 102803.914063, 0.000, 0.000, 0.000,0.047517996,0.075418554,0.042340245,0.057702325,0.024128532, 14:39:57.070
42964.386719, 33999.171875, 116060.687500, 64808.566406, 91611.523438, 75580.562500, 87872.843750, 102842.320313, 0.332, 0.218, 0.910,0.047517996,0.075418554,0.042340245,0.057702325,0.024128532, 14:39:57.070
42869.101563, 33902.433594, 116108.437500, 65205.289063, 91545.187500, 75858.148438, 87893.117188, 102825.109375, 0.000, 0.000, 0.000,0.047517996,0.075418554,0.042340245,0.057702325,0.024128532, 14:39:57.071
42839.957031, 33873.976563, 116096.656250, 65638.109375, 91507.054688, 75987.031250, 87897.273438, 102787.867188, 0.000, 0.000, 0.000,0.047517996,0.075418554,0.042340245,0.057702325,0.024128532, 14:39:57.071
42924.937500, 33962.289063, 116048.265625, 65314.453125, 91563.625000, 75729.742188, 87875.031250, 102794.484375, 0.000, 0.000, 0.000,0.047517996,0.075418554,0.042340245,0.057702325,0.024128532, 14:39:57.071
42969.148438, 34011.171875, 116058.117188, 64835.031250, 91614.726563, 75555.062500, 87869.289063, 102832.039063, 0.000, 0.000, 0.000,0.047517996,0.075418554,0.042340245,0.057702325,0.024128532, 14:39:57.072
42895.097656, 33930.214844, 116103.804688, 65102.605469, 91562.195313, 75794.359375, 87887.210938, 102826.875000, 0.000, 0.000, 0.000,0.047517996,0.075418554,0.042340245,0.057702325,0.024128532, 14:39:57.072
42839.484375, 33868.078125, 116099.937500, 65605.742188, 91503.812500, 75988.507813, 87889.046875, 102785.500000, 0.000, 0.000, 0.000,0.047517996,0.075418554,0.042340245,0.057702325,0.024128532, 14:39:57.072
42908.105469, 33940.542969, 116055.015625, 65420.757813, 91546.078125, 75785.976563, 87870.984375, 102782.414063, 0.000, 0.000, 0.000,0.047517996,0.075418554,0.042340245,0.057702325,0.024128532, 14:39:57.073
42963.941406, 34003.730469, 116048.039063, 64889.167969, 91603.859375, 75549.656250, 87856.234375, 102814.687500, 0.000, 0.000, 0.000,0.047517996,0.075418554,0.042340245,0.057702325,0.024128532, 14:39:57.073
42893.355469, 33931.667969, 116087.828125, 65030.542969, 91566.328125, 75738.390625, 87873.757813, 102823.296875, 0.338, 0.220, 0.912,0.047517996,0.075418554,0.042340245,0.057702325,0.024128532, 14:39:57.073
42830.679688, 33862.421875, 116098.867188, 65566.093750, 91507.750000, 75986.789063, 87893.562500, 102795.492188, 0.000, 0.000, 0.000,0.047517996,0.075418554,0.042340245,0.057702325,0.024128532, 14:39:57.074
42881.664063, 33913.539063, 116055.437500, 65509.699219, 91532.828125, 75847.867188, 87878.429688, 102785.117188, 0.000, 0.000, 0.000,0.047517996,0.075418554,0.042340245,0.057702325,0.024128532, 14:39:57.074
42960.566406, 34001.742188, 116037.710938, 64948.824219, 91600.507813, 75575.132813, 87861.109375, 102821.531250, 0.000, 0.000, 0.000,0.047517996,0.075418554,0.042340245,0.057702325,0.024128532, 14:39:57.074
42915.214844, 33957.820313, 116083.156250, 64933.515625, 91585.890625, 75697.195313, 87884.687500, 102843.320313, 0.000, 0.000, 0.000,0.047517996,0.075418554,0.042340245,0.057702325,0.024128532, 14:39:57.074
42829.316406, 33864.054688, 116111.539063, 65501.515625, 91513.757813, 75976.304688, 87902.835938, 102804.765625, 0.000, 0.000, 0.000,0.047517996,0.075418554,0.042340245,0.057702325,0.024128532, 14:39:57.074
42869.726563, 33902.992188, 116069.453125, 65584.796875, 91529.945313, 75898.562500, 87891.906250, 102786.640625, 0.000, 0.000, 0.000,0.047517996,0.075418554,0.042340245,0.057702325,0.024128532, 14:39:57.075
42957.972656, 33992.351563, 116041.781250, 65045.519531, 91598.984375, 75599.320313, 87867.500000, 102812.921875, 0.000, 0.000, 0.000,0.047517996,0.075418554,0.042340245,0.057702325,0.024128532, 14:39:57.075
42936.000000, 33966.515625, 116078.281250, 64892.296875, 91603.101563, 75643.195313, 87885.132813, 102841.179688, 0.000, 0.000, 0.000,0.047517996,0.075418554,0.042340245,0.057702325,0.024128532, 14:39:57.075
42853.632813, 33883.722656, 116114.718750, 65398.519531, 91539.867188, 75942.687500, 87912.406250, 102822.085938, 0.000, 0.000, 0.000,0.047517996,0.075418554,0.042340245,0.057702325,0.024128532, 14:39:57.075
42862.621094, 33892.953125, 116087.710938, 65627.203125, 91528.398438, 75943.335938, 87901.000000, 102788.453125, 0.334, 0.212, 0.908,0.047517996,0.075418554,0.042340245,0.057702325,0.024128532, 14:39:57.076
42947.378906, 33978.472656, 116047.210938, 65146.703125, 91592.882813, 75641.031250, 87874.851563, 102804.070313, 0.000, 0.000, 0.000,0.047517996,0.075418554,0.042340245,0.057702325,0.024128532, 14:39:57.076
42945.074219, 33978.093750, 116071.468750, 64859.886719, 91608.914063, 75602.335938, 87878.429688, 102834.851563, 0.000, 0.000, 0.000,0.047517996,0.075418554,0.042340245,0.057702325,0.024128532, 14:39:57.076
42856.808594, 33892.285156, 116110.046875, 65299.210938, 91543.757813, 75891.414063, 87901.960938, 102818.359375, 0.000, 0.000, 0.000,0.047517996,0.075418554,0.042340245,0.057702325,0.024128532, 14:39:57.077
42846.324219, 33875.722656, 116093.484375, 65652.187500, 91514.382813, 75966.828125, 87900.671875, 102781.789063, 0.000, 0.000, 0.000,0.047517996,0.075418554,0.042340245,0.057702325,0.024128532, 14:39:57.077
42934.480469, 33965.351563, 116054.742188, 65266.355469, 91572.257813, 75691.320313, 87875.570313, 102794.039063, 0.000, 0.000, 0.000,0.047517996,0.075418554,0.042340245,0.057702325,0.024128532, 14:39:57.077
42964.945313, 33995.570313, 116074.859375, 64868.714844, 91605.890625, 75574.796875, 87869.953125, 102833.015625, 0.000, 0.000, 0.000,0.047517996,0.075418554,0.042340245,0.057702325,0.024128532, 14:39:57.077
42882.109375, 33906.835938, 116118.625000, 65223.125000, 91552.250000, 75845.140625, 87898.367188, 102828.328125, 0.000, 0.000, 0.000,0.047517996,0.075418554,0.042340245,0.057702325,0.024128532, 14:39:57.078
42839.621094, 33867.628906, 116117.109375, 65685.875000, 91509.382813, 76000.398438, 87904.625000, 102792.898438, 0.000, 0.000, 0.000,0.047517996,0.075418554,0.042340245,0.057702325,0.024128532, 14:39:57.078
42923.863281, 33956.523438, 116069.406250, 65402.050781, 91562.601563, 75757.187500, 87880.953125, 102798.421875, 0.328, 0.214, 0.906,0.047517996,0.075418554,0.042340245,0.057702325,0.024128532, 14:39:57.078
42971.359375, 34001.605469, 116074.664063, 64911.320313, 91615.750000, 75565.921875, 87872.843750, 102835.632813, 0.000, 0.000, 0.000,0.047517996,0.075418554,0.042340245,0.057702325,0.024128532, 14:39:57.079
42893.195313, 33919.062500, 116118.851563, 65146.503906, 91569.593750, 75797.445313, 87896.265625, 102839.296875, 0.000, 0.000, 0.000,0.047517996,0.075418554,0.042340245,0.057702325,0.024128532, 14:39:57.079
42837.921875, 33869.218750, 116127.546875, 65667.726563, 91516.289063, 76013.875000, 87911.773438, 102807.335938, 0.000, 0.000, 0.000,0.047517996,0.075418554,0.042340245,0.057702325,0.024128532, 14:39:57.079
42903.949219, 33939.199219, 116087.492188, 65521.386719, 91557.007813, 75824.398438, 87892.843750, 102800.296875, 0.000, 0.000, 0.000,0.047517996,0.075418554,0.042340245,0.057702325,0.024128532, 14:39:57.079
42976.523438, 34008.289063, 116078.546875, 64975.132813, 91621.898438, 75572.875000, 87878.492188, 102834.742188, 0.000, 0.000, 0.000,0.047517996,0.075418554,0.042340245,0.057702325,0.024128532, 14:39:57.079
42923.214844, 33955.449219, 116117.578125, 65049.742188, 91595.320313, 75739.085938, 87899.953125, 102849.109375, 0.000, 0.000, 0.000,0.047517996,0.075418554,0.042340245,0.057702325,0.024128532, 14:39:57.080
42852.695313, 33882.984375, 116134.007813, 65579.546875, 91537.742188, 75998.140625, 87924.804688, 102821.015625, 0.000, 0.000, 0.000,0.047517996,0.075418554,0.042340245,0.057702325,0.024128532, 14:39:57.080
42890.335938, 33920.648438, 116094.132813, 65576.820313, 91550.484375, 75874.312500, 87901.765625, 102799.289063, 0.000, 0.000, 0.000,0.047517996,0.075418554,0.042340245,0.057702325,0.024128532, 14:39:57.080
42966.511719, 33999.257813, 116064.335938, 65025.179688, 91614.500000, 75585.234375, 87878.851563, 102824.367188, 0.000, 0.000, 0.000,0.047517996,0.075418554,0.042340245,0.057702325,0.024128532, 14:39:57.080
42928.980469, 33958.468750, 116097.546875, 64956.535156, 91604.281250, 75682.421875, 87895.125000, 102847.796875, 0.318, 0.216, 0.912,0.047517996,0.075418554,0.042340245,0.057702325,0.024128532, 14:39:57.080
42847.957031, 33875.164063, 116129.867188, 65498.031250, 91538.343750, 75970.515625, 87918.148438, 102819.273438, 0.000, 0.000, 0.000,0.047517996,0.075418554,0.042340245,0.057702325,0.024128532, 14:39:57.081
42872.074219, 33901.785156, 116092.921875, 65628.898438, 91536.828125, 75914.007813, 87902.101563, 102792.335938, 0.000, 0.000, 0.000,0.047517996,0.075418554,0.042340245,0.057702325,0.024128532, 14:39:57.081
42953.992188, 33985.828125, 116057.539063, 65115.343750, 91598.851563, 75611.945313, 87872.234375, 102810.820313, 0.000, 0.000, 0.000,0.047517996,0.075418554,0.042340245,0.057702325,0.024128532, 14:39:57.081
42942.503906, 33970.648438, 116085.593750, 64912.683594, 91604.195313, 75630.414063, 87883.929688, 102843.257813, 0.000, 0.000, 0.000,0.047517996,0.075418554,0.042340245,0.057702325,0.024128532, 14:39:57.081
42849.632813, 33877.957031, 116117.890625, 65413.027344, 91530.187500, 75928.070313, 87905.765625, 102819.828125, 0.000, 0.000, 0.000,0.047517996,0.075418554,0.042340245,0.057702325,0.024128532, 14:39:57.082
42848.316406, 33882.359375, 116086.734375, 65674.921875, 91510.875000, 75952.164063, 87896.578125, 102789.765625, 0.000, 0.000, 0.000,0.047517996,0.075418554,0.042340245,0.057702325,0.024128532, 14:39:57.082
42935.015625, 33970.492188, 116045.468750, 65214.140625, 91579.187500, 75662.687500, 87874.296875, 102808.679688, 0.000, 0.000, 0.000,0.047517996,0.075418554,0.042340245,0.057702325,0.024128532, 14:39:57.082
42946.281250, 33981.222656, 116068.156250, 64880.609375, 91603.726563, 75600.500000, 87876.414063, 102842.515625, 0.000, 0.000, 0.000,0.047517996,0.075418554,0.042340245,0.057702325,0.024128532, 14:39:57.082
42860.027344, 33885.511719, 116113.218750, 65305.246094, 91537.718750, 75886.539063, 87899.171875, 102826.718750, 0.000, 0.000, 0.000,0.047517996,0.075418554,0.042340245,0.057702325,0.024128532, 14:39:57.082
42844.425781, 33870.804688, 116096.562500, 65686.007813, 91509.359375, 75985.046875, 87904.398438, 102792.609375, 0.318, 0.218, 0.908,0.047517996,0.075418554,0.042340245,0.057702325,0.024128532, 14:39:57.083
42935.554688, 33966.648438, 116053.070313, 65314.433594, 91573.843750, 75715.171875, 87883.007813, 102802.929688, 0.000, 0.000, 0.000,0.047517996,0.075418554,0.042340245,0.057702325,0.024128532, 14:39:57.083
42968.097656, 33995.191406, 116066.281250, 64883.738281, 91611.773438, 75572.898438, 87873.507813, 102835.632813, 0.000, 0.000, 0.000,0.047517996,0.075418554,0.042340245,0.057702325,0.024128532, 14:39:57.083
42891.343750, 33907.906250, 116113.796875, 65203.320313, 91559.203125, 75830.054688, 87896.156250, 102831.164063, 0.000, 0.000, 0.000,0.047517996,0.075418554,0.042340245,0.057702325,0.024128532, 14:39:57.083
42848.269531, 33866.019531, 116112.812500, 65664.750000, 91518.140625, 75998.476563, 87907.304688, 102800.070313, 0.000, 0.000, 0.000,0.047517996,0.075418554,0.042340245,0.057702325,0.024128532, 14:39:57.084
42920.535156, 33944.253906, 116069.500000, 65409.179688, 91568.367188, 75774.039063, 87888.953125, 102803.960938, 0.000, 0.000, 0.000,0.047517996,0.075418554,0.042340245,0.057702325,0.024128532, 14:39:57.084
42974.378906, 33996.554688, 116074.078125, 64904.253906, 91621.226563, 75569.281250, 87877.937500, 102838.765625, 0.000, 0.000, 0.000,0.047517996,0.075418554,0.042340245,0.057702325,0.024128532, 14:39:57.084
42902.628906, 33923.308594, 116120.148438, 65098.648438, 91580.500000, 75785.507813, 87904.312500, 102846.835938, 0.000, 0.000, 0.000,0.047517996,0.075418554,0.042340245,0.057702325,0.024128532, 14:39:57.084
42838.433594, 33858.019531, 116126.632813, 65621.031250, 91520.960938, 76012.828125, 87913.476563, 102811.718750, 0.000, 0.000, 0.000,0.047517996,0.075418554,0.042340245,0.057702325,0.024128532, 14:39:57.085
42889.351563, 33915.621094, 116079.468750, 65522.414063, 91543.890625, 75837.523438, 87884.421875, 102794.015625, 0.318, 0.220, 0.912,0.047517996,0.075418554,0.042340245,0.057702325,0.024128532, 14:39:57.085
42961.527344, 33989.492188, 116059.414063, 64979.425781, 91608.351563, 75575.156250, 87869.312500, 102825.929688, 0.000, 0.000, 0.000,0.047517996,0.075418554,0.042340245,0.057702325,0.024128532, 14:39:57.085
42909.691406, 33936.003906, 116094.867188, 65024.933594, 91579.875000, 75722.882813, 87886.656250, 102839.632813, 0.000, 0.000, 0.000,0.047517996,0.075418554,0.042340245,0.057702325,0.024128532, 14:39:57.085
42833.273438, 33859.808594, 116109.507813, 65556.164063, 91514.679688, 75985.601563, 87904.710938, 102807.335938, 0.000, 0.000, 0.000,0.047517996,0.075418554,0.042340245,0.057702325,0.024128532, 14:39:57.085
42877.437500, 33906.632813, 116072.851563, 65585.132813, 91534.656250, 75882.468750, 87894.367188, 102792.742188, 0.000, 0.000, 0.000,0.047517996,0.075418554,0.042340245,0.057702325,0.024128532, 14:39:57.086
42966.132813, 33995.257813, 116049.671875, 65031.281250, 91604.929688, 75594.382813, 87872.101563, 102824.320313, 0.000, 0.000, 0.000,0.047517996,0.075418554,0.042340245,0.057702325,0.024128532, 14:39:57.086
42934.101563, 33962.109375, 116092.093750, 64934.183594, 91600.015625, 75674.421875, 87889.023438, 102849.023438, 0.000, 0.000, 0.000,0.047517996,0.075418554,0.042340245,0.057702325,0.024128532, 14:39:57.086
42846.480469, 33868.078125, 116126.226563, 65474.515625, 91528.734375, 75965.664063, 87909.562500, 102818.468750, 0.000, 0.000, 0.000,0.047517996,0.075418554,0.042340245,0.057702325,0.024128532, 14:39:57.086
42870.152344, 33891.703125, 116095.203125, 65649.664063, 91530.210938, 75931.242188, 87901.382813, 102793.343750, 0.000, 0.000, 0.000,0.047517996,0.075418554,0.042340245,0.057702325,0.024128532, 14:39:57.086
42960.230469, 33988.664063, 116058.117188, 65133.406250, 91601.382813, 75630.250000, 87879.726563, 102818.289063, 0.000, 0.000, 0.000,0.047517996,0.075418554,0.042340245,0.057702325,0.024128532, 14:39:57.086
42949.164063, 33978.832031, 116089.546875, 64896.855469, 91613.539063, 75628.734375, 87889.093750, 102850.226563, 0.316, 0.214, 0.906,0.047517996,0.075418554,0.042340245,0.057702325,0.024128532, 14:39:57.087
42870.554688, 33885.957031, 116129.828125, 65370.421875, 91550.437500, 75922.703125, 87917.703125, 102829.554688, 0.000, 0.000, 0.000,0.047517996,0.075418554,0.042340245,0.057702325,0.024128532, 14:39:57.087
42873.414063, 33885.937500, 116113.085938, 65675.390625, 91535.914063, 75969.773438, 87919.687500, 102799.265625, 0.000, 0.000, 0.000,0.047517996,0.075418554,0.042340245,0.057702325,0.024128532, 14:39:57.087
42960.722656, 33982.160156, 116072.914063, 65244.113281, 91600.398438, 75681.882813, 87893.515625, 102815.765625, 0.000, 0.000, 0.000,0.047517996,0.075418554,0.042340245,0.057702325,0.024128532, 14:39:57.087
42978.355469, 34002.457031, 116092.296875, 64882.351563, 91631.062500, 75595.656250, 87893.445313, 102850.968750, 0.000, 0.000, 0.000,0.047517996,0.075418554,0.042340245,0.057702325,0.024128532, 14:39:57.087
42887.652344, 33905.941406, 116130.023438, 65262.890625, 91570.421875, 75872.570313, 87918.953125, 102838.898438, 0.000, 0.000, 0.000,0.047517996,0.075418554,0.042340245,0.057702325,0.024128532, 14:39:57.087
42858.886719, 33876.906250, 116119.453125, 65672.460938, 91533.742188, 75993.734375, 87922.015625, 102804.343750, 0.000, 0.000, 0.000,0.047517996,0.075418554,0.042340245,0.057702325,0.024128532, 14:39:57.088
42945.320313, 33971.566406, 116074.929688, 65333.789063, 91591.054688, 75737.695313, 87902.007813, 102816.437500, 0.000, 0.000, 0.000,0.047517996,0.075418554,0.042340245,0.057702325,0.024128532, 14:39:57.088
42982.941406, 34009.718750, 116079.687500, 64869.027344, 91632.000000, 75579.781250, 87893.742188, 102854.476563, 0.000, 0.000, 0.000,0.047517996,0.075418554,0.042340245,0.057702325,0.024128532, 14:39:57.088
42896.707031, 33919.933594, 116119.679688, 65149.878906, 91577.328125, 75827.421875, 87915.062500, 102850.968750, 0.322, 0.218, 0.904,0.047517996,0.075418554,0.042340245,0.057702325,0.024128532, 14:39:57.088
42838.835938, 33862.578125, 116115.718750, 65647.320313, 91515.171875, 76011.304688, 87913.296875, 102806.937500, 0.000, 0.000, 0.000,0.047517996,0.075418554,0.042340245,0.057702325,0.024128532, 14:39:57.089
42905.648438, 33935.601563, 116067.398438, 65441.234375, 91558.601563, 75797.914063, 87890.453125, 102801.164063, 0.000, 0.000, 0.000,0.047517996,0.075418554,0.042340245,0.057702325,0.024128532, 14:39:57.089
42961.996094, 33997.406250, 116061.851563, 64923.121094, 91613.179688, 75573.500000, 87875.859375, 102834.382813, 0.000, 0.000, 0.000,0.047517996,0.075418554,0.042340245,0.057702325,0.024128532, 14:39:57.089
42899.523438, 33933.457031, 116101.593750, 65070.640625, 91575.335938, 75771.585938, 87898.992188, 102842.812500, 0.000, 0.000, 0.000,0.047517996,0.075418554,0.042340245,0.057702325,0.024128532, 14:39:57.089
42837.070313, 33863.515625, 116114.781250, 65603.421875, 91516.710938, 76010.546875, 87919.351563, 102809.078125, 0.000, 0.000, 0.000,0.047517996,0.075418554,0.042340245,0.057702325,0.024128532, 14:39:57.090
42892.707031, 33921.832031, 116072.515625, 65525.074219, 91547.757813, 75850.820313, 87900.914063, 102797.882813, 0.000, 0.000, 0.000,0.047517996,0.075418554,0.042340245,0.057702325,0.024128532, 14:39:57.090
42972.277344, 34005.273438, 116058.234375, 64976.628906, 91612.062500, 75578.554688, 87876.351563, 102827.296875, 0.000, 0.000, 0.000,0.038123447,0.061235584,0.035286557,0.0493504,0.020500284, 14:39:57.090
42929.628906, 33962.312500, 116100.476563, 64981.906250, 91599.835938, 75711.593750, 87902.679688, 102851.484375, 0.000, 0.000, 0.000,0.038123447,0.061235584,0.035286557,0.0493504,0.020500284, 14:39:57.090
42851.511719, 33880.906250, 116127.726563, 65528.027344, 91539.109375, 75987.632813, 87928.945313, 102822.960938, 0.000, 0.000, 0.000,0.038123447,0.061235584,0.035286557,0.0493504,0.020500284, 14:39:57.090
42889.218750, 33919.910156, 116097.679688, 65598.765625, 91550.531250, 75902.320313, 87917.742188, 102803.960938, 0.322, 0.218, 0.902,0.038123447,0.061235584,0.035286557,0.0493504,0.020500284, 14:39:57.091
42977.640625, 34010.324219, 116069.718750, 65057.746094, 91617.382813, 75606.539063, 87891.726563, 102831.859375, 0.000, 0.000, 0.000,0.038123447,0.061235584,0.035286557,0.0493504,0.020500284, 14:39:57.092
42953.257813, 33981.511719, 116109.640625, 64921.867188, 91619.796875, 75668.007813, 87909.523438, 102864.421875, 0.000, 0.000, 0.000,0.038123447,0.061235584,0.035286557,0.0493504,0.020500284, 14:39:57.092
42861.613281, 33884.750000, 116142.054688, 65456.121094, 91540.695313, 75963.828125, 87925.765625, 102830.070313, 0.000, 0.000, 0.000,0.038123447,0.061235584,0.035286557,0.0493504,0.020500284, 14:39:57.093
42888.414063, 33914.992188, 116106.710938, 65656.437500, 91534.796875, 75949.640625, 87915.914063, 102801.953125, 0.000, 0.000, 0.000,0.038123447,0.061235584,0.035286557,0.0493504,0.020500284, 14:39:57.093
42980.281250, 34012.515625, 116071.710938, 65163.894531, 91601.984375, 75653.234375, 87890.812500, 102827.718750, 0.000, 0.000, 0.000,0.038123447,0.061235584,0.035286557,0.0493504,0.020500284, 14:39:57.094
42969.730469, 34004.000000, 116100.570313, 64896.722656, 91616.828125, 75630.367188, 87897.359375, 102861.179688, 0.000, 0.000, 0.000,0.038123447,0.061235584,0.035286557,0.0493504,0.020500284, 14:39:57.094
42877.437500, 33914.300781, 116140.351563, 65366.558594, 91548.312500, 75926.929688, 87920.335938, 102842.609375, 0.000, 0.000, 0.000,0.038123447,0.061235584,0.035286557,0.0493504,0.020500284, 14:39:57.094
42866.242188, 33901.605469, 116121.484375, 65700.242188, 91522.570313, 75996.062500, 87918.125000, 102813.039063, 0.000, 0.000, 0.000,0.038123447,0.061235584,0.035286557,0.0493504,0.020500284, 14:39:57.094
42952.160156, 33994.855469, 116073.835938, 65282.089844, 91587.187500, 75712.890625, 87893.289063, 102827.210938, 0.326, 0.226, 0.908,0.038123447,0.061235584,0.035286557,0.0493504,0.020500284, 14:39:57.095
42981.933594, 34021.613281, 116084.476563, 64877.878906, 91628.289063, 75603.320313, 87898.140625, 102867.062500, 0.000, 0.000, 0.000,0.038123447,0.061235584,0.035286557,0.0493504,0.020500284, 14:39:57.095
42894.425781, 33929.031250, 116127.882813, 65236.871094, 91568.054688, 75875.898438, 87924.453125, 102857.609375, 0.000, 0.000, 0.000,0.038123447,0.061235584,0.035286557,0.0493504,0.020500284, 14:39:57.095
42853.613281, 33890.921875, 116122.804688, 65680.953125, 91524.890625, 76012.468750, 87926.351563, 102815.382813, 0.000, 0.000, 0.000,0.038123447,0.061235584,0.035286557,0.0493504,0.020500284, 14:39:57.095
42933.609375, 33975.542969, 116071.953125, 65388.015625, 91574.289063, 75759.085938, 87898.835938, 102814.375000, 0.000, 0.000, 0.000,0.038123447,0.061235584,0.035286557,0.0493504,0.020500284, 14:39:57.096
42974.511719, 34016.246094, 116071.687500, 64901.105469, 91621.765625, 75572.250000, 87887.281250, 102847.906250, 0.000, 0.000, 0.000,0.038123447,0.061235584,0.035286557,0.0493504,0.020500284, 14:39:57.096
42901.355469, 33939.937500, 116112.679688, 65141.718750, 91577.039063, 75802.765625, 87912.179688, 102848.109375, 0.000, 0.000, 0.000,0.038123447,0.061235584,0.035286557,0.0493504,0.020500284, 14:39:57.096
42859.156250, 33889.175781, 116119.945313, 65633.726563, 91532.226563, 76007.750000, 87928.046875, 102815.476563, 0.000, 0.000, 0.000,0.038123447,0.061235584,0.035286557,0.0493504,0.020500284, 14:39:57.096
42920.109375, 33956.902344, 116083.710938, 65477.914063, 91566.171875, 75811.015625, 87906.031250, 102804.054688, 0.000, 0.000, 0.000,0.038123447,0.061235584,0.035286557,0.0493504,0.020500284, 14:39:57.097
42986.582031, 34027.980469, 116077.117188, 64949.496094, 91627.039063, 75570.710938, 87894.296875, 102839.859375, 0.000, 0.000, 0.000,0.038123447,0.061235584,0.035286557,0.0493504,0.020500284, 14:39:57.097
42920.132813, 33954.265625, 116121.484375, 65068.699219, 91592.101563, 75748.468750, 87909.898438, 102845.937500, 0.332, 0.228, 0.910,0.038123447,0.061235584,0.035286557,0.0493504,0.020500284, 14:39:57.097
42854.550781, 33883.476563, 116137.804688, 65614.929688, 91530.906250, 75998.921875, 87926.531250, 102814.195313, 0.000, 0.000, 0.000,0.005618301,0.0148658445,0.011001064,0.021764431,0.0068451934, 14:39:57.545
42912.910156, 33948.812500, 116097.351563, 65563.296875, 91561.257813, 75860.726563, 87914.148438, 102809.328125, 0.000, 0.000, 0.000,0.005618301,0.0148658445,0.011001064,0.021764431,0.0068451934, 14:39:57.546
42984.035156, 34022.640625, 116077.429688, 65003.207031, 91623.281250, 75583.695313, 87892.554688, 102840.375000, 0.000, 0.000, 0.000,0.005618301,0.0148658445,0.011001064,0.021764431,0.0068451934, 14:39:57.547
42940.269531, 33981.781250, 116109.687500, 64964.246094, 91605.960938, 75696.820313, 87911.867188, 102867.578125, 0.000, 0.000, 0.000,0.005618301,0.0148658445,0.011001064,0.021764431,0.0068451934, 14:39:57.548
42858.574219, 33897.582031, 116136.953125, 65499.304688, 91540.562500, 75984.242188, 87934.914063, 102845.046875, 0.000, 0.000, 0.000,0.005618301,0.0148658445,0.011001064,0.021764431,0.0068451934, 14:39:57.548
42887.945313, 33927.128906, 116106.023438, 65621.273438, 91547.132813, 75924.289063, 87923.242188, 102823.226563, 0.000, 0.000, 0.000,0.005618301,0.0148658445,0.011001064,0.021764431,0.0068451934, 14:39:57.548
42970.691406, 34012.289063, 116071.843750, 65094.023438, 91612.687500, 75624.484375, 87895.367188, 102846.406250, 0.000, 0.000, 0.000,0.005618301,0.0148658445,0.011001064,0.021764431,0.0068451934, 14:39:57.548
42942.570313, 33980.640625, 116100.476563, 64922.250000, 91615.281250, 75660.335938, 87906.343750, 102871.507813, 0.000, 0.000, 0.000,0.005618301,0.0148658445,0.011001064,0.021764431,0.0068451934, 14:39:57.549
42855.332031, 33886.628906, 116127.945313, 65426.527344, 91546.882813, 75956.031250, 87928.851563, 102844.640625, 0.000, 0.000, 0.000,0.005618301,0.0148658445,0.011001064,0.021764431,0.0068451934, 14:39:57.549
42866.152344, 33898.921875, 116099.046875, 65658.898438, 91538.101563, 75968.414063, 87922.906250, 102818.890625, 0.320, 0.230, 0.910,0.005618301,0.0148658445,0.011001064,0.021764431,0.0068451934, 14:39:57.549
42954.886719, 33996.308594, 116061.117188, 65185.304688, 91604.757813, 75676.570313, 87897.250000, 102840.125000, 0.000, 0.000, 0.000,0.005618301,0.0148658445,0.011001064,0.021764431,0.0068451934, 14:39:57.549
42951.980469, 33996.601563, 116092.695313, 64899.898438, 91627.421875, 75635.062500, 87903.929688, 102873.609375, 0.000, 0.000, 0.000,0.005618301,0.0148658445,0.011001064,0.021764431,0.0068451934, 14:39:57.550
42861.121094, 33902.679688, 116130.632813, 65336.070313, 91561.992188, 75920.335938, 87927.265625, 102855.367188, 0.000, 0.000, 0.000,0.005618301,0.0148658445,0.011001064,0.021764431,0.0068451934, 14:39:57.550
42851.199219, 33887.343750, 116117.445313, 65693.632813, 91534.992188, 76004.023438, 87931.695313, 102819.007813, 0.000, 0.000, 0.000,0.005618301,0.0148658445,0.011001064,0.021764431,0.0068451934, 14:39:57.551
42948.136719, 33988.082031, 116080.945313, 65308.218750, 91600.507813, 75725.828125, 87908.226563, 102829.625000, 0.000, 0.000, 0.000,0.005618301,0.0148658445,0.011001064,0.021764431,0.0068451934, 14:39:57.551
42973.394531, 34012.468750, 116101.570313, 64896.050781, 91631.132813, 75591.609375, 87895.703125, 102858.570313, 0.000, 0.000, 0.000,0.005618301,0.0148658445,0.011001064,0.021764431,0.0068451934, 14:39:57.552
42892.906250, 33924.492188, 116147.039063, 65241.164063, 91571.156250, 75852.679688, 87918.664063, 102846.382813, 0.000, 0.000, 0.000,0.005618301,0.0148658445,0.011001064,0.021764431,0.0068451934, 14:39:57.552
42851.152344, 33884.796875, 116145.117188, 65705.390625, 91529.226563, 76010.703125, 87928.406250, 102809.664063, 0.000, 0.000, 0.000,0.005618301,0.0148658445,0.011001064,0.021764431,0.0068451934, 14:39:57.552
42929.472656, 33964.546875, 116097.234375, 65441.144531, 91581.328125, 75773.687500, 87909.789063, 102814.156250, 0.320, 0.228, 0.904,0.005618301,0.0148658445,0.011001064,0.021764431,0.0068451934, 14:39:57.553
42985.914063, 34021.343750, 116093.929688, 64927.097656, 91637.812500, 75576.523438, 87905.585938, 102858.898438, 0.000, 0.000, 0.000,0.005618301,0.0148658445,0.011001064,0.021764431,0.0068451934, 14:39:57.553
42908.820313, 33941.925781, 116141.718750, 65142.503906, 91590.312500, 75803.726563, 87927.937500, 102863.664063, 0.000, 0.000, 0.000,0.005618301,0.0148658445,0.011001064,0.021764431,0.0068451934, 14:39:57.553
42850.730469, 33881.601563, 116151.351563, 65665.000000, 91531.929688, 76022.882813, 87938.781250, 102827.992188, 0.000, 0.000, 0.000,0.005618301,0.0148658445,0.011001064,0.021764431,0.0068451934, 14:39:57.554
42919.906250, 33954.800781, 116107.492188, 65523.218750, 91567.046875, 75840.117188, 87919.398438, 102822.382813, 0.000, 0.000, 0.000,0.005618301,0.0148658445,0.011001064,0.021764431,0.0068451934, 14:39:57.554
42992.191406, 34028.472656, 116094.445313, 64971.691406, 91628.625000, 75585.750000, 87901.453125, 102856.289063, 0.000, 0.000, 0.000,0.005618301,0.0148658445,0.011001064,0.021764431,0.0068451934, 14:39:57.554
42927.550781, 33960.390625, 116133.000000, 65045.406250, 91595.609375, 75745.742188, 87916.781250, 102865.984375, 0.000, 0.000, 0.000,0.005618301,0.0148658445,0.011001064,0.021764431,0.0068451934, 14:39:57.554
42851.800781, 33882.449219, 116153.921875, 65593.562500, 91533.835938, 76008.468750, 87938.328125, 102833.867188, 0.000, 0.000, 0.000,0.005618301,0.0148658445,0.011001064,0.021764431,0.0068451934, 14:39:57.555
42901.398438, 33927.421875, 116113.304688, 65597.453125, 91552.273438, 75888.078125, 87922.664063, 102818.000000, 0.000, 0.000, 0.000,0.005618301,0.0148658445,0.011001064,0.021764431,0.0068451934, 14:39:57.555
42989.867188, 34019.621094, 116086.039063, 65034.609375, 91624.226563, 75600.101563, 87902.007813, 102849.382813, 0.000, 0.000, 0.000,0.005618301,0.0148658445,0.011001064,0.021764431,0.0068451934, 14:39:57.555
42948.742188, 33979.613281, 116119.945313, 64965.433594, 91609.914063, 75693.554688, 87912.421875, 102869.140625, 0.322, 0.228, 0.908,0.005618301,0.0148658445,0.011001064,0.021764431,0.0068451934, 14:39:57.556
42853.476563, 33883.320313, 116140.531250, 65505.183594, 91534.078125, 75978.117188, 87929.570313, 102834.046875, 0.000, 0.000, 0.000,0.005618301,0.0148658445,0.011001064,0.021764431,0.0068451934, 14:39:57.556
42873.816406, 33908.847656, 116100.789063, 65650.398438, 91537.945313, 75930.054688, 87922.570313, 102809.437500, 0.000, 0.000, 0.000,0.005618301,0.0148658445,0.011001064,0.021764431,0.0068451934, 14:39:57.558
42956.675781, 33999.371094, 116064.625000, 65131.750000, 91606.539063, 75630.945313, 87900.000000, 102832.234375, 0.000, 0.000, 0.000,0.005618301,0.0148658445,0.011001064,0.021764431,0.0068451934, 14:39:57.559
42937.273438, 33979.812500, 116097.617188, 64930.140625, 91611.507813, 75645.656250, 87910.460938, 102862.140625, 0.000, 0.000, 0.000,0.005618301,0.0148658445,0.011001064,0.021764431,0.0068451934, 14:39:57.559
42856.046875, 33888.285156, 116134.382813, 65415.933594, 91547.195313, 75943.671875, 87936.765625, 102845.156250, 0.000, 0.000, 0.000,0.005618301,0.0148658445,0.011001064,0.021764431,0.0068451934, 14:39:57.559
42858.574219, 33894.476563, 116112.546875, 65693.117188, 91536.046875, 75975.273438, 87936.875000, 102815.898438, 0.000, 0.000, 0.000,0.005618301,0.0148658445,0.011001064,0.021764431,0.0068451934, 14:39:57.560
42945.210938, 33987.191406, 116072.250000, 65244.160156, 91605.406250, 75682.023438, 87913.742188, 102830.695313, 0.000, 0.000, 0.000,0.005618301,0.0148658445,0.011001064,0.021764431,0.0068451934, 14:39:57.560
42956.609375, 33997.246094, 116095.132813, 64914.648438, 91626.437500, 75611.101563, 87912.734375, 102861.585938, 0.000, 0.000, 0.000,0.005618301,0.0148658445,0.011001064,0.021764431,0.0068451934, 14:39:57.560
42875.113281, 33907.574219, 116138.187500, 65325.808594, 91561.820313, 75894.140625, 87935.539063, 102846.093750, 0.322, 0.224, 0.908,0.005618301,0.0148658445,0.011001064,0.021764431,0.0068451934, 14:39:57.561
42857.882813, 33890.832031, 116126.648438, 65706.773438, 91531.218750, 76000.000000, 87936.500000, 102812.968750, 0.000, 0.000, 0.000,0.005618301,0.0148658445,0.011001064,0.021764431,0.0068451934, 14:39:57.561
42948.628906, 33981.757813, 116082.593750, 65347.265625, 91586.515625, 75732.867188, 87908.601563, 102824.031250, 0.000, 0.000, 0.000,0.005618301,0.0148658445,0.011001064,0.021764431,0.0068451934, 14:39:57.561
42981.218750, 34013.609375, 116094.328125, 64910.203125, 91628.718750, 75588.812500, 87907.593750, 102863.507813, 0.000, 0.000, 0.000,0.005618301,0.0148658445,0.011001064,0.021764431,0.0068451934, 14:39:57.561
42892.011719, 33923.507813, 116136.062500, 65216.621094, 91573.796875, 75842.015625, 87931.804688, 102858.210938, 0.000, 0.000, 0.000,0.005618301,0.0148658445,0.011001064,0.021764431,0.0068451934, 14:39:57.561
42837.453125, 33873.261719, 116132.710938, 65701.656250, 91520.687500, 76014.953125, 87935.937500, 102818.335938, 0.000, 0.000, 0.000,0.005618301,0.0148658445,0.011001064,0.021764431,0.0068451934, 14:39:57.562
42915.371094, 33957.371094, 116081.078125, 65470.023438, 91567.828125, 75791.117188, 87912.804688, 102819.671875, 0.000, 0.000, 0.000,0.005618301,0.0148658445,0.011001064,0.021764431,0.0068451934, 14:39:57.562
42976.816406, 34019.265625, 116076.609375, 64934.429688, 91632.468750, 75572.343750, 87908.203125, 102860.757813, 0.000, 0.000, 0.000,0.005129846,0.013976171,0.0105987955,0.021764975,0.006508322, 14:39:57.562
42901.734375, 33940.140625, 116120.820313, 65107.878906, 91587.546875, 75778.804688, 87928.007813, 102861.945313, 0.000, 0.000, 0.000,0.005129846,0.013976171,0.0105987955,0.021764975,0.006508322, 14:39:57.563
42836.019531, 33873.890625, 116132.085938, 65642.445313, 91525.851563, 76011.796875, 87939.914063, 102823.164063, 0.000, 0.000, 0.000,0.005129846,0.013976171,0.0105987955,0.021764975,0.006508322, 14:39:57.564
42897.042969, 33937.902344, 116088.273438, 65541.171875, 91557.484375, 75845.125000, 87919.398438, 102811.023438, 0.318, 0.226, 0.910,0.005129846,0.013976171,0.0105987955,0.021764975,0.006508322, 14:39:57.564
42973.214844, 34016.203125, 116072.515625, 64987.292969, 91617.609375, 75579.671875, 87898.429688, 102843.257813, 0.000, 0.000, 0.000,0.005129846,0.013976171,0.0105987955,0.021764975,0.006508322, 14:39:57.564
42922.457031, 33963.496094, 116112.031250, 65014.695313, 91594.140625, 75723.703125, 87916.046875, 102860.351563, 0.000, 0.000, 0.000,0.005129846,0.013976171,0.0105987955,0.021764975,0.006508322, 14:39:57.565
42837.207031, 33876.058594, 116134.539063, 65567.187500, 91521.250000, 75994.187500, 87928.789063, 102822.804688, 0.000, 0.000, 0.000,0.005129846,0.013976171,0.0105987955,0.021764975,0.006508322, 14:39:57.565
42878.265625, 33922.617188, 116096.210938, 65613.250000, 91534.460938, 75892.085938, 87912.578125, 102800.273438, 0.000, 0.000, 0.000,0.005129846,0.013976171,0.0105987955,0.021764975,0.006508322, 14:39:57.565
