%OpenBCI Raw EEG Data
%
%Sample Rate = 250.0 Hz
%First Column = SampleIndex
%5 Columns before Timestamp are Frequency Power factors DELTA THETA ALPHA BETA GAMMA
%Last Column = Timestamp 
%Other Columns = EEG data in microvolts followed by Accel Data (in G) interleaved with Aux Data
0.000000, 0.000000, 0.000000, 0.000000, 0.000000, 0.000000, 0.000000, 0.000000, 0, 1, 1, 0, 1,0.0,0.0,0.0,0.0,0.0, 13:24:06.977
180875.968750, 187500.015625, 187500.015625, 187500.015625, 187500.015625, 187500.015625, 187500.015625, 187500.015625, 0, 1, 1, 0, 1,0.0,0.0,0.0,0.0,0.0, 13:24:06.993
180853.187500, 187500.015625, 187500.015625, 187500.015625, 187500.015625, 187500.015625, 187500.015625, 187500.015625, 0, 1, 1, 0, 1,0.0,0.0,0.0,0.0,0.0, 13:24:07.469
180850.109375, 187500.015625, 187500.015625, 187500.015625, 187500.015625, 187500.015625, 187500.015625, 187500.015625, 0, 1, 1, 0, 1,0.0,0.0,0.0,0.0,0.0, 13:24:07.469
180877.437500, 187500.015625, 187500.015625, 187500.015625, 187500.015625, 187500.015625, 187500.015625, 187500.015625, 0, 1, 1, 0, 1,0.0,0.0,0.0,0.0,0.0, 13:24:07.470
180890.062500, 187500.015625, 187500.015625, 187500.015625, 187500.015625, 187500.015625, 187500.015625, 187500.015625, 0, 1, 1, 0, 1,0.0,0.0,0.0,0.0,0.0, 13:24:07.471
180867.562500, 187500.015625, 187500.015625, 187500.015625, 187500.015625, 187500.015625, 187500.015625, 187500.015625, 0, 1, 1, 0, 1,0.0,0.0,0.0,0.0,0.0, 13:24:07.472
180862.531250, 187500.015625, 187500.015625, 187500.015625, 187500.015625, 187500.015625, 187500.015625, 187500.015625, 0, 1, 1, 0, 1,0.0,0.0,0.0,0.0,0.0, 13:24:07.472
180887.656250, 187500.015625, 187500.015625, 187500.015625, 187500.015625, 187500.015625, 187500.015625, 187500.015625, 0, 1, 1, 0, 1,0.0,0.0,0.0,0.0,0.0, 13:24:07.473
180901.921875, 187500.015625, 187500.015625, 187500.015625, 187500.015625, 187500.015625, 187500.015625, 187500.015625, 0, 1, 1, 0, 1,0.0,0.0,0.0,0.0,0.0, 13:24:07.473
180880.140625, 187500.015625, 187500.015625, 187500.015625, 187500.015625, 187500.015625, 187500.015625, 187500.015625, 0, 1, 1, 0, 1,0.0,0.0,0.0,0.0,0.0, 13:24:07.473
180865.109375, 187500.015625, 187500.015625, 187500.015625, 187500.015625, 187500.015625, 187500.015625, 187500.015625, 0, 1, 1, 0, 1,0.0,0.0,0.0,0.0,0.0, 13:24:07.474
180884.250000, 187500.015625, 187500.015625, 187500.015625, 187500.015625, 187500.015625, 187500.015625, 187500.015625, 0, 1, 1, 0, 1,0.0,0.0,0.0,0.0,0.0, 13:24:07.474
180900.468750, 187500.015625, 187500.015625, 187500.015625, 187500.015625, 187500.015625, 187500.015625, 187500.015625, 0, 1, 1, 0, 1,0.0,0.0,0.0,0.0,0.0, 13:24:07.475
180879.296875, 187500.015625, 187500.015625, 187500.015625, 187500.015625, 187500.015625, 187500.015625, 187500.015625, 0, 1, 1, 0, 1,0.0,0.0,0.0,0.0,0.0, 13:24:07.475
180854.234375, 187500.015625, 187500.015625, 187500.015625, 187500.015625, 187500.015625, 187500.015625, 187500.015625, 0, 1, 1, 0, 1,0.0,0.0,0.0,0.0,0.0, 13:24:07.475
180863.468750, 187500.015625, 187500.015625, 187500.015625, 187500.015625, 187500.015625, 187500.015625, 187500.015625, 0, 1, 1, 0, 1,0.0,0.0,0.0,0.0,0.0, 13:24:07.476
180883.312500, 187500.015625, 187500.015625, 187500.015625, 187500.015625, 187500.015625, 187500.015625, 187500.015625, 0, 1, 1, 0, 1,0.0,0.0,0.0,0.0,0.0, 13:24:07.477
180867.625000, 187500.015625, 187500.015625, 187500.015625, 187500.015625, 187500.015625, 187500.015625, 187500.015625, 0, 1, 1, 0, 1,0.0,0.0,0.0,0.0,0.0, 13:24:07.477
180844.296875, 187500.015625, 187500.015625, 187500.015625, 187500.015625, 187500.015625, 187500.015625, 187500.015625, 0, 1, 1, 0, 1,0.0,0.0,0.0,0.0,0.0, 13:24:07.478
180852.921875, 187500.015625, 187500.015625, 187500.015625, 187500.015625, 187500.015625, 187500.015625, 187500.015625, 0, 1, 1, 0, 1,0.0,0.0,0.0,0.0,0.0, 13:24:07.478
180876.296875, 187500.015625, 187500.015625, 187500.015625, 187500.015625, 187500.015625, 187500.015625, 187500.015625, 0, 1, 1, 0, 1,0.0,0.0,0.0,0.0,0.0, 13:24:07.478
180869.890625, 187500.015625, 187500.015625, 187500.015625, 187500.015625, 187500.015625, 187500.015625, 187500.015625, 0, 1, 1, 0, 1,0.0,0.0,0.0,0.0,0.0, 13:24:07.478
180845.859375, 187500.015625, 187500.015625, 187500.015625, 187500.015625, 187500.015625, 187500.015625, 187500.015625, 0, 1, 1, 0, 1,0.0,0.0,0.0,0.0,0.0, 13:24:07.479
180845.921875, 187500.015625, 187500.015625, 187500.015625, 187500.015625, 187500.015625, 187500.015625, 187500.015625, 0, 1, 1, 0, 1,0.0,0.0,0.0,0.0,0.0, 13:24:07.479
180868.796875, 187500.015625, 187500.015625, 187500.015625, 187500.015625, 187500.015625, 187500.015625, 187500.015625, 0, 1, 1, 0, 1,0.0,0.0,0.0,0.0,0.0, 13:24:07.479
180869.484375, 187500.015625, 187500.015625, 187500.015625, 187500.015625, 187500.015625, 187500.015625, 187500.015625, 0, 1, 1, 0, 1,0.0,0.0,0.0,0.0,0.0, 13:24:07.480
180844.937500, 187500.015625, 187500.015625, 187500.015625, 187500.015625, 187500.015625, 187500.015625, 187500.015625, 0, 1, 1, 0, 1,0.0,0.0,0.0,0.0,0.0, 13:24:07.480
180838.593750, 187500.015625, 187500.015625, 187500.015625, 187500.015625, 187500.015625, 187500.015625, 187500.015625, 0, 1, 1, 0, 1,0.0,0.0,0.0,0.0,0.0, 13:24:07.480
180859.890625, 187500.015625, 187500.015625, 187500.015625, 187500.015625, 187500.015625, 187500.015625, 187500.015625, 0, 1, 1, 0, 1,0.0,0.0,0.0,0.0,0.0, 13:24:07.481
180870.828125, 187500.015625, 187500.015625, 187500.015625, 187500.015625, 187500.015625, 187500.015625, 187500.015625, 0, 1, 1, 0, 1,0.0,0.0,0.0,0.0,0.0, 13:24:07.481
180849.359375, 187500.015625, 187500.015625, 187500.015625, 187500.015625, 187500.015625, 187500.015625, 187500.015625, 0, 1, 1, 0, 1,0.0,0.0,0.0,0.0,0.0, 13:24:07.481
180841.984375, 187500.015625, 187500.015625, 187500.015625, 187500.015625, 187500.015625, 187500.015625, 187500.015625, 0, 1, 1, 0, 1,0.0,0.0,0.0,0.0,0.0, 13:24:07.482
180868.281250, 187500.015625, 187500.015625, 187500.015625, 187500.015625, 187500.015625, 187500.015625, 187500.015625, 0, 1, 1, 0, 1,0.0,0.0,0.0,0.0,0.0, 13:24:07.482
180887.875000, 187500.015625, 187500.015625, 187500.015625, 187500.015625, 187500.015625, 187500.015625, 187500.015625, 0, 1, 1, 0, 1,0.0,0.0,0.0,0.0,0.0, 13:24:07.482
180869.968750, 187500.015625, 187500.015625, 187500.015625, 187500.015625, 187500.015625, 187500.015625, 187500.015625, 0, 1, 1, 0, 1,0.0,0.0,0.0,0.0,0.0, 13:24:07.483
180857.406250, 187500.015625, 187500.015625, 187500.015625, 187500.015625, 187500.015625, 187500.015625, 187500.015625, 0, 1, 1, 0, 1,0.0,0.0,0.0,0.0,0.0, 13:24:07.483
180875.890625, 187500.015625, 187500.015625, 187500.015625, 187500.015625, 187500.015625, 187500.015625, 187500.015625, 0, 1, 1, 0, 1,0.0,0.0,0.0,0.0,0.0, 13:24:07.483
180894.625000, 187500.015625, 187500.015625, 187500.015625, 187500.015625, 187500.015625, 187500.015625, 187500.015625, 0, 1, 1, 0, 1,0.0,0.0,0.0,0.0,0.0, 13:24:07.484
180877.546875, 187500.015625, 187500.015625, 187500.015625, 187500.015625, 187500.015625, 187500.015625, 187500.015625, 0, 1, 1, 0, 1,0.0,0.0,0.0,0.0,0.0, 13:24:07.484
180856.765625, 187500.015625, 187500.015625, 187500.015625, 187500.015625, 187500.015625, 187500.015625, 187500.015625, 0, 1, 1, 0, 1,0.0,0.0,0.0,0.0,0.0, 13:24:07.484
180866.875000, 187500.015625, 187500.015625, 187500.015625, 187500.015625, 187500.015625, 187500.015625, 187500.015625, 0, 1, 1, 0, 1,0.0,0.0,0.0,0.0,0.0, 13:24:07.485
180886.687500, 187500.015625, 187500.015625, 187500.015625, 187500.015625, 187500.015625, 187500.015625, 187500.015625, 0, 1, 1, 0, 1,0.0,0.0,0.0,0.0,0.0, 13:24:07.485
180873.796875, 187500.015625, 187500.015625, 187500.015625, 187500.015625, 187500.015625, 187500.015625, 187500.015625, 0, 1, 1, 0, 1,0.0,0.0,0.0,0.0,0.0, 13:24:07.485
180851.843750, 187500.015625, 187500.015625, 187500.015625, 187500.015625, 187500.015625, 187500.015625, 187500.015625, 0, 1, 1, 0, 1,0.0,0.0,0.0,0.0,0.0, 13:24:07.486
180858.125000, 187500.015625, 187500.015625, 187500.015625, 187500.015625, 187500.015625, 187500.015625, 187500.015625, 0, 1, 1, 0, 1,0.0,0.0,0.0,0.0,0.0, 13:24:07.486
180878.937500, 187500.015625, 187500.015625, 187500.015625, 187500.015625, 187500.015625, 187500.015625, 187500.015625, 0, 1, 1, 0, 1,0.0,0.0,0.0,0.0,0.0, 13:24:07.486
180874.312500, 187500.015625, 187500.015625, 187500.015625, 187500.015625, 187500.015625, 187500.015625, 187500.015625, 0, 1, 1, 0, 1,0.0,0.0,0.0,0.0,0.0, 13:24:07.486
180849.953125, 187500.015625, 187500.015625, 187500.015625, 187500.015625, 187500.015625, 187500.015625, 187500.015625, 0, 1, 1, 0, 1,0.0,0.0,0.0,0.0,0.0, 13:24:07.487
180851.625000, 187500.015625, 187500.015625, 187500.015625, 187500.015625, 187500.015625, 187500.015625, 187500.015625, 0, 1, 1, 0, 1,0.0,0.0,0.0,0.0,0.0, 13:24:07.494
180878.765625, 187500.015625, 187500.015625, 187500.015625, 187500.015625, 187500.015625, 187500.015625, 187500.015625, 0, 1, 1, 0, 1,0.0,0.0,0.0,0.0,0.0, 13:24:07.494
180882.515625, 187500.015625, 187500.015625, 187500.015625, 187500.015625, 187500.015625, 187500.015625, 187500.015625, 0, 1, 1, 0, 1,0.0,0.0,0.0,0.0,0.0, 13:24:07.494
180856.312500, 187500.015625, 187500.015625, 187500.015625, 187500.015625, 187500.015625, 187500.015625, 187500.015625, 0, 1, 1, 0, 1,0.0,0.0,0.0,0.0,0.0, 13:24:07.495
180852.234375, 187500.015625, 187500.015625, 187500.015625, 187500.015625, 187500.015625, 187500.015625, 187500.015625, 0, 1, 1, 0, 1,0.0,0.0,0.0,0.0,0.0, 13:24:07.495
180878.046875, 187500.015625, 187500.015625, 187500.015625, 187500.015625, 187500.015625, 187500.015625, 187500.015625, 0, 1, 1, 0, 1,0.0,0.0,0.0,0.0,0.0, 13:24:07.495
180891.203125, 187500.015625, 187500.015625, 187500.015625, 187500.015625, 187500.015625, 187500.015625, 187500.015625, 0, 1, 1, 0, 1,0.0,0.0,0.0,0.0,0.0, 13:24:07.496
180868.906250, 187500.015625, 187500.015625, 187500.015625, 187500.015625, 187500.015625, 187500.015625, 187500.015625, 0, 1, 1, 0, 1,0.0,0.0,0.0,0.0,0.0, 13:24:07.496
180855.218750, 187500.015625, 187500.015625, 187500.015625, 187500.015625, 187500.015625, 187500.015625, 187500.015625, 0, 1, 1, 0, 1,0.0,0.0,0.0,0.0,0.0, 13:24:07.497
180873.437500, 187500.015625, 187500.015625, 187500.015625, 187500.015625, 187500.015625, 187500.015625, 187500.015625, 0, 1, 1, 0, 1,0.0,0.0,0.0,0.0,0.0, 13:24:07.497
180888.234375, 187500.015625, 187500.015625, 187500.015625, 187500.015625, 187500.015625, 187500.015625, 187500.015625, 0, 1, 1, 0, 1,0.0,0.0,0.0,0.0,0.0, 13:24:07.497
180864.671875, 187500.015625, 187500.015625, 187500.015625, 187500.015625, 187500.015625, 187500.015625, 187500.015625, 0, 1, 1, 0, 1,0.0,0.0,0.0,0.0,0.0, 13:24:07.498
180843.281250, 187500.015625, 187500.015625, 187500.015625, 187500.015625, 187500.015625, 187500.015625, 187500.015625, 0, 1, 1, 0, 1,0.0,0.0,0.0,0.0,0.0, 13:24:07.498
180856.046875, 187500.015625, 187500.015625, 187500.015625, 187500.015625, 187500.015625, 187500.015625, 187500.015625, 0, 1, 1, 0, 1,0.0,0.0,0.0,0.0,0.0, 13:24:07.499
180871.218750, 187500.015625, 187500.015625, 187500.015625, 187500.015625, 187500.015625, 187500.015625, 187500.015625, 0, 1, 1, 0, 1,0.0,0.0,0.0,0.0,0.0, 13:24:07.499
180853.796875, 187500.015625, 187500.015625, 187500.015625, 187500.015625, 187500.015625, 187500.015625, 187500.015625, 0, 1, 1, 0, 1,0.0,0.0,0.0,0.0,0.0, 13:24:07.500
180831.796875, 187500.015625, 187500.015625, 187500.015625, 187500.015625, 187500.015625, 187500.015625, 187500.015625, 0, 1, 1, 0, 1,0.0,0.0,0.0,0.0,0.0, 13:24:07.500
180840.562500, 187500.015625, 187500.015625, 187500.015625, 187500.015625, 187500.015625, 187500.015625, 187500.015625, 0, 1, 1, 0, 1,0.0,0.0,0.0,0.0,0.0, 13:24:07.500
180858.578125, 187500.015625, 187500.015625, 187500.015625, 187500.015625, 187500.015625, 187500.015625, 187500.015625, 0, 1, 1, 0, 1,0.0,0.0,0.0,0.0,0.0, 13:24:07.501
180847.625000, 187500.015625, 187500.015625, 187500.015625, 187500.015625, 187500.015625, 187500.015625, 187500.015625, 0, 1, 1, 0, 1,0.0,0.0,0.0,0.0,0.0, 13:24:07.501
180820.125000, 187500.015625, 187500.015625, 187500.015625, 187500.015625, 187500.015625, 187500.015625, 187500.015625, 0, 1, 1, 0, 1,0.0,0.0,0.0,0.0,0.0, 13:24:07.501
180821.187500, 187500.015625, 187500.015625, 187500.015625, 187500.015625, 187500.015625, 187500.015625, 187500.015625, 0, 1, 1, 0, 1,0.0,0.0,0.0,0.0,0.0, 13:24:07.501
180846.546875, 187500.015625, 187500.015625, 187500.015625, 187500.015625, 187500.015625, 187500.015625, 187500.015625, 0, 1, 1, 0, 1,0.0,0.0,0.0,0.0,0.0, 13:24:07.502
180844.578125, 187500.015625, 187500.015625, 187500.015625, 187500.015625, 187500.015625, 187500.015625, 187500.015625, 0, 1, 1, 0, 1,0.0,0.0,0.0,0.0,0.0, 13:24:07.502
180817.359375, 187500.015625, 187500.015625, 187500.015625, 187500.015625, 187500.015625, 187500.015625, 187500.015625, 0, 1, 1, 0, 1,0.0,0.0,0.0,0.0,0.0, 13:24:07.502
180814.718750, 187500.015625, 187500.015625, 187500.015625, 187500.015625, 187500.015625, 187500.015625, 187500.015625, 0, 1, 1, 0, 1,0.0,0.0,0.0,0.0,0.0, 13:24:07.503
180839.546875, 187500.015625, 187500.015625, 187500.015625, 187500.015625, 187500.015625, 187500.015625, 187500.015625, 0, 1, 1, 0, 1,0.0,0.0,0.0,0.0,0.0, 13:24:07.503
180846.062500, 187500.015625, 187500.015625, 187500.015625, 187500.015625, 187500.015625, 187500.015625, 187500.015625, 0, 1, 1, 0, 1,0.0,0.0,0.0,0.0,0.0, 13:24:07.504
180821.718750, 187500.015625, 187500.015625, 187500.015625, 187500.015625, 187500.015625, 187500.015625, 187500.015625, 0, 1, 1, 0, 1,0.0,0.0,0.0,0.0,0.0, 13:24:07.504
180814.359375, 187500.015625, 187500.015625, 187500.015625, 187500.015625, 187500.015625, 187500.015625, 187500.015625, 0, 1, 1, 0, 1,0.0,0.0,0.0,0.0,0.0, 13:24:07.505
180839.015625, 187500.015625, 187500.015625, 187500.015625, 187500.015625, 187500.015625, 187500.015625, 187500.015625, 0, 1, 1, 0, 1,0.0,0.0,0.0,0.0,0.0, 13:24:07.505
180854.156250, 187500.015625, 187500.015625, 187500.015625, 187500.015625, 187500.015625, 187500.015625, 187500.015625, 0, 1, 1, 0, 1,0.0,0.0,0.0,0.0,0.0, 13:24:07.506
180835.593750, 187500.015625, 187500.015625, 187500.015625, 187500.015625, 187500.015625, 187500.015625, 187500.015625, 0, 1, 1, 0, 1,0.0,0.0,0.0,0.0,0.0, 13:24:07.506
180825.765625, 187500.015625, 187500.015625, 187500.015625, 187500.015625, 187500.015625, 187500.015625, 187500.015625, 0, 1, 1, 0, 1,0.0,0.0,0.0,0.0,0.0, 13:24:07.506
180850.312500, 187500.015625, 187500.015625, 187500.015625, 187500.015625, 187500.015625, 187500.015625, 187500.015625, 0, 1, 1, 0, 1,0.0,0.0,0.0,0.0,0.0, 13:24:07.506
180874.437500, 187500.015625, 187500.015625, 187500.015625, 187500.015625, 187500.015625, 187500.015625, 187500.015625, 0, 1, 1, 0, 1,0.0,0.0,0.0,0.0,0.0, 13:24:07.507
180862.312500, 187500.015625, 187500.015625, 187500.015625, 187500.015625, 187500.015625, 187500.015625, 187500.015625, 0, 1, 1, 0, 1,0.0,0.0,0.0,0.0,0.0, 13:24:07.507
180849.015625, 187500.015625, 187500.015625, 187500.015625, 187500.015625, 187500.015625, 187500.015625, 187500.015625, 0, 1, 1, 0, 1,0.0,0.0,0.0,0.0,0.0, 13:24:07.507
180869.953125, 187500.015625, 187500.015625, 187500.015625, 187500.015625, 187500.015625, 187500.015625, 187500.015625, 0, 1, 1, 0, 1,0.0,0.0,0.0,0.0,0.0, 13:24:07.507
180899.562500, 187500.015625, 187500.015625, 187500.015625, 187500.015625, 187500.015625, 187500.015625, 187500.015625, 0, 1, 1, 0, 1,0.0,0.0,0.0,0.0,0.0, 13:24:07.507
180893.625000, 187500.015625, 187500.015625, 187500.015625, 187500.015625, 187500.015625, 187500.015625, 187500.015625, 0, 1, 1, 0, 1,0.0,0.0,0.0,0.0,0.0, 13:24:07.508
180874.593750, 187500.015625, 187500.015625, 187500.015625, 187500.015625, 187500.015625, 187500.015625, 187500.015625, 0, 1, 1, 0, 1,0.0,0.0,0.0,0.0,0.0, 13:24:07.508
180882.765625, 187500.015625, 187500.015625, 187500.015625, 187500.015625, 187500.015625, 187500.015625, 187500.015625, 0, 1, 1, 0, 1,0.0,0.0,0.0,0.0,0.0, 13:24:07.508
180909.328125, 187500.015625, 187500.015625, 187500.015625, 187500.015625, 187500.015625, 187500.015625, 187500.015625, 0, 1, 1, 0, 1,0.0,0.0,0.0,0.0,0.0, 13:24:07.509
180906.765625, 187500.015625, 187500.015625, 187500.015625, 187500.015625, 187500.015625, 187500.015625, 187500.015625, 0, 1, 1, 0, 1,0.0,0.0,0.0,0.0,0.0, 13:24:07.509
180880.968750, 187500.015625, 187500.015625, 187500.015625, 187500.015625, 187500.015625, 187500.015625, 187500.015625, 0, 1, 1, 0, 1,0.0,0.0,0.0,0.0,0.0, 13:24:07.510
180882.203125, 187500.015625, 187500.015625, 187500.015625, 187500.015625, 187500.015625, 187500.015625, 187500.015625, 0, 1, 1, 0, 1,0.0,0.0,0.0,0.0,0.0, 13:24:07.510
180906.546875, 187500.015625, 187500.015625, 187500.015625, 187500.015625, 187500.015625, 187500.015625, 187500.015625, 0, 1, 1, 0, 1,0.0,0.0,0.0,0.0,0.0, 13:24:07.511
180908.015625, 187500.015625, 187500.015625, 187500.015625, 187500.015625, 187500.015625, 187500.015625, 187500.015625, 0, 1, 1, 0, 1,6.458363E-6,8.554991E-6,1.05157305E-5,3.308218E-5,4.201552E-5, 13:24:07.511
180882.687500, 187500.015625, 187500.015625, 187500.015625, 187500.015625, 187500.015625, 187500.015625, 187500.015625, 0, 1, 1, 0, 1,6.458363E-6,8.554991E-6,1.05157305E-5,3.308218E-5,4.201552E-5, 13:24:07.512
180877.484375, 187500.015625, 187500.015625, 187500.015625, 187500.015625, 187500.015625, 187500.015625, 187500.015625, 0, 1, 1, 0, 1,6.458363E-6,8.554991E-6,1.05157305E-5,3.308218E-5,4.201552E-5, 13:24:07.512
180900.312500, 187500.015625, 187500.015625, 187500.015625, 187500.015625, 187500.015625, 187500.015625, 187500.015625, 0, 1, 1, 0, 1,6.458363E-6,8.554991E-6,1.05157305E-5,3.308218E-5,4.201552E-5, 13:24:07.512
180904.078125, 187500.015625, 187500.015625, 187500.015625, 187500.015625, 187500.015625, 187500.015625, 187500.015625, 0, 1, 1, 0, 1,6.458363E-6,8.554991E-6,1.05157305E-5,3.308218E-5,4.201552E-5, 13:24:07.513
180875.343750, 187500.015625, 187500.015625, 187500.015625, 187500.015625, 187500.015625, 187500.015625, 187500.015625, 0, 1, 1, 0, 1,6.458363E-6,8.554991E-6,1.05157305E-5,3.308218E-5,4.201552E-5, 13:24:07.513
180864.406250, 187500.015625, 187500.015625, 187500.015625, 187500.015625, 187500.015625, 187500.015625, 187500.015625, 0, 1, 1, 0, 1,6.458363E-6,8.554991E-6,1.05157305E-5,3.308218E-5,4.201552E-5, 13:24:07.513
180885.437500, 187500.015625, 187500.015625, 187500.015625, 187500.015625, 187500.015625, 187500.015625, 187500.015625, 0, 1, 1, 0, 1,6.458363E-6,8.554991E-6,1.05157305E-5,3.308218E-5,4.201552E-5, 13:24:07.513
180895.250000, 187500.015625, 187500.015625, 187500.015625, 187500.015625, 187500.015625, 187500.015625, 187500.015625, 0, 1, 1, 0, 1,6.458363E-6,8.554991E-6,1.05157305E-5,3.308218E-5,4.201552E-5, 13:24:07.514
180871.656250, 187500.015625, 187500.015625, 187500.015625, 187500.015625, 187500.015625, 187500.015625, 187500.015625, 0, 1, 1, 0, 1,6.458363E-6,8.554991E-6,1.05157305E-5,3.308218E-5,4.201552E-5, 13:24:07.514
180853.281250, 187500.015625, 187500.015625, 187500.015625, 187500.015625, 187500.015625, 187500.015625, 187500.015625, 0, 1, 1, 0, 1,6.458363E-6,8.554991E-6,1.05157305E-5,3.308218E-5,4.201552E-5, 13:24:07.514
180868.296875, 187500.015625, 187500.015625, 187500.015625, 187500.015625, 187500.015625, 187500.015625, 187500.015625, 0, 1, 1, 0, 1,6.458363E-6,8.554991E-6,1.05157305E-5,3.308218E-5,4.201552E-5, 13:24:07.515
180888.234375, 187500.015625, 187500.015625, 187500.015625, 187500.015625, 187500.015625, 187500.015625, 187500.015625, 0, 1, 1, 0, 1,6.458363E-6,8.554991E-6,1.05157305E-5,3.308218E-5,4.201552E-5, 13:24:07.516
180873.796875, 187500.015625, 187500.015625, 187500.015625, 187500.015625, 187500.015625, 187500.015625, 187500.015625, 0, 1, 1, 0, 1,6.458363E-6,8.554991E-6,1.05157305E-5,3.308218E-5,4.201552E-5, 13:24:07.516
180856.656250, 187500.015625, 187500.015625, 187500.015625, 187500.015625, 187500.015625, 187500.015625, 187500.015625, 0, 1, 1, 0, 1,6.458363E-6,8.554991E-6,1.05157305E-5,3.308218E-5,4.201552E-5, 13:24:07.516
180872.859375, 187500.015625, 187500.015625, 187500.015625, 187500.015625, 187500.015625, 187500.015625, 187500.015625, 0, 1, 1, 0, 1,6.458363E-6,8.554991E-6,1.05157305E-5,3.308218E-5,4.201552E-5, 13:24:07.517
180900.421875, 187500.015625, 187500.015625, 187500.015625, 187500.015625, 187500.015625, 187500.015625, 187500.015625, 0, 1, 1, 0, 1,6.458363E-6,8.554991E-6,1.05157305E-5,3.308218E-5,4.201552E-5, 13:24:07.517
180897.484375, 187500.015625, 187500.015625, 187500.015625, 187500.015625, 187500.015625, 187500.015625, 187500.015625, 0, 1, 1, 0, 1,6.458363E-6,8.554991E-6,1.05157305E-5,3.308218E-5,4.201552E-5, 13:24:07.518
180882.515625, 187500.015625, 187500.015625, 187500.015625, 187500.015625, 187500.015625, 187500.015625, 187500.015625, 0, 1, 1, 0, 1,6.458363E-6,8.554991E-6,1.05157305E-5,3.308218E-5,4.201552E-5, 13:24:07.518
180895.250000, 187500.015625, 187500.015625, 187500.015625, 187500.015625, 187500.015625, 187500.015625, 187500.015625, 0, 1, 1, 0, 1,6.458363E-6,8.554991E-6,1.05157305E-5,3.308218E-5,4.201552E-5, 13:24:07.519
180930.531250, 187500.015625, 187500.015625, 187500.015625, 187500.015625, 187500.015625, 187500.015625, 187500.015625, 0, 1, 1, 0, 1,6.458363E-6,8.554991E-6,1.05157305E-5,3.308218E-5,4.201552E-5, 13:24:07.519
180938.953125, 187500.015625, 187500.015625, 187500.015625, 187500.015625, 187500.015625, 187500.015625, 187500.015625, 0, 1, 1, 0, 1,6.458363E-6,8.554991E-6,1.05157305E-5,3.308218E-5,4.201552E-5, 13:24:07.519
180928.562500, 187500.015625, 187500.015625, 187500.015625, 187500.015625, 187500.015625, 187500.015625, 187500.015625, 0, 1, 1, 0, 1,6.458363E-6,8.554991E-6,1.05157305E-5,3.308218E-5,4.201552E-5, 13:24:07.520
180943.718750, 187500.015625, 187500.015625, 187500.015625, 187500.015625, 187500.015625, 187500.015625, 187500.015625, 0, 1, 1, 0, 1,6.458363E-6,8.554991E-6,1.05157305E-5,3.308218E-5,4.201552E-5, 13:24:07.520
180980.140625, 187500.015625, 187500.015625, 187500.015625, 187500.015625, 187500.015625, 187500.015625, 187500.015625, 0, 1, 1, 0, 1,6.458363E-6,8.554991E-6,1.05157305E-5,3.308218E-5,4.201552E-5, 13:24:07.521
180995.968750, 187500.015625, 187500.015625, 187500.015625, 187500.015625, 187500.015625, 187500.015625, 187500.015625, 0, 1, 1, 0, 1,0.0,0.0,0.0,0.0,0.0, 13:24:07.948
180981.875000, 187500.015625, 187500.015625, 187500.015625, 187500.015625, 187500.015625, 187500.015625, 187500.015625, 0, 1, 1, 0, 1,0.0,0.0,0.0,0.0,0.0, 13:24:07.948
180985.281250, 187500.015625, 187500.015625, 187500.015625, 187500.015625, 187500.015625, 187500.015625, 187500.015625, 0, 1, 1, 0, 1,0.0,0.0,0.0,0.0,0.0, 13:24:07.948
181021.718750, 187500.015625, 187500.015625, 187500.015625, 187500.015625, 187500.015625, 187500.015625, 187500.015625, 0, 1, 1, 0, 1,0.0,0.0,0.0,0.0,0.0, 13:24:07.949
181044.265625, 187500.015625, 187500.015625, 187500.015625, 187500.015625, 187500.015625, 187500.015625, 187500.015625, 0, 1, 1, 0, 1,0.0,0.0,0.0,0.0,0.0, 13:24:07.950
181032.500000, 187500.015625, 187500.015625, 187500.015625, 187500.015625, 187500.015625, 187500.015625, 187500.015625, 0, 1, 1, 0, 1,0.0,0.0,0.0,0.0,0.0, 13:24:07.951
181032.609375, 187500.015625, 187500.015625, 187500.015625, 187500.015625, 187500.015625, 187500.015625, 187500.015625, 0, 1, 1, 0, 1,0.0,0.0,0.0,0.0,0.0, 13:24:07.952
181060.171875, 187500.015625, 187500.015625, 187500.015625, 187500.015625, 187500.015625, 187500.015625, 187500.015625, 0, 1, 1, 0, 1,0.0,0.0,0.0,0.0,0.0, 13:24:07.952
181083.609375, 187500.015625, 187500.015625, 187500.015625, 187500.015625, 187500.015625, 187500.015625, 187500.015625, 0, 1, 1, 0, 1,0.0,0.0,0.0,0.0,0.0, 13:24:07.952
181073.046875, 187500.015625, 187500.015625, 187500.015625, 187500.015625, 187500.015625, 187500.015625, 187500.015625, 0, 1, 1, 0, 1,0.0,0.0,0.0,0.0,0.0, 13:24:07.953
181064.484375, 187500.015625, 187500.015625, 187500.015625, 187500.015625, 187500.015625, 187500.015625, 187500.015625, 0, 1, 1, 0, 1,0.0,0.0,0.0,0.0,0.0, 13:24:07.953
181085.921875, 187500.015625, 187500.015625, 187500.015625, 187500.015625, 187500.015625, 187500.015625, 187500.015625, 0, 1, 1, 0, 1,0.0,0.0,0.0,0.0,0.0, 13:24:07.953
181112.156250, 187500.015625, 187500.015625, 187500.015625, 187500.015625, 187500.015625, 187500.015625, 187500.015625, 0, 1, 1, 0, 1,0.0,0.0,0.0,0.0,0.0, 13:24:07.954
181103.703125, 187500.015625, 187500.015625, 187500.015625, 187500.015625, 187500.015625, 187500.015625, 187500.015625, 0, 1, 1, 0, 1,0.0,0.0,0.0,0.0,0.0, 13:24:07.954
181088.000000, 187500.015625, 187500.015625, 187500.015625, 187500.015625, 187500.015625, 187500.015625, 187500.015625, 0, 1, 1, 0, 1,0.0,0.0,0.0,0.0,0.0, 13:24:07.954
181102.359375, 187500.015625, 187500.015625, 187500.015625, 187500.015625, 187500.015625, 187500.015625, 187500.015625, 0, 1, 1, 0, 1,0.0,0.0,0.0,0.0,0.0, 13:24:07.955
181126.656250, 187500.015625, 187500.015625, 187500.015625, 187500.015625, 187500.015625, 187500.015625, 187500.015625, 0, 1, 1, 0, 1,0.0,0.0,0.0,0.0,0.0, 13:24:07.955
181119.156250, 187500.015625, 187500.015625, 187500.015625, 187500.015625, 187500.015625, 187500.015625, 187500.015625, 0, 1, 1, 0, 1,0.0,0.0,0.0,0.0,0.0, 13:24:07.955
181094.000000, 187500.015625, 187500.015625, 187500.015625, 187500.015625, 187500.015625, 187500.015625, 187500.015625, 0, 1, 1, 0, 1,0.0,0.0,0.0,0.0,0.0, 13:24:07.956
181097.421875, 187500.015625, 187500.015625, 187500.015625, 187500.015625, 187500.015625, 187500.015625, 187500.015625, 0, 1, 1, 0, 1,0.0,0.0,0.0,0.0,0.0, 13:24:07.956
181123.265625, 187500.015625, 187500.015625, 187500.015625, 187500.015625, 187500.015625, 187500.015625, 187500.015625, 0, 1, 1, 0, 1,0.0,0.0,0.0,0.0,0.0, 13:24:07.957
181124.375000, 187500.015625, 187500.015625, 187500.015625, 187500.015625, 187500.015625, 187500.015625, 187500.015625, 0, 1, 1, 0, 1,0.0,0.0,0.0,0.0,0.0, 13:24:07.957
181100.468750, 187500.015625, 187500.015625, 187500.015625, 187500.015625, 187500.015625, 187500.015625, 187500.015625, 0, 1, 1, 0, 1,0.0,0.0,0.0,0.0,0.0, 13:24:07.958
181100.437500, 187500.015625, 187500.015625, 187500.015625, 187500.015625, 187500.015625, 187500.015625, 187500.015625, 0, 1, 1, 0, 1,0.0,0.0,0.0,0.0,0.0, 13:24:07.958
181126.812500, 187500.015625, 187500.015625, 187500.015625, 187500.015625, 187500.015625, 187500.015625, 187500.015625, 0, 1, 1, 0, 1,0.0,0.0,0.0,0.0,0.0, 13:24:07.958
181132.515625, 187500.015625, 187500.015625, 187500.015625, 187500.015625, 187500.015625, 187500.015625, 187500.015625, 0, 1, 1, 0, 1,0.0,0.0,0.0,0.0,0.0, 13:24:07.959
181107.218750, 187500.015625, 187500.015625, 187500.015625, 187500.015625, 187500.015625, 187500.015625, 187500.015625, 0, 1, 1, 0, 1,0.0,0.0,0.0,0.0,0.0, 13:24:07.959
181099.125000, 187500.015625, 187500.015625, 187500.015625, 187500.015625, 187500.015625, 187500.015625, 187500.015625, 0, 1, 1, 0, 1,0.0,0.0,0.0,0.0,0.0, 13:24:07.960
181122.187500, 187500.015625, 187500.015625, 187500.015625, 187500.015625, 187500.015625, 187500.015625, 187500.015625, 0, 1, 1, 0, 1,0.0,0.0,0.0,0.0,0.0, 13:24:07.960
181131.328125, 187500.015625, 187500.015625, 187500.015625, 187500.015625, 187500.015625, 187500.015625, 187500.015625, 0, 1, 1, 0, 1,0.0,0.0,0.0,0.0,0.0, 13:24:07.960
181109.468750, 187500.015625, 187500.015625, 187500.015625, 187500.015625, 187500.015625, 187500.015625, 187500.015625, 0, 1, 1, 0, 1,0.0,0.0,0.0,0.0,0.0, 13:24:07.961
181095.921875, 187500.015625, 187500.015625, 187500.015625, 187500.015625, 187500.015625, 187500.015625, 187500.015625, 0, 1, 1, 0, 1,0.0,0.0,0.0,0.0,0.0, 13:24:07.961
181115.828125, 187500.015625, 187500.015625, 187500.015625, 187500.015625, 187500.015625, 187500.015625, 187500.015625, 0, 1, 1, 0, 1,0.0,0.0,0.0,0.0,0.0, 13:24:07.961
181137.125000, 187500.015625, 187500.015625, 187500.015625, 187500.015625, 187500.015625, 187500.015625, 187500.015625, 0, 1, 1, 0, 1,0.0,0.0,0.0,0.0,0.0, 13:24:07.962
181120.890625, 187500.015625, 187500.015625, 187500.015625, 187500.015625, 187500.015625, 187500.015625, 187500.015625, 0, 1, 1, 0, 1,0.0,0.0,0.0,0.0,0.0, 13:24:07.962
181106.609375, 187500.015625, 187500.015625, 187500.015625, 187500.015625, 187500.015625, 187500.015625, 187500.015625, 0, 1, 1, 0, 1,0.0,0.0,0.0,0.0,0.0, 13:24:07.962
181122.593750, 187500.015625, 187500.015625, 187500.015625, 187500.015625, 187500.015625, 187500.015625, 187500.015625, 0, 1, 1, 0, 1,0.0,0.0,0.0,0.0,0.0, 13:24:07.962
181148.281250, 187500.015625, 187500.015625, 187500.015625, 187500.015625, 187500.015625, 187500.015625, 187500.015625, 0, 1, 1, 0, 1,0.0,0.0,0.0,0.0,0.0, 13:24:07.963
181137.453125, 187500.015625, 187500.015625, 187500.015625, 187500.015625, 187500.015625, 187500.015625, 187500.015625, 0, 1, 1, 0, 1,0.0,0.0,0.0,0.0,0.0, 13:24:07.963
181117.281250, 187500.015625, 187500.015625, 187500.015625, 187500.015625, 187500.015625, 187500.015625, 187500.015625, 0, 1, 1, 0, 1,0.0,0.0,0.0,0.0,0.0, 13:24:07.963
181127.640625, 187500.015625, 187500.015625, 187500.015625, 187500.015625, 187500.015625, 187500.015625, 187500.015625, 0, 1, 1, 0, 1,0.0,0.0,0.0,0.0,0.0, 13:24:07.964
181153.156250, 187500.015625, 187500.015625, 187500.015625, 187500.015625, 187500.015625, 187500.015625, 187500.015625, 0, 1, 1, 0, 1,0.0,0.0,0.0,0.0,0.0, 13:24:07.964
181144.437500, 187500.015625, 187500.015625, 187500.015625, 187500.015625, 187500.015625, 187500.015625, 187500.015625, 0, 1, 1, 0, 1,0.0,0.0,0.0,0.0,0.0, 13:24:07.964
181119.328125, 187500.015625, 187500.015625, 187500.015625, 187500.015625, 187500.015625, 187500.015625, 187500.015625, 0, 1, 1, 0, 1,0.0,0.0,0.0,0.0,0.0, 13:24:07.964
181122.546875, 187500.015625, 187500.015625, 187500.015625, 187500.015625, 187500.015625, 187500.015625, 187500.015625, 0, 1, 1, 0, 1,0.0,0.0,0.0,0.0,0.0, 13:24:07.965
181148.125000, 187500.015625, 187500.015625, 187500.015625, 187500.015625, 187500.015625, 187500.015625, 187500.015625, 0, 1, 1, 0, 1,0.0,0.0,0.0,0.0,0.0, 13:24:07.965
181150.203125, 187500.015625, 187500.015625, 187500.015625, 187500.015625, 187500.015625, 187500.015625, 187500.015625, 0, 1, 1, 0, 1,0.0,0.0,0.0,0.0,0.0, 13:24:07.966
181123.421875, 187500.015625, 187500.015625, 187500.015625, 187500.015625, 187500.015625, 187500.015625, 187500.015625, 0, 1, 1, 0, 1,0.0,0.0,0.0,0.0,0.0, 13:24:07.966
181116.687500, 187500.015625, 187500.015625, 187500.015625, 187500.015625, 187500.015625, 187500.015625, 187500.015625, 0, 1, 1, 0, 1,0.0,0.0,0.0,0.0,0.0, 13:24:07.967
181140.593750, 187500.015625, 187500.015625, 187500.015625, 187500.015625, 187500.015625, 187500.015625, 187500.015625, 0, 1, 1, 0, 1,0.0,0.0,0.0,0.0,0.0, 13:24:07.967
181149.375000, 187500.015625, 187500.015625, 187500.015625, 187500.015625, 187500.015625, 187500.015625, 187500.015625, 0, 1, 1, 0, 1,0.0,0.0,0.0,0.0,0.0, 13:24:07.967
181124.031250, 187500.015625, 187500.015625, 187500.015625, 187500.015625, 187500.015625, 187500.015625, 187500.015625, 0, 1, 1, 0, 1,0.0,0.0,0.0,0.0,0.0, 13:24:07.967
181110.375000, 187500.015625, 187500.015625, 187500.015625, 187500.015625, 187500.015625, 187500.015625, 187500.015625, 0, 1, 1, 0, 1,0.0,0.0,0.0,0.0,0.0, 13:24:07.967
181128.187500, 187500.015625, 187500.015625, 187500.015625, 187500.015625, 187500.015625, 187500.015625, 187500.015625, 0, 1, 1, 0, 1,0.0,0.0,0.0,0.0,0.0, 13:24:07.968
181136.609375, 187500.015625, 187500.015625, 187500.015625, 187500.015625, 187500.015625, 187500.015625, 187500.015625, 0, 1, 1, 0, 1,0.0,0.0,0.0,0.0,0.0, 13:24:07.968
181112.687500, 187500.015625, 187500.015625, 187500.015625, 187500.015625, 187500.015625, 187500.015625, 187500.015625, 0, 1, 1, 0, 1,0.0,0.0,0.0,0.0,0.0, 13:24:07.968
181093.484375, 187500.015625, 187500.015625, 187500.015625, 187500.015625, 187500.015625, 187500.015625, 187500.015625, 0, 1, 1, 0, 1,0.0,0.0,0.0,0.0,0.0, 13:24:07.968
181108.937500, 187500.015625, 187500.015625, 187500.015625, 187500.015625, 187500.015625, 187500.015625, 187500.015625, 0, 1, 1, 0, 1,0.0,0.0,0.0,0.0,0.0, 13:24:07.969
181127.328125, 187500.015625, 187500.015625, 187500.015625, 187500.015625, 187500.015625, 187500.015625, 187500.015625, 0, 1, 1, 0, 1,0.0,0.0,0.0,0.0,0.0, 13:24:07.969
181107.265625, 187500.015625, 187500.015625, 187500.015625, 187500.015625, 187500.015625, 187500.015625, 187500.015625, 0, 1, 1, 0, 1,0.0,0.0,0.0,0.0,0.0, 13:24:07.970
181084.062500, 187500.015625, 187500.015625, 187500.015625, 187500.015625, 187500.015625, 187500.015625, 187500.015625, 0, 1, 1, 0, 1,0.0,0.0,0.0,0.0,0.0, 13:24:07.971
181097.609375, 187500.015625, 187500.015625, 187500.015625, 187500.015625, 187500.015625, 187500.015625, 187500.015625, 0, 1, 1, 0, 1,0.0,0.0,0.0,0.0,0.0, 13:24:07.971
181120.062500, 187500.015625, 187500.015625, 187500.015625, 187500.015625, 187500.015625, 187500.015625, 187500.015625, 0, 1, 1, 0, 1,0.0,0.0,0.0,0.0,0.0, 13:24:07.972
181109.562500, 187500.015625, 187500.015625, 187500.015625, 187500.015625, 187500.015625, 187500.015625, 187500.015625, 0, 1, 1, 0, 1,0.0,0.0,0.0,0.0,0.0, 13:24:07.972
181089.734375, 187500.015625, 187500.015625, 187500.015625, 187500.015625, 187500.015625, 187500.015625, 187500.015625, 0, 1, 1, 0, 1,0.0,0.0,0.0,0.0,0.0, 13:24:07.973
181099.500000, 187500.015625, 187500.015625, 187500.015625, 187500.015625, 187500.015625, 187500.015625, 187500.015625, 0, 1, 1, 0, 1,0.0,0.0,0.0,0.0,0.0, 13:24:07.974
181126.296875, 187500.015625, 187500.015625, 187500.015625, 187500.015625, 187500.015625, 187500.015625, 187500.015625, 0, 1, 1, 0, 1,0.0,0.0,0.0,0.0,0.0, 13:24:07.975
181126.859375, 187500.015625, 187500.015625, 187500.015625, 187500.015625, 187500.015625, 187500.015625, 187500.015625, 0, 1, 1, 0, 1,0.0,0.0,0.0,0.0,0.0, 13:24:07.975
181107.000000, 187500.015625, 187500.015625, 187500.015625, 187500.015625, 187500.015625, 187500.015625, 187500.015625, 0, 1, 1, 0, 1,0.0,0.0,0.0,0.0,0.0, 13:24:07.975
181113.421875, 187500.015625, 187500.015625, 187500.015625, 187500.015625, 187500.015625, 187500.015625, 187500.015625, 0, 1, 1, 0, 1,0.0,0.0,0.0,0.0,0.0, 13:24:07.976
181143.671875, 187500.015625, 187500.015625, 187500.015625, 187500.015625, 187500.015625, 187500.015625, 187500.015625, 0, 1, 1, 0, 1,0.0,0.0,0.0,0.0,0.0, 13:24:07.976
181150.578125, 187500.015625, 187500.015625, 187500.015625, 187500.015625, 187500.015625, 187500.015625, 187500.015625, 0, 1, 1, 0, 1,0.0,0.0,0.0,0.0,0.0, 13:24:07.977
181130.843750, 187500.015625, 187500.015625, 187500.015625, 187500.015625, 187500.015625, 187500.015625, 187500.015625, 0, 1, 1, 0, 1,0.0,0.0,0.0,0.0,0.0, 13:24:07.977
181130.968750, 187500.015625, 187500.015625, 187500.015625, 187500.015625, 187500.015625, 187500.015625, 187500.015625, 0, 1, 1, 0, 1,0.0,0.0,0.0,0.0,0.0, 13:24:07.977
181159.656250, 187500.015625, 187500.015625, 187500.015625, 187500.015625, 187500.015625, 187500.015625, 187500.015625, 0, 1, 1, 0, 1,0.0,0.0,0.0,0.0,0.0, 13:24:07.978
181174.046875, 187500.015625, 187500.015625, 187500.015625, 187500.015625, 187500.015625, 187500.015625, 187500.015625, 0, 1, 1, 0, 1,0.0,0.0,0.0,0.0,0.0, 13:24:07.978
181154.562500, 187500.015625, 187500.015625, 187500.015625, 187500.015625, 187500.015625, 187500.015625, 187500.015625, 0, 1, 1, 0, 1,0.0,0.0,0.0,0.0,0.0, 13:24:07.978
181146.890625, 187500.015625, 187500.015625, 187500.015625, 187500.015625, 187500.015625, 187500.015625, 187500.015625, 0, 1, 1, 0, 1,0.0,0.0,0.0,0.0,0.0, 13:24:07.978
181169.531250, 187500.015625, 187500.015625, 187500.015625, 187500.015625, 187500.015625, 187500.015625, 187500.015625, 0, 1, 1, 0, 1,0.0,0.0,0.0,0.0,0.0, 13:24:07.978
181188.781250, 187500.015625, 187500.015625, 187500.015625, 187500.015625, 187500.015625, 187500.015625, 187500.015625, 0, 1, 1, 0, 1,0.0,0.0,0.0,0.0,0.0, 13:24:07.979
181170.687500, 187500.015625, 187500.015625, 187500.015625, 187500.015625, 187500.015625, 187500.015625, 187500.015625, 0, 1, 1, 0, 1,0.0,0.0,0.0,0.0,0.0, 13:24:07.979
181154.156250, 187500.015625, 187500.015625, 187500.015625, 187500.015625, 187500.015625, 187500.015625, 187500.015625, 0, 1, 1, 0, 1,0.0,0.0,0.0,0.0,0.0, 13:24:07.979
181172.453125, 187500.015625, 187500.015625, 187500.015625, 187500.015625, 187500.015625, 187500.015625, 187500.015625, 0, 1, 1, 0, 1,0.0,0.0,0.0,0.0,0.0, 13:24:07.980
181195.687500, 187500.015625, 187500.015625, 187500.015625, 187500.015625, 187500.015625, 187500.015625, 187500.015625, 0, 1, 1, 0, 1,0.0,0.0,0.0,0.0,0.0, 13:24:07.980
181181.218750, 187500.015625, 187500.015625, 187500.015625, 187500.015625, 187500.015625, 187500.015625, 187500.015625, 0, 1, 1, 0, 1,0.0,0.0,0.0,0.0,0.0, 13:24:07.981
181163.703125, 187500.015625, 187500.015625, 187500.015625, 187500.015625, 187500.015625, 187500.015625, 187500.015625, 0, 1, 1, 0, 1,0.0,0.0,0.0,0.0,0.0, 13:24:07.981
181179.343750, 187500.015625, 187500.015625, 187500.015625, 187500.015625, 187500.015625, 187500.015625, 187500.015625, 0, 1, 1, 0, 1,0.0,0.0,0.0,0.0,0.0, 13:24:07.981
181207.843750, 187500.015625, 187500.015625, 187500.015625, 187500.015625, 187500.015625, 187500.015625, 187500.015625, 0, 1, 1, 0, 1,0.0,0.0,0.0,0.0,0.0, 13:24:07.982
181203.890625, 187500.015625, 187500.015625, 187500.015625, 187500.015625, 187500.015625, 187500.015625, 187500.015625, 0, 1, 1, 0, 1,0.0,0.0,0.0,0.0,0.0, 13:24:07.982
181181.484375, 187500.015625, 187500.015625, 187500.015625, 187500.015625, 187500.015625, 187500.015625, 187500.015625, 0, 1, 1, 0, 1,0.0,0.0,0.0,0.0,0.0, 13:24:07.983
181189.312500, 187500.015625, 187500.015625, 187500.015625, 187500.015625, 187500.015625, 187500.015625, 187500.015625, 0, 1, 1, 0, 1,0.0,0.0,0.0,0.0,0.0, 13:24:07.983
181218.078125, 187500.015625, 187500.015625, 187500.015625, 187500.015625, 187500.015625, 187500.015625, 187500.015625, 0, 1, 1, 0, 1,0.0,0.0,0.0,0.0,0.0, 13:24:07.984
181216.671875, 187500.015625, 187500.015625, 187500.015625, 187500.015625, 187500.015625, 187500.015625, 187500.015625, 0, 1, 1, 0, 1,0.0,0.0,0.0,0.0,0.0, 13:24:07.984
181192.828125, 187500.015625, 187500.015625, 187500.015625, 187500.015625, 187500.015625, 187500.015625, 187500.015625, 0, 1, 1, 0, 1,0.0,0.0,0.0,0.0,0.0, 13:24:07.984
181193.000000, 187500.015625, 187500.015625, 187500.015625, 187500.015625, 187500.015625, 187500.015625, 187500.015625, 0, 1, 1, 0, 1,0.0,0.0,0.0,0.0,0.0, 13:24:07.985
181220.000000, 187500.015625, 187500.015625, 187500.015625, 187500.015625, 187500.015625, 187500.015625, 187500.015625, 0, 1, 1, 0, 1,0.0,0.0,0.0,0.0,0.0, 13:24:07.985
181226.187500, 187500.015625, 187500.015625, 187500.015625, 187500.015625, 187500.015625, 187500.015625, 187500.015625, 0, 1, 1, 0, 1,0.0,0.0,0.0,0.0,0.0, 13:24:07.985
181202.546875, 187500.015625, 187500.015625, 187500.015625, 187500.015625, 187500.015625, 187500.015625, 187500.015625, 0, 1, 1, 0, 1,0.0,0.0,0.0,0.0,0.0, 13:24:07.986
181196.515625, 187500.015625, 187500.015625, 187500.015625, 187500.015625, 187500.015625, 187500.015625, 187500.015625, 0, 1, 1, 0, 1,0.0,0.0,0.0,0.0,0.0, 13:24:07.986
181219.421875, 187500.015625, 187500.015625, 187500.015625, 187500.015625, 187500.015625, 187500.015625, 187500.015625, 0, 1, 1, 0, 1,0.0,0.0,0.0,0.0,0.0, 13:24:07.986
181227.843750, 187500.015625, 187500.015625, 187500.015625, 187500.015625, 187500.015625, 187500.015625, 187500.015625, 0, 1, 1, 0, 1,0.0,0.0,0.0,0.0,0.0, 13:24:07.986
181202.359375, 187500.015625, 187500.015625, 187500.015625, 187500.015625, 187500.015625, 187500.015625, 187500.015625, 0, 1, 1, 0, 1,0.0,0.0,0.0,0.0,0.0, 13:24:07.987
181185.562500, 187500.015625, 187500.015625, 187500.015625, 187500.015625, 187500.015625, 187500.015625, 187500.015625, 0, 1, 1, 0, 1,0.0,0.0,0.0,0.0,0.0, 13:24:07.987
181203.328125, 187500.015625, 187500.015625, 187500.015625, 187500.015625, 187500.015625, 187500.015625, 187500.015625, 0, 1, 1, 0, 1,0.0,0.0,0.0,0.0,0.0, 13:24:07.987
181221.703125, 187500.015625, 187500.015625, 187500.015625, 187500.015625, 187500.015625, 187500.015625, 187500.015625, 0, 1, 1, 0, 1,0.0,0.0,0.0,0.0,0.0, 13:24:07.988
181202.687500, 187500.015625, 187500.015625, 187500.015625, 187500.015625, 187500.015625, 187500.015625, 187500.015625, 0, 1, 1, 0, 1,0.0,0.0,0.0,0.0,0.0, 13:24:07.988
181183.296875, 187500.015625, 187500.015625, 187500.015625, 187500.015625, 187500.015625, 187500.015625, 187500.015625, 0, 1, 1, 0, 1,0.0,0.0,0.0,0.0,0.0, 13:24:07.988
181199.421875, 187500.015625, 187500.015625, 187500.015625, 187500.015625, 187500.015625, 187500.015625, 187500.015625, 0, 1, 1, 0, 1,0.0,0.0,0.0,0.0,0.0, 13:24:07.989
181219.359375, 187500.015625, 187500.015625, 187500.015625, 187500.015625, 187500.015625, 187500.015625, 187500.015625, 0, 1, 1, 0, 1,0.0,0.0,0.0,0.0,0.0, 13:24:07.989
181205.984375, 187500.015625, 187500.015625, 187500.015625, 187500.015625, 187500.015625, 187500.015625, 187500.015625, 0, 1, 1, 0, 1,0.0,0.0,0.0,0.0,0.0, 13:24:07.990
181180.937500, 187500.015625, 187500.015625, 187500.015625, 187500.015625, 187500.015625, 187500.015625, 187500.015625, 0, 1, 1, 0, 1,0.0,0.0,0.0,0.0,0.0, 13:24:07.990
181192.062500, 187500.015625, 187500.015625, 187500.015625, 187500.015625, 187500.015625, 187500.015625, 187500.015625, 0, 1, 1, 0, 1,0.0,0.0,0.0,0.0,0.0, 13:24:07.990
181216.140625, 187500.015625, 187500.015625, 187500.015625, 187500.015625, 187500.015625, 187500.015625, 187500.015625, 0, 1, 1, 0, 1,0.0,0.0,0.0,0.0,0.0, 13:24:07.991
181208.421875, 187500.015625, 187500.015625, 187500.015625, 187500.015625, 187500.015625, 187500.015625, 187500.015625, 0, 1, 1, 0, 1,0.0,0.0,0.0,0.0,0.0, 13:24:07.991
181183.546875, 187500.015625, 187500.015625, 187500.015625, 187500.015625, 187500.015625, 187500.015625, 187500.015625, 0, 1, 1, 0, 1,0.0,0.0,0.0,0.0,0.0, 13:24:07.991
181184.593750, 187500.015625, 187500.015625, 187500.015625, 187500.015625, 187500.015625, 187500.015625, 187500.015625, 0, 1, 1, 0, 1,0.0,0.0,0.0,0.0,0.0, 13:24:07.992
181205.343750, 187500.015625, 187500.015625, 187500.015625, 187500.015625, 187500.015625, 187500.015625, 187500.015625, 0, 1, 1, 0, 1,0.0,0.0,0.0,0.0,0.0, 13:24:07.993
181202.546875, 187500.015625, 187500.015625, 187500.015625, 187500.015625, 187500.015625, 187500.015625, 187500.015625, 0, 1, 1, 0, 1,0.0,0.0,0.0,0.0,0.0, 13:24:07.994
181172.078125, 187500.015625, 187500.015625, 187500.015625, 187500.015625, 187500.015625, 187500.015625, 187500.015625, 0, 1, 1, 0, 1,0.0,0.0,0.0,0.0,0.0, 13:24:07.994
181161.859375, 187500.015625, 187500.015625, 187500.015625, 187500.015625, 187500.015625, 187500.015625, 187500.015625, 0, 1, 1, 0, 1,0.0,0.0,0.0,0.0,0.0, 13:24:07.994
181180.234375, 187500.015625, 187500.015625, 187500.015625, 187500.015625, 187500.015625, 187500.015625, 187500.015625, 0, 1, 1, 0, 1,0.0,0.0,0.0,0.0,0.0, 13:24:08.427
181179.531250, 187500.015625, 187500.015625, 187500.015625, 187500.015625, 187500.015625, 187500.015625, 187500.015625, 0, 1, 1, 0, 1,0.0,0.0,0.0,0.0,0.0, 13:24:08.427
181146.625000, 187500.015625, 187500.015625, 187500.015625, 187500.015625, 187500.015625, 187500.015625, 187500.015625, 0, 1, 1, 0, 1,0.0,0.0,0.0,0.0,0.0, 13:24:08.428
181130.578125, 187500.015625, 187500.015625, 187500.015625, 187500.015625, 187500.015625, 187500.015625, 187500.015625, 0, 1, 1, 0, 1,0.0,0.0,0.0,0.0,0.0, 13:24:08.428
181144.187500, 187500.015625, 187500.015625, 187500.015625, 187500.015625, 187500.015625, 187500.015625, 187500.015625, 0, 1, 1, 0, 1,0.0,0.0,0.0,0.0,0.0, 13:24:08.428
181150.437500, 187500.015625, 187500.015625, 187500.015625, 187500.015625, 187500.015625, 187500.015625, 187500.015625, 0, 1, 1, 0, 1,0.0,0.0,0.0,0.0,0.0, 13:24:08.429
181124.937500, 187500.015625, 187500.015625, 187500.015625, 187500.015625, 187500.015625, 187500.015625, 187500.015625, 0, 1, 1, 0, 1,0.0,0.0,0.0,0.0,0.0, 13:24:08.429
181104.218750, 187500.015625, 187500.015625, 187500.015625, 187500.015625, 187500.015625, 187500.015625, 187500.015625, 0, 1, 1, 0, 1,0.0,0.0,0.0,0.0,0.0, 13:24:08.429
181116.406250, 187500.015625, 187500.015625, 187500.015625, 187500.015625, 187500.015625, 187500.015625, 187500.015625, 0, 1, 1, 0, 1,0.0,0.0,0.0,0.0,0.0, 13:24:08.429
181129.968750, 187500.015625, 187500.015625, 187500.015625, 187500.015625, 187500.015625, 187500.015625, 187500.015625, 0, 1, 1, 0, 1,0.0,0.0,0.0,0.0,0.0, 13:24:08.430
181108.265625, 187500.015625, 187500.015625, 187500.015625, 187500.015625, 187500.015625, 187500.015625, 187500.015625, 0, 1, 1, 0, 1,0.0,0.0,0.0,0.0,0.0, 13:24:08.430
181085.484375, 187500.015625, 187500.015625, 187500.015625, 187500.015625, 187500.015625, 187500.015625, 187500.015625, 0, 1, 1, 0, 1,0.0,0.0,0.0,0.0,0.0, 13:24:08.430
181098.000000, 187500.015625, 187500.015625, 187500.015625, 187500.015625, 187500.015625, 187500.015625, 187500.015625, 0, 1, 1, 0, 1,0.0,0.0,0.0,0.0,0.0, 13:24:08.430
181119.937500, 187500.015625, 187500.015625, 187500.015625, 187500.015625, 187500.015625, 187500.015625, 187500.015625, 0, 1, 1, 0, 1,0.0,0.0,0.0,0.0,0.0, 13:24:08.431
181111.546875, 187500.015625, 187500.015625, 187500.015625, 187500.015625, 187500.015625, 187500.015625, 187500.015625, 0, 1, 1, 0, 1,0.0,0.0,0.0,0.0,0.0, 13:24:08.431
181087.500000, 187500.015625, 187500.015625, 187500.015625, 187500.015625, 187500.015625, 187500.015625, 187500.015625, 0, 1, 1, 0, 1,0.0,0.0,0.0,0.0,0.0, 13:24:08.431
181094.859375, 187500.015625, 187500.015625, 187500.015625, 187500.015625, 187500.015625, 187500.015625, 187500.015625, 0, 1, 1, 0, 1,0.0,0.0,0.0,0.0,0.0, 13:24:08.432
181119.468750, 187500.015625, 187500.015625, 187500.015625, 187500.015625, 187500.015625, 187500.015625, 187500.015625, 0, 1, 1, 0, 1,0.0,0.0,0.0,0.0,0.0, 13:24:08.432
181114.765625, 187500.015625, 187500.015625, 187500.015625, 187500.015625, 187500.015625, 187500.015625, 187500.015625, 0, 1, 1, 0, 1,0.0,0.0,0.0,0.0,0.0, 13:24:08.432
181095.593750, 187500.015625, 187500.015625, 187500.015625, 187500.015625, 187500.015625, 187500.015625, 187500.015625, 0, 1, 1, 0, 1,0.0,0.0,0.0,0.0,0.0, 13:24:08.432
181103.750000, 187500.015625, 187500.015625, 187500.015625, 187500.015625, 187500.015625, 187500.015625, 187500.015625, 0, 1, 1, 0, 1,0.0,0.0,0.0,0.0,0.0, 13:24:08.433
181136.343750, 187500.015625, 187500.015625, 187500.015625, 187500.015625, 187500.015625, 187500.015625, 187500.015625, 0, 1, 1, 0, 1,0.0,0.0,0.0,0.0,0.0, 13:24:08.433
181145.375000, 187500.015625, 187500.015625, 187500.015625, 187500.015625, 187500.015625, 187500.015625, 187500.015625, 0, 1, 1, 0, 1,0.0,0.0,0.0,0.0,0.0, 13:24:08.433
181129.296875, 187500.015625, 187500.015625, 187500.015625, 187500.015625, 187500.015625, 187500.015625, 187500.015625, 0, 1, 1, 0, 1,0.0,0.0,0.0,0.0,0.0, 13:24:08.433
181132.140625, 187500.015625, 187500.015625, 187500.015625, 187500.015625, 187500.015625, 187500.015625, 187500.015625, 0, 1, 1, 0, 1,0.0,0.0,0.0,0.0,0.0, 13:24:08.434
181160.187500, 187500.015625, 187500.015625, 187500.015625, 187500.015625, 187500.015625, 187500.015625, 187500.015625, 0, 1, 1, 0, 1,0.0,0.0,0.0,0.0,0.0, 13:24:08.434
181173.359375, 187500.015625, 187500.015625, 187500.015625, 187500.015625, 187500.015625, 187500.015625, 187500.015625, 0, 1, 1, 0, 1,0.0,0.0,0.0,0.0,0.0, 13:24:08.434
181154.000000, 187500.015625, 187500.015625, 187500.015625, 187500.015625, 187500.015625, 187500.015625, 187500.015625, 0, 1, 1, 0, 1,0.0,0.0,0.0,0.0,0.0, 13:24:08.434
181143.406250, 187500.015625, 187500.015625, 187500.015625, 187500.015625, 187500.015625, 187500.015625, 187500.015625, 0, 1, 1, 0, 1,0.0,0.0,0.0,0.0,0.0, 13:24:08.435
181166.453125, 187500.015625, 187500.015625, 187500.015625, 187500.015625, 187500.015625, 187500.015625, 187500.015625, 0, 1, 1, 0, 1,0.0,0.0,0.0,0.0,0.0, 13:24:08.435
181185.718750, 187500.015625, 187500.015625, 187500.015625, 187500.015625, 187500.015625, 187500.015625, 187500.015625, 0, 1, 1, 0, 1,0.0,0.0,0.0,0.0,0.0, 13:24:08.435
181172.843750, 187500.015625, 187500.015625, 187500.015625, 187500.015625, 187500.015625, 187500.015625, 187500.015625, 0, 1, 1, 0, 1,0.0,0.0,0.0,0.0,0.0, 13:24:08.436
181156.640625, 187500.015625, 187500.015625, 187500.015625, 187500.015625, 187500.015625, 187500.015625, 187500.015625, 0, 1, 1, 0, 1,0.0,0.0,0.0,0.0,0.0, 13:24:08.436
181172.812500, 187500.015625, 187500.015625, 187500.015625, 187500.015625, 187500.015625, 187500.015625, 187500.015625, 0, 1, 1, 0, 1,0.0,0.0,0.0,0.0,0.0, 13:24:08.436
181191.703125, 187500.015625, 187500.015625, 187500.015625, 187500.015625, 187500.015625, 187500.015625, 187500.015625, 0, 1, 1, 0, 1,0.0,0.0,0.0,0.0,0.0, 13:24:08.437
181178.250000, 187500.015625, 187500.015625, 187500.015625, 187500.015625, 187500.015625, 187500.015625, 187500.015625, 0, 1, 1, 0, 1,0.0,0.0,0.0,0.0,0.0, 13:24:08.437
181158.609375, 187500.015625, 187500.015625, 187500.015625, 187500.015625, 187500.015625, 187500.015625, 187500.015625, 0, 1, 1, 0, 1,0.0,0.0,0.0,0.0,0.0, 13:24:08.437
181167.390625, 187500.015625, 187500.015625, 187500.015625, 187500.015625, 187500.015625, 187500.015625, 187500.015625, 0, 1, 1, 0, 1,0.0,0.0,0.0,0.0,0.0, 13:24:08.437
181187.234375, 187500.015625, 187500.015625, 187500.015625, 187500.015625, 187500.015625, 187500.015625, 187500.015625, 0, 1, 1, 0, 1,0.0,0.0,0.0,0.0,0.0, 13:24:08.438
181176.031250, 187500.015625, 187500.015625, 187500.015625, 187500.015625, 187500.015625, 187500.015625, 187500.015625, 0, 1, 1, 0, 1,0.0,0.0,0.0,0.0,0.0, 13:24:08.438
181146.671875, 187500.015625, 187500.015625, 187500.015625, 187500.015625, 187500.015625, 187500.015625, 187500.015625, 0, 1, 1, 0, 1,0.0,0.0,0.0,0.0,0.0, 13:24:08.438
181144.390625, 187500.015625, 187500.015625, 187500.015625, 187500.015625, 187500.015625, 187500.015625, 187500.015625, 0, 1, 1, 0, 1,0.0,0.0,0.0,0.0,0.0, 13:24:08.438
181162.015625, 187500.015625, 187500.015625, 187500.015625, 187500.015625, 187500.015625, 187500.015625, 187500.015625, 0, 1, 1, 0, 1,0.0,0.0,0.0,0.0,0.0, 13:24:08.439
181154.625000, 187500.015625, 187500.015625, 187500.015625, 187500.015625, 187500.015625, 187500.015625, 187500.015625, 0, 1, 1, 0, 1,0.0,0.0,0.0,0.0,0.0, 13:24:08.439
181123.421875, 187500.015625, 187500.015625, 187500.015625, 187500.015625, 187500.015625, 187500.015625, 187500.015625, 0, 1, 1, 0, 1,0.0,0.0,0.0,0.0,0.0, 13:24:08.439
181116.515625, 187500.015625, 187500.015625, 187500.015625, 187500.015625, 187500.015625, 187500.015625, 187500.015625, 0, 1, 1, 0, 1,0.0,0.0,0.0,0.0,0.0, 13:24:08.439
181136.156250, 187500.015625, 187500.015625, 187500.015625, 187500.015625, 187500.015625, 187500.015625, 187500.015625, 0, 1, 1, 0, 1,0.0,0.0,0.0,0.0,0.0, 13:24:08.439
181138.734375, 187500.015625, 187500.015625, 187500.015625, 187500.015625, 187500.015625, 187500.015625, 187500.015625, 0, 1, 1, 0, 1,0.0,0.0,0.0,0.0,0.0, 13:24:08.439
181111.421875, 187500.015625, 187500.015625, 187500.015625, 187500.015625, 187500.015625, 187500.015625, 187500.015625, 0, 1, 1, 0, 1,0.0,0.0,0.0,0.0,0.0, 13:24:08.440
181099.218750, 187500.015625, 187500.015625, 187500.015625, 187500.015625, 187500.015625, 187500.015625, 187500.015625, 0, 1, 1, 0, 1,0.0,0.0,0.0,0.0,0.0, 13:24:08.440
181119.625000, 187500.015625, 187500.015625, 187500.015625, 187500.015625, 187500.015625, 187500.015625, 187500.015625, 0, 1, 1, 0, 1,0.0,0.0,0.0,0.0,0.0, 13:24:08.440
181130.593750, 187500.015625, 187500.015625, 187500.015625, 187500.015625, 187500.015625, 187500.015625, 187500.015625, 0, 1, 1, 0, 1,0.0,0.0,0.0,0.0,0.0, 13:24:08.440
181108.281250, 187500.015625, 187500.015625, 187500.015625, 187500.015625, 187500.015625, 187500.015625, 187500.015625, 0, 1, 1, 0, 1,0.0,0.0,0.0,0.0,0.0, 13:24:08.440
181095.296875, 187500.015625, 187500.015625, 187500.015625, 187500.015625, 187500.015625, 187500.015625, 187500.015625, 0, 1, 1, 0, 1,0.0,0.0,0.0,0.0,0.0, 13:24:08.440
181112.562500, 187500.015625, 187500.015625, 187500.015625, 187500.015625, 187500.015625, 187500.015625, 187500.015625, 0, 1, 1, 0, 1,0.0,0.0,0.0,0.0,0.0, 13:24:08.441
181132.000000, 187500.015625, 187500.015625, 187500.015625, 187500.015625, 187500.015625, 187500.015625, 187500.015625, 0, 1, 1, 0, 1,0.0,0.0,0.0,0.0,0.0, 13:24:08.441
181112.687500, 187500.015625, 187500.015625, 187500.015625, 187500.015625, 187500.015625, 187500.015625, 187500.015625, 0, 1, 1, 0, 1,0.0,0.0,0.0,0.0,0.0, 13:24:08.441
181095.078125, 187500.015625, 187500.015625, 187500.015625, 187500.015625, 187500.015625, 187500.015625, 187500.015625, 0, 1, 1, 0, 1,0.0,0.0,0.0,0.0,0.0, 13:24:08.441
181109.609375, 187500.015625, 187500.015625, 187500.015625, 187500.015625, 187500.015625, 187500.015625, 187500.015625, 0, 1, 1, 0, 1,0.0,0.0,0.0,0.0,0.0, 13:24:08.441
181130.328125, 187500.015625, 187500.015625, 187500.015625, 187500.015625, 187500.015625, 187500.015625, 187500.015625, 0, 1, 1, 0, 1,0.0,0.0,0.0,0.0,0.0, 13:24:08.441
181116.828125, 187500.015625, 187500.015625, 187500.015625, 187500.015625, 187500.015625, 187500.015625, 187500.015625, 0, 1, 1, 0, 1,0.0,0.0,0.0,0.0,0.0, 13:24:08.442
181094.234375, 187500.015625, 187500.015625, 187500.015625, 187500.015625, 187500.015625, 187500.015625, 187500.015625, 0, 1, 1, 0, 1,0.0,0.0,0.0,0.0,0.0, 13:24:08.442
181103.703125, 187500.015625, 187500.015625, 187500.015625, 187500.015625, 187500.015625, 187500.015625, 187500.015625, 0, 1, 1, 0, 1,0.0,0.0,0.0,0.0,0.0, 13:24:08.442
181128.718750, 187500.015625, 187500.015625, 187500.015625, 187500.015625, 187500.015625, 187500.015625, 187500.015625, 0, 1, 1, 0, 1,0.0,0.0,0.0,0.0,0.0, 13:24:08.442
181122.640625, 187500.015625, 187500.015625, 187500.015625, 187500.015625, 187500.015625, 187500.015625, 187500.015625, 0, 1, 1, 0, 1,0.0,0.0,0.0,0.0,0.0, 13:24:08.442
181096.468750, 187500.015625, 187500.015625, 187500.015625, 187500.015625, 187500.015625, 187500.015625, 187500.015625, 0, 1, 1, 0, 1,0.0,0.0,0.0,0.0,0.0, 13:24:08.443
181100.625000, 187500.015625, 187500.015625, 187500.015625, 187500.015625, 187500.015625, 187500.015625, 187500.015625, 0, 1, 1, 0, 1,0.0,0.0,0.0,0.0,0.0, 13:24:08.443
181127.250000, 187500.015625, 187500.015625, 187500.015625, 187500.015625, 187500.015625, 187500.015625, 187500.015625, 0, 1, 1, 0, 1,0.0,0.0,0.0,0.0,0.0, 13:24:08.443
181129.359375, 187500.015625, 187500.015625, 187500.015625, 187500.015625, 187500.015625, 187500.015625, 187500.015625, 0, 1, 1, 0, 1,0.0,0.0,0.0,0.0,0.0, 13:24:08.443
181107.593750, 187500.015625, 187500.015625, 187500.015625, 187500.015625, 187500.015625, 187500.015625, 187500.015625, 0, 1, 1, 0, 1,0.0,0.0,0.0,0.0,0.0, 13:24:08.444
181108.890625, 187500.015625, 187500.015625, 187500.015625, 187500.015625, 187500.015625, 187500.015625, 187500.015625, 0, 1, 1, 0, 1,0.0,0.0,0.0,0.0,0.0, 13:24:08.444
181136.156250, 187500.015625, 187500.015625, 187500.015625, 187500.015625, 187500.015625, 187500.015625, 187500.015625, 0, 1, 1, 0, 1,0.0,0.0,0.0,0.0,0.0, 13:24:08.444
181144.296875, 187500.015625, 187500.015625, 187500.015625, 187500.015625, 187500.015625, 187500.015625, 187500.015625, 0, 1, 1, 0, 1,0.0,0.0,0.0,0.0,0.0, 13:24:08.444
181122.953125, 187500.015625, 187500.015625, 187500.015625, 187500.015625, 187500.015625, 187500.015625, 187500.015625, 0, 1, 1, 0, 1,0.0,0.0,0.0,0.0,0.0, 13:24:08.444
181113.656250, 187500.015625, 187500.015625, 187500.015625, 187500.015625, 187500.015625, 187500.015625, 187500.015625, 0, 1, 1, 0, 1,0.0,0.0,0.0,0.0,0.0, 13:24:08.444
181136.406250, 187500.015625, 187500.015625, 187500.015625, 187500.015625, 187500.015625, 187500.015625, 187500.015625, 0, 1, 1, 0, 1,0.0,0.0,0.0,0.0,0.0, 13:24:08.445
181150.953125, 187500.015625, 187500.015625, 187500.015625, 187500.015625, 187500.015625, 187500.015625, 187500.015625, 0, 1, 1, 0, 1,0.0,0.0,0.0,0.0,0.0, 13:24:08.445
181133.328125, 187500.015625, 187500.015625, 187500.015625, 187500.015625, 187500.015625, 187500.015625, 187500.015625, 0, 1, 1, 0, 1,0.0,0.0,0.0,0.0,0.0, 13:24:08.445
181120.578125, 187500.015625, 187500.015625, 187500.015625, 187500.015625, 187500.015625, 187500.015625, 187500.015625, 0, 1, 1, 0, 1,0.0,0.0,0.0,0.0,0.0, 13:24:08.445
181139.359375, 187500.015625, 187500.015625, 187500.015625, 187500.015625, 187500.015625, 187500.015625, 187500.015625, 0, 1, 1, 0, 1,0.0,0.0,0.0,0.0,0.0, 13:24:08.445
181160.843750, 187500.015625, 187500.015625, 187500.015625, 187500.015625, 187500.015625, 187500.015625, 187500.015625, 0, 1, 1, 0, 1,0.0,0.0,0.0,0.0,0.0, 13:24:08.446
181148.796875, 187500.015625, 187500.015625, 187500.015625, 187500.015625, 187500.015625, 187500.015625, 187500.015625, 0, 1, 1, 0, 1,0.0,0.0,0.0,0.0,0.0, 13:24:08.446
181131.953125, 187500.015625, 187500.015625, 187500.015625, 187500.015625, 187500.015625, 187500.015625, 187500.015625, 0, 1, 1, 0, 1,0.0,0.0,0.0,0.0,0.0, 13:24:08.446
181146.484375, 187500.015625, 187500.015625, 187500.015625, 187500.015625, 187500.015625, 187500.015625, 187500.015625, 0, 1, 1, 0, 1,0.0,0.0,0.0,0.0,0.0, 13:24:08.446
181174.000000, 187500.015625, 187500.015625, 187500.015625, 187500.015625, 187500.015625, 187500.015625, 187500.015625, 0, 1, 1, 0, 1,0.0,0.0,0.0,0.0,0.0, 13:24:08.447
181165.671875, 187500.015625, 187500.015625, 187500.015625, 187500.015625, 187500.015625, 187500.015625, 187500.015625, 0, 1, 1, 0, 1,0.0,0.0,0.0,0.0,0.0, 13:24:08.447
181144.359375, 187500.015625, 187500.015625, 187500.015625, 187500.015625, 187500.015625, 187500.015625, 187500.015625, 0, 1, 1, 0, 1,0.0,0.0,0.0,0.0,0.0, 13:24:08.447
181156.875000, 187500.015625, 187500.015625, 187500.015625, 187500.015625, 187500.015625, 187500.015625, 187500.015625, 0, 1, 1, 0, 1,0.0,0.0,0.0,0.0,0.0, 13:24:08.447
181184.281250, 187500.015625, 187500.015625, 187500.015625, 187500.015625, 187500.015625, 187500.015625, 187500.015625, 0, 1, 1, 0, 1,0.0,0.0,0.0,0.0,0.0, 13:24:08.447
181184.078125, 187500.015625, 187500.015625, 187500.015625, 187500.015625, 187500.015625, 187500.015625, 187500.015625, 0, 1, 1, 0, 1,0.0,0.0,0.0,0.0,0.0, 13:24:08.447
181163.203125, 187500.015625, 187500.015625, 187500.015625, 187500.015625, 187500.015625, 187500.015625, 187500.015625, 0, 1, 1, 0, 1,0.0,0.0,0.0,0.0,0.0, 13:24:08.448
181166.171875, 187500.015625, 187500.015625, 187500.015625, 187500.015625, 187500.015625, 187500.015625, 187500.015625, 0, 1, 1, 0, 1,0.0,0.0,0.0,0.0,0.0, 13:24:08.448
181191.109375, 187500.015625, 187500.015625, 187500.015625, 187500.015625, 187500.015625, 187500.015625, 187500.015625, 0, 1, 1, 0, 1,0.0,0.0,0.0,0.0,0.0, 13:24:08.448
181192.171875, 187500.015625, 187500.015625, 187500.015625, 187500.015625, 187500.015625, 187500.015625, 187500.015625, 0, 1, 1, 0, 1,0.0,0.0,0.0,0.0,0.0, 13:24:08.448
181165.937500, 187500.015625, 187500.015625, 187500.015625, 187500.015625, 187500.015625, 187500.015625, 187500.015625, 0, 1, 1, 0, 1,0.0,0.0,0.0,0.0,0.0, 13:24:08.449
181159.109375, 187500.015625, 187500.015625, 187500.015625, 187500.015625, 187500.015625, 187500.015625, 187500.015625, 0, 1, 1, 0, 1,0.0,0.0,0.0,0.0,0.0, 13:24:08.449
181180.531250, 187500.015625, 187500.015625, 187500.015625, 187500.015625, 187500.015625, 187500.015625, 187500.015625, 0, 1, 1, 0, 1,0.0,0.0,0.0,0.0,0.0, 13:24:08.450
181190.921875, 187500.015625, 187500.015625, 187500.015625, 187500.015625, 187500.015625, 187500.015625, 187500.015625, 0, 1, 1, 0, 1,0.0,0.0,0.0,0.0,0.0, 13:24:08.450
181169.000000, 187500.015625, 187500.015625, 187500.015625, 187500.015625, 187500.015625, 187500.015625, 187500.015625, 0, 1, 1, 0, 1,0.0,0.0,0.0,0.0,0.0, 13:24:08.450
181157.171875, 187500.015625, 187500.015625, 187500.015625, 187500.015625, 187500.015625, 187500.015625, 187500.015625, 0, 1, 1, 0, 1,0.0,0.0,0.0,0.0,0.0, 13:24:08.451
181175.093750, 187500.015625, 187500.015625, 187500.015625, 187500.015625, 187500.015625, 187500.015625, 187500.015625, 0, 1, 1, 0, 1,0.0,0.0,0.0,0.0,0.0, 13:24:08.451
181189.265625, 187500.015625, 187500.015625, 187500.015625, 187500.015625, 187500.015625, 187500.015625, 187500.015625, 0, 1, 1, 0, 1,0.0,0.0,0.0,0.0,0.0, 13:24:08.452
181168.812500, 187500.015625, 187500.015625, 187500.015625, 187500.015625, 187500.015625, 187500.015625, 187500.015625, 0, 1, 1, 0, 1,0.0,0.0,0.0,0.0,0.0, 13:24:08.452
181148.187500, 187500.015625, 187500.015625, 187500.015625, 187500.015625, 187500.015625, 187500.015625, 187500.015625, 0, 1, 1, 0, 1,0.0,0.0,0.0,0.0,0.0, 13:24:08.452
181159.359375, 187500.015625, 187500.015625, 187500.015625, 187500.015625, 187500.015625, 187500.015625, 187500.015625, 0, 1, 1, 0, 1,0.0,0.0,0.0,0.0,0.0, 13:24:08.453
181176.468750, 187500.015625, 187500.015625, 187500.015625, 187500.015625, 187500.015625, 187500.015625, 187500.015625, 0, 1, 1, 0, 1,0.0,0.0,0.0,0.0,0.0, 13:24:08.453
181159.625000, 187500.015625, 187500.015625, 187500.015625, 187500.015625, 187500.015625, 187500.015625, 187500.015625, 0, 1, 1, 0, 1,0.0,0.0,0.0,0.0,0.0, 13:24:08.453
181139.109375, 187500.015625, 187500.015625, 187500.015625, 187500.015625, 187500.015625, 187500.015625, 187500.015625, 0, 1, 1, 0, 1,0.0,0.0,0.0,0.0,0.0, 13:24:08.453
181147.937500, 187500.015625, 187500.015625, 187500.015625, 187500.015625, 187500.015625, 187500.015625, 187500.015625, 0, 1, 1, 0, 1,0.0,0.0,0.0,0.0,0.0, 13:24:08.454
181170.156250, 187500.015625, 187500.015625, 187500.015625, 187500.015625, 187500.015625, 187500.015625, 187500.015625, 0, 1, 1, 0, 1,0.0,0.0,0.0,0.0,0.0, 13:24:08.454
181161.531250, 187500.015625, 187500.015625, 187500.015625, 187500.015625, 187500.015625, 187500.015625, 187500.015625, 0, 1, 1, 0, 1,0.0,0.0,0.0,0.0,0.0, 13:24:08.454
181139.890625, 187500.015625, 187500.015625, 187500.015625, 187500.015625, 187500.015625, 187500.015625, 187500.015625, 0, 1, 1, 0, 1,0.0,0.0,0.0,0.0,0.0, 13:24:08.454
181143.156250, 187500.015625, 187500.015625, 187500.015625, 187500.015625, 187500.015625, 187500.015625, 187500.015625, 0, 1, 1, 0, 1,0.0,0.0,0.0,0.0,0.0, 13:24:08.455
181165.109375, 187500.015625, 187500.015625, 187500.015625, 187500.015625, 187500.015625, 187500.015625, 187500.015625, 0, 1, 1, 0, 1,0.0,0.0,0.0,0.0,0.0, 13:24:08.455
181162.890625, 187500.015625, 187500.015625, 187500.015625, 187500.015625, 187500.015625, 187500.015625, 187500.015625, 0, 1, 1, 0, 1,0.0,0.0,0.0,0.0,0.0, 13:24:08.455
181139.375000, 187500.015625, 187500.015625, 187500.015625, 187500.015625, 187500.015625, 187500.015625, 187500.015625, 0, 1, 1, 0, 1,0.0,0.0,0.0,0.0,0.0, 13:24:08.455
181137.687500, 187500.015625, 187500.015625, 187500.015625, 187500.015625, 187500.015625, 187500.015625, 187500.015625, 0, 1, 1, 0, 1,0.0,0.0,0.0,0.0,0.0, 13:24:08.455
181162.531250, 187500.015625, 187500.015625, 187500.015625, 187500.015625, 187500.015625, 187500.015625, 187500.015625, 0, 1, 1, 0, 1,0.0,0.0,0.0,0.0,0.0, 13:24:08.456
181168.750000, 187500.015625, 187500.015625, 187500.015625, 187500.015625, 187500.015625, 187500.015625, 187500.015625, 0, 1, 1, 0, 1,0.0,0.0,0.0,0.0,0.0, 13:24:08.456
181146.281250, 187500.015625, 187500.015625, 187500.015625, 187500.015625, 187500.015625, 187500.015625, 187500.015625, 0, 1, 1, 0, 1,0.0,0.0,0.0,0.0,0.0, 13:24:08.456
181139.968750, 187500.015625, 187500.015625, 187500.015625, 187500.015625, 187500.015625, 187500.015625, 187500.015625, 0, 1, 1, 0, 1,0.0,0.0,0.0,0.0,0.0, 13:24:08.908
181163.921875, 187500.015625, 187500.015625, 187500.015625, 187500.015625, 187500.015625, 187500.015625, 187500.015625, 0, 1, 1, 0, 1,0.0,0.0,0.0,0.0,0.0, 13:24:08.908
181175.906250, 187500.015625, 187500.015625, 187500.015625, 187500.015625, 187500.015625, 187500.015625, 187500.015625, 0, 1, 1, 0, 1,0.0,0.0,0.0,0.0,0.0, 13:24:08.908
181157.703125, 187500.015625, 187500.015625, 187500.015625, 187500.015625, 187500.015625, 187500.015625, 187500.015625, 0, 1, 1, 0, 1,0.0,0.0,0.0,0.0,0.0, 13:24:08.909
181148.906250, 187500.015625, 187500.015625, 187500.015625, 187500.015625, 187500.015625, 187500.015625, 187500.015625, 0, 1, 1, 0, 1,0.0,0.0,0.0,0.0,0.0, 13:24:08.909
181171.093750, 187500.015625, 187500.015625, 187500.015625, 187500.015625, 187500.015625, 187500.015625, 187500.015625, 0, 1, 1, 0, 1,0.0,0.0,0.0,0.0,0.0, 13:24:08.909
181191.640625, 187500.015625, 187500.015625, 187500.015625, 187500.015625, 187500.015625, 187500.015625, 187500.015625, 0, 1, 1, 0, 1,0.0,0.0,0.0,0.0,0.0, 13:24:08.909
181176.703125, 187500.015625, 187500.015625, 187500.015625, 187500.015625, 187500.015625, 187500.015625, 187500.015625, 0, 1, 1, 0, 1,0.0,0.0,0.0,0.0,0.0, 13:24:08.909
181163.718750, 187500.015625, 187500.015625, 187500.015625, 187500.015625, 187500.015625, 187500.015625, 187500.015625, 0, 1, 1, 0, 1,0.0,0.0,0.0,0.0,0.0, 13:24:08.909
181179.343750, 187500.015625, 187500.015625, 187500.015625, 187500.015625, 187500.015625, 187500.015625, 187500.015625, 0, 1, 1, 0, 1,0.0,0.0,0.0,0.0,0.0, 13:24:08.910
181199.328125, 187500.015625, 187500.015625, 187500.015625, 187500.015625, 187500.015625, 187500.015625, 187500.015625, 0, 1, 1, 0, 1,0.0,0.0,0.0,0.0,0.0, 13:24:08.910
181186.671875, 187500.015625, 187500.015625, 187500.015625, 187500.015625, 187500.015625, 187500.015625, 187500.015625, 0, 1, 1, 0, 1,0.0,0.0,0.0,0.0,0.0, 13:24:08.910
181164.890625, 187500.015625, 187500.015625, 187500.015625, 187500.015625, 187500.015625, 187500.015625, 187500.015625, 0, 1, 1, 0, 1,0.0,0.0,0.0,0.0,0.0, 13:24:08.910
181171.765625, 187500.015625, 187500.015625, 187500.015625, 187500.015625, 187500.015625, 187500.015625, 187500.015625, 0, 1, 1, 0, 1,0.0,0.0,0.0,0.0,0.0, 13:24:08.911
181193.875000, 187500.015625, 187500.015625, 187500.015625, 187500.015625, 187500.015625, 187500.015625, 187500.015625, 0, 1, 1, 0, 1,0.0,0.0,0.0,0.0,0.0, 13:24:08.911
181183.234375, 187500.015625, 187500.015625, 187500.015625, 187500.015625, 187500.015625, 187500.015625, 187500.015625, 0, 1, 1, 0, 1,0.0,0.0,0.0,0.0,0.0, 13:24:08.911
181159.000000, 187500.015625, 187500.015625, 187500.015625, 187500.015625, 187500.015625, 187500.015625, 187500.015625, 0, 1, 1, 0, 1,0.0,0.0,0.0,0.0,0.0, 13:24:08.912
181158.015625, 187500.015625, 187500.015625, 187500.015625, 187500.015625, 187500.015625, 187500.015625, 187500.015625, 0, 1, 1, 0, 1,0.0,0.0,0.0,0.0,0.0, 13:24:08.913
181183.609375, 187500.015625, 187500.015625, 187500.015625, 187500.015625, 187500.015625, 187500.015625, 187500.015625, 0, 1, 1, 0, 1,0.0,0.0,0.0,0.0,0.0, 13:24:08.914
181184.062500, 187500.015625, 187500.015625, 187500.015625, 187500.015625, 187500.015625, 187500.015625, 187500.015625, 0, 1, 1, 0, 1,0.0,0.0,0.0,0.0,0.0, 13:24:08.914
181161.265625, 187500.015625, 187500.015625, 187500.015625, 187500.015625, 187500.015625, 187500.015625, 187500.015625, 0, 1, 1, 0, 1,0.0,0.0,0.0,0.0,0.0, 13:24:08.915
181158.093750, 187500.015625, 187500.015625, 187500.015625, 187500.015625, 187500.015625, 187500.015625, 187500.015625, 0, 1, 1, 0, 1,0.0,0.0,0.0,0.0,0.0, 13:24:08.915
181180.890625, 187500.015625, 187500.015625, 187500.015625, 187500.015625, 187500.015625, 187500.015625, 187500.015625, 0, 1, 1, 0, 1,0.0,0.0,0.0,0.0,0.0, 13:24:08.915
181188.843750, 187500.015625, 187500.015625, 187500.015625, 187500.015625, 187500.015625, 187500.015625, 187500.015625, 0, 1, 1, 0, 1,0.0,0.0,0.0,0.0,0.0, 13:24:08.915
181165.437500, 187500.015625, 187500.015625, 187500.015625, 187500.015625, 187500.015625, 187500.015625, 187500.015625, 0, 1, 1, 0, 1,0.0,0.0,0.0,0.0,0.0, 13:24:08.916
181156.703125, 187500.015625, 187500.015625, 187500.015625, 187500.015625, 187500.015625, 187500.015625, 187500.015625, 0, 1, 1, 0, 1,0.0,0.0,0.0,0.0,0.0, 13:24:08.916
181179.234375, 187500.015625, 187500.015625, 187500.015625, 187500.015625, 187500.015625, 187500.015625, 187500.015625, 0, 1, 1, 0, 1,0.0,0.0,0.0,0.0,0.0, 13:24:08.916
181190.984375, 187500.015625, 187500.015625, 187500.015625, 187500.015625, 187500.015625, 187500.015625, 187500.015625, 0, 1, 1, 0, 1,0.0,0.0,0.0,0.0,0.0, 13:24:08.917
181168.296875, 187500.015625, 187500.015625, 187500.015625, 187500.015625, 187500.015625, 187500.015625, 187500.015625, 0, 1, 1, 0, 1,0.0,0.0,0.0,0.0,0.0, 13:24:08.917
181156.187500, 187500.015625, 187500.015625, 187500.015625, 187500.015625, 187500.015625, 187500.015625, 187500.015625, 0, 1, 1, 0, 1,0.0,0.0,0.0,0.0,0.0, 13:24:08.917
181174.875000, 187500.015625, 187500.015625, 187500.015625, 187500.015625, 187500.015625, 187500.015625, 187500.015625, 0, 1, 1, 0, 1,0.0,0.0,0.0,0.0,0.0, 13:24:08.917
181197.515625, 187500.015625, 187500.015625, 187500.015625, 187500.015625, 187500.015625, 187500.015625, 187500.015625, 0, 1, 1, 0, 1,0.0,0.0,0.0,0.0,0.0, 13:24:08.918
181182.578125, 187500.015625, 187500.015625, 187500.015625, 187500.015625, 187500.015625, 187500.015625, 187500.015625, 0, 1, 1, 0, 1,0.0,0.0,0.0,0.0,0.0, 13:24:08.918
181165.687500, 187500.015625, 187500.015625, 187500.015625, 187500.015625, 187500.015625, 187500.015625, 187500.015625, 0, 1, 1, 0, 1,0.0,0.0,0.0,0.0,0.0, 13:24:08.918
181182.203125, 187500.015625, 187500.015625, 187500.015625, 187500.015625, 187500.015625, 187500.015625, 187500.015625, 0, 1, 1, 0, 1,0.0,0.0,0.0,0.0,0.0, 13:24:08.919
181202.859375, 187500.015625, 187500.015625, 187500.015625, 187500.015625, 187500.015625, 187500.015625, 187500.015625, 0, 1, 1, 0, 1,0.0,0.0,0.0,0.0,0.0, 13:24:08.919
181193.109375, 187500.015625, 187500.015625, 187500.015625, 187500.015625, 187500.015625, 187500.015625, 187500.015625, 0, 1, 1, 0, 1,0.0,0.0,0.0,0.0,0.0, 13:24:08.920
181174.546875, 187500.015625, 187500.015625, 187500.015625, 187500.015625, 187500.015625, 187500.015625, 187500.015625, 0, 1, 1, 0, 1,0.0,0.0,0.0,0.0,0.0, 13:24:08.921
181180.656250, 187500.015625, 187500.015625, 187500.015625, 187500.015625, 187500.015625, 187500.015625, 187500.015625, 0, 1, 1, 0, 1,0.0,0.0,0.0,0.0,0.0, 13:24:08.921
181207.234375, 187500.015625, 187500.015625, 187500.015625, 187500.015625, 187500.015625, 187500.015625, 187500.015625, 0, 1, 1, 0, 1,0.0,0.0,0.0,0.0,0.0, 13:24:08.921
181204.984375, 187500.015625, 187500.015625, 187500.015625, 187500.015625, 187500.015625, 187500.015625, 187500.015625, 0, 1, 1, 0, 1,0.0,0.0,0.0,0.0,0.0, 13:24:08.921
181182.031250, 187500.015625, 187500.015625, 187500.015625, 187500.015625, 187500.015625, 187500.015625, 187500.015625, 0, 1, 1, 0, 1,0.0,0.0,0.0,0.0,0.0, 13:24:08.922
181183.812500, 187500.015625, 187500.015625, 187500.015625, 187500.015625, 187500.015625, 187500.015625, 187500.015625, 0, 1, 1, 0, 1,0.0,0.0,0.0,0.0,0.0, 13:24:08.922
181208.953125, 187500.015625, 187500.015625, 187500.015625, 187500.015625, 187500.015625, 187500.015625, 187500.015625, 0, 1, 1, 0, 1,0.0,0.0,0.0,0.0,0.0, 13:24:08.922
181211.281250, 187500.015625, 187500.015625, 187500.015625, 187500.015625, 187500.015625, 187500.015625, 187500.015625, 0, 1, 1, 0, 1,0.0,0.0,0.0,0.0,0.0, 13:24:08.922
181185.265625, 187500.015625, 187500.015625, 187500.015625, 187500.015625, 187500.015625, 187500.015625, 187500.015625, 0, 1, 1, 0, 1,0.0,0.0,0.0,0.0,0.0, 13:24:08.922
181178.609375, 187500.015625, 187500.015625, 187500.015625, 187500.015625, 187500.015625, 187500.015625, 187500.015625, 0, 1, 1, 0, 1,0.0,0.0,0.0,0.0,0.0, 13:24:08.923
181199.625000, 187500.015625, 187500.015625, 187500.015625, 187500.015625, 187500.015625, 187500.015625, 187500.015625, 0, 1, 1, 0, 1,0.0,0.0,0.0,0.0,0.0, 13:24:08.923
181204.562500, 187500.015625, 187500.015625, 187500.015625, 187500.015625, 187500.015625, 187500.015625, 187500.015625, 0, 1, 1, 0, 1,0.0,0.0,0.0,0.0,0.0, 13:24:08.923
181176.015625, 187500.015625, 187500.015625, 187500.015625, 187500.015625, 187500.015625, 187500.015625, 187500.015625, 0, 1, 1, 0, 1,0.0,0.0,0.0,0.0,0.0, 13:24:08.923
181165.328125, 187500.015625, 187500.015625, 187500.015625, 187500.015625, 187500.015625, 187500.015625, 187500.015625, 0, 1, 1, 0, 1,0.0,0.0,0.0,0.0,0.0, 13:24:08.923
181185.609375, 187500.015625, 187500.015625, 187500.015625, 187500.015625, 187500.015625, 187500.015625, 187500.015625, 0, 1, 1, 0, 1,0.0,0.0,0.0,0.0,0.0, 13:24:08.923
181200.265625, 187500.015625, 187500.015625, 187500.015625, 187500.015625, 187500.015625, 187500.015625, 187500.015625, 0, 1, 1, 0, 1,0.0,0.0,0.0,0.0,0.0, 13:24:08.923
181179.703125, 187500.015625, 187500.015625, 187500.015625, 187500.015625, 187500.015625, 187500.015625, 187500.015625, 0, 1, 1, 0, 1,0.0,0.0,0.0,0.0,0.0, 13:24:08.924
181161.937500, 187500.015625, 187500.015625, 187500.015625, 187500.015625, 187500.015625, 187500.015625, 187500.015625, 0, 1, 1, 0, 1,0.0,0.0,0.0,0.0,0.0, 13:24:08.924
181174.406250, 187500.015625, 187500.015625, 187500.015625, 187500.015625, 187500.015625, 187500.015625, 187500.015625, 0, 1, 1, 0, 1,0.0,0.0,0.0,0.0,0.0, 13:24:08.924
181189.812500, 187500.015625, 187500.015625, 187500.015625, 187500.015625, 187500.015625, 187500.015625, 187500.015625, 0, 1, 1, 0, 1,0.0,0.0,0.0,0.0,0.0, 13:24:08.924
181167.750000, 187500.015625, 187500.015625, 187500.015625, 187500.015625, 187500.015625, 187500.015625, 187500.015625, 0, 1, 1, 0, 1,0.0,0.0,0.0,0.0,0.0, 13:24:08.924
181138.843750, 187500.015625, 187500.015625, 187500.015625, 187500.015625, 187500.015625, 187500.015625, 187500.015625, 0, 1, 1, 0, 1,0.0,0.0,0.0,0.0,0.0, 13:24:08.924
181140.562500, 187500.015625, 187500.015625, 187500.015625, 187500.015625, 187500.015625, 187500.015625, 187500.015625, 0, 1, 1, 0, 1,0.0,0.0,0.0,0.0,0.0, 13:24:08.925
181155.343750, 187500.015625, 187500.015625, 187500.015625, 187500.015625, 187500.015625, 187500.015625, 187500.015625, 0, 1, 1, 0, 1,0.0,0.0,0.0,0.0,0.0, 13:24:08.925
181135.515625, 187500.015625, 187500.015625, 187500.015625, 187500.015625, 187500.015625, 187500.015625, 187500.015625, 0, 1, 1, 0, 1,0.0,0.0,0.0,0.0,0.0, 13:24:08.925
181102.359375, 187500.015625, 187500.015625, 187500.015625, 187500.015625, 187500.015625, 187500.015625, 187500.015625, 0, 1, 1, 0, 1,0.0,0.0,0.0,0.0,0.0, 13:24:08.925
181099.906250, 187500.015625, 187500.015625, 187500.015625, 187500.015625, 187500.015625, 187500.015625, 187500.015625, 0, 1, 1, 0, 1,0.0,0.0,0.0,0.0,0.0, 13:24:08.926
181115.593750, 187500.015625, 187500.015625, 187500.015625, 187500.015625, 187500.015625, 187500.015625, 187500.015625, 0, 1, 1, 0, 1,0.0,0.0,0.0,0.0,0.0, 13:24:08.927
181101.531250, 187500.015625, 187500.015625, 187500.015625, 187500.015625, 187500.015625, 187500.015625, 187500.015625, 0, 1, 1, 0, 1,0.0,0.0,0.0,0.0,0.0, 13:24:08.928
181071.718750, 187500.015625, 187500.015625, 187500.015625, 187500.015625, 187500.015625, 187500.015625, 187500.015625, 0, 1, 1, 0, 1,0.0,0.0,0.0,0.0,0.0, 13:24:08.928
181064.812500, 187500.015625, 187500.015625, 187500.015625, 187500.015625, 187500.015625, 187500.015625, 187500.015625, 0, 1, 1, 0, 1,0.0,0.0,0.0,0.0,0.0, 13:24:08.928
181082.156250, 187500.015625, 187500.015625, 187500.015625, 187500.015625, 187500.015625, 187500.015625, 187500.015625, 0, 1, 1, 0, 1,0.0,0.0,0.0,0.0,0.0, 13:24:08.929
181082.671875, 187500.015625, 187500.015625, 187500.015625, 187500.015625, 187500.015625, 187500.015625, 187500.015625, 0, 1, 1, 0, 1,0.0,0.0,0.0,0.0,0.0, 13:24:08.929
181053.859375, 187500.015625, 187500.015625, 187500.015625, 187500.015625, 187500.015625, 187500.015625, 187500.015625, 0, 1, 1, 0, 1,0.0,0.0,0.0,0.0,0.0, 13:24:08.929
181043.375000, 187500.015625, 187500.015625, 187500.015625, 187500.015625, 187500.015625, 187500.015625, 187500.015625, 0, 1, 1, 0, 1,0.0,0.0,0.0,0.0,0.0, 13:24:08.930
181063.250000, 187500.015625, 187500.015625, 187500.015625, 187500.015625, 187500.015625, 187500.015625, 187500.015625, 0, 1, 1, 0, 1,0.0,0.0,0.0,0.0,0.0, 13:24:08.930
181070.484375, 187500.015625, 187500.015625, 187500.015625, 187500.015625, 187500.015625, 187500.015625, 187500.015625, 0, 1, 1, 0, 1,0.0,0.0,0.0,0.0,0.0, 13:24:08.930
181045.328125, 187500.015625, 187500.015625, 187500.015625, 187500.015625, 187500.015625, 187500.015625, 187500.015625, 0, 1, 1, 0, 1,0.0,0.0,0.0,0.0,0.0, 13:24:08.931
181028.062500, 187500.015625, 187500.015625, 187500.015625, 187500.015625, 187500.015625, 187500.015625, 187500.015625, 0, 1, 1, 0, 1,0.0,0.0,0.0,0.0,0.0, 13:24:08.932
181046.984375, 187500.015625, 187500.015625, 187500.015625, 187500.015625, 187500.015625, 187500.015625, 187500.015625, 0, 1, 1, 0, 1,0.0,0.0,0.0,0.0,0.8018213, 13:24:08.934
181065.750000, 187500.015625, 187500.015625, 187500.015625, 187500.015625, 187500.015625, 187500.015625, 187500.015625, 0, 1, 1, 0, 1,0.0,0.0,0.0,0.0,0.8018213, 13:24:08.935
181047.484375, 187500.015625, 187500.015625, 187500.015625, 187500.015625, 187500.015625, 187500.015625, 187500.015625, 0, 1, 1, 0, 1,0.0,0.0,0.0,0.0,0.8018213, 13:24:08.935
181031.406250, 187500.015625, 187500.015625, 187500.015625, 187500.015625, 187500.015625, 187500.015625, 187500.015625, 0, 1, 1, 0, 1,0.0,0.0,0.0,0.0,0.8018213, 13:24:08.935
181047.046875, 187500.015625, 187500.015625, 187500.015625, 187500.015625, 187500.015625, 187500.015625, 187500.015625, 0, 1, 1, 0, 1,0.0,0.0,0.0,0.0,0.8018213, 13:24:08.936
181070.515625, 187500.015625, 187500.015625, 187500.015625, 187500.015625, 187500.015625, 187500.015625, 187500.015625, 0, 1, 1, 0, 1,0.0,0.0,0.0,0.0,0.8018213, 13:24:08.936
181062.015625, 187500.015625, 187500.015625, 187500.015625, 187500.015625, 187500.015625, 187500.015625, 187500.015625, 0, 1, 1, 0, 1,0.0,0.0,0.0,0.0,0.8018213, 13:24:08.936
181045.546875, 187500.015625, 187500.015625, 187500.015625, 187500.015625, 187500.015625, 187500.015625, 187500.015625, 0, 1, 1, 0, 1,0.0,0.0,0.0,0.0,0.8018213, 13:24:08.937
181064.609375, 187500.015625, 187500.015625, 187500.015625, 187500.015625, 187500.015625, 187500.015625, 187500.015625, 0, 1, 1, 0, 1,0.0,0.0,0.0,0.0,0.8018213, 13:24:08.937
181094.921875, 187500.015625, 187500.015625, 187500.015625, 187500.015625, 187500.015625, 187500.015625, 187500.015625, 0, 1, 1, 0, 1,0.0,0.0,0.0,0.0,0.8018213, 13:24:08.937
181093.468750, 187500.015625, 187500.015625, 187500.015625, 187500.015625, 187500.015625, 187500.015625, 187500.015625, 0, 1, 1, 0, 1,0.0,0.0,0.0,0.0,0.8018213, 13:24:08.937
181074.890625, 187500.015625, 187500.015625, 187500.015625, 187500.015625, 187500.015625, 187500.015625, 187500.015625, 0, 1, 1, 0, 1,0.0,0.0,0.0,0.0,0.8018213, 13:24:08.938
181084.015625, 187500.015625, 187500.015625, 187500.015625, 187500.015625, 187500.015625, 187500.015625, 187500.015625, 0, 1, 1, 0, 1,0.0,0.0,0.0,0.0,0.8018213, 13:24:08.938
181114.140625, 187500.015625, 187500.015625, 187500.015625, 187500.015625, 187500.015625, 187500.015625, 187500.015625, 0, 1, 1, 0, 1,0.0,0.0,0.0,0.0,0.8018213, 13:24:08.938
181119.171875, 187500.015625, 187500.015625, 187500.015625, 187500.015625, 187500.015625, 187500.015625, 187500.015625, 0, 1, 1, 0, 1,0.0,0.0,0.0,0.0,0.8018213, 13:24:08.938
181098.562500, 187500.015625, 187500.015625, 187500.015625, 187500.015625, 187500.015625, 187500.015625, 187500.015625, 0, 1, 1, 0, 1,0.0,0.0,0.0,0.0,0.8018213, 13:24:08.939
181098.953125, 187500.015625, 187500.015625, 187500.015625, 187500.015625, 187500.015625, 187500.015625, 187500.015625, 0, 1, 1, 0, 1,0.0,0.0,0.0,0.0,0.8018213, 13:24:08.939
181126.812500, 187500.015625, 187500.015625, 187500.015625, 187500.015625, 187500.015625, 187500.015625, 187500.015625, 0, 1, 1, 0, 1,0.0,0.0,0.0,0.0,0.8018213, 13:24:08.940
181137.640625, 187500.015625, 187500.015625, 187500.015625, 187500.015625, 187500.015625, 187500.015625, 187500.015625, 0, 1, 1, 0, 1,0.0,0.0,0.0,0.0,0.8018213, 13:24:08.940
181112.265625, 187500.015625, 187500.015625, 187500.015625, 187500.015625, 187500.015625, 187500.015625, 187500.015625, 0, 1, 1, 0, 1,0.0,0.0,0.0,0.0,0.8018213, 13:24:08.940
181104.515625, 187500.015625, 187500.015625, 187500.015625, 187500.015625, 187500.015625, 187500.015625, 187500.015625, 0, 1, 1, 0, 1,0.0,0.0,0.0,0.0,0.8018213, 13:24:08.940
181123.484375, 187500.015625, 187500.015625, 187500.015625, 187500.015625, 187500.015625, 187500.015625, 187500.015625, 0, 1, 1, 0, 1,0.0,0.0,0.0,0.0,0.8018213, 13:24:08.941
181133.187500, 187500.015625, 187500.015625, 187500.015625, 187500.015625, 187500.015625, 187500.015625, 187500.015625, 0, 1, 1, 0, 1,0.0,0.0,0.0,0.0,0.8018213, 13:24:08.941
181110.296875, 187500.015625, 187500.015625, 187500.015625, 187500.015625, 187500.015625, 187500.015625, 187500.015625, 0, 1, 1, 0, 1,0.0,0.0,0.0,0.0,0.8018213, 13:24:08.942
181090.046875, 187500.015625, 187500.015625, 187500.015625, 187500.015625, 187500.015625, 187500.015625, 187500.015625, 0, 1, 1, 0, 1,0.0,0.0,0.0,0.0,0.8018213, 13:24:08.942
181099.765625, 187500.015625, 187500.015625, 187500.015625, 187500.015625, 187500.015625, 187500.015625, 187500.015625, 0, 1, 1, 0, 1,0.0,0.0,0.0,0.0,0.8018213, 13:24:08.942
181111.734375, 187500.015625, 187500.015625, 187500.015625, 187500.015625, 187500.015625, 187500.015625, 187500.015625, 0, 1, 1, 0, 1,0.0,0.0,0.0,0.0,0.8018213, 13:24:08.943
181089.265625, 187500.015625, 187500.015625, 187500.015625, 187500.015625, 187500.015625, 187500.015625, 187500.015625, 0, 1, 1, 0, 1,0.0,0.0,0.0,0.0,0.8018213, 13:24:08.943
181066.421875, 187500.015625, 187500.015625, 187500.015625, 187500.015625, 187500.015625, 187500.015625, 187500.015625, 0, 1, 1, 0, 1,0.0,0.0,0.0,0.0,0.8018213, 13:24:08.944
181077.203125, 187500.015625, 187500.015625, 187500.015625, 187500.015625, 187500.015625, 187500.015625, 187500.015625, 0, 1, 1, 0, 1,0.0,0.0,0.0,0.0,0.8018213, 13:24:08.944
181097.359375, 187500.015625, 187500.015625, 187500.015625, 187500.015625, 187500.015625, 187500.015625, 187500.015625, 0, 1, 1, 0, 1,0.0,0.0,0.0,0.0,0.8018213, 13:24:08.945
181085.125000, 187500.015625, 187500.015625, 187500.015625, 187500.015625, 187500.015625, 187500.015625, 187500.015625, 0, 1, 1, 0, 1,0.0,0.0,0.0,0.0,0.8018213, 13:24:08.945
181061.734375, 187500.015625, 187500.015625, 187500.015625, 187500.015625, 187500.015625, 187500.015625, 187500.015625, 0, 1, 1, 0, 1,0.0,0.0,0.0,0.0,0.8018213, 13:24:08.945
181067.109375, 187500.015625, 187500.015625, 187500.015625, 187500.015625, 187500.015625, 187500.015625, 187500.015625, 0, 1, 1, 0, 1,0.0,0.0,0.0,0.0,0.8018213, 13:24:08.946
181088.656250, 187500.015625, 187500.015625, 187500.015625, 187500.015625, 187500.015625, 187500.015625, 187500.015625, 0, 1, 1, 0, 1,0.0,0.0,0.0,0.0,0.8018213, 13:24:08.946
181084.687500, 187500.015625, 187500.015625, 187500.015625, 187500.015625, 187500.015625, 187500.015625, 187500.015625, 0, 1, 1, 0, 1,0.0,0.0,0.0,0.0,0.8018213, 13:24:08.947
181059.031250, 187500.015625, 187500.015625, 187500.015625, 187500.015625, 187500.015625, 187500.015625, 187500.015625, 0, 1, 1, 0, 1,0.0,0.0,0.0,0.0,0.8018213, 13:24:08.947
181062.625000, 187500.015625, 187500.015625, 187500.015625, 187500.015625, 187500.015625, 187500.015625, 187500.015625, 0, 1, 1, 0, 1,0.0,0.0,0.0,0.0,0.8018213, 13:24:08.948
181094.031250, 187500.015625, 187500.015625, 187500.015625, 187500.015625, 187500.015625, 187500.015625, 187500.015625, 0, 1, 1, 0, 1,0.0,0.0,0.0,0.0,0.8018213, 13:24:08.948
181099.593750, 187500.015625, 187500.015625, 187500.015625, 187500.015625, 187500.015625, 187500.015625, 187500.015625, 0, 1, 1, 0, 1,0.0,0.0,0.0,0.0,0.8018213, 13:24:08.948
181081.281250, 187500.015625, 187500.015625, 187500.015625, 187500.015625, 187500.015625, 187500.015625, 187500.015625, 0, 1, 1, 0, 1,0.0,0.0,0.0,0.0,0.8018213, 13:24:08.948
181081.890625, 187500.015625, 187500.015625, 187500.015625, 187500.015625, 187500.015625, 187500.015625, 187500.015625, 0, 1, 1, 0, 1,0.0,0.0,0.0,0.0,0.8018213, 13:24:08.949
181110.796875, 187500.015625, 187500.015625, 187500.015625, 187500.015625, 187500.015625, 187500.015625, 187500.015625, 0, 1, 1, 0, 1,0.0,0.0,0.0,0.0,0.8018213, 13:24:08.949
181125.046875, 187500.015625, 187500.015625, 187500.015625, 187500.015625, 187500.015625, 187500.015625, 187500.015625, 0, 1, 1, 0, 1,0.0,0.0,0.0,0.0,0.8018213, 13:24:08.949
181106.906250, 187500.015625, 187500.015625, 187500.015625, 187500.015625, 187500.015625, 187500.015625, 187500.015625, 0, 1, 1, 0, 1,0.0,0.0,0.0,0.0,0.8018213, 13:24:08.949
181100.328125, 187500.015625, 187500.015625, 187500.015625, 187500.015625, 187500.015625, 187500.015625, 187500.015625, 0, 1, 1, 0, 1,0.06546639,0.13288988,0.012163135,0.007367767,0.010175346, 13:24:09.388
181125.796875, 187500.015625, 187500.015625, 187500.015625, 187500.015625, 187500.015625, 187500.015625, 187500.015625, 0, 1, 1, 0, 1,0.06546639,0.13288988,0.012163135,0.007367767,0.010175346, 13:24:09.388
181146.562500, 187500.015625, 187500.015625, 187500.015625, 187500.015625, 187500.015625, 187500.015625, 187500.015625, 0, 1, 1, 0, 1,0.06546639,0.13288988,0.012163135,0.007367767,0.010175346, 13:24:09.389
181133.843750, 187500.015625, 187500.015625, 187500.015625, 187500.015625, 187500.015625, 187500.015625, 187500.015625, 0, 1, 1, 0, 1,0.06546639,0.13288988,0.012163135,0.007367767,0.010175346, 13:24:09.389
181124.250000, 187500.015625, 187500.015625, 187500.015625, 187500.015625, 187500.015625, 187500.015625, 187500.015625, 0, 1, 1, 0, 1,0.06546639,0.13288988,0.012163135,0.007367767,0.010175346, 13:24:09.389
181146.312500, 187500.015625, 187500.015625, 187500.015625, 187500.015625, 187500.015625, 187500.015625, 187500.015625, 0, 1, 1, 0, 1,0.06546639,0.13288988,0.012163135,0.007367767,0.010175346, 13:24:09.389
181170.921875, 187500.015625, 187500.015625, 187500.015625, 187500.015625, 187500.015625, 187500.015625, 187500.015625, 0, 1, 1, 0, 1,0.06546639,0.13288988,0.012163135,0.007367767,0.010175346, 13:24:09.390
181162.609375, 187500.015625, 187500.015625, 187500.015625, 187500.015625, 187500.015625, 187500.015625, 187500.015625, 0, 1, 1, 0, 1,0.06546639,0.13288988,0.012163135,0.007367767,0.010175346, 13:24:09.390
181150.203125, 187500.015625, 187500.015625, 187500.015625, 187500.015625, 187500.015625, 187500.015625, 187500.015625, 0, 1, 1, 0, 1,0.06546639,0.13288988,0.012163135,0.007367767,0.010175346, 13:24:09.391
181169.062500, 187500.015625, 187500.015625, 187500.015625, 187500.015625, 187500.015625, 187500.015625, 187500.015625, 0, 1, 1, 0, 1,0.06546639,0.13288988,0.012163135,0.007367767,0.010175346, 13:24:09.391
181198.015625, 187500.015625, 187500.015625, 187500.015625, 187500.015625, 187500.015625, 187500.015625, 187500.015625, 0, 1, 1, 0, 1,0.06546639,0.13288988,0.012163135,0.007367767,0.010175346, 13:24:09.392
181191.578125, 187500.015625, 187500.015625, 187500.015625, 187500.015625, 187500.015625, 187500.015625, 187500.015625, 0, 1, 1, 0, 1,0.06546639,0.13288988,0.012163135,0.007367767,0.010175346, 13:24:09.392
181175.046875, 187500.015625, 187500.015625, 187500.015625, 187500.015625, 187500.015625, 187500.015625, 187500.015625, 0, 1, 1, 0, 1,0.06546639,0.13288988,0.012163135,0.007367767,0.010175346, 13:24:09.392
181184.859375, 187500.015625, 187500.015625, 187500.015625, 187500.015625, 187500.015625, 187500.015625, 187500.015625, 0, 1, 1, 0, 1,0.06546639,0.13288988,0.012163135,0.007367767,0.010175346, 13:24:09.393
181208.984375, 187500.015625, 187500.015625, 187500.015625, 187500.015625, 187500.015625, 187500.015625, 187500.015625, 0, 1, 1, 0, 1,0.06546639,0.13288988,0.012163135,0.007367767,0.010175346, 13:24:09.393
181207.281250, 187500.015625, 187500.015625, 187500.015625, 187500.015625, 187500.015625, 187500.015625, 187500.015625, 0, 1, 1, 0, 1,0.06546639,0.13288988,0.012163135,0.007367767,0.010175346, 13:24:09.393
181185.359375, 187500.015625, 187500.015625, 187500.015625, 187500.015625, 187500.015625, 187500.015625, 187500.015625, 0, 1, 1, 0, 1,0.06546639,0.13288988,0.012163135,0.007367767,0.010175346, 13:24:09.393
181188.109375, 187500.015625, 187500.015625, 187500.015625, 187500.015625, 187500.015625, 187500.015625, 187500.015625, 0, 1, 1, 0, 1,0.06546639,0.13288988,0.012163135,0.007367767,0.010175346, 13:24:09.394
181213.609375, 187500.015625, 187500.015625, 187500.015625, 187500.015625, 187500.015625, 187500.015625, 187500.015625, 0, 1, 1, 0, 1,0.06546639,0.13288988,0.012163135,0.007367767,0.010175346, 13:24:09.394
181218.062500, 187500.015625, 187500.015625, 187500.015625, 187500.015625, 187500.015625, 187500.015625, 187500.015625, 0, 1, 1, 0, 1,0.06546639,0.13288988,0.012163135,0.007367767,0.010175346, 13:24:09.394
181191.593750, 187500.015625, 187500.015625, 187500.015625, 187500.015625, 187500.015625, 187500.015625, 187500.015625, 0, 1, 1, 0, 1,0.06546639,0.13288988,0.012163135,0.007367767,0.010175346, 13:24:09.394
181183.218750, 187500.015625, 187500.015625, 187500.015625, 187500.015625, 187500.015625, 187500.015625, 187500.015625, 0, 1, 1, 0, 1,0.06546639,0.13288988,0.012163135,0.007367767,0.010175346, 13:24:09.394
181205.296875, 187500.015625, 187500.015625, 187500.015625, 187500.015625, 187500.015625, 187500.015625, 187500.015625, 0, 1, 1, 0, 1,0.06546639,0.13288988,0.012163135,0.007367767,0.010175346, 13:24:09.394
181215.796875, 187500.015625, 187500.015625, 187500.015625, 187500.015625, 187500.015625, 187500.015625, 187500.015625, 0, 1, 1, 0, 1,0.06546639,0.13288988,0.012163135,0.007367767,0.010175346, 13:24:09.395
181191.078125, 187500.015625, 187500.015625, 187500.015625, 187500.015625, 187500.015625, 187500.015625, 187500.015625, 0, 1, 1, 0, 1,0.06546639,0.13288988,0.012163135,0.007367767,0.010175346, 13:24:09.395
181175.921875, 187500.015625, 187500.015625, 187500.015625, 187500.015625, 187500.015625, 187500.015625, 187500.015625, 0, 1, 1, 0, 1,0.06546639,0.13288988,0.012163135,0.007367767,0.010175346, 13:24:09.395
181194.093750, 187500.015625, 187500.015625, 187500.015625, 187500.015625, 187500.015625, 187500.015625, 187500.015625, 0, 1, 1, 0, 1,0.06546639,0.13288988,0.012163135,0.007367767,0.010175346, 13:24:09.395
181209.718750, 187500.015625, 187500.015625, 187500.015625, 187500.015625, 187500.015625, 187500.015625, 187500.015625, 0, 1, 1, 0, 1,0.06546639,0.13288988,0.012163135,0.007367767,0.010175346, 13:24:09.396
181190.906250, 187500.015625, 187500.015625, 187500.015625, 187500.015625, 187500.015625, 187500.015625, 187500.015625, 0, 1, 1, 0, 1,0.06546639,0.13288988,0.012163135,0.007367767,0.010175346, 13:24:09.396
181171.453125, 187500.015625, 187500.015625, 187500.015625, 187500.015625, 187500.015625, 187500.015625, 187500.015625, 0, 1, 1, 0, 1,0.06546639,0.13288988,0.012163135,0.007367767,0.010175346, 13:24:09.396
181182.703125, 187500.015625, 187500.015625, 187500.015625, 187500.015625, 187500.015625, 187500.015625, 187500.015625, 0, 1, 1, 0, 1,0.06546639,0.13288988,0.012163135,0.007367767,0.010175346, 13:24:09.396
181198.546875, 187500.015625, 187500.015625, 187500.015625, 187500.015625, 187500.015625, 187500.015625, 187500.015625, 0, 1, 1, 0, 1,0.06546639,0.13288988,0.012163135,0.007367767,0.010175346, 13:24:09.396
181181.984375, 187500.015625, 187500.015625, 187500.015625, 187500.015625, 187500.015625, 187500.015625, 187500.015625, 0, 1, 1, 0, 1,0.06546639,0.13288988,0.012163135,0.007367767,0.010175346, 13:24:09.397
181158.156250, 187500.015625, 187500.015625, 187500.015625, 187500.015625, 187500.015625, 187500.015625, 187500.015625, 0, 1, 1, 0, 1,0.06546639,0.13288988,0.012163135,0.007367767,0.010175346, 13:24:09.397
181163.812500, 187500.015625, 187500.015625, 187500.015625, 187500.015625, 187500.015625, 187500.015625, 187500.015625, 0, 1, 1, 0, 1,0.06546639,0.13288988,0.012163135,0.007367767,0.010175346, 13:24:09.397
181184.171875, 187500.015625, 187500.015625, 187500.015625, 187500.015625, 187500.015625, 187500.015625, 187500.015625, 0, 1, 1, 0, 1,0.06546639,0.13288988,0.012163135,0.007367767,0.010175346, 13:24:09.397
181176.328125, 187500.015625, 187500.015625, 187500.015625, 187500.015625, 187500.015625, 187500.015625, 187500.015625, 0, 1, 1, 0, 1,0.06546639,0.13288988,0.012163135,0.007367767,0.010175346, 13:24:09.398
181148.609375, 187500.015625, 187500.015625, 187500.015625, 187500.015625, 187500.015625, 187500.015625, 187500.015625, 0, 1, 1, 0, 1,0.06546639,0.13288988,0.012163135,0.007367767,0.010175346, 13:24:09.398
181147.968750, 187500.015625, 187500.015625, 187500.015625, 187500.015625, 187500.015625, 187500.015625, 187500.015625, 0, 1, 1, 0, 1,0.06546639,0.13288988,0.012163135,0.007367767,0.010175346, 13:24:09.398
181171.875000, 187500.015625, 187500.015625, 187500.015625, 187500.015625, 187500.015625, 187500.015625, 187500.015625, 0, 1, 1, 0, 1,0.06546639,0.13288988,0.012163135,0.007367767,0.010175346, 13:24:09.398
181170.312500, 187500.015625, 187500.015625, 187500.015625, 187500.015625, 187500.015625, 187500.015625, 187500.015625, 0, 1, 1, 0, 1,0.06546639,0.13288988,0.012163135,0.007367767,0.010175346, 13:24:09.399
181145.609375, 187500.015625, 187500.015625, 187500.015625, 187500.015625, 187500.015625, 187500.015625, 187500.015625, 0, 1, 1, 0, 1,0.06546639,0.13288988,0.012163135,0.007367767,0.010175346, 13:24:09.399
181142.078125, 187500.015625, 187500.015625, 187500.015625, 187500.015625, 187500.015625, 187500.015625, 187500.015625, 0, 1, 1, 0, 1,0.06546639,0.13288988,0.012163135,0.007367767,0.010175346, 13:24:09.399
181164.078125, 187500.015625, 187500.015625, 187500.015625, 187500.015625, 187500.015625, 187500.015625, 187500.015625, 0, 1, 1, 0, 1,0.06546639,0.13288988,0.012163135,0.007367767,0.010175346, 13:24:09.399
181169.671875, 187500.015625, 187500.015625, 187500.015625, 187500.015625, 187500.015625, 187500.015625, 187500.015625, 0, 1, 1, 0, 1,0.06546639,0.13288988,0.012163135,0.007367767,0.010175346, 13:24:09.399
181144.281250, 187500.015625, 187500.015625, 187500.015625, 187500.015625, 187500.015625, 187500.015625, 187500.015625, 0, 1, 1, 0, 1,0.06546639,0.13288988,0.012163135,0.007367767,0.010175346, 13:24:09.399
181132.406250, 187500.015625, 187500.015625, 187500.015625, 187500.015625, 187500.015625, 187500.015625, 187500.015625, 0, 1, 1, 0, 1,0.06546639,0.13288988,0.012163135,0.007367767,0.010175346, 13:24:09.400
181153.687500, 187500.015625, 187500.015625, 187500.015625, 187500.015625, 187500.015625, 187500.015625, 187500.015625, 0, 1, 1, 0, 1,0.06546639,0.13288988,0.012163135,0.007367767,0.010175346, 13:24:09.400
181164.906250, 187500.015625, 187500.015625, 187500.015625, 187500.015625, 187500.015625, 187500.015625, 187500.015625, 0, 1, 1, 0, 1,0.06546639,0.13288988,0.012163135,0.007367767,0.010175346, 13:24:09.400
181140.343750, 187500.015625, 187500.015625, 187500.015625, 187500.015625, 187500.015625, 187500.015625, 187500.015625, 0, 1, 1, 0, 1,0.06546639,0.13288988,0.012163135,0.007367767,0.010175346, 13:24:09.400
181121.718750, 187500.015625, 187500.015625, 187500.015625, 187500.015625, 187500.015625, 187500.015625, 187500.015625, 0, 1, 1, 0, 1,0.06546639,0.13288988,0.012163135,0.007367767,0.010175346, 13:24:09.400
181134.656250, 187500.015625, 187500.015625, 187500.015625, 187500.015625, 187500.015625, 187500.015625, 187500.015625, 0, 1, 1, 0, 1,0.06546639,0.13288988,0.012163135,0.007367767,0.010175346, 13:24:09.400
181147.000000, 187500.015625, 187500.015625, 187500.015625, 187500.015625, 187500.015625, 187500.015625, 187500.015625, 0, 1, 1, 0, 1,0.06546639,0.13288988,0.012163135,0.007367767,0.010175346, 13:24:09.400
181126.781250, 187500.015625, 187500.015625, 187500.015625, 187500.015625, 187500.015625, 187500.015625, 187500.015625, 0, 1, 1, 0, 1,0.06546639,0.13288988,0.012163135,0.007367767,0.010175346, 13:24:09.401
181100.062500, 187500.015625, 187500.015625, 187500.015625, 187500.015625, 187500.015625, 187500.015625, 187500.015625, 0, 1, 1, 0, 1,0.06546639,0.13288988,0.012163135,0.007367767,0.010175346, 13:24:09.401
181105.250000, 187500.015625, 187500.015625, 187500.015625, 187500.015625, 187500.015625, 187500.015625, 187500.015625, 0, 1, 1, 0, 1,0.06546639,0.13288988,0.012163135,0.007367767,0.010175346, 13:24:09.401
181123.015625, 187500.015625, 187500.015625, 187500.015625, 187500.015625, 187500.015625, 187500.015625, 187500.015625, 0, 1, 1, 0, 1,0.06546639,0.13288988,0.012163135,0.007367767,0.010175346, 13:24:09.401
181107.156250, 187500.015625, 187500.015625, 187500.015625, 187500.015625, 187500.015625, 187500.015625, 187500.015625, 0, 1, 1, 0, 1,0.06546639,0.13288988,0.012163135,0.007367767,0.010175346, 13:24:09.401
181079.562500, 187500.015625, 187500.015625, 187500.015625, 187500.015625, 187500.015625, 187500.015625, 187500.015625, 0, 1, 1, 0, 1,0.06546639,0.13288988,0.012163135,0.007367767,0.010175346, 13:24:09.401
181081.468750, 187500.015625, 187500.015625, 187500.015625, 187500.015625, 187500.015625, 187500.015625, 187500.015625, 0, 1, 1, 0, 1,0.06546639,0.13288988,0.012163135,0.007367767,0.010175346, 13:24:09.402
181098.187500, 187500.015625, 187500.015625, 187500.015625, 187500.015625, 187500.015625, 187500.015625, 187500.015625, 0, 1, 1, 0, 1,0.06546639,0.13288988,0.012163135,0.007367767,0.010175346, 13:24:09.402
181083.812500, 187500.015625, 187500.015625, 187500.015625, 187500.015625, 187500.015625, 187500.015625, 187500.015625, 0, 1, 1, 0, 1,0.06546639,0.13288988,0.012163135,0.007367767,0.010175346, 13:24:09.402
181046.218750, 187500.015625, 187500.015625, 187500.015625, 187500.015625, 187500.015625, 187500.015625, 187500.015625, 0, 1, 1, 0, 1,0.06546639,0.13288988,0.012163135,0.007367767,0.010175346, 13:24:09.402
181034.265625, 187500.015625, 187500.015625, 187500.015625, 187500.015625, 187500.015625, 187500.015625, 187500.015625, 0, 1, 1, 0, 1,0.06546639,0.13288988,0.012163135,0.007367767,0.010175346, 13:24:09.402
181048.812500, 187500.015625, 187500.015625, 187500.015625, 187500.015625, 187500.015625, 187500.015625, 187500.015625, 0, 1, 1, 0, 1,0.06546639,0.13288988,0.012163135,0.007367767,0.010175346, 13:24:09.402
181044.468750, 187500.015625, 187500.015625, 187500.015625, 187500.015625, 187500.015625, 187500.015625, 187500.015625, 0, 1, 1, 0, 1,0.06546639,0.13288988,0.012163135,0.007367767,0.010175346, 13:24:09.403
181014.750000, 187500.015625, 187500.015625, 187500.015625, 187500.015625, 187500.015625, 187500.015625, 187500.015625, 0, 1, 1, 0, 1,0.06546639,0.13288988,0.012163135,0.007367767,0.010175346, 13:24:09.403
181008.437500, 187500.015625, 187500.015625, 187500.015625, 187500.015625, 187500.015625, 187500.015625, 187500.015625, 0, 1, 1, 0, 1,0.06546639,0.13288988,0.012163135,0.007367767,0.010175346, 13:24:09.403
181032.500000, 187500.015625, 187500.015625, 187500.015625, 187500.015625, 187500.015625, 187500.015625, 187500.015625, 0, 1, 1, 0, 1,0.06546639,0.13288988,0.012163135,0.007367767,0.010175346, 13:24:09.403
181040.984375, 187500.015625, 187500.015625, 187500.015625, 187500.015625, 187500.015625, 187500.015625, 187500.015625, 0, 1, 1, 0, 1,0.06546639,0.13288988,0.012163135,0.007367767,0.010175346, 13:24:09.403
181019.578125, 187500.015625, 187500.015625, 187500.015625, 187500.015625, 187500.015625, 187500.015625, 187500.015625, 0, 1, 1, 0, 1,0.06546639,0.13288988,0.012163135,0.007367767,0.010175346, 13:24:09.403
181013.406250, 187500.015625, 187500.015625, 187500.015625, 187500.015625, 187500.015625, 187500.015625, 187500.015625, 0, 1, 1, 0, 1,0.06546639,0.13288988,0.012163135,0.007367767,0.010175346, 13:24:09.404
181037.171875, 187500.015625, 187500.015625, 187500.015625, 187500.015625, 187500.015625, 187500.015625, 187500.015625, 0, 1, 1, 0, 1,0.06546639,0.13288988,0.012163135,0.007367767,0.010175346, 13:24:09.404
181055.000000, 187500.015625, 187500.015625, 187500.015625, 187500.015625, 187500.015625, 187500.015625, 187500.015625, 0, 1, 1, 0, 1,0.06546639,0.13288988,0.012163135,0.007367767,0.010175346, 13:24:09.405
181039.515625, 187500.015625, 187500.015625, 187500.015625, 187500.015625, 187500.015625, 187500.015625, 187500.015625, 0, 1, 1, 0, 1,0.06546639,0.13288988,0.012163135,0.007367767,0.010175346, 13:24:09.405
181029.703125, 187500.015625, 187500.015625, 187500.015625, 187500.015625, 187500.015625, 187500.015625, 187500.015625, 0, 1, 1, 0, 1,0.06546639,0.13288988,0.012163135,0.007367767,0.010175346, 13:24:09.405
181053.843750, 187500.015625, 187500.015625, 187500.015625, 187500.015625, 187500.015625, 187500.015625, 187500.015625, 0, 1, 1, 0, 1,0.06546639,0.13288988,0.012163135,0.007367767,0.010175346, 13:24:09.406
181083.093750, 187500.015625, 187500.015625, 187500.015625, 187500.015625, 187500.015625, 187500.015625, 187500.015625, 0, 1, 1, 0, 1,0.06546639,0.13288988,0.012163135,0.007367767,0.010175346, 13:24:09.406
181076.765625, 187500.015625, 187500.015625, 187500.015625, 187500.015625, 187500.015625, 187500.015625, 187500.015625, 0, 1, 1, 0, 1,0.06546639,0.13288988,0.012163135,0.007367767,0.010175346, 13:24:09.406
181066.375000, 187500.015625, 187500.015625, 187500.015625, 187500.015625, 187500.015625, 187500.015625, 187500.015625, 0, 1, 1, 0, 1,0.06546639,0.13288988,0.012163135,0.007367767,0.010175346, 13:24:09.406
181088.625000, 187500.015625, 187500.015625, 187500.015625, 187500.015625, 187500.015625, 187500.015625, 187500.015625, 0, 1, 1, 0, 1,0.06546639,0.13288988,0.012163135,0.007367767,0.010175346, 13:24:09.406
181121.359375, 187500.015625, 187500.015625, 187500.015625, 187500.015625, 187500.015625, 187500.015625, 187500.015625, 0, 1, 1, 0, 1,0.06546639,0.13288988,0.012163135,0.007367767,0.010175346, 13:24:09.406
181121.406250, 187500.015625, 187500.015625, 187500.015625, 187500.015625, 187500.015625, 187500.015625, 187500.015625, 0, 1, 1, 0, 1,0.06546639,0.13288988,0.012163135,0.007367767,0.010175346, 13:24:09.406
181107.343750, 187500.015625, 187500.015625, 187500.015625, 187500.015625, 187500.015625, 187500.015625, 187500.015625, 0, 1, 1, 0, 1,0.06546639,0.13288988,0.012163135,0.007367767,0.010175346, 13:24:09.407
181119.265625, 187500.015625, 187500.015625, 187500.015625, 187500.015625, 187500.015625, 187500.015625, 187500.015625, 0, 1, 1, 0, 1,0.06546639,0.13288988,0.012163135,0.007367767,0.010175346, 13:24:09.407
181149.937500, 187500.015625, 187500.015625, 187500.015625, 187500.015625, 187500.015625, 187500.015625, 187500.015625, 0, 1, 1, 0, 1,0.06546639,0.13288988,0.012163135,0.007367767,0.010175346, 13:24:09.407
181154.281250, 187500.015625, 187500.015625, 187500.015625, 187500.015625, 187500.015625, 187500.015625, 187500.015625, 0, 1, 1, 0, 1,0.06546639,0.13288988,0.012163135,0.007367767,0.010175346, 13:24:09.407
181135.953125, 187500.015625, 187500.015625, 187500.015625, 187500.015625, 187500.015625, 187500.015625, 187500.015625, 0, 1, 1, 0, 1,0.06546639,0.13288988,0.012163135,0.007367767,0.010175346, 13:24:09.407
181141.968750, 187500.015625, 187500.015625, 187500.015625, 187500.015625, 187500.015625, 187500.015625, 187500.015625, 0, 1, 1, 0, 1,0.06546639,0.13288988,0.012163135,0.007367767,0.010175346, 13:24:09.407
181174.984375, 187500.015625, 187500.015625, 187500.015625, 187500.015625, 187500.015625, 187500.015625, 187500.015625, 0, 1, 1, 0, 1,0.06546639,0.13288988,0.012163135,0.007367767,0.010175346, 13:24:09.407
181189.203125, 187500.015625, 187500.015625, 187500.015625, 187500.015625, 187500.015625, 187500.015625, 187500.015625, 0, 1, 1, 0, 1,0.06546639,0.13288988,0.012163135,0.007367767,0.010175346, 13:24:09.408
181169.875000, 187500.015625, 187500.015625, 187500.015625, 187500.015625, 187500.015625, 187500.015625, 187500.015625, 0, 1, 1, 0, 1,0.06546639,0.13288988,0.012163135,0.007367767,0.010175346, 13:24:09.408
181168.328125, 187500.015625, 187500.015625, 187500.015625, 187500.015625, 187500.015625, 187500.015625, 187500.015625, 0, 1, 1, 0, 1,0.06546639,0.13288988,0.012163135,0.007367767,0.010175346, 13:24:09.408
181196.562500, 187500.015625, 187500.015625, 187500.015625, 187500.015625, 187500.015625, 187500.015625, 187500.015625, 0, 1, 1, 0, 1,0.06546639,0.13288988,0.012163135,0.007367767,0.010175346, 13:24:09.408
181211.828125, 187500.015625, 187500.015625, 187500.015625, 187500.015625, 187500.015625, 187500.015625, 187500.015625, 0, 1, 1, 0, 1,0.06546639,0.13288988,0.012163135,0.007367767,0.010175346, 13:24:09.408
181193.218750, 187500.015625, 187500.015625, 187500.015625, 187500.015625, 187500.015625, 187500.015625, 187500.015625, 0, 1, 1, 0, 1,0.06546639,0.13288988,0.012163135,0.007367767,0.010175346, 13:24:09.408
181182.703125, 187500.015625, 187500.015625, 187500.015625, 187500.015625, 187500.015625, 187500.015625, 187500.015625, 0, 1, 1, 0, 1,0.06546639,0.13288988,0.012163135,0.007367767,0.010175346, 13:24:09.409
181203.328125, 187500.015625, 187500.015625, 187500.015625, 187500.015625, 187500.015625, 187500.015625, 187500.015625, 0, 1, 1, 0, 1,0.06546639,0.13288988,0.012163135,0.007367767,0.010175346, 13:24:09.409
181220.562500, 187500.015625, 187500.015625, 187500.015625, 187500.015625, 187500.015625, 187500.015625, 187500.015625, 0, 1, 1, 0, 1,0.06546639,0.13288988,0.012163135,0.007367767,0.010175346, 13:24:09.409
181203.906250, 187500.015625, 187500.015625, 187500.015625, 187500.015625, 187500.015625, 187500.015625, 187500.015625, 0, 1, 1, 0, 1,0.06546639,0.13288988,0.012163135,0.007367767,0.010175346, 13:24:09.409
181182.718750, 187500.015625, 187500.015625, 187500.015625, 187500.015625, 187500.015625, 187500.015625, 187500.015625, 0, 1, 1, 0, 1,0.06546639,0.13288988,0.012163135,0.007367767,0.010175346, 13:24:09.409
181194.234375, 187500.015625, 187500.015625, 187500.015625, 187500.015625, 187500.015625, 187500.015625, 187500.015625, 0, 1, 1, 0, 1,0.06546639,0.13288988,0.012163135,0.007367767,0.010175346, 13:24:09.409
181209.406250, 187500.015625, 187500.015625, 187500.015625, 187500.015625, 187500.015625, 187500.015625, 187500.015625, 0, 1, 1, 0, 1,0.06546639,0.13288988,0.012163135,0.007367767,0.010175346, 13:24:09.409
181188.687500, 187500.015625, 187500.015625, 187500.015625, 187500.015625, 187500.015625, 187500.015625, 187500.015625, 0, 1, 1, 0, 1,0.06546639,0.13288988,0.012163135,0.007367767,0.010175346, 13:24:09.410
181162.578125, 187500.015625, 187500.015625, 187500.015625, 187500.015625, 187500.015625, 187500.015625, 187500.015625, 0, 1, 1, 0, 1,0.06546639,0.13288988,0.012163135,0.007367767,0.010175346, 13:24:09.410
181170.250000, 187500.015625, 187500.015625, 187500.015625, 187500.015625, 187500.015625, 187500.015625, 187500.015625, 0, 1, 1, 0, 1,0.06546639,0.13288988,0.012163135,0.007367767,0.010175346, 13:24:09.410
181191.609375, 187500.015625, 187500.015625, 187500.015625, 187500.015625, 187500.015625, 187500.015625, 187500.015625, 0, 1, 1, 0, 1,0.06546639,0.13288988,0.012163135,0.007367767,0.010175346, 13:24:09.410
181176.375000, 187500.015625, 187500.015625, 187500.015625, 187500.015625, 187500.015625, 187500.015625, 187500.015625, 0, 1, 1, 0, 1,0.06546639,0.13288988,0.012163135,0.007367767,0.010175346, 13:24:09.411
181148.250000, 187500.015625, 187500.015625, 187500.015625, 187500.015625, 187500.015625, 187500.015625, 187500.015625, 0, 1, 1, 0, 1,0.06546639,0.13288988,0.012163135,0.007367767,0.010175346, 13:24:09.412
181145.296875, 187500.015625, 187500.015625, 187500.015625, 187500.015625, 187500.015625, 187500.015625, 187500.015625, 0, 1, 1, 0, 1,0.06546639,0.13288988,0.012163135,0.007367767,0.010175346, 13:24:09.412
181163.515625, 187500.015625, 187500.015625, 187500.015625, 187500.015625, 187500.015625, 187500.015625, 187500.015625, 0, 1, 1, 0, 1,0.06546639,0.13288988,0.012163135,0.007367767,0.010175346, 13:24:09.413
181155.765625, 187500.015625, 187500.015625, 187500.015625, 187500.015625, 187500.015625, 187500.015625, 187500.015625, 0, 1, 1, 0, 1,0.06546639,0.13288988,0.012163135,0.007367767,0.010175346, 13:24:09.413
181121.500000, 187500.015625, 187500.015625, 187500.015625, 187500.015625, 187500.015625, 187500.015625, 187500.015625, 0, 1, 1, 0, 1,0.055495728,0.106599845,0.009889047,0.005942206,0.0067261076, 13:24:09.413
181114.593750, 187500.015625, 187500.015625, 187500.015625, 187500.015625, 187500.015625, 187500.015625, 187500.015625, 0, 1, 1, 0, 1,0.055495728,0.106599845,0.009889047,0.005942206,0.0067261076, 13:24:09.414
181135.609375, 187500.015625, 187500.015625, 187500.015625, 187500.015625, 187500.015625, 187500.015625, 187500.015625, 0, 1, 1, 0, 1,0.055495728,0.106599845,0.009889047,0.005942206,0.0067261076, 13:24:09.416
181137.921875, 187500.015625, 187500.015625, 187500.015625, 187500.015625, 187500.015625, 187500.015625, 187500.015625, 0, 1, 1, 0, 1,0.055495728,0.106599845,0.009889047,0.005942206,0.0067261076, 13:24:09.416
181109.812500, 187500.015625, 187500.015625, 187500.015625, 187500.015625, 187500.015625, 187500.015625, 187500.015625, 0, 1, 1, 0, 1,0.055495728,0.106599845,0.009889047,0.005942206,0.0067261076, 13:24:09.416
181097.343750, 187500.015625, 187500.015625, 187500.015625, 187500.015625, 187500.015625, 187500.015625, 187500.015625, 0, 1, 1, 0, 1,0.055495728,0.106599845,0.009889047,0.005942206,0.0067261076, 13:24:09.416
181118.500000, 187500.015625, 187500.015625, 187500.015625, 187500.015625, 187500.015625, 187500.015625, 187500.015625, 0, 1, 1, 0, 1,0.055495728,0.106599845,0.009889047,0.005942206,0.0067261076, 13:24:09.417
181128.359375, 187500.015625, 187500.015625, 187500.015625, 187500.015625, 187500.015625, 187500.015625, 187500.015625, 0, 1, 1, 0, 1,0.055495728,0.106599845,0.009889047,0.005942206,0.0067261076, 13:24:09.417
181102.640625, 187500.015625, 187500.015625, 187500.015625, 187500.015625, 187500.015625, 187500.015625, 187500.015625, 0, 1, 1, 0, 1,0.021347458,0.06531217,0.0047063367,0.0018245195,2.5763438E-4, 13:24:09.866
181084.640625, 187500.015625, 187500.015625, 187500.015625, 187500.015625, 187500.015625, 187500.015625, 187500.015625, 0, 1, 1, 0, 1,0.021347458,0.06531217,0.0047063367,0.0018245195,2.5763438E-4, 13:24:09.867
181099.265625, 187500.015625, 187500.015625, 187500.015625, 187500.015625, 187500.015625, 187500.015625, 187500.015625, 0, 1, 1, 0, 1,0.021347458,0.06531217,0.0047063367,0.0018245195,2.5763438E-4, 13:24:09.867
181115.546875, 187500.015625, 187500.015625, 187500.015625, 187500.015625, 187500.015625, 187500.015625, 187500.015625, 0, 1, 1, 0, 1,0.021347458,0.06531217,0.0047063367,0.0018245195,2.5763438E-4, 13:24:09.867
181094.437500, 187500.015625, 187500.015625, 187500.015625, 187500.015625, 187500.015625, 187500.015625, 187500.015625, 0, 1, 1, 0, 1,0.021347458,0.06531217,0.0047063367,0.0018245195,2.5763438E-4, 13:24:09.867
181068.812500, 187500.015625, 187500.015625, 187500.015625, 187500.015625, 187500.015625, 187500.015625, 187500.015625, 0, 1, 1, 0, 1,0.021347458,0.06531217,0.0047063367,0.0018245195,2.5763438E-4, 13:24:09.867
181077.156250, 187500.015625, 187500.015625, 187500.015625, 187500.015625, 187500.015625, 187500.015625, 187500.015625, 0, 1, 1, 0, 1,0.021347458,0.06531217,0.0047063367,0.0018245195,2.5763438E-4, 13:24:09.867
181088.281250, 187500.015625, 187500.015625, 187500.015625, 187500.015625, 187500.015625, 187500.015625, 187500.015625, 0, 1, 1, 0, 1,0.021347458,0.06531217,0.0047063367,0.0018245195,2.5763438E-4, 13:24:09.868
181071.187500, 187500.015625, 187500.015625, 187500.015625, 187500.015625, 187500.015625, 187500.015625, 187500.015625, 0, 1, 1, 0, 1,0.021347458,0.06531217,0.0047063367,0.0018245195,2.5763438E-4, 13:24:09.868
181042.375000, 187500.015625, 187500.015625, 187500.015625, 187500.015625, 187500.015625, 187500.015625, 187500.015625, 0, 1, 1, 0, 1,0.021347458,0.06531217,0.0047063367,0.0018245195,2.5763438E-4, 13:24:09.868
181039.640625, 187500.015625, 187500.015625, 187500.015625, 187500.015625, 187500.015625, 187500.015625, 187500.015625, 0, 1, 1, 0, 1,0.021347458,0.06531217,0.0047063367,0.0018245195,2.5763438E-4, 13:24:09.868
181057.171875, 187500.015625, 187500.015625, 187500.015625, 187500.015625, 187500.015625, 187500.015625, 187500.015625, 0, 1, 1, 0, 1,0.021347458,0.06531217,0.0047063367,0.0018245195,2.5763438E-4, 13:24:09.868
181049.546875, 187500.015625, 187500.015625, 187500.015625, 187500.015625, 187500.015625, 187500.015625, 187500.015625, 0, 1, 1, 0, 1,0.021347458,0.06531217,0.0047063367,0.0018245195,2.5763438E-4, 13:24:09.868
181017.765625, 187500.015625, 187500.015625, 187500.015625, 187500.015625, 187500.015625, 187500.015625, 187500.015625, 0, 1, 1, 0, 1,0.021347458,0.06531217,0.0047063367,0.0018245195,2.5763438E-4, 13:24:09.869
181013.296875, 187500.015625, 187500.015625, 187500.015625, 187500.015625, 187500.015625, 187500.015625, 187500.015625, 0, 1, 1, 0, 1,0.021347458,0.06531217,0.0047063367,0.0018245195,2.5763438E-4, 13:24:09.869
181034.421875, 187500.015625, 187500.015625, 187500.015625, 187500.015625, 187500.015625, 187500.015625, 187500.015625, 0, 1, 1, 0, 1,0.021347458,0.06531217,0.0047063367,0.0018245195,2.5763438E-4, 13:24:09.869
181031.640625, 187500.015625, 187500.015625, 187500.015625, 187500.015625, 187500.015625, 187500.015625, 187500.015625, 0, 1, 1, 0, 1,0.021347458,0.06531217,0.0047063367,0.0018245195,2.5763438E-4, 13:24:09.869
181002.453125, 187500.015625, 187500.015625, 187500.015625, 187500.015625, 187500.015625, 187500.015625, 187500.015625, 0, 1, 1, 0, 1,0.021347458,0.06531217,0.0047063367,0.0018245195,2.5763438E-4, 13:24:09.869
180993.359375, 187500.015625, 187500.015625, 187500.015625, 187500.015625, 187500.015625, 187500.015625, 187500.015625, 0, 1, 1, 0, 1,0.021347458,0.06531217,0.0047063367,0.0018245195,2.5763438E-4, 13:24:09.869
181009.203125, 187500.015625, 187500.015625, 187500.015625, 187500.015625, 187500.015625, 187500.015625, 187500.015625, 0, 1, 1, 0, 1,0.021347458,0.06531217,0.0047063367,0.0018245195,2.5763438E-4, 13:24:09.869
181012.250000, 187500.015625, 187500.015625, 187500.015625, 187500.015625, 187500.015625, 187500.015625, 187500.015625, 0, 1, 1, 0, 1,0.021347458,0.06531217,0.0047063367,0.0018245195,2.5763438E-4, 13:24:09.870
180985.687500, 187500.015625, 187500.015625, 187500.015625, 187500.015625, 187500.015625, 187500.015625, 187500.015625, 0, 1, 1, 0, 1,0.021347458,0.06531217,0.0047063367,0.0018245195,2.5763438E-4, 13:24:09.870
180973.312500, 187500.015625, 187500.015625, 187500.015625, 187500.015625, 187500.015625, 187500.015625, 187500.015625, 0, 1, 1, 0, 1,0.021347458,0.06531217,0.0047063367,0.0018245195,2.5763438E-4, 13:24:09.870
180990.921875, 187500.015625, 187500.015625, 187500.015625, 187500.015625, 187500.015625, 187500.015625, 187500.015625, 0, 1, 1, 0, 1,0.021347458,0.06531217,0.0047063367,0.0018245195,2.5763438E-4, 13:24:09.870
181001.609375, 187500.015625, 187500.015625, 187500.015625, 187500.015625, 187500.015625, 187500.015625, 187500.015625, 0, 1, 1, 0, 1,0.021347458,0.06531217,0.0047063367,0.0018245195,2.5763438E-4, 13:24:09.871
180986.250000, 187500.015625, 187500.015625, 187500.015625, 187500.015625, 187500.015625, 187500.015625, 187500.015625, 0, 1, 1, 0, 1,0.021347458,0.06531217,0.0047063367,0.0018245195,2.5763438E-4, 13:24:09.871
180973.468750, 187500.015625, 187500.015625, 187500.015625, 187500.015625, 187500.015625, 187500.015625, 187500.015625, 0, 1, 1, 0, 1,0.021347458,0.06531217,0.0047063367,0.0018245195,2.5763438E-4, 13:24:09.871
180990.937500, 187500.015625, 187500.015625, 187500.015625, 187500.015625, 187500.015625, 187500.015625, 187500.015625, 0, 1, 1, 0, 1,0.021347458,0.06531217,0.0047063367,0.0018245195,2.5763438E-4, 13:24:09.871
181015.468750, 187500.015625, 187500.015625, 187500.015625, 187500.015625, 187500.015625, 187500.015625, 187500.015625, 0, 1, 1, 0, 1,0.021347458,0.06531217,0.0047063367,0.0018245195,2.5763438E-4, 13:24:09.872
181004.671875, 187500.015625, 187500.015625, 187500.015625, 187500.015625, 187500.015625, 187500.015625, 187500.015625, 0, 1, 1, 0, 1,0.021347458,0.06531217,0.0047063367,0.0018245195,2.5763438E-4, 13:24:09.872
180989.640625, 187500.015625, 187500.015625, 187500.015625, 187500.015625, 187500.015625, 187500.015625, 187500.015625, 0, 1, 1, 0, 1,0.021347458,0.06531217,0.0047063367,0.0018245195,2.5763438E-4, 13:24:09.872
181004.281250, 187500.015625, 187500.015625, 187500.015625, 187500.015625, 187500.015625, 187500.015625, 187500.015625, 0, 1, 1, 0, 1,0.021347458,0.06531217,0.0047063367,0.0018245195,2.5763438E-4, 13:24:09.872
181032.062500, 187500.015625, 187500.015625, 187500.015625, 187500.015625, 187500.015625, 187500.015625, 187500.015625, 0, 1, 1, 0, 1,0.021347458,0.06531217,0.0047063367,0.0018245195,2.5763438E-4, 13:24:09.872
181028.265625, 187500.015625, 187500.015625, 187500.015625, 187500.015625, 187500.015625, 187500.015625, 187500.015625, 0, 1, 1, 0, 1,0.021347458,0.06531217,0.0047063367,0.0018245195,2.5763438E-4, 13:24:09.873
181009.250000, 187500.015625, 187500.015625, 187500.015625, 187500.015625, 187500.015625, 187500.015625, 187500.015625, 0, 1, 1, 0, 1,0.021347458,0.06531217,0.0047063367,0.0018245195,2.5763438E-4, 13:24:09.873
181019.703125, 187500.015625, 187500.015625, 187500.015625, 187500.015625, 187500.015625, 187500.015625, 187500.015625, 0, 1, 1, 0, 1,0.021347458,0.06531217,0.0047063367,0.0018245195,2.5763438E-4, 13:24:09.874
181049.218750, 187500.015625, 187500.015625, 187500.015625, 187500.015625, 187500.015625, 187500.015625, 187500.015625, 0, 1, 1, 0, 1,0.021347458,0.06531217,0.0047063367,0.0018245195,2.5763438E-4, 13:24:09.874
181049.093750, 187500.015625, 187500.015625, 187500.015625, 187500.015625, 187500.015625, 187500.015625, 187500.015625, 0, 1, 1, 0, 1,0.021347458,0.06531217,0.0047063367,0.0018245195,2.5763438E-4, 13:24:09.874
181028.000000, 187500.015625, 187500.015625, 187500.015625, 187500.015625, 187500.015625, 187500.015625, 187500.015625, 0, 1, 1, 0, 1,0.021347458,0.06531217,0.0047063367,0.0018245195,2.5763438E-4, 13:24:09.874
181034.812500, 187500.015625, 187500.015625, 187500.015625, 187500.015625, 187500.015625, 187500.015625, 187500.015625, 0, 1, 1, 0, 1,0.021347458,0.06531217,0.0047063367,0.0018245195,2.5763438E-4, 13:24:09.874
181061.265625, 187500.015625, 187500.015625, 187500.015625, 187500.015625, 187500.015625, 187500.015625, 187500.015625, 0, 1, 1, 0, 1,0.021347458,0.06531217,0.0047063367,0.0018245195,2.5763438E-4, 13:24:09.874
181061.703125, 187500.015625, 187500.015625, 187500.015625, 187500.015625, 187500.015625, 187500.015625, 187500.015625, 0, 1, 1, 0, 1,0.021347458,0.06531217,0.0047063367,0.0018245195,2.5763438E-4, 13:24:09.874
181033.828125, 187500.015625, 187500.015625, 187500.015625, 187500.015625, 187500.015625, 187500.015625, 187500.015625, 0, 1, 1, 0, 1,0.021347458,0.06531217,0.0047063367,0.0018245195,2.5763438E-4, 13:24:09.875
181019.890625, 187500.015625, 187500.015625, 187500.015625, 187500.015625, 187500.015625, 187500.015625, 187500.015625, 0, 1, 1, 0, 1,0.021347458,0.06531217,0.0047063367,0.0018245195,2.5763438E-4, 13:24:09.875
181038.109375, 187500.015625, 187500.015625, 187500.015625, 187500.015625, 187500.015625, 187500.015625, 187500.015625, 0, 1, 1, 0, 1,0.021347458,0.06531217,0.0047063367,0.0018245195,2.5763438E-4, 13:24:09.875
181043.609375, 187500.015625, 187500.015625, 187500.015625, 187500.015625, 187500.015625, 187500.015625, 187500.015625, 0, 1, 1, 0, 1,0.021347458,0.06531217,0.0047063367,0.0018245195,2.5763438E-4, 13:24:09.875
181015.000000, 187500.015625, 187500.015625, 187500.015625, 187500.015625, 187500.015625, 187500.015625, 187500.015625, 0, 1, 1, 0, 1,0.021347458,0.06531217,0.0047063367,0.0018245195,2.5763438E-4, 13:24:09.875
180994.109375, 187500.015625, 187500.015625, 187500.015625, 187500.015625, 187500.015625, 187500.015625, 187500.015625, 0, 1, 1, 0, 1,0.021347458,0.06531217,0.0047063367,0.0018245195,2.5763438E-4, 13:24:09.875
181003.093750, 187500.015625, 187500.015625, 187500.015625, 187500.015625, 187500.015625, 187500.015625, 187500.015625, 0, 1, 1, 0, 1,0.021347458,0.06531217,0.0047063367,0.0018245195,2.5763438E-4, 13:24:09.875
181010.703125, 187500.015625, 187500.015625, 187500.015625, 187500.015625, 187500.015625, 187500.015625, 187500.015625, 0, 1, 1, 0, 1,0.021347458,0.06531217,0.0047063367,0.0018245195,2.5763438E-4, 13:24:09.875
180986.046875, 187500.015625, 187500.015625, 187500.015625, 187500.015625, 187500.015625, 187500.015625, 187500.015625, 0, 1, 1, 0, 1,0.021347458,0.06531217,0.0047063367,0.0018245195,2.5763438E-4, 13:24:09.875
180964.546875, 187500.015625, 187500.015625, 187500.015625, 187500.015625, 187500.015625, 187500.015625, 187500.015625, 0, 1, 1, 0, 1,0.021347458,0.06531217,0.0047063367,0.0018245195,2.5763438E-4, 13:24:09.876
180972.796875, 187500.015625, 187500.015625, 187500.015625, 187500.015625, 187500.015625, 187500.015625, 187500.015625, 0, 1, 1, 0, 1,0.021347458,0.06531217,0.0047063367,0.0018245195,2.5763438E-4, 13:24:09.876
180986.000000, 187500.015625, 187500.015625, 187500.015625, 187500.015625, 187500.015625, 187500.015625, 187500.015625, 0, 1, 1, 0, 1,0.021347458,0.06531217,0.0047063367,0.0018245195,2.5763438E-4, 13:24:09.876
180966.734375, 187500.015625, 187500.015625, 187500.015625, 187500.015625, 187500.015625, 187500.015625, 187500.015625, 0, 1, 1, 0, 1,0.021347458,0.06531217,0.0047063367,0.0018245195,2.5763438E-4, 13:24:09.876
180939.312500, 187500.015625, 187500.015625, 187500.015625, 187500.015625, 187500.015625, 187500.015625, 187500.015625, 0, 1, 1, 0, 1,0.021347458,0.06531217,0.0047063367,0.0018245195,2.5763438E-4, 13:24:09.876
180941.609375, 187500.015625, 187500.015625, 187500.015625, 187500.015625, 187500.015625, 187500.015625, 187500.015625, 0, 1, 1, 0, 1,0.021347458,0.06531217,0.0047063367,0.0018245195,2.5763438E-4, 13:24:09.876
180962.828125, 187500.015625, 187500.015625, 187500.015625, 187500.015625, 187500.015625, 187500.015625, 187500.015625, 0, 1, 1, 0, 1,0.021347458,0.06531217,0.0047063367,0.0018245195,2.5763438E-4, 13:24:09.876
180954.734375, 187500.015625, 187500.015625, 187500.015625, 187500.015625, 187500.015625, 187500.015625, 187500.015625, 0, 1, 1, 0, 1,0.021347458,0.06531217,0.0047063367,0.0018245195,2.5763438E-4, 13:24:09.876
