%OpenBCI Raw EEG Data
%
%Sample Rate = 250.0 Hz
%First Column = SampleIndex
%5 Columns before Timestamp are Frequency Power factors DELTA THETA ALPHA BETA GAMMA
%Last Column = Timestamp 
%Other Columns = EEG data in microvolts followed by Accel Data (in G) interleaved with Aux Data
, 0.00, 0.00, 0.00, 0.00, 0.00, 0.00, 0.00, 0.00, 0.000, 0.000, 0.000,0.0,0.0,0.0,0.0,0.0, 21:49:59.013
, 67.90, 80.55, 153.36, 140.39, 99.78, 71.77, 90.84, 86.54, 0.322, 0.428, 0.834,0.0,0.0,0.0,0.0,0.0, 21:49:59.493
, 67.98, 80.62, 153.43, 140.23, 99.85, 71.62, 90.82, 86.36, 0.000, 0.000, 0.000,0.0,0.0,0.0,0.0,0.0, 21:49:59.494
, 67.98, 80.62, 153.42, 140.25, 99.85, 71.67, 90.88, 86.37, 0.000, 0.000, 0.000,0.0,0.0,0.0,0.0,0.0, 21:49:59.495
, 67.90, 80.54, 153.34, 140.41, 99.78, 71.81, 90.90, 86.54, 0.000, 0.000, 0.000,0.0,0.0,0.0,0.0,0.0, 21:49:59.495
, 67.91, 80.55, 153.35, 140.41, 99.77, 71.79, 90.84, 86.57, 0.000, 0.000, 0.000,0.0,0.0,0.0,0.0,0.0, 21:49:59.496
, 67.99, 80.63, 153.44, 140.23, 99.86, 71.63, 90.82, 86.37, 0.000, 0.000, 0.000,0.0,0.0,0.0,0.0,0.0, 21:49:59.496
, 67.98, 80.63, 153.43, 140.23, 99.86, 71.65, 90.89, 86.35, 0.326, 0.446, 0.822,0.0,0.0,0.0,0.0,0.0, 21:49:59.496
, 67.93, 80.57, 153.37, 140.37, 99.81, 71.78, 90.92, 86.50, 0.000, 0.000, 0.000,0.0,0.0,0.0,0.0,0.0, 21:49:59.497
, 67.90, 80.54, 153.35, 140.43, 99.77, 71.82, 90.87, 86.58, 0.000, 0.000, 0.000,0.0,0.0,0.0,0.0,0.0, 21:49:59.497
, 67.99, 80.63, 153.43, 140.26, 99.85, 71.65, 90.82, 86.39, 0.000, 0.000, 0.000,0.0,0.0,0.0,0.0,0.0, 21:49:59.497
, 68.01, 80.64, 153.45, 140.21, 99.89, 71.64, 90.89, 86.32, 0.000, 0.000, 0.000,0.0,0.0,0.0,0.0,0.0, 21:49:59.498
, 67.93, 80.56, 153.36, 140.36, 99.81, 71.77, 90.92, 86.48, 0.000, 0.000, 0.000,0.0,0.0,0.0,0.0,0.0, 21:49:59.498
, 67.90, 80.53, 153.34, 140.44, 99.77, 71.83, 90.88, 86.59, 0.000, 0.000, 0.000,0.0,0.0,0.0,0.0,0.0, 21:49:59.499
, 67.97, 80.60, 153.41, 140.29, 99.83, 71.68, 90.82, 86.44, 0.000, 0.000, 0.000,0.0,0.0,0.0,0.0,0.0, 21:49:59.500
, 68.00, 80.63, 153.44, 140.21, 99.87, 71.62, 90.87, 86.33, 0.000, 0.000, 0.000,0.0,0.0,0.0,0.0,0.0, 21:49:59.500
, 67.94, 80.58, 153.38, 140.33, 99.82, 71.74, 90.91, 86.45, 0.000, 0.000, 0.000,0.0,0.0,0.0,0.0,0.0, 21:49:59.501
, 67.90, 80.53, 153.32, 140.44, 99.76, 71.84, 90.89, 86.60, 0.322, 0.450, 0.820,0.0,0.0,0.0,0.0,0.0, 21:49:59.501
, 67.96, 80.59, 153.39, 140.32, 99.81, 71.71, 90.81, 86.48, 0.000, 0.000, 0.000,0.0,0.0,0.0,0.0,0.0, 21:49:59.501
, 68.02, 80.65, 153.45, 140.20, 99.88, 71.62, 90.85, 86.32, 0.000, 0.000, 0.000,0.0,0.0,0.0,0.0,0.0, 21:49:59.501
, 67.97, 80.60, 153.40, 140.30, 99.83, 71.72, 90.92, 86.42, 0.000, 0.000, 0.000,0.0,0.0,0.0,0.0,0.0, 21:49:59.502
, 67.91, 80.54, 153.34, 140.44, 99.77, 71.84, 90.91, 86.59, 0.000, 0.000, 0.000,0.0,0.0,0.0,0.0,0.0, 21:49:59.502
, 67.97, 80.59, 153.40, 140.35, 99.82, 71.75, 90.84, 86.50, 0.000, 0.000, 0.000,0.0,0.0,0.0,0.0,0.0, 21:49:59.502
, 68.04, 80.66, 153.46, 140.21, 99.90, 71.62, 90.85, 86.32, 0.000, 0.000, 0.000,0.0,0.0,0.0,0.0,0.0, 21:49:59.503
, 67.99, 80.62, 153.42, 140.28, 99.86, 71.70, 90.91, 86.39, 0.000, 0.000, 0.000,0.0,0.0,0.0,0.0,0.0, 21:49:59.503
, 67.91, 80.54, 153.34, 140.44, 99.77, 71.84, 90.90, 86.57, 0.000, 0.000, 0.000,0.0,0.0,0.0,0.0,0.0, 21:49:59.503
, 67.93, 80.56, 153.36, 140.40, 99.78, 71.79, 90.84, 86.55, 0.000, 0.000, 0.000,0.0,0.0,0.0,0.0,0.0, 21:49:59.504
, 68.00, 80.63, 153.43, 140.24, 99.85, 71.64, 90.82, 86.36, 0.320, 0.452, 0.814,0.0,0.0,0.0,0.0,0.0, 21:49:59.504
, 67.99, 80.61, 153.41, 140.26, 99.84, 71.68, 90.89, 86.38, 0.000, 0.000, 0.000,0.0,0.0,0.0,0.0,0.0, 21:49:59.504
, 67.92, 80.54, 153.35, 140.41, 99.77, 71.81, 90.90, 86.54, 0.000, 0.000, 0.000,0.0,0.0,0.0,0.0,0.0, 21:49:59.505
, 67.93, 80.55, 153.36, 140.41, 99.77, 71.81, 90.85, 86.57, 0.000, 0.000, 0.000,0.0,0.0,0.0,0.0,0.0, 21:49:59.505
, 68.02, 80.63, 153.44, 140.24, 99.86, 71.64, 90.82, 86.37, 0.000, 0.000, 0.000,0.0,0.0,0.0,0.0,0.0, 21:49:59.506
, 68.02, 80.64, 153.45, 140.23, 99.88, 71.65, 90.90, 86.33, 0.000, 0.000, 0.000,0.0,0.0,0.0,0.0,0.0, 21:49:59.506
, 67.95, 80.56, 153.37, 140.38, 99.81, 71.79, 90.93, 86.49, 0.000, 0.000, 0.000,0.0,0.0,0.0,0.0,0.0, 21:49:59.506
, 67.93, 80.55, 153.36, 140.43, 99.79, 71.83, 90.88, 86.57, 0.000, 0.000, 0.000,0.0,0.0,0.0,0.0,0.0, 21:49:59.507
, 68.00, 80.62, 153.44, 140.27, 99.86, 71.67, 90.83, 86.39, 0.000, 0.000, 0.000,0.0,0.0,0.0,0.0,0.0, 21:49:59.507
, 68.02, 80.63, 153.45, 140.23, 99.88, 71.64, 90.88, 86.32, 0.314, 0.458, 0.810,0.0,0.0,0.0,0.0,0.0, 21:49:59.507
, 67.96, 80.57, 153.38, 140.36, 99.81, 71.77, 90.92, 86.46, 0.000, 0.000, 0.000,0.0,0.0,0.0,0.0,0.0, 21:49:59.507
, 67.92, 80.53, 153.34, 140.45, 99.77, 71.84, 90.89, 86.59, 0.000, 0.000, 0.000,0.0,0.0,0.0,0.0,0.0, 21:49:59.508
, 67.99, 80.60, 153.42, 140.30, 99.83, 71.70, 90.82, 86.44, 0.000, 0.000, 0.000,0.0,0.0,0.0,0.0,0.0, 21:49:59.508
, 68.04, 80.64, 153.46, 140.21, 99.89, 71.63, 90.87, 86.32, 0.000, 0.000, 0.000,0.0,0.0,0.0,0.0,0.0, 21:49:59.508
, 67.98, 80.58, 153.39, 140.32, 99.83, 71.75, 90.93, 86.43, 0.000, 0.000, 0.000,0.0,0.0,0.0,0.0,0.0, 21:49:59.508
, 67.92, 80.52, 153.33, 140.45, 99.77, 71.85, 90.90, 86.59, 0.000, 0.000, 0.000,0.0,0.0,0.0,0.0,0.0, 21:49:59.509
, 67.97, 80.57, 153.39, 140.34, 99.81, 71.74, 90.83, 86.49, 0.000, 0.000, 0.000,0.0,0.0,0.0,0.0,0.0, 21:49:59.509
, 68.03, 80.63, 153.45, 140.21, 99.87, 71.63, 90.87, 86.34, 0.000, 0.000, 0.000,0.0,0.0,0.0,0.0,0.0, 21:49:59.509
, 67.99, 80.59, 153.40, 140.29, 99.85, 71.72, 90.92, 86.42, 0.000, 0.000, 0.000,0.0,0.0,0.0,0.0,0.0, 21:49:59.510
, 67.94, 80.53, 153.35, 140.43, 99.79, 71.84, 90.92, 86.57, 0.318, 0.462, 0.818,0.0,0.0,0.0,0.0,0.0, 21:49:59.510
, 67.97, 80.56, 153.39, 140.36, 99.82, 71.77, 90.86, 86.52, 0.000, 0.000, 0.000,0.0,0.0,0.0,0.0,0.0, 21:49:59.510
, 68.04, 80.63, 153.45, 140.21, 99.89, 71.63, 90.86, 86.33, 0.000, 0.000, 0.000,5.6509173E-4,7.485414E-4,9.2010014E-4,0.0028945864,0.0036760275, 21:49:59.511
, 68.00, 80.59, 153.40, 140.27, 99.85, 71.70, 90.92, 86.39, 0.000, 0.000, 0.000,5.6509173E-4,7.485414E-4,9.2010014E-4,0.0028945864,0.0036760275, 21:49:59.511
, 67.94, 80.53, 153.34, 140.41, 99.78, 71.83, 90.92, 86.56, 0.000, 0.000, 0.000,5.6509173E-4,7.485414E-4,9.2010014E-4,0.0028945864,0.0036760275, 21:49:59.512
, 67.95, 80.54, 153.36, 140.40, 99.79, 71.80, 90.85, 86.56, 0.000, 0.000, 0.000,5.6509173E-4,7.485414E-4,9.2010014E-4,0.0028945864,0.0036760275, 21:49:59.512
, 68.02, 80.62, 153.43, 140.22, 99.86, 71.63, 90.83, 86.35, 0.000, 0.000, 0.000,5.6509173E-4,7.485414E-4,9.2010014E-4,0.0028945864,0.0036760275, 21:49:59.513
, 68.02, 80.61, 153.43, 140.24, 99.87, 71.67, 90.90, 86.36, 0.000, 0.000, 0.000,5.6509173E-4,7.485414E-4,9.2010014E-4,0.0028945864,0.0036760275, 21:49:59.513
, 67.95, 80.54, 153.35, 140.39, 99.80, 71.81, 90.93, 86.53, 0.000, 0.000, 0.000,5.6509173E-4,7.485414E-4,9.2010014E-4,0.0028945864,0.0036760275, 21:49:59.513
, 67.93, 80.52, 153.34, 140.42, 99.78, 71.82, 90.87, 86.58, 0.314, 0.462, 0.816,5.6509173E-4,7.485414E-4,9.2010014E-4,0.0028945864,0.0036760275, 21:49:59.514
, 68.02, 80.61, 153.43, 140.24, 99.86, 71.65, 90.82, 86.38, 0.000, 0.000, 0.000,5.6509173E-4,7.485414E-4,9.2010014E-4,0.0028945864,0.0036760275, 21:49:59.514
, 68.01, 80.60, 153.42, 140.23, 99.87, 71.65, 90.89, 86.35, 0.000, 0.000, 0.000,5.6509173E-4,7.485414E-4,9.2010014E-4,0.0028945864,0.0036760275, 21:49:59.514
, 67.95, 80.53, 153.35, 140.37, 99.80, 71.79, 90.91, 86.50, 0.000, 0.000, 0.000,5.6509173E-4,7.485414E-4,9.2010014E-4,0.0028945864,0.0036760275, 21:49:59.514
, 67.92, 80.50, 153.32, 140.44, 99.76, 71.83, 90.86, 86.60, 0.000, 0.000, 0.000,5.6509173E-4,7.485414E-4,9.2010014E-4,0.0028945864,0.0036760275, 21:49:59.515
, 68.01, 80.59, 153.41, 140.26, 99.84, 71.67, 90.81, 86.42, 0.000, 0.000, 0.000,5.6509173E-4,7.485414E-4,9.2010014E-4,0.0028945864,0.0036760275, 21:49:59.515
, 68.04, 80.62, 153.44, 140.20, 99.89, 71.63, 90.88, 86.33, 0.000, 0.000, 0.000,5.6509173E-4,7.485414E-4,9.2010014E-4,0.0028945864,0.0036760275, 21:49:59.516
, 67.99, 80.57, 153.39, 140.33, 99.84, 71.76, 90.92, 86.45, 0.000, 0.000, 0.000,5.6509173E-4,7.485414E-4,9.2010014E-4,0.0028945864,0.0036760275, 21:49:59.516
, 67.93, 80.51, 153.33, 140.44, 99.78, 71.84, 90.90, 86.59, 0.000, 0.000, 0.000,5.6509173E-4,7.485414E-4,9.2010014E-4,0.0028945864,0.0036760275, 21:49:59.516
, 67.99, 80.57, 153.39, 140.32, 99.82, 71.71, 90.83, 86.46, 0.000, 0.000, 0.000,5.6509173E-4,7.485414E-4,9.2010014E-4,0.0028945864,0.0036760275, 21:49:59.517
, 68.03, 80.60, 153.43, 140.22, 99.87, 71.63, 90.86, 86.34, 0.318, 0.462, 0.812,5.6509173E-4,7.485414E-4,9.2010014E-4,0.0028945864,0.0036760275, 21:49:59.525
, 67.99, 80.57, 153.39, 140.31, 99.84, 71.73, 90.91, 86.43, 0.000, 0.000, 0.000,5.6509173E-4,7.485414E-4,9.2010014E-4,0.0028945864,0.0036760275, 21:49:59.525
, 67.94, 80.51, 153.34, 140.43, 99.78, 71.84, 90.90, 86.58, 0.000, 0.000, 0.000,5.6509173E-4,7.485414E-4,9.2010014E-4,0.0028945864,0.0036760275, 21:49:59.526
, 67.99, 80.56, 153.38, 140.34, 99.81, 71.74, 90.83, 86.50, 0.000, 0.000, 0.000,5.6509173E-4,7.485414E-4,9.2010014E-4,0.0028945864,0.0036760275, 21:49:59.526
, 68.06, 80.63, 153.45, 140.21, 99.89, 71.62, 90.86, 86.33, 0.000, 0.000, 0.000,5.6509173E-4,7.485414E-4,9.2010014E-4,0.0028945864,0.0036760275, 21:49:59.526
, 68.01, 80.58, 153.41, 140.29, 99.85, 71.71, 90.92, 86.41, 0.000, 0.000, 0.000,5.6509173E-4,7.485414E-4,9.2010014E-4,0.0028945864,0.0036760275, 21:49:59.527
, 67.94, 80.51, 153.34, 140.44, 99.79, 71.84, 90.92, 86.58, 0.000, 0.000, 0.000,5.6509173E-4,7.485414E-4,9.2010014E-4,0.0028945864,0.0036760275, 21:49:59.527
, 67.98, 80.55, 153.39, 140.38, 99.81, 71.77, 90.86, 86.53, 0.000, 0.000, 0.000,5.6509173E-4,7.485414E-4,9.2010014E-4,0.0028945864,0.0036760275, 21:49:59.528
, 68.05, 80.62, 153.45, 140.22, 99.88, 71.63, 90.85, 86.35, 0.000, 0.000, 0.000,5.6509173E-4,7.485414E-4,9.2010014E-4,0.0028945864,0.0036760275, 21:49:59.528
, 68.02, 80.59, 153.42, 140.27, 99.87, 71.69, 90.92, 86.39, 0.322, 0.460, 0.808,5.6509173E-4,7.485414E-4,9.2010014E-4,0.0028945864,0.0036760275, 21:49:59.528
, 67.94, 80.51, 153.34, 140.43, 99.80, 71.83, 90.94, 86.56, 0.000, 0.000, 0.000,5.6509173E-4,7.485414E-4,9.2010014E-4,0.0028945864,0.0036760275, 21:49:59.529
, 67.94, 80.51, 153.35, 140.43, 99.79, 71.82, 90.87, 86.58, 0.000, 0.000, 0.000,5.6509173E-4,7.485414E-4,9.2010014E-4,0.0028945864,0.0036760275, 21:49:59.529
, 68.04, 80.61, 153.45, 140.24, 99.88, 71.65, 90.84, 86.37, 0.000, 0.000, 0.000,5.6509173E-4,7.485414E-4,9.2010014E-4,0.0028945864,0.0036760275, 21:49:59.529
, 68.03, 80.59, 153.42, 140.25, 99.87, 71.68, 90.91, 86.37, 0.000, 0.000, 0.000,5.6509173E-4,7.485414E-4,9.2010014E-4,0.0028945864,0.0036760275, 21:49:59.530
, 67.95, 80.52, 153.35, 140.41, 99.80, 71.82, 90.92, 86.54, 0.000, 0.000, 0.000,5.6509173E-4,7.485414E-4,9.2010014E-4,0.0028945864,0.0036760275, 21:49:59.530
, 67.95, 80.51, 153.34, 140.44, 99.78, 71.84, 90.87, 86.60, 0.000, 0.000, 0.000,5.6509173E-4,7.485414E-4,9.2010014E-4,0.0028945864,0.0036760275, 21:49:59.531
, 68.03, 80.59, 153.42, 140.27, 99.85, 71.67, 90.82, 86.41, 0.000, 0.000, 0.000,5.6509173E-4,7.485414E-4,9.2010014E-4,0.0028945864,0.0036760275, 21:49:59.531
, 68.05, 80.61, 153.44, 140.23, 99.88, 71.66, 90.89, 86.35, 0.000, 0.000, 0.000,5.6509173E-4,7.485414E-4,9.2010014E-4,0.0028945864,0.0036760275, 21:49:59.531
, 67.99, 80.55, 153.38, 140.37, 99.83, 71.79, 90.93, 86.50, 0.000, 0.000, 0.000,5.6509173E-4,7.485414E-4,9.2010014E-4,0.0028945864,0.0036760275, 21:49:59.532
, 67.96, 80.52, 153.34, 140.46, 99.79, 71.85, 90.89, 86.60, 0.324, 0.458, 0.808,5.6509173E-4,7.485414E-4,9.2010014E-4,0.0028945864,0.0036760275, 21:49:59.532
, 68.02, 80.58, 153.40, 140.31, 99.84, 71.69, 90.82, 86.44, 0.000, 0.000, 0.000,5.6509173E-4,7.485414E-4,9.2010014E-4,0.0028945864,0.0036760275, 21:49:59.532
, 68.05, 80.61, 153.43, 140.23, 99.88, 71.64, 90.87, 86.34, 0.000, 0.000, 0.000,5.6509173E-4,7.485414E-4,9.2010014E-4,0.0028945864,0.0036760275, 21:49:59.533
, 67.99, 80.55, 153.37, 140.35, 99.82, 71.76, 90.91, 86.47, 0.000, 0.000, 0.000,5.6509173E-4,7.485414E-4,9.2010014E-4,0.0028945864,0.0036760275, 21:49:59.533
, 67.95, 80.51, 153.34, 140.45, 99.78, 71.85, 90.88, 86.60, 0.000, 0.000, 0.000,5.6509173E-4,7.485414E-4,9.2010014E-4,0.0028945864,0.0036760275, 21:49:59.533
, 68.01, 80.56, 153.40, 140.33, 99.83, 71.72, 90.82, 86.47, 0.000, 0.000, 0.000,5.6509173E-4,7.485414E-4,9.2010014E-4,0.0028945864,0.0036760275, 21:49:59.534
, 68.07, 80.62, 153.46, 140.21, 99.89, 71.62, 90.85, 86.33, 0.000, 0.000, 0.000,5.6509173E-4,7.485414E-4,9.2010014E-4,0.0028945864,0.0036760275, 21:49:59.534
, 68.02, 80.57, 153.41, 140.31, 99.85, 71.72, 90.91, 86.42, 0.000, 0.000, 0.000,5.6509173E-4,7.485414E-4,9.2010014E-4,0.0028945864,0.0036760275, 21:49:59.534
, 67.95, 80.50, 153.33, 140.45, 99.78, 71.84, 90.90, 86.58, 0.000, 0.000, 0.000,5.6509173E-4,7.485414E-4,9.2010014E-4,0.0028945864,0.0036760275, 21:49:59.535
, 68.00, 80.54, 153.39, 140.36, 99.81, 71.75, 90.83, 86.51, 0.000, 0.000, 0.000,5.6509173E-4,7.485414E-4,9.2010014E-4,0.0028945864,0.0036760275, 21:49:59.535
, 68.06, 80.61, 153.45, 140.20, 99.89, 71.62, 90.85, 86.33, 0.326, 0.452, 0.808,5.6509173E-4,7.485414E-4,9.2010014E-4,0.0028945864,0.0036760275, 21:49:59.536
, 68.02, 80.57, 153.40, 140.27, 99.86, 71.70, 90.91, 86.39, 0.000, 0.000, 0.000,5.6509173E-4,7.485414E-4,9.2010014E-4,0.0028945864,0.0036760275, 21:49:59.536
, 67.96, 80.50, 153.33, 140.41, 99.79, 71.83, 90.90, 86.55, 0.000, 0.000, 0.000,5.6509173E-4,7.485414E-4,9.2010014E-4,0.0028945864,0.0036760275, 21:49:59.536
, 67.98, 80.52, 153.36, 140.37, 99.80, 71.78, 90.84, 86.53, 0.000, 0.000, 0.000,5.6509173E-4,7.485414E-4,9.2010014E-4,0.0028945864,0.0036760275, 21:49:59.537
, 68.06, 80.61, 153.44, 140.21, 99.88, 71.63, 90.83, 86.34, 0.000, 0.000, 0.000,5.6509173E-4,7.485414E-4,9.2010014E-4,0.0028945864,0.0036760275, 21:49:59.537
, 68.04, 80.59, 153.42, 140.25, 99.87, 71.68, 90.89, 86.37, 0.000, 0.000, 0.000,5.6509173E-4,7.485414E-4,9.2010014E-4,0.0028945864,0.0036760275, 21:49:59.538
, 67.98, 80.52, 153.35, 140.40, 99.80, 71.82, 90.91, 86.54, 0.000, 0.000, 0.000,5.6509173E-4,7.485414E-4,9.2010014E-4,0.0028945864,0.0036760275, 21:49:59.538
, 67.98, 80.52, 153.35, 140.41, 99.79, 71.81, 90.85, 86.57, 0.000, 0.000, 0.000,5.6509173E-4,7.485414E-4,9.2010014E-4,0.0028945864,0.0036760275, 21:49:59.539
, 68.05, 80.59, 153.43, 140.24, 99.86, 71.65, 90.82, 86.38, 0.000, 0.000, 0.000,5.6509173E-4,7.485414E-4,9.2010014E-4,0.0028945864,0.0036760275, 21:49:59.539
, 68.05, 80.59, 153.43, 140.24, 99.88, 71.66, 90.88, 86.37, 0.322, 0.452, 0.816,5.6509173E-4,7.485414E-4,9.2010014E-4,0.0028945864,0.0036760275, 21:49:59.539
, 67.99, 80.53, 153.36, 140.39, 99.82, 71.80, 90.91, 86.52, 0.000, 0.000, 0.000,5.6509173E-4,7.485414E-4,9.2010014E-4,0.0028945864,0.0036760275, 21:49:59.540
, 67.96, 80.49, 153.33, 140.45, 99.77, 71.84, 90.87, 86.61, 0.000, 0.000, 0.000,5.6509173E-4,7.485414E-4,9.2010014E-4,0.0028945864,0.0036760275, 21:49:59.540
, 68.04, 80.58, 153.41, 140.27, 99.85, 71.67, 90.81, 86.43, 0.000, 0.000, 0.000,5.6509173E-4,7.485414E-4,9.2010014E-4,0.0028945864,0.0036760275, 21:49:59.540
, 68.07, 80.60, 153.42, 140.22, 99.88, 71.64, 90.87, 86.36, 0.000, 0.000, 0.000,5.6509173E-4,7.485414E-4,9.2010014E-4,0.0028945864,0.0036760275, 21:49:59.541
, 67.99, 80.52, 153.34, 140.36, 99.81, 71.78, 90.91, 86.51, 0.000, 0.000, 0.000,5.6509173E-4,7.485414E-4,9.2010014E-4,0.0028945864,0.0036760275, 21:49:59.541
, 67.95, 80.48, 153.31, 140.44, 99.76, 71.84, 90.87, 86.64, 0.000, 0.000, 0.000,5.6509173E-4,7.485414E-4,9.2010014E-4,0.0028945864,0.0036760275, 21:49:59.541
, 68.03, 80.56, 153.39, 140.28, 99.83, 71.69, 90.81, 86.47, 0.000, 0.000, 0.000,5.6509173E-4,7.485414E-4,9.2010014E-4,0.0028945864,0.0036760275, 21:49:59.542
, 68.06, 80.59, 153.42, 140.20, 99.87, 71.63, 90.86, 86.37, 0.000, 0.000, 0.000,5.6509173E-4,7.485414E-4,9.2010014E-4,0.0028945864,0.0036760275, 21:49:59.542
, 68.00, 80.53, 153.36, 140.32, 99.82, 71.75, 90.90, 86.48, 0.000, 0.000, 0.000,5.6509173E-4,7.485414E-4,9.2010014E-4,0.0028945864,0.0036760275, 21:49:59.542
, 67.95, 80.48, 153.32, 140.44, 99.76, 71.84, 90.87, 86.62, 0.320, 0.460, 0.818,5.6509173E-4,7.485414E-4,9.2010014E-4,0.0028945864,0.0036760275, 21:49:59.543
, 68.01, 80.54, 153.38, 140.32, 99.81, 71.72, 90.81, 86.50, 0.000, 0.000, 0.000,5.6509173E-4,7.485414E-4,9.2010014E-4,0.0028945864,0.0036760275, 21:49:59.543
, 68.06, 80.58, 153.43, 140.21, 99.88, 71.63, 90.84, 86.36, 0.000, 0.000, 0.000,5.6509173E-4,7.485414E-4,9.2010014E-4,0.0028945864,0.0036760275, 21:49:59.543
, 68.02, 80.54, 153.39, 140.30, 99.85, 71.72, 90.90, 86.45, 0.000, 0.000, 0.000,5.6509173E-4,7.485414E-4,9.2010014E-4,0.0028945864,0.0036760275, 21:49:59.544
, 67.96, 80.47, 153.32, 140.44, 99.79, 71.85, 90.90, 86.61, 0.000, 0.000, 0.000,5.6509173E-4,7.485414E-4,9.2010014E-4,0.0028945864,0.0036760275, 21:49:59.545
, 67.99, 80.50, 153.36, 140.37, 99.80, 71.76, 90.83, 86.55, 0.000, 0.000, 0.000,5.6509173E-4,7.485414E-4,9.2010014E-4,0.0028945864,0.0036760275, 21:49:59.545
, 68.07, 80.58, 153.43, 140.20, 99.88, 71.63, 90.83, 86.36, 0.000, 0.000, 0.000,0.0034751308,0.0048780274,0.00606844,0.016878054,0.01835217, 21:49:59.545
, 68.05, 80.56, 153.40, 140.26, 99.87, 71.70, 90.90, 86.40, 0.000, 0.000, 0.000,0.0034751308,0.0048780274,0.00606844,0.016878054,0.01835217, 21:49:59.546
, 67.97, 80.48, 153.32, 140.41, 99.78, 71.83, 90.90, 86.58, 0.000, 0.000, 0.000,0.0,0.0,0.0,0.0,0.0, 21:49:59.972
, 67.97, 80.49, 153.33, 140.38, 99.78, 71.79, 90.84, 86.57, 0.314, 0.458, 0.820,0.0,0.0,0.0,0.0,0.0, 21:49:59.972
, 68.05, 80.57, 153.41, 140.21, 99.86, 71.63, 90.83, 86.38, 0.000, 0.000, 0.000,0.0,0.0,0.0,0.0,0.0, 21:49:59.973
, 68.04, 80.57, 153.40, 140.23, 99.86, 71.67, 90.90, 86.39, 0.000, 0.000, 0.000,0.0,0.0,0.0,0.0,0.0, 21:49:59.973
, 67.98, 80.50, 153.34, 140.38, 99.80, 71.80, 90.90, 86.55, 0.000, 0.000, 0.000,0.0,0.0,0.0,0.0,0.0, 21:49:59.974
, 67.99, 80.50, 153.35, 140.40, 99.79, 71.80, 90.85, 86.58, 0.000, 0.000, 0.000,0.0,0.0,0.0,0.0,0.0, 21:49:59.974
, 68.06, 80.57, 153.42, 140.24, 99.86, 71.64, 90.82, 86.40, 0.000, 0.000, 0.000,0.0,0.0,0.0,0.0,0.0, 21:49:59.975
, 68.06, 80.57, 153.42, 140.24, 99.87, 71.65, 90.88, 86.37, 0.000, 0.000, 0.000,0.0,0.0,0.0,0.0,0.0, 21:49:59.975
, 68.00, 80.50, 153.35, 140.38, 99.81, 71.78, 90.91, 86.53, 0.000, 0.000, 0.000,0.0,0.0,0.0,0.0,0.0, 21:49:59.975
, 67.98, 80.48, 153.34, 140.45, 99.79, 71.83, 90.87, 86.62, 0.000, 0.000, 0.000,0.0,0.0,0.0,0.0,0.0, 21:49:59.976
, 68.05, 80.55, 153.42, 140.29, 99.86, 71.67, 90.82, 86.44, 0.000, 0.000, 0.000,0.0,0.0,0.0,0.0,0.0, 21:49:59.976
, 68.07, 80.57, 153.43, 140.24, 99.88, 71.64, 90.87, 86.37, 0.314, 0.460, 0.820,0.0,0.0,0.0,0.0,0.0, 21:49:59.977
, 68.03, 80.53, 153.37, 140.35, 99.83, 71.76, 90.91, 86.49, 0.000, 0.000, 0.000,0.0,0.0,0.0,0.0,0.0, 21:49:59.977
, 67.98, 80.47, 153.32, 140.45, 99.77, 71.84, 90.88, 86.62, 0.000, 0.000, 0.000,0.0,0.0,0.0,0.0,0.0, 21:49:59.977
, 68.05, 80.55, 153.41, 140.30, 99.84, 71.70, 90.81, 86.47, 0.000, 0.000, 0.000,0.0,0.0,0.0,0.0,0.0, 21:49:59.978
, 68.09, 80.59, 153.45, 140.20, 99.90, 71.63, 90.87, 86.34, 0.000, 0.000, 0.000,0.0,0.0,0.0,0.0,0.0, 21:49:59.978
, 68.02, 80.53, 153.37, 140.32, 99.83, 71.74, 90.92, 86.46, 0.000, 0.000, 0.000,0.0,0.0,0.0,0.0,0.0, 21:49:59.978
, 67.96, 80.46, 153.31, 140.45, 99.76, 71.85, 90.89, 86.62, 0.000, 0.000, 0.000,0.0,0.0,0.0,0.0,0.0, 21:49:59.979
, 68.01, 80.51, 153.36, 140.34, 99.80, 71.73, 90.81, 86.52, 0.000, 0.000, 0.000,0.0,0.0,0.0,0.0,0.0, 21:49:59.979
, 68.08, 80.58, 153.43, 140.20, 99.88, 71.62, 90.84, 86.35, 0.000, 0.000, 0.000,0.0,0.0,0.0,0.0,0.0, 21:49:59.979
, 68.05, 80.55, 153.40, 140.28, 99.85, 71.71, 90.90, 86.42, 0.314, 0.454, 0.818,0.0,0.0,0.0,0.0,0.0, 21:49:59.980
, 68.00, 80.50, 153.34, 140.41, 99.80, 71.82, 90.91, 86.57, 0.000, 0.000, 0.000,0.0,0.0,0.0,0.0,0.0, 21:49:59.980
, 68.01, 80.51, 153.37, 140.36, 99.81, 71.76, 90.84, 86.52, 0.000, 0.000, 0.000,0.0,0.0,0.0,0.0,0.0, 21:49:59.980
, 68.08, 80.58, 153.43, 140.21, 99.88, 71.62, 90.84, 86.34, 0.000, 0.000, 0.000,0.0,0.0,0.0,0.0,0.0, 21:49:59.980
, 68.05, 80.55, 153.40, 140.26, 99.87, 71.68, 90.91, 86.38, 0.000, 0.000, 0.000,0.0,0.0,0.0,0.0,0.0, 21:49:59.981
, 67.97, 80.46, 153.32, 140.42, 99.79, 71.82, 90.91, 86.57, 0.000, 0.000, 0.000,0.0,0.0,0.0,0.0,0.0, 21:49:59.981
, 67.98, 80.47, 153.34, 140.40, 99.79, 71.79, 90.84, 86.57, 0.000, 0.000, 0.000,0.0,0.0,0.0,0.0,0.0, 21:49:59.981
, 68.06, 80.55, 153.42, 140.23, 99.88, 71.64, 90.84, 86.38, 0.000, 0.000, 0.000,0.0,0.0,0.0,0.0,0.0, 21:49:59.981
, 68.05, 80.54, 153.41, 140.25, 99.88, 71.67, 90.90, 86.38, 0.000, 0.000, 0.000,0.0,0.0,0.0,0.0,0.0, 21:49:59.982
, 67.98, 80.47, 153.34, 140.39, 99.81, 71.81, 90.92, 86.54, 0.000, 0.000, 0.000,0.0,0.0,0.0,0.0,0.0, 21:49:59.982
, 67.97, 80.45, 153.33, 140.43, 99.79, 71.83, 90.87, 86.60, 0.312, 0.454, 0.820,0.0,0.0,0.0,0.0,0.0, 21:49:59.982
, 68.06, 80.54, 153.42, 140.24, 99.88, 71.65, 90.83, 86.40, 0.000, 0.000, 0.000,0.0,0.0,0.0,0.0,0.0, 21:49:59.983
, 68.07, 80.55, 153.42, 140.22, 99.90, 71.65, 90.90, 86.36, 0.000, 0.000, 0.000,0.0,0.0,0.0,0.0,0.0, 21:49:59.983
, 68.00, 80.49, 153.35, 140.36, 99.83, 71.78, 90.94, 86.50, 0.000, 0.000, 0.000,0.0,0.0,0.0,0.0,0.0, 21:49:59.983
, 67.96, 80.44, 153.32, 140.44, 99.79, 71.84, 90.90, 86.61, 0.000, 0.000, 0.000,0.0,0.0,0.0,0.0,0.0, 21:49:59.984
, 68.03, 80.51, 153.39, 140.28, 99.85, 71.68, 90.82, 86.45, 0.000, 0.000, 0.000,0.0,0.0,0.0,0.0,0.0, 21:49:59.984
, 68.06, 80.54, 153.42, 140.22, 99.89, 71.63, 90.88, 86.36, 0.000, 0.000, 0.000,0.0,0.0,0.0,0.0,0.0, 21:49:59.984
, 68.01, 80.49, 153.37, 140.34, 99.84, 71.76, 90.93, 86.49, 0.000, 0.000, 0.000,0.0,0.0,0.0,0.0,0.0, 21:49:59.984
, 67.96, 80.44, 153.33, 140.45, 99.80, 71.85, 90.91, 86.63, 0.000, 0.000, 0.000,0.0,0.0,0.0,0.0,0.0, 21:49:59.985
, 68.03, 80.50, 153.40, 140.32, 99.85, 71.71, 90.84, 86.49, 0.000, 0.000, 0.000,0.0,0.0,0.0,0.0,0.0, 21:49:59.985
, 68.08, 80.55, 153.44, 140.22, 99.90, 71.62, 90.88, 86.36, 0.320, 0.452, 0.814,0.0,0.0,0.0,0.0,0.0, 21:49:59.985
, 68.03, 80.50, 153.39, 140.32, 99.86, 71.73, 90.93, 86.46, 0.000, 0.000, 0.000,0.0,0.0,0.0,0.0,0.0, 21:49:59.985
, 67.99, 80.46, 153.35, 140.45, 99.82, 71.84, 90.92, 86.61, 0.000, 0.000, 0.000,0.0,0.0,0.0,0.0,0.0, 21:49:59.985
, 68.03, 80.49, 153.38, 140.36, 99.84, 71.74, 90.86, 86.53, 0.000, 0.000, 0.000,0.0,0.0,0.0,0.0,0.0, 21:49:59.986
, 68.09, 80.56, 153.45, 140.22, 99.92, 71.62, 90.87, 86.36, 0.000, 0.000, 0.000,0.0,0.0,0.0,0.0,0.0, 21:49:59.986
, 68.05, 80.51, 153.40, 140.30, 99.88, 71.71, 90.94, 86.43, 0.000, 0.000, 0.000,0.0,0.0,0.0,0.0,0.0, 21:49:59.986
, 67.97, 80.44, 153.32, 140.45, 99.80, 71.84, 90.93, 86.60, 0.000, 0.000, 0.000,0.0,0.0,0.0,0.0,0.0, 21:49:59.986
, 68.00, 80.47, 153.35, 140.39, 99.82, 71.77, 90.86, 86.56, 0.000, 0.000, 0.000,0.0,0.0,0.0,0.0,0.0, 21:49:59.986
, 68.07, 80.53, 153.42, 140.22, 99.90, 71.63, 90.86, 86.37, 0.000, 0.000, 0.000,0.0,0.0,0.0,0.0,0.0, 21:49:59.987
, 68.05, 80.51, 153.39, 140.26, 99.88, 71.68, 90.92, 86.40, 0.322, 0.456, 0.812,0.0,0.0,0.0,0.0,0.0, 21:49:59.987
, 67.97, 80.43, 153.32, 140.41, 99.81, 71.82, 90.94, 86.57, 0.000, 0.000, 0.000,0.0,0.0,0.0,0.0,0.0, 21:49:59.987
, 67.98, 80.44, 153.34, 140.40, 99.82, 71.80, 90.88, 86.59, 0.000, 0.000, 0.000,0.0,0.0,0.0,0.0,0.0, 21:49:59.987
, 68.07, 80.53, 153.42, 140.23, 99.90, 71.65, 90.86, 86.40, 0.000, 0.000, 0.000,0.0,0.0,0.0,0.0,0.0, 21:49:59.987
, 68.07, 80.53, 153.42, 140.23, 99.91, 71.66, 90.92, 86.38, 0.000, 0.000, 0.000,0.0,0.0,0.0,0.0,0.0, 21:49:59.988
, 68.00, 80.47, 153.35, 140.38, 99.85, 71.80, 90.95, 86.54, 0.000, 0.000, 0.000,0.0,0.0,0.0,0.0,0.0, 21:49:59.988
, 67.98, 80.44, 153.32, 140.44, 99.81, 71.83, 90.91, 86.62, 0.000, 0.000, 0.000,0.0,0.0,0.0,0.0,0.0, 21:49:59.988
, 68.08, 80.54, 153.43, 140.25, 99.90, 71.65, 90.86, 86.42, 0.000, 0.000, 0.000,0.0,0.0,0.0,0.0,0.0, 21:49:59.988
, 68.08, 80.54, 153.43, 140.23, 99.92, 71.64, 90.92, 86.37, 0.000, 0.000, 0.000,0.0,0.0,0.0,0.0,0.0, 21:49:59.988
, 68.00, 80.46, 153.35, 140.37, 99.84, 71.78, 90.94, 86.52, 0.000, 0.000, 0.000,0.0,0.0,0.0,0.0,0.0, 21:49:59.989
, 67.98, 80.43, 153.32, 140.45, 99.80, 71.84, 90.90, 86.63, 0.322, 0.454, 0.808,0.0,0.0,0.0,0.0,0.0, 21:49:59.989
, 68.07, 80.52, 153.41, 140.29, 99.88, 71.68, 90.84, 86.46, 0.000, 0.000, 0.000,0.0,0.0,0.0,0.0,0.0, 21:49:59.989
, 68.09, 80.54, 153.43, 140.22, 99.92, 71.63, 90.91, 86.36, 0.000, 0.000, 0.000,0.0,0.0,0.0,0.0,0.0, 21:49:59.989
, 68.03, 80.48, 153.36, 140.34, 99.86, 71.75, 90.95, 86.50, 0.000, 0.000, 0.000,0.0,0.0,0.0,0.0,0.0, 21:49:59.989
, 67.98, 80.43, 153.31, 140.45, 99.81, 71.84, 90.93, 86.63, 0.000, 0.000, 0.000,0.0,0.0,0.0,0.0,0.0, 21:49:59.990
, 68.04, 80.49, 153.38, 140.32, 99.85, 71.71, 90.85, 86.51, 0.000, 0.000, 0.000,0.0,0.0,0.0,0.0,0.0, 21:49:59.990
, 68.09, 80.54, 153.43, 140.21, 99.91, 71.62, 90.89, 86.36, 0.000, 0.000, 0.000,0.0,0.0,0.0,0.0,0.0, 21:49:59.990
, 68.04, 80.49, 153.37, 140.31, 99.87, 71.72, 90.94, 86.46, 0.000, 0.000, 0.000,0.0,0.0,0.0,0.0,0.0, 21:49:59.991
, 67.99, 80.43, 153.32, 140.44, 99.81, 71.84, 90.93, 86.61, 0.000, 0.000, 0.000,0.0,0.0,0.0,0.0,0.0, 21:49:59.991
, 68.02, 80.47, 153.36, 140.37, 99.83, 71.76, 90.86, 86.55, 0.326, 0.460, 0.818,0.0,0.0,0.0,0.0,0.0, 21:49:59.991
, 68.09, 80.53, 153.43, 140.22, 99.90, 71.63, 90.87, 86.38, 0.000, 0.000, 0.000,0.0,0.0,0.0,0.0,0.0, 21:49:59.992
, 68.06, 80.50, 153.40, 140.29, 99.88, 71.71, 90.94, 86.43, 0.000, 0.000, 0.000,0.0,0.0,0.0,0.0,0.0, 21:49:59.992
, 67.99, 80.43, 153.33, 140.44, 99.82, 71.84, 90.94, 86.60, 0.000, 0.000, 0.000,0.0,0.0,0.0,0.0,0.0, 21:49:59.992
, 68.02, 80.46, 153.36, 140.40, 99.83, 71.79, 90.88, 86.58, 0.000, 0.000, 0.000,0.0,0.0,0.0,0.0,0.0, 21:49:59.992
, 68.10, 80.53, 153.43, 140.23, 99.90, 71.64, 90.88, 86.39, 0.000, 0.000, 0.000,0.0,0.0,0.0,0.0,0.0, 21:49:59.992
, 68.07, 80.51, 153.40, 140.27, 99.89, 71.69, 90.94, 86.42, 0.000, 0.000, 0.000,0.0,0.0,0.0,0.0,0.0, 21:49:59.993
, 68.00, 80.43, 153.33, 140.42, 99.82, 71.83, 90.95, 86.59, 0.000, 0.000, 0.000,0.0,0.0,0.0,0.0,0.0, 21:49:59.993
, 68.01, 80.44, 153.34, 140.43, 99.82, 71.82, 90.88, 86.61, 0.000, 0.000, 0.000,0.0,0.0,0.0,0.0,0.0, 21:49:59.993
, 68.10, 80.53, 153.43, 140.24, 99.91, 71.65, 90.85, 86.40, 0.000, 0.000, 0.000,0.0,0.0,0.0,0.0,0.0, 21:49:59.993
, 68.09, 80.52, 153.42, 140.24, 99.91, 71.67, 90.93, 86.38, 0.324, 0.456, 0.820,0.0,0.0,0.0,0.0,0.0, 21:49:59.993
, 68.02, 80.46, 153.36, 140.39, 99.85, 71.80, 90.95, 86.54, 0.000, 0.000, 0.000,0.0,0.0,0.0,0.0,0.0, 21:49:59.994
, 67.99, 80.42, 153.33, 140.45, 99.81, 71.84, 90.90, 86.63, 0.000, 0.000, 0.000,0.0,0.0,0.0,0.0,0.0, 21:49:59.994
, 68.07, 80.50, 153.41, 140.28, 99.88, 71.68, 90.85, 86.44, 0.000, 0.000, 0.000,0.0,0.0,0.0,0.0,0.0, 21:49:59.994
, 68.09, 80.52, 153.42, 140.23, 99.91, 71.65, 90.92, 86.38, 0.000, 0.000, 0.000,0.0,0.0,0.0,0.0,0.0, 21:49:59.994
, 68.02, 80.45, 153.35, 140.37, 99.85, 71.78, 90.96, 86.53, 0.000, 0.000, 0.000,0.0,0.0,0.0,0.0,0.0, 21:49:59.995
, 68.00, 80.43, 153.33, 140.45, 99.82, 71.84, 90.92, 86.63, 0.000, 0.000, 0.000,0.0,0.0,0.0,0.0,0.0, 21:49:59.995
, 68.08, 80.51, 153.41, 140.29, 99.89, 71.70, 90.86, 86.46, 0.000, 0.000, 0.000,0.0,0.0,0.0,0.0,0.0, 21:49:59.995
, 68.10, 80.53, 153.44, 140.22, 99.92, 71.63, 90.90, 86.36, 0.000, 0.000, 0.000,0.0,0.0,0.0,0.0,0.0, 21:49:59.995
, 68.04, 80.47, 153.37, 140.34, 99.87, 71.75, 90.94, 86.48, 0.320, 0.454, 0.816,0.0,0.0,0.0,0.0,0.0, 21:49:59.995
, 67.99, 80.41, 153.32, 140.46, 99.81, 71.85, 90.93, 86.63, 0.000, 0.000, 0.000,0.0,0.0,0.0,0.0,0.0, 21:49:59.995
, 68.05, 80.47, 153.38, 140.34, 99.85, 71.73, 90.86, 86.52, 0.000, 0.000, 0.000,0.0,0.0,0.0,0.0,0.0, 21:49:59.996
, 68.10, 80.53, 153.43, 140.22, 99.92, 71.63, 90.89, 86.36, 0.000, 0.000, 0.000,0.0,0.0,0.0,0.0,0.0, 21:49:59.996
, 68.07, 80.50, 153.40, 140.30, 99.90, 71.72, 90.96, 86.44, 0.000, 0.000, 0.000,0.0,0.0,0.0,0.0,0.0, 21:49:59.996
, 68.01, 80.43, 153.33, 140.44, 99.83, 71.85, 90.95, 86.60, 0.000, 0.000, 0.000,0.0,0.0,0.0,0.0,0.0, 21:49:59.997
, 68.03, 80.45, 153.35, 140.38, 99.84, 71.77, 90.88, 86.56, 0.000, 0.000, 0.000,0.0,0.0,0.0,0.0,0.0, 21:49:59.997
, 68.10, 80.52, 153.42, 140.22, 99.92, 71.64, 90.88, 86.38, 0.000, 0.000, 0.000,0.0,0.0,0.0,0.0,0.0, 21:49:59.997
, 68.07, 80.49, 153.38, 140.29, 99.89, 71.71, 90.94, 86.43, 0.000, 0.000, 0.000,0.0,0.0,0.0,0.0,0.0, 21:49:59.997
, 68.01, 80.42, 153.32, 140.43, 99.83, 71.84, 90.94, 86.59, 0.000, 0.000, 0.000,0.0,0.0,0.0,0.0,0.0, 21:49:59.997
, 68.03, 80.44, 153.34, 140.40, 99.83, 71.80, 90.88, 86.58, 0.312, 0.452, 0.818,0.0,0.0,0.0,0.0,0.0, 21:49:59.997
, 68.10, 80.51, 153.41, 140.23, 99.90, 71.65, 90.86, 86.39, 0.000, 0.000, 0.000,0.0,0.0,0.0,0.0,0.0, 21:49:59.998
, 68.08, 80.49, 153.39, 140.26, 99.90, 71.69, 90.93, 86.41, 0.000, 0.000, 0.000,0.0,0.0,0.0,0.0,0.0, 21:49:59.998
, 68.02, 80.43, 153.33, 140.41, 99.84, 71.82, 90.95, 86.57, 0.000, 0.000, 0.000,0.0,0.0,0.0,0.0,0.0, 21:49:59.998
, 68.02, 80.43, 153.32, 140.43, 99.82, 71.83, 90.89, 86.62, 0.000, 0.000, 0.000,0.0,0.0,0.0,0.0,0.0, 21:49:59.998
, 68.11, 80.52, 153.42, 140.25, 99.91, 71.66, 90.86, 86.42, 0.000, 0.000, 0.000,0.0,0.0,0.0,0.0,0.0, 21:49:59.998
, 68.12, 80.52, 153.42, 140.24, 99.92, 71.67, 90.94, 86.39, 0.000, 0.000, 0.000,0.0,0.0,0.0,0.0,0.0, 21:49:59.999
, 68.04, 80.44, 153.34, 140.39, 99.85, 71.80, 90.96, 86.55, 0.000, 0.000, 0.000,0.0,0.0,0.0,0.0,0.0, 21:49:59.999
, 68.01, 80.41, 153.31, 140.46, 99.81, 71.85, 90.92, 86.65, 0.000, 0.000, 0.000,0.0,0.0,0.0,0.0,0.0, 21:49:59.999
, 68.10, 80.50, 153.40, 140.28, 99.89, 71.69, 90.87, 86.46, 0.000, 0.000, 0.000,0.0,0.0,0.0,0.0,0.0, 21:49:59.999
, 68.11, 80.51, 153.41, 140.24, 99.91, 71.66, 90.93, 86.40, 0.312, 0.450, 0.820,0.0,0.0,0.0,0.0,0.0, 21:49:59.999
, 68.05, 80.45, 153.35, 140.36, 99.86, 71.78, 90.96, 86.53, 0.000, 0.000, 0.000,0.0,0.0,0.0,0.0,0.0, 21:50:00.000
, 68.01, 80.41, 153.31, 140.45, 99.81, 71.86, 90.92, 86.66, 0.000, 0.000, 0.000,0.0,0.0,0.0,0.0,0.0, 21:50:00.000
, 68.08, 80.48, 153.38, 140.31, 99.86, 71.72, 90.85, 86.51, 0.000, 0.000, 0.000,0.0,0.0,0.0,0.0,0.0, 21:50:00.000
, 68.13, 80.52, 153.43, 140.22, 99.92, 71.64, 90.90, 86.39, 0.000, 0.000, 0.000,0.0,0.0,0.0,0.0,0.0, 21:50:00.001
, 68.08, 80.47, 153.38, 140.32, 99.88, 71.75, 90.95, 86.49, 0.000, 0.000, 0.000,0.0,0.0,0.0,0.0,0.0, 21:50:00.001
, 68.02, 80.41, 153.32, 140.46, 99.82, 71.86, 90.93, 86.64, 0.000, 0.000, 0.000,0.0,0.0,0.0,0.0,0.0, 21:50:00.001
, 68.08, 80.47, 153.37, 140.36, 99.86, 71.75, 90.86, 86.55, 0.000, 0.000, 0.000,0.0,0.0,0.0,0.0,0.0, 21:50:00.001
, 68.13, 80.52, 153.42, 140.23, 99.92, 71.64, 90.88, 86.39, 0.000, 0.000, 0.000,0.0,0.0,0.0,0.0,0.0, 21:50:00.002
, 68.10, 80.49, 153.39, 140.30, 99.89, 71.72, 90.93, 86.45, 0.318, 0.448, 0.812,0.0,0.0,0.0,0.0,0.0, 21:50:00.002
, 68.03, 80.42, 153.32, 140.45, 99.83, 71.85, 90.94, 86.62, 0.000, 0.000, 0.000,0.0,0.0,0.0,0.0,0.0, 21:50:00.002
, 68.06, 80.44, 153.35, 140.39, 99.84, 71.78, 90.87, 86.58, 0.000, 0.000, 0.000,0.0,0.0,0.0,0.0,0.0, 21:50:00.003
, 68.14, 80.52, 153.43, 140.23, 99.92, 71.64, 90.88, 86.39, 0.000, 0.000, 0.000,0.0,0.0,0.0,0.0,0.0, 21:50:00.003
, 68.12, 80.50, 153.41, 140.27, 99.91, 71.69, 90.95, 86.42, 0.000, 0.000, 0.000,0.0,0.0,0.0,0.0,0.0, 21:50:00.452
, 68.04, 80.42, 153.33, 140.43, 99.83, 71.83, 90.96, 86.60, 0.000, 0.000, 0.000,0.0,0.0,0.0,0.0,0.0, 21:50:00.452
, 68.04, 80.43, 153.33, 140.42, 99.83, 71.81, 90.89, 86.61, 0.000, 0.000, 0.000,0.0,0.0,0.0,0.0,0.0, 21:50:00.452
, 68.12, 80.50, 153.41, 140.25, 99.90, 71.65, 90.87, 86.42, 0.000, 0.000, 0.000,0.0,0.0,0.0,0.0,0.0, 21:50:00.452
, 68.13, 80.51, 153.42, 140.25, 99.92, 71.67, 90.93, 86.41, 0.000, 0.000, 0.000,0.0,0.0,0.0,0.0,0.0, 21:50:00.453
, 68.05, 80.43, 153.34, 140.41, 99.85, 71.81, 90.95, 86.57, 0.000, 0.000, 0.000,0.0,0.0,0.0,0.0,0.0, 21:50:00.453
, 68.03, 80.41, 153.32, 140.45, 99.81, 71.83, 90.90, 86.64, 0.324, 0.454, 0.814,0.0,0.0,0.0,0.0,0.0, 21:50:00.453
, 68.12, 80.49, 153.41, 140.27, 99.90, 71.66, 90.86, 86.45, 0.000, 0.000, 0.000,0.0,0.0,0.0,0.0,0.0, 21:50:00.453
, 68.13, 80.51, 153.42, 140.24, 99.93, 71.65, 90.92, 86.39, 0.000, 0.000, 0.000,0.0,0.0,0.0,0.0,0.0, 21:50:00.453
, 68.07, 80.44, 153.35, 140.38, 99.86, 71.79, 90.96, 86.54, 0.000, 0.000, 0.000,0.0,0.0,0.0,0.0,0.0, 21:50:00.454
, 68.03, 80.40, 153.32, 140.46, 99.82, 71.85, 90.92, 86.66, 0.000, 0.000, 0.000,0.0,0.0,0.0,0.0,0.0, 21:50:00.454
, 68.10, 80.47, 153.39, 140.30, 99.88, 71.69, 90.87, 86.50, 0.000, 0.000, 0.000,0.0,0.0,0.0,0.0,0.0, 21:50:00.454
, 68.14, 80.50, 153.42, 140.23, 99.92, 71.64, 90.92, 86.41, 0.000, 0.000, 0.000,0.0,0.0,0.0,0.0,0.0, 21:50:00.454
, 68.08, 80.44, 153.36, 140.36, 99.86, 71.77, 90.95, 86.53, 0.000, 0.000, 0.000,0.0,0.0,0.0,0.0,0.0, 21:50:00.454
, 68.04, 80.40, 153.32, 140.46, 99.82, 71.85, 90.92, 86.66, 0.000, 0.000, 0.000,0.0,0.0,0.0,0.0,0.0, 21:50:00.454
, 68.11, 80.47, 153.39, 140.32, 99.88, 71.71, 90.86, 86.52, 0.322, 0.456, 0.816,0.0,0.0,0.0,0.0,0.0, 21:50:00.455
, 68.16, 80.52, 153.43, 140.23, 99.93, 71.63, 90.90, 86.39, 0.000, 0.000, 0.000,0.0,0.0,0.0,0.0,0.0, 21:50:00.455
, 68.10, 80.46, 153.37, 140.33, 99.88, 71.74, 90.96, 86.50, 0.000, 0.000, 0.000,0.0,0.0,0.0,0.0,0.0, 21:50:00.455
, 68.04, 80.40, 153.32, 140.47, 99.82, 71.86, 90.94, 86.66, 0.000, 0.000, 0.000,0.0,0.0,0.0,0.0,0.0, 21:50:00.455
, 68.09, 80.45, 153.37, 140.37, 99.86, 71.75, 90.86, 86.57, 0.000, 0.000, 0.000,0.0,0.0,0.0,0.0,0.0, 21:50:00.455
, 68.17, 80.53, 153.45, 140.22, 99.95, 71.63, 90.89, 86.39, 0.000, 0.000, 0.000,0.0,0.0,0.0,0.0,0.0, 21:50:00.456
, 68.14, 80.50, 153.41, 140.30, 99.92, 71.71, 90.96, 86.45, 0.000, 0.000, 0.000,0.0,0.0,0.0,0.0,0.0, 21:50:00.456
, 68.07, 80.43, 153.35, 140.44, 99.86, 71.84, 90.97, 86.62, 0.000, 0.000, 0.000,0.0,0.0,0.0,0.0,0.0, 21:50:00.456
, 68.08, 80.44, 153.36, 140.41, 99.86, 71.79, 90.90, 86.60, 0.000, 0.000, 0.000,0.0,0.0,0.0,0.0,0.0, 21:50:00.456
, 68.16, 80.51, 153.44, 140.25, 99.93, 71.64, 90.89, 86.41, 0.000, 0.000, 0.000,0.0,0.0,0.0,0.0,0.0, 21:50:00.456
, 68.14, 80.50, 153.42, 140.28, 99.92, 71.69, 90.94, 86.44, 0.322, 0.450, 0.820,0.0,0.0,0.0,0.0,0.0, 21:50:00.456
, 68.08, 80.43, 153.35, 140.43, 99.86, 71.82, 90.95, 86.59, 0.000, 0.000, 0.000,0.0,0.0,0.0,0.0,0.0, 21:50:00.457
, 68.08, 80.43, 153.35, 140.44, 99.84, 71.81, 90.90, 86.62, 0.000, 0.000, 0.000,0.0,0.0,0.0,0.0,0.0, 21:50:00.457
, 68.16, 80.52, 153.43, 140.26, 99.92, 71.65, 90.87, 86.42, 0.000, 0.000, 0.000,0.0,0.0,0.0,0.0,0.0, 21:50:00.457
, 68.15, 80.50, 153.42, 140.28, 99.92, 71.67, 90.94, 86.42, 0.000, 0.000, 0.000,0.0,0.0,0.0,0.0,0.0, 21:50:00.458
, 68.07, 80.43, 153.34, 140.42, 99.85, 71.81, 90.95, 86.58, 0.000, 0.000, 0.000,0.0,0.0,0.0,0.0,0.0, 21:50:00.458
, 68.07, 80.43, 153.34, 140.45, 99.83, 71.83, 90.90, 86.64, 0.000, 0.000, 0.000,0.0,0.0,0.0,0.0,0.0, 21:50:00.458
, 68.16, 80.51, 153.43, 140.28, 99.91, 71.66, 90.86, 86.45, 0.000, 0.000, 0.000,0.0,0.0,0.0,0.0,0.0, 21:50:00.459
, 68.18, 80.53, 153.45, 140.24, 99.95, 71.65, 90.93, 86.38, 0.000, 0.000, 0.000,0.0,0.0,0.0,0.0,0.0, 21:50:00.459
, 68.10, 80.45, 153.36, 140.39, 99.87, 71.79, 90.97, 86.53, 0.000, 0.000, 0.000,0.0,0.0,0.0,0.0,0.0, 21:50:00.459
, 68.07, 80.41, 153.33, 140.47, 99.83, 71.85, 90.93, 86.65, 0.320, 0.456, 0.816,0.0,0.0,0.0,0.0,0.0, 21:50:00.460
, 68.15, 80.49, 153.41, 140.32, 99.89, 71.69, 90.87, 86.48, 0.000, 0.000, 0.000,0.0,0.0,0.0,0.0,0.0, 21:50:00.460
, 68.18, 80.52, 153.44, 140.24, 99.93, 71.64, 90.92, 86.39, 0.000, 0.000, 0.000,0.0,0.0,0.0,0.0,0.0, 21:50:00.460
, 68.12, 80.46, 153.38, 140.36, 99.88, 71.76, 90.96, 86.51, 0.000, 0.000, 0.000,0.0,0.0,0.0,0.0,0.0, 21:50:00.460
, 68.07, 80.41, 153.32, 140.47, 99.82, 71.85, 90.93, 86.65, 0.000, 0.000, 0.000,0.0,0.0,0.0,0.0,0.0, 21:50:00.461
, 68.12, 80.46, 153.38, 140.35, 99.87, 71.73, 90.86, 86.54, 0.000, 0.000, 0.000,0.0,0.0,0.0,0.0,0.0, 21:50:00.461
, 68.17, 80.51, 153.43, 140.23, 99.93, 71.64, 90.89, 86.40, 0.000, 0.000, 0.000,0.0,0.0,0.0,0.0,0.0, 21:50:00.461
, 68.13, 80.47, 153.40, 140.31, 99.90, 71.73, 90.96, 86.48, 0.000, 0.000, 0.000,0.0,0.0,0.0,0.0,0.0, 21:50:00.461
, 68.07, 80.41, 153.33, 140.46, 99.84, 71.85, 90.95, 86.64, 0.000, 0.000, 0.000,0.0,0.0,0.0,0.0,0.0, 21:50:00.462
, 68.12, 80.45, 153.39, 140.37, 99.87, 71.75, 90.88, 86.57, 0.312, 0.458, 0.814,0.0,0.0,0.0,0.0,0.0, 21:50:00.462
, 68.18, 80.52, 153.45, 140.23, 99.94, 71.63, 90.90, 86.39, 0.000, 0.000, 0.000,0.0,0.0,0.0,0.0,0.0, 21:50:00.462
, 68.15, 80.49, 153.41, 140.30, 99.91, 71.71, 90.96, 86.45, 0.000, 0.000, 0.000,0.0,0.0,0.0,0.0,0.0, 21:50:00.462
, 68.09, 80.42, 153.35, 140.45, 99.85, 71.84, 90.96, 86.61, 0.000, 0.000, 0.000,0.0,0.0,0.0,0.0,0.0, 21:50:00.462
, 68.10, 80.44, 153.36, 140.42, 99.86, 71.79, 90.90, 86.61, 0.000, 0.000, 0.000,0.0,0.0,0.0,0.0,0.0, 21:50:00.462
, 68.17, 80.51, 153.44, 140.26, 99.93, 71.64, 90.89, 86.42, 0.000, 0.000, 0.000,0.0,0.0,0.0,0.0,0.0, 21:50:00.462
, 68.16, 80.49, 153.41, 140.29, 99.92, 71.68, 90.96, 86.44, 0.000, 0.000, 0.000,0.0,0.0,0.0,0.0,0.0, 21:50:00.463
, 68.08, 80.41, 153.33, 140.44, 99.85, 71.82, 90.97, 86.62, 0.000, 0.000, 0.000,0.0,0.0,0.0,0.0,0.0, 21:50:00.463
, 68.07, 80.41, 153.34, 140.45, 99.83, 71.82, 90.91, 86.66, 0.000, 0.000, 0.000,0.0,0.0,0.0,0.0,0.0, 21:50:00.463
, 68.16, 80.49, 153.42, 140.26, 99.92, 71.64, 90.87, 86.45, 0.000, 0.000, 0.000,0.0,0.0,0.0,0.0,0.0, 21:50:00.463
, 68.16, 80.49, 153.42, 140.25, 99.93, 71.65, 90.93, 86.42, 0.310, 0.456, 0.816,0.0,0.0,0.0,0.0,0.0, 21:50:00.464
, 68.09, 80.42, 153.34, 140.40, 99.86, 71.79, 90.95, 86.58, 0.000, 0.000, 0.000,0.0,0.0,0.0,0.0,0.0, 21:50:00.464
, 68.08, 80.40, 153.33, 140.44, 99.83, 71.82, 90.91, 86.65, 0.000, 0.000, 0.000,0.0,0.0,0.0,0.0,0.0, 21:50:00.464
, 68.17, 80.49, 153.42, 140.27, 99.91, 71.66, 90.87, 86.46, 0.000, 0.000, 0.000,0.0,0.0,0.0,0.0,0.0, 21:50:00.465
, 68.18, 80.50, 153.43, 140.23, 99.93, 71.64, 90.93, 86.40, 0.000, 0.000, 0.000,0.0,0.0,0.0,0.0,0.0, 21:50:00.465
, 68.11, 80.44, 153.36, 140.36, 99.87, 71.76, 90.96, 86.54, 0.000, 0.000, 0.000,0.0,0.0,0.0,0.0,0.0, 21:50:00.465
, 68.08, 80.40, 153.33, 140.46, 99.83, 71.84, 90.93, 86.66, 0.000, 0.000, 0.000,0.0,0.0,0.0,0.0,0.0, 21:50:00.465
, 68.15, 80.47, 153.40, 140.31, 99.89, 71.69, 90.87, 86.51, 0.000, 0.000, 0.000,0.0,0.0,0.0,0.0,0.0, 21:50:00.465
, 68.19, 80.51, 153.44, 140.23, 99.94, 71.63, 90.93, 86.40, 0.000, 0.000, 0.000,0.0,0.0,0.0,0.0,0.0, 21:50:00.466
, 68.13, 80.45, 153.37, 140.34, 99.89, 71.74, 90.97, 86.52, 0.316, 0.454, 0.816,0.0,0.0,0.0,0.0,0.0, 21:50:00.466
, 68.07, 80.40, 153.32, 140.46, 99.83, 71.84, 90.95, 86.66, 0.000, 0.000, 0.000,0.0,0.0,0.0,0.0,0.0, 21:50:00.466
, 68.14, 80.45, 153.38, 140.35, 99.88, 71.72, 90.88, 86.55, 0.000, 0.000, 0.000,0.0,0.0,0.0,0.0,0.0, 21:50:00.467
, 68.19, 80.50, 153.43, 140.23, 99.94, 71.62, 90.91, 86.41, 0.000, 0.000, 0.000,0.0,0.0,0.0,0.0,0.0, 21:50:00.467
, 68.16, 80.47, 153.40, 140.31, 99.91, 71.71, 90.97, 86.49, 0.000, 0.000, 0.000,0.0,0.0,0.0,0.0,0.0, 21:50:00.467
, 68.09, 80.40, 153.34, 140.45, 99.85, 71.84, 90.97, 86.65, 0.000, 0.000, 0.000,0.0,0.0,0.0,0.0,0.0, 21:50:00.467
, 68.13, 80.44, 153.38, 140.39, 99.87, 71.76, 90.90, 86.60, 0.000, 0.000, 0.000,0.0,0.0,0.0,0.0,0.0, 21:50:00.468
, 68.20, 80.51, 153.44, 140.23, 99.95, 71.63, 90.91, 86.41, 0.000, 0.000, 0.000,0.0,0.0,0.0,0.0,0.0, 21:50:00.468
, 68.16, 80.48, 153.41, 140.29, 99.92, 71.70, 90.97, 86.46, 0.000, 0.000, 0.000,0.0,0.0,0.0,0.0,0.0, 21:50:00.468
, 68.09, 80.40, 153.33, 140.44, 99.84, 71.83, 90.97, 86.63, 0.000, 0.000, 0.000,0.0,0.0,0.0,0.0,0.0, 21:50:00.468
, 68.10, 80.41, 153.35, 140.42, 99.84, 71.80, 90.90, 86.64, 0.318, 0.454, 0.814,0.0,0.0,0.0,0.0,0.0, 21:50:00.469
, 68.20, 80.51, 153.45, 140.24, 99.94, 71.63, 90.90, 86.42, 0.000, 0.000, 0.000,0.0,0.0,0.0,0.0,0.0, 21:50:00.469
, 68.19, 80.50, 153.42, 140.27, 99.93, 71.67, 90.97, 86.43, 0.000, 0.000, 0.000,0.0,0.0,0.0,0.0,0.0, 21:50:00.469
, 68.11, 80.41, 153.34, 140.44, 99.85, 71.81, 90.98, 86.62, 0.000, 0.000, 0.000,0.0,0.0,0.0,0.0,0.0, 21:50:00.469
, 68.10, 80.40, 153.33, 140.46, 99.82, 71.82, 90.91, 86.67, 0.000, 0.000, 0.000,0.0,0.0,0.0,0.0,0.0, 21:50:00.470
, 68.19, 80.50, 153.44, 140.27, 99.92, 71.65, 90.88, 86.46, 0.000, 0.000, 0.000,0.0,0.0,0.0,0.0,0.0, 21:50:00.470
, 68.19, 80.50, 153.43, 140.26, 99.94, 71.66, 90.96, 86.43, 0.000, 0.000, 0.000,0.0,0.0,0.0,0.0,0.0, 21:50:00.470
, 68.13, 80.43, 153.36, 140.40, 99.88, 71.79, 90.98, 86.58, 0.000, 0.000, 0.000,0.0,0.0,0.0,0.0,0.0, 21:50:00.470
, 68.11, 80.41, 153.34, 140.46, 99.85, 71.83, 90.94, 86.67, 0.000, 0.000, 0.000,0.0,0.0,0.0,0.0,0.0, 21:50:00.471
, 68.18, 80.48, 153.42, 140.31, 99.91, 71.67, 90.88, 86.49, 0.316, 0.454, 0.812,0.0,0.0,0.0,0.0,0.0, 21:50:00.471
, 68.21, 80.51, 153.44, 140.24, 99.95, 71.64, 90.94, 86.41, 0.000, 0.000, 0.000,0.0,0.0,0.0,0.0,0.0, 21:50:00.471
, 68.14, 80.44, 153.38, 140.38, 99.89, 71.76, 90.97, 86.54, 0.000, 0.000, 0.000,0.0,0.0,0.0,0.0,0.0, 21:50:00.472
, 68.09, 80.38, 153.32, 140.49, 99.83, 71.85, 90.94, 86.68, 0.000, 0.000, 0.000,0.0,0.0,0.0,0.0,0.0, 21:50:00.472
, 68.16, 80.45, 153.40, 140.35, 99.88, 71.71, 90.87, 86.54, 0.000, 0.000, 0.000,0.0,0.0,0.0,0.0,0.0, 21:50:00.472
, 68.22, 80.51, 153.46, 140.24, 99.96, 71.63, 90.93, 86.40, 0.000, 0.000, 0.000,0.0,0.0,0.0,0.0,0.0, 21:50:00.472
, 68.17, 80.46, 153.40, 140.34, 99.91, 71.73, 90.99, 86.51, 0.000, 0.000, 0.000,0.0,0.0,0.0,0.0,0.0, 21:50:00.473
, 68.10, 80.39, 153.34, 140.48, 99.85, 71.84, 90.97, 86.66, 0.000, 0.000, 0.000,0.0,0.0,0.0,0.0,0.0, 21:50:00.473
, 68.14, 80.43, 153.38, 140.38, 99.88, 71.73, 90.88, 86.58, 0.000, 0.000, 0.000,0.0,0.0,0.0,0.0,0.0, 21:50:00.473
, 68.21, 80.50, 153.45, 140.24, 99.95, 71.61, 90.91, 86.41, 0.000, 0.000, 0.000,0.0,0.0,0.0,0.0,0.0, 21:50:00.474
, 68.17, 80.46, 153.40, 140.33, 99.92, 71.70, 90.98, 86.49, 0.308, 0.452, 0.816,0.0,0.0,0.0,0.0,0.0, 21:50:00.474
, 68.10, 80.39, 153.34, 140.47, 99.85, 71.83, 90.97, 86.65, 0.000, 0.000, 0.000,0.0,0.0,0.0,0.0,0.0, 21:50:00.474
, 68.13, 80.42, 153.37, 140.41, 99.87, 71.76, 90.91, 86.61, 0.000, 0.000, 0.000,0.0,0.0,0.0,0.0,0.0, 21:50:00.474
, 68.20, 80.49, 153.44, 140.25, 99.95, 71.62, 90.91, 86.42, 0.000, 0.000, 0.000,0.0,0.0,0.0,0.0,0.0, 21:50:00.475
, 68.18, 80.48, 153.42, 140.28, 99.94, 71.67, 90.97, 86.44, 0.000, 0.000, 0.000,0.0,0.0,0.0,0.0,0.0, 21:50:00.475
, 68.11, 80.40, 153.34, 140.45, 99.87, 71.82, 90.99, 86.62, 0.000, 0.000, 0.000,0.0,0.0,0.0,0.0,0.0, 21:50:00.475
, 68.11, 80.40, 153.35, 140.44, 99.86, 71.79, 90.92, 86.63, 0.000, 0.000, 0.000,0.0,0.0,0.0,0.0,0.0, 21:50:00.475
, 68.20, 80.49, 153.44, 140.26, 99.96, 71.63, 90.91, 86.43, 0.000, 0.000, 0.000,0.0,0.0,0.0,0.0,0.0, 21:50:00.475
, 68.20, 80.48, 153.43, 140.27, 99.96, 71.66, 90.99, 86.42, 0.000, 0.000, 0.000,0.0,0.0,0.0,0.0,0.0, 21:50:00.475
, 68.12, 80.40, 153.35, 140.43, 99.88, 71.80, 91.00, 86.59, 0.000, 0.000, 0.000,0.0,0.0,0.0,0.0,0.0, 21:50:00.476
, 68.10, 80.37, 153.33, 140.47, 99.85, 71.82, 90.94, 86.66, 0.316, 0.458, 0.818,0.0,0.0,0.0,0.0,0.0, 21:50:00.476
, 68.18, 80.46, 153.42, 140.29, 99.93, 71.65, 90.89, 86.46, 0.000, 0.000, 0.000,0.0,0.0,0.0,0.0,0.0, 21:50:00.476
, 68.20, 80.47, 153.43, 140.26, 99.96, 71.64, 90.97, 86.41, 0.000, 0.000, 0.000,0.0,0.0,0.0,0.0,0.0, 21:50:00.477
, 68.13, 80.41, 153.36, 140.40, 99.90, 71.77, 91.01, 86.56, 0.000, 0.000, 0.000,0.0,0.0,0.0,0.0,0.0, 21:50:00.477
, 68.09, 80.37, 153.32, 140.48, 99.86, 71.83, 90.97, 86.67, 0.000, 0.000, 0.000,0.0,0.0,0.0,0.0,0.0, 21:50:00.477
, 68.17, 80.45, 153.41, 140.31, 99.92, 71.67, 90.90, 86.49, 0.000, 0.000, 0.000,0.0,0.0,0.0,0.0,0.0, 21:50:00.477
, 68.21, 80.48, 153.44, 140.23, 99.97, 71.63, 90.97, 86.39, 0.000, 0.000, 0.000,0.0,0.0,0.0,0.0,0.0, 21:50:00.478
, 68.14, 80.41, 153.37, 140.36, 99.91, 71.75, 91.01, 86.53, 0.000, 0.000, 0.000,0.0,0.0,0.0,0.0,0.0, 21:50:00.478
, 68.10, 80.38, 153.34, 140.46, 99.87, 71.84, 90.98, 86.66, 0.000, 0.000, 0.000,0.0,0.0,0.0,0.0,0.0, 21:50:00.478
, 68.16, 80.44, 153.40, 140.34, 99.92, 71.71, 90.91, 86.53, 0.322, 0.464, 0.814,0.0,0.0,0.0,0.0,0.0, 21:50:00.478
, 68.20, 80.48, 153.44, 140.23, 99.97, 71.62, 90.95, 86.39, 0.000, 0.000, 0.000,0.0,0.0,0.0,0.0,0.0, 21:50:00.479
, 68.15, 80.43, 153.38, 140.34, 99.92, 71.73, 91.00, 86.50, 0.000, 0.000, 0.000,0.0,0.0,0.0,0.0,0.0, 21:50:00.479
, 68.10, 80.37, 153.33, 140.47, 99.87, 71.84, 90.99, 86.65, 0.000, 0.000, 0.000,0.0,0.0,0.0,0.0,0.0, 21:50:00.479
, 68.14, 80.42, 153.38, 140.39, 99.91, 71.74, 90.93, 86.58, 0.000, 0.000, 0.000,0.0,0.0,0.0,0.0,0.0, 21:50:00.479
, 68.21, 80.48, 153.44, 140.25, 99.98, 71.62, 90.94, 86.41, 0.000, 0.000, 0.000,0.0,0.0,0.0,0.0,0.0, 21:50:00.480
, 68.18, 80.45, 153.42, 140.31, 99.96, 71.70, 91.01, 86.47, 0.000, 0.000, 0.000,0.0,0.0,0.0,0.0,0.0, 21:50:00.480
, 68.11, 80.38, 153.34, 140.47, 99.88, 71.83, 91.00, 86.64, 0.000, 0.000, 0.000,0.0,0.0,0.0,0.0,0.0, 21:50:00.480
, 68.14, 80.40, 153.37, 140.42, 99.90, 71.77, 90.92, 86.61, 0.000, 0.000, 0.000,0.0,0.0,0.0,0.0,0.0, 21:50:00.480
, 68.22, 80.48, 153.45, 140.25, 99.98, 71.63, 90.92, 86.41, 0.000, 0.000, 0.000,0.0,0.0,0.0,0.0,0.0, 21:50:00.931
, 68.18, 80.45, 153.41, 140.30, 99.96, 71.69, 90.99, 86.46, 0.322, 0.462, 0.810,0.0,0.0,0.0,0.0,0.0, 21:50:00.932
, 68.11, 80.37, 153.34, 140.46, 99.89, 71.83, 91.00, 86.63, 0.000, 0.000, 0.000,0.0,0.0,0.0,0.0,0.0, 21:50:00.932
, 68.12, 80.38, 153.36, 140.46, 99.89, 71.82, 90.95, 86.67, 0.000, 0.000, 0.000,0.0,0.0,0.0,0.0,0.0, 21:50:00.932
, 68.19, 80.46, 153.43, 140.28, 99.96, 71.65, 90.92, 86.47, 0.000, 0.000, 0.000,0.0,0.0,0.0,0.0,0.0, 21:50:00.932
, 68.19, 80.46, 153.42, 140.27, 99.96, 71.66, 90.97, 86.44, 0.000, 0.000, 0.000,0.0,0.0,0.0,0.0,0.0, 21:50:00.933
, 68.10, 80.37, 153.33, 140.43, 99.87, 71.80, 90.99, 86.61, 0.000, 0.000, 0.000,0.0,0.0,0.0,0.0,0.0, 21:50:00.933
, 68.08, 80.35, 153.31, 140.47, 99.85, 71.82, 90.94, 86.69, 0.000, 0.000, 0.000,0.0,0.0,0.0,0.0,0.0, 21:50:00.933
, 68.18, 80.45, 153.42, 140.28, 99.95, 71.65, 90.90, 86.48, 0.000, 0.000, 0.000,0.0,0.0,0.0,0.0,0.0, 21:50:00.934
, 68.20, 80.47, 153.43, 140.24, 99.98, 71.63, 90.98, 86.41, 0.000, 0.000, 0.000,0.0,0.0,0.0,0.0,0.0, 21:50:00.934
, 68.13, 80.40, 153.36, 140.38, 99.91, 71.76, 91.01, 86.55, 0.322, 0.460, 0.814,0.0,0.0,0.0,0.0,0.0, 21:50:00.934
, 68.10, 80.37, 153.33, 140.47, 99.87, 71.83, 90.98, 86.66, 0.000, 0.000, 0.000,0.0,0.0,0.0,0.0,0.0, 21:50:00.934
, 68.17, 80.43, 153.40, 140.32, 99.93, 71.68, 90.90, 86.51, 0.000, 0.000, 0.000,0.0,0.0,0.0,0.0,0.0, 21:50:00.934
, 68.19, 80.46, 153.42, 140.25, 99.96, 71.62, 90.95, 86.41, 0.000, 0.000, 0.000,0.0,0.0,0.0,0.0,0.0, 21:50:00.935
, 68.13, 80.40, 153.37, 140.37, 99.91, 71.74, 90.99, 86.54, 0.000, 0.000, 0.000,0.0,0.0,0.0,0.0,0.0, 21:50:00.935
, 68.09, 80.35, 153.32, 140.48, 99.87, 71.83, 90.97, 86.67, 0.000, 0.000, 0.000,0.0,0.0,0.0,0.0,0.0, 21:50:00.935
, 68.15, 80.41, 153.38, 140.35, 99.91, 71.71, 90.90, 86.55, 0.000, 0.000, 0.000,0.0,0.0,0.0,0.0,0.0, 21:50:00.935
, 68.18, 80.45, 153.42, 140.25, 99.96, 71.61, 90.94, 86.42, 0.000, 0.000, 0.000,0.0,0.0,0.0,0.0,0.0, 21:50:00.935
, 68.15, 80.41, 153.38, 140.33, 99.93, 71.71, 90.99, 86.50, 0.000, 0.000, 0.000,0.0,0.0,0.0,0.0,0.0, 21:50:00.935
, 68.09, 80.35, 153.31, 140.46, 99.86, 71.83, 90.98, 86.66, 0.000, 0.000, 0.000,0.0,0.0,0.0,0.0,0.0, 21:50:00.935
, 68.12, 80.39, 153.36, 140.39, 99.89, 71.74, 90.91, 86.60, 0.318, 0.458, 0.822,0.0,0.0,0.0,0.0,0.0, 21:50:00.936
, 68.21, 80.48, 153.44, 140.22, 99.98, 71.60, 90.93, 86.40, 0.000, 0.000, 0.000,0.0,0.0,0.0,0.0,0.0, 21:50:00.936
, 68.18, 80.45, 153.41, 140.29, 99.97, 71.68, 91.01, 86.46, 0.000, 0.000, 0.000,0.0,0.0,0.0,0.0,0.0, 21:50:00.936
, 68.11, 80.38, 153.34, 140.45, 99.90, 71.82, 91.02, 86.63, 0.000, 0.000, 0.000,0.0,0.0,0.0,0.0,0.0, 21:50:00.936
, 68.12, 80.39, 153.35, 140.42, 99.90, 71.78, 90.95, 86.63, 0.000, 0.000, 0.000,0.0,0.0,0.0,0.0,0.0, 21:50:00.936
, 68.19, 80.45, 153.42, 140.26, 99.96, 71.63, 90.93, 86.44, 0.000, 0.000, 0.000,0.0,0.0,0.0,0.0,0.0, 21:50:00.936
, 68.17, 80.44, 153.40, 140.29, 99.95, 71.67, 91.00, 86.46, 0.000, 0.000, 0.000,0.0,0.0,0.0,0.0,0.0, 21:50:00.937
, 68.11, 80.37, 153.33, 140.44, 99.89, 71.80, 91.01, 86.62, 0.000, 0.000, 0.000,0.0,0.0,0.0,0.0,0.0, 21:50:00.937
, 68.09, 80.35, 153.32, 140.46, 99.87, 71.80, 90.95, 86.67, 0.000, 0.000, 0.000,0.0,0.0,0.0,0.0,0.0, 21:50:00.937
, 68.18, 80.44, 153.41, 140.28, 99.95, 71.63, 90.91, 86.48, 0.312, 0.450, 0.816,0.0,0.0,0.0,0.0,0.0, 21:50:00.938
, 68.18, 80.44, 153.41, 140.27, 99.97, 71.64, 90.99, 86.44, 0.000, 0.000, 0.000,0.0,0.0,0.0,0.0,0.0, 21:50:00.938
, 68.11, 80.37, 153.33, 140.41, 99.90, 71.78, 91.01, 86.60, 0.000, 0.000, 0.000,0.0,0.0,0.0,0.0,0.0, 21:50:00.938
, 68.08, 80.34, 153.31, 140.47, 99.87, 71.82, 90.96, 86.69, 0.000, 0.000, 0.000,0.0,0.0,0.0,0.0,0.0, 21:50:00.938
, 68.16, 80.42, 153.39, 140.30, 99.94, 71.66, 90.91, 86.51, 0.000, 0.000, 0.000,0.0,0.0,0.0,0.0,0.0, 21:50:00.939
, 68.19, 80.45, 153.42, 140.25, 99.98, 71.63, 90.98, 86.44, 0.000, 0.000, 0.000,0.0,0.0,0.0,0.0,0.0, 21:50:00.940
, 68.12, 80.38, 153.35, 140.38, 99.91, 71.75, 91.02, 86.58, 0.000, 0.000, 0.000,0.0,0.0,0.0,0.0,0.0, 21:50:00.940
, 68.09, 80.35, 153.32, 140.47, 99.87, 71.83, 90.98, 86.69, 0.000, 0.000, 0.000,0.0,0.0,0.0,0.0,0.0, 21:50:00.940
, 68.16, 80.42, 153.39, 140.32, 99.93, 71.68, 90.91, 86.53, 0.000, 0.000, 0.000,0.0,0.0,0.0,0.0,0.0, 21:50:00.940
, 68.20, 80.45, 153.43, 140.24, 99.98, 71.62, 90.95, 86.42, 0.000, 0.000, 0.000,0.0,0.0,0.0,0.0,0.0, 21:50:00.941
, 68.14, 80.39, 153.36, 140.35, 99.93, 71.73, 90.99, 86.54, 0.312, 0.456, 0.818,0.0,0.0,0.0,0.0,0.0, 21:50:00.941
, 68.09, 80.34, 153.31, 140.47, 99.87, 71.82, 90.97, 86.68, 0.000, 0.000, 0.000,0.0,0.0,0.0,0.0,0.0, 21:50:00.941
, 68.14, 80.39, 153.36, 140.37, 99.91, 71.71, 90.90, 86.58, 0.000, 0.000, 0.000,0.0,0.0,0.0,0.0,0.0, 21:50:00.941
, 68.19, 80.44, 153.41, 140.24, 99.97, 71.61, 90.93, 86.43, 0.000, 0.000, 0.000,0.0,0.0,0.0,0.0,0.0, 21:50:00.941
, 68.16, 80.40, 153.38, 140.32, 99.94, 71.69, 90.99, 86.50, 0.000, 0.000, 0.000,0.0,0.0,0.0,0.0,0.0, 21:50:00.941
, 68.10, 80.34, 153.31, 140.46, 99.88, 71.82, 90.98, 86.66, 0.000, 0.000, 0.000,0.0,0.0,0.0,0.0,0.0, 21:50:00.942
, 68.13, 80.37, 153.35, 140.40, 99.89, 71.74, 90.90, 86.62, 0.000, 0.000, 0.000,0.0,0.0,0.0,0.0,0.0, 21:50:00.942
, 68.21, 80.46, 153.44, 140.23, 99.98, 71.60, 90.92, 86.42, 0.000, 0.000, 0.000,0.0,0.0,0.0,0.0,0.0, 21:50:00.942
, 68.17, 80.42, 153.39, 140.29, 99.96, 71.67, 90.99, 86.47, 0.000, 0.000, 0.000,0.0,0.0,0.0,0.0,0.0, 21:50:00.942
, 68.11, 80.35, 153.33, 140.43, 99.89, 71.80, 90.99, 86.63, 0.000, 0.000, 0.000,0.0,0.0,0.0,0.0,0.0, 21:50:00.942
, 68.12, 80.37, 153.35, 140.42, 99.89, 71.77, 90.94, 86.64, 0.314, 0.462, 0.818,0.0,0.0,0.0,0.0,0.0, 21:50:00.942
, 68.20, 80.44, 153.43, 140.25, 99.97, 71.61, 90.92, 86.44, 0.000, 0.000, 0.000,0.0,0.0,0.0,0.0,0.0, 21:50:00.943
, 68.19, 80.43, 153.42, 140.27, 99.98, 71.65, 90.99, 86.45, 0.000, 0.000, 0.000,0.0,0.0,0.0,0.0,0.0, 21:50:00.943
, 68.14, 80.37, 153.36, 140.41, 99.92, 71.79, 91.01, 86.60, 0.000, 0.000, 0.000,0.0,0.0,0.0,0.0,0.0, 21:50:00.943
, 68.12, 80.36, 153.34, 140.45, 99.89, 71.80, 90.96, 86.66, 0.000, 0.000, 0.000,0.0,0.0,0.0,0.0,0.0, 21:50:00.943
, 68.20, 80.43, 153.42, 140.28, 99.96, 71.64, 90.92, 86.47, 0.000, 0.000, 0.000,0.0,0.0,0.0,0.0,0.0, 21:50:00.943
, 68.21, 80.44, 153.42, 140.26, 99.98, 71.64, 90.99, 86.44, 0.000, 0.000, 0.000,0.0,0.0,0.0,0.0,0.0, 21:50:00.943
, 68.14, 80.37, 153.35, 140.41, 99.92, 71.77, 91.01, 86.60, 0.000, 0.000, 0.000,0.0,0.0,0.0,0.0,0.0, 21:50:00.943
, 68.11, 80.34, 153.33, 140.48, 99.88, 71.82, 90.97, 86.69, 0.000, 0.000, 0.000,0.0,0.0,0.0,0.0,0.0, 21:50:00.944
, 68.18, 80.42, 153.41, 140.31, 99.95, 71.66, 90.91, 86.52, 0.312, 0.462, 0.818,0.0,0.0,0.0,0.0,0.0, 21:50:00.944
, 68.21, 80.45, 153.43, 140.25, 99.99, 71.62, 90.97, 86.43, 0.000, 0.000, 0.000,0.0,0.0,0.0,0.0,0.0, 21:50:00.944
, 68.13, 80.37, 153.35, 140.39, 99.92, 71.75, 91.01, 86.58, 0.000, 0.000, 0.000,0.0,0.0,0.0,0.0,0.0, 21:50:00.944
, 68.09, 80.32, 153.30, 140.49, 99.86, 71.83, 90.98, 86.71, 0.000, 0.000, 0.000,0.0,0.0,0.0,0.0,0.0, 21:50:00.944
, 68.16, 80.39, 153.38, 140.35, 99.92, 71.69, 90.91, 86.57, 0.000, 0.000, 0.000,0.0,0.0,0.0,0.0,0.0, 21:50:00.944
, 68.23, 80.46, 153.44, 140.23, 100.00, 71.61, 90.96, 86.43, 0.000, 0.000, 0.000,0.0,0.0,0.0,0.0,0.0, 21:50:00.945
, 68.17, 80.40, 153.38, 140.34, 99.95, 71.72, 91.02, 86.54, 0.000, 0.000, 0.000,0.0,0.0,0.0,0.0,0.0, 21:50:00.945
, 68.10, 80.33, 153.31, 140.48, 99.87, 71.83, 90.99, 86.71, 0.000, 0.000, 0.000,0.0,0.0,0.0,0.0,0.0, 21:50:00.945
, 68.14, 80.37, 153.35, 140.39, 99.90, 71.72, 90.91, 86.62, 0.000, 0.000, 0.000,0.0,0.0,0.0,0.0,0.0, 21:50:00.945
, 68.20, 80.43, 153.41, 140.25, 99.97, 71.60, 90.93, 86.46, 0.000, 0.000, 0.000,0.0,0.0,0.0,0.0,0.0, 21:50:00.945
, 68.16, 80.38, 153.37, 140.32, 99.93, 71.69, 90.98, 86.54, 0.316, 0.462, 0.814,0.0,0.0,0.0,0.0,0.0, 21:50:00.945
, 68.12, 80.34, 153.32, 140.45, 99.89, 71.81, 90.98, 86.68, 0.000, 0.000, 0.000,0.0,0.0,0.0,0.0,0.0, 21:50:00.945
, 68.16, 80.38, 153.36, 140.39, 99.91, 71.75, 90.92, 86.63, 0.000, 0.000, 0.000,0.0,0.0,0.0,0.0,0.0, 21:50:00.946
, 68.23, 80.44, 153.43, 140.24, 99.98, 71.61, 90.93, 86.45, 0.000, 0.000, 0.000,0.0,0.0,0.0,0.0,0.0, 21:50:00.946
, 68.19, 80.41, 153.39, 140.29, 99.96, 71.67, 90.99, 86.50, 0.000, 0.000, 0.000,0.0,0.0,0.0,0.0,0.0, 21:50:00.946
, 68.12, 80.34, 153.32, 140.44, 99.89, 71.81, 90.99, 86.67, 0.000, 0.000, 0.000,0.0,0.0,0.0,0.0,0.0, 21:50:00.946
, 68.13, 80.34, 153.33, 140.43, 99.88, 71.78, 90.93, 86.68, 0.000, 0.000, 0.000,0.0,0.0,0.0,0.0,0.0, 21:50:00.946
, 68.20, 80.42, 153.41, 140.26, 99.96, 71.62, 90.91, 86.49, 0.000, 0.000, 0.000,0.0,0.0,0.0,0.0,0.0, 21:50:00.946
, 68.21, 80.43, 153.41, 140.26, 99.97, 71.64, 90.97, 86.47, 0.000, 0.000, 0.000,0.0,0.0,0.0,0.0,0.0, 21:50:00.947
, 68.13, 80.35, 153.33, 140.41, 99.90, 71.78, 91.00, 86.63, 0.320, 0.454, 0.814,0.0,0.0,0.0,0.0,0.0, 21:50:00.947
, 68.12, 80.33, 153.32, 140.45, 99.88, 71.80, 90.94, 86.70, 0.000, 0.000, 0.000,0.0,0.0,0.0,0.0,0.0, 21:50:00.947
, 68.20, 80.41, 153.40, 140.28, 99.96, 71.64, 90.91, 86.50, 0.000, 0.000, 0.000,0.0,0.0,0.0,0.0,0.0, 21:50:00.947
, 68.20, 80.41, 153.39, 140.25, 99.97, 71.63, 90.97, 86.46, 0.000, 0.000, 0.000,0.0,0.0,0.0,0.0,0.0, 21:50:00.947
, 68.13, 80.34, 153.32, 140.39, 99.90, 71.76, 90.99, 86.61, 0.000, 0.000, 0.000,0.0,0.0,0.0,0.0,0.0, 21:50:00.947
, 68.10, 80.31, 153.30, 140.46, 99.87, 71.81, 90.95, 86.71, 0.000, 0.000, 0.000,0.0,0.0,0.0,0.0,0.0, 21:50:00.947
, 68.18, 80.39, 153.38, 140.30, 99.94, 71.66, 90.89, 86.54, 0.000, 0.000, 0.000,0.0,0.0,0.0,0.0,0.0, 21:50:00.948
, 68.22, 80.42, 153.41, 140.22, 99.99, 71.61, 90.96, 86.44, 0.000, 0.000, 0.000,0.0,0.0,0.0,0.0,0.0, 21:50:00.948
, 68.16, 80.36, 153.35, 140.35, 99.94, 71.74, 91.00, 86.57, 0.000, 0.000, 0.000,0.0,0.0,0.0,0.0,0.0, 21:50:00.948
, 68.10, 80.30, 153.29, 140.47, 99.87, 71.83, 90.97, 86.71, 0.000, 0.000, 0.000,0.0,0.0,0.0,0.0,0.0, 21:50:00.948
, 68.16, 80.37, 153.36, 140.34, 99.92, 71.69, 90.90, 86.58, 0.318, 0.450, 0.824,0.0,0.0,0.0,0.0,0.0, 21:50:00.948
, 68.21, 80.41, 153.40, 140.23, 99.98, 71.61, 90.94, 86.45, 0.000, 0.000, 0.000,0.0,0.0,0.0,0.0,0.0, 21:50:00.949
, 68.16, 80.36, 153.36, 140.33, 99.93, 71.71, 90.99, 86.54, 0.000, 0.000, 0.000,0.0,0.0,0.0,0.0,0.0, 21:50:00.949
, 68.11, 80.31, 153.30, 140.46, 99.88, 71.82, 90.98, 86.69, 0.000, 0.000, 0.000,0.0,0.0,0.0,0.0,0.0, 21:50:00.949
, 68.16, 80.36, 153.35, 140.37, 99.91, 71.72, 90.91, 86.61, 0.000, 0.000, 0.000,0.0,0.0,0.0,0.0,0.0, 21:50:00.949
, 68.22, 80.42, 153.42, 140.23, 99.98, 71.60, 90.93, 86.45, 0.000, 0.000, 0.000,0.0,0.0,0.0,0.0,0.0, 21:50:00.950
, 68.19, 80.38, 153.38, 140.30, 99.95, 71.68, 90.99, 86.51, 0.000, 0.000, 0.000,0.0,0.0,0.0,0.0,0.0, 21:50:00.950
, 68.13, 80.32, 153.32, 140.44, 99.89, 71.80, 90.99, 86.66, 0.000, 0.000, 0.000,0.0,0.0,0.0,0.0,0.0, 21:50:00.950
, 68.15, 80.35, 153.35, 140.41, 99.90, 71.75, 90.93, 86.64, 0.000, 0.000, 0.000,0.0,0.0,0.0,0.0,0.0, 21:50:00.950
, 68.22, 80.41, 153.41, 140.25, 99.97, 71.60, 90.92, 86.45, 0.316, 0.450, 0.824,0.0,0.0,0.0,0.0,0.0, 21:50:00.950
, 68.20, 80.39, 153.39, 140.28, 99.96, 71.65, 90.98, 86.48, 0.000, 0.000, 0.000,0.0,0.0,0.0,0.0,0.0, 21:50:00.951
, 68.14, 80.33, 153.33, 140.43, 99.90, 71.78, 90.99, 86.64, 0.000, 0.000, 0.000,0.0,0.0,0.0,0.0,0.0, 21:50:00.951
, 68.14, 80.33, 153.33, 140.45, 99.89, 71.78, 90.94, 86.67, 0.000, 0.000, 0.000,0.0,0.0,0.0,0.0,0.0, 21:50:00.951
, 68.23, 80.42, 153.42, 140.27, 99.97, 71.61, 90.91, 86.48, 0.000, 0.000, 0.000,0.0,0.0,0.0,0.0,0.0, 21:50:00.951
, 68.23, 80.42, 153.42, 140.27, 99.99, 71.63, 90.98, 86.45, 0.000, 0.000, 0.000,0.0,0.0,0.0,0.0,0.0, 21:50:00.951
, 68.15, 80.34, 153.34, 140.42, 99.92, 71.77, 91.00, 86.62, 0.000, 0.000, 0.000,0.0,0.0,0.0,0.0,0.0, 21:50:00.951
, 68.14, 80.32, 153.33, 140.47, 99.89, 71.80, 90.96, 86.70, 0.000, 0.000, 0.000,0.0,0.0,0.0,0.0,0.0, 21:50:00.952
, 68.21, 80.39, 153.40, 140.30, 99.96, 71.63, 90.91, 86.52, 0.000, 0.000, 0.000,0.0,0.0,0.0,0.0,0.0, 21:50:00.952
, 68.22, 80.40, 153.41, 140.26, 99.98, 71.61, 90.97, 86.46, 0.000, 0.000, 0.000,0.0,0.0,0.0,0.0,0.0, 21:50:00.952
, 68.16, 80.34, 153.35, 140.39, 99.92, 71.74, 91.00, 86.60, 0.318, 0.448, 0.818,0.0,0.0,0.0,0.0,0.0, 21:50:00.952
, 68.12, 80.30, 153.31, 140.47, 99.88, 71.80, 90.97, 86.71, 0.000, 0.000, 0.000,0.0,0.0,0.0,0.0,0.0, 21:50:00.952
, 68.20, 80.38, 153.40, 140.32, 99.95, 71.65, 90.90, 86.55, 0.000, 0.000, 0.000,0.0,0.0,0.0,0.0,0.0, 21:50:00.952
, 68.23, 80.41, 153.42, 140.24, 99.99, 71.60, 90.95, 86.44, 0.000, 0.000, 0.000,0.0,0.0,0.0,0.0,0.0, 21:50:00.953
, 68.17, 80.35, 153.36, 140.36, 99.93, 71.72, 90.99, 86.57, 0.000, 0.000, 0.000,0.0,0.0,0.0,0.0,0.0, 21:50:00.953
, 68.12, 80.29, 153.31, 140.48, 99.88, 71.82, 90.97, 86.71, 0.000, 0.000, 0.000,0.0,0.0,0.0,0.0,0.0, 21:50:00.953
, 68.18, 80.35, 153.37, 140.37, 99.92, 71.70, 90.90, 86.60, 0.000, 0.000, 0.000,0.0,0.0,0.0,0.0,0.0, 21:50:00.953
, 68.24, 80.41, 153.44, 140.24, 99.99, 71.59, 90.94, 86.45, 0.000, 0.000, 0.000,0.0,0.0,0.0,0.0,0.0, 21:50:00.953
, 68.20, 80.37, 153.39, 140.33, 99.95, 71.69, 91.00, 86.53, 0.000, 0.000, 0.000,0.0,0.0,0.0,0.0,0.0, 21:50:00.953
, 68.13, 80.30, 153.31, 140.47, 99.87, 71.81, 90.98, 86.70, 0.000, 0.000, 0.000,0.0,0.0,0.0,0.0,0.0, 21:50:00.954
, 68.18, 80.35, 153.36, 140.38, 99.91, 71.72, 90.91, 86.62, 0.320, 0.448, 0.814,0.0,0.0,0.0,0.0,0.0, 21:50:00.954
, 68.26, 80.43, 153.45, 140.23, 100.00, 71.59, 90.95, 86.43, 0.000, 0.000, 0.000,0.0,0.0,0.0,0.0,0.0, 21:50:00.954
, 68.22, 80.39, 153.40, 140.31, 99.97, 71.66, 91.01, 86.50, 0.000, 0.000, 0.000,0.0,0.0,0.0,0.0,0.0, 21:50:00.954
, 68.16, 80.32, 153.34, 140.45, 99.90, 71.79, 91.00, 86.67, 0.000, 0.000, 0.000,0.0,0.0,0.0,0.0,0.0, 21:50:00.954
, 68.18, 80.34, 153.36, 140.43, 99.91, 71.75, 90.94, 86.65, 0.000, 0.000, 0.000,1.6252623,5.7215075,4.3997936,9.409699,5.384986, 21:50:01.412
, 68.25, 80.41, 153.43, 140.26, 99.99, 71.60, 90.93, 86.46, 0.000, 0.000, 0.000,1.6252623,5.7215075,4.3997936,9.409699,5.384986, 21:50:01.413
, 68.23, 80.40, 153.41, 140.29, 99.97, 71.64, 90.99, 86.48, 0.000, 0.000, 0.000,1.6252623,5.7215075,4.3997936,9.409699,5.384986, 21:50:01.413
, 68.16, 80.32, 153.33, 140.44, 99.90, 71.78, 91.01, 86.64, 0.000, 0.000, 0.000,1.6252623,5.7215075,4.3997936,9.409699,5.384986, 21:50:01.413
, 68.16, 80.33, 153.33, 140.45, 99.89, 71.78, 90.95, 86.68, 0.000, 0.000, 0.000,1.6252623,5.7215075,4.3997936,9.409699,5.384986, 21:50:01.413
, 68.23, 80.39, 153.40, 140.28, 99.95, 71.62, 90.91, 86.50, 0.320, 0.452, 0.812,1.6252623,5.7215075,4.3997936,9.409699,5.384986, 21:50:01.413
, 68.24, 80.41, 153.41, 140.26, 99.97, 71.62, 90.97, 86.46, 0.000, 0.000, 0.000,1.6252623,5.7215075,4.3997936,9.409699,5.384986, 21:50:01.413
, 68.18, 80.35, 153.35, 140.40, 99.92, 71.75, 91.00, 86.60, 0.000, 0.000, 0.000,1.6252623,5.7215075,4.3997936,9.409699,5.384986, 21:50:01.414
, 68.16, 80.32, 153.33, 140.47, 99.88, 71.80, 90.96, 86.70, 0.000, 0.000, 0.000,1.6252623,5.7215075,4.3997936,9.409699,5.384986, 21:50:01.414
, 68.23, 80.39, 153.41, 140.31, 99.95, 71.63, 90.91, 86.52, 0.000, 0.000, 0.000,1.6252623,5.7215075,4.3997936,9.409699,5.384986, 21:50:01.414
, 68.26, 80.41, 153.43, 140.25, 99.99, 71.60, 90.98, 86.45, 0.000, 0.000, 0.000,1.6252623,5.7215075,4.3997936,9.409699,5.384986, 21:50:01.414
, 68.20, 80.36, 153.38, 140.37, 99.95, 71.73, 91.03, 86.57, 0.000, 0.000, 0.000,1.6252623,5.7215075,4.3997936,9.409699,5.384986, 21:50:01.414
, 68.16, 80.31, 153.33, 140.48, 99.89, 71.81, 91.00, 86.71, 0.000, 0.000, 0.000,1.6252623,5.7215075,4.3997936,9.409699,5.384986, 21:50:01.414
, 68.21, 80.36, 153.39, 140.34, 99.94, 71.66, 90.92, 86.57, 0.000, 0.000, 0.000,1.6252623,5.7215075,4.3997936,9.409699,5.384986, 21:50:01.414
, 68.26, 80.41, 153.44, 140.24, 100.00, 71.59, 90.96, 86.44, 0.000, 0.000, 0.000,1.6252623,5.7215075,4.3997936,9.409699,5.384986, 21:50:01.414
, 68.21, 80.36, 153.38, 140.34, 99.95, 71.70, 91.02, 86.55, 0.318, 0.456, 0.820,1.6252623,5.7215075,4.3997936,9.409699,5.384986, 21:50:01.415
, 68.15, 80.30, 153.31, 140.48, 99.88, 71.80, 91.00, 86.71, 0.000, 0.000, 0.000,1.6252623,5.7215075,4.3997936,9.409699,5.384986, 21:50:01.415
, 68.21, 80.35, 153.38, 140.37, 99.93, 71.69, 90.93, 86.60, 0.000, 0.000, 0.000,1.6252623,5.7215075,4.3997936,9.409699,5.384986, 21:50:01.415
, 68.27, 80.41, 153.43, 140.24, 100.00, 71.59, 90.97, 86.45, 0.000, 0.000, 0.000,1.6252623,5.7215075,4.3997936,9.409699,5.384986, 21:50:01.415
, 68.22, 80.37, 153.38, 140.32, 99.97, 71.68, 91.03, 86.53, 0.000, 0.000, 0.000,1.6252623,5.7215075,4.3997936,9.409699,5.384986, 21:50:01.415
, 68.15, 80.29, 153.30, 140.47, 99.88, 71.81, 91.01, 86.70, 0.000, 0.000, 0.000,1.6252623,5.7215075,4.3997936,9.409699,5.384986, 21:50:01.415
, 68.19, 80.33, 153.35, 140.40, 99.91, 71.73, 90.94, 86.65, 0.000, 0.000, 0.000,1.6252623,5.7215075,4.3997936,9.409699,5.384986, 21:50:01.416
, 68.26, 80.40, 153.42, 140.24, 99.99, 71.59, 90.95, 86.46, 0.000, 0.000, 0.000,1.6252623,5.7215075,4.3997936,9.409699,5.384986, 21:50:01.416
, 68.22, 80.37, 153.38, 140.30, 99.96, 71.66, 91.01, 86.51, 0.000, 0.000, 0.000,1.6252623,5.7215075,4.3997936,9.409699,5.384986, 21:50:01.416
, 68.15, 80.29, 153.31, 140.46, 99.89, 71.79, 91.01, 86.69, 0.316, 0.448, 0.820,1.6252623,5.7215075,4.3997936,9.409699,5.384986, 21:50:01.416
, 68.17, 80.31, 153.34, 140.44, 99.89, 71.76, 90.95, 86.69, 0.000, 0.000, 0.000,1.6252623,5.7215075,4.3997936,9.409699,5.384986, 21:50:01.416
, 68.25, 80.39, 153.42, 140.26, 99.98, 71.60, 90.93, 86.48, 0.000, 0.000, 0.000,1.6252623,5.7215075,4.3997936,9.409699,5.384986, 21:50:01.416
, 68.24, 80.38, 153.41, 140.28, 99.98, 71.63, 91.00, 86.48, 0.000, 0.000, 0.000,1.6252623,5.7215075,4.3997936,9.409699,5.384986, 21:50:01.416
, 68.17, 80.31, 153.33, 140.44, 99.91, 71.77, 91.01, 86.64, 0.000, 0.000, 0.000,1.6252623,5.7215075,4.3997936,9.409699,5.384986, 21:50:01.417
, 68.16, 80.29, 153.33, 140.47, 99.88, 71.78, 90.96, 86.69, 0.000, 0.000, 0.000,1.6252623,5.7215075,4.3997936,9.409699,5.384986, 21:50:01.417
, 68.24, 80.38, 153.42, 140.29, 99.96, 71.62, 90.92, 86.50, 0.000, 0.000, 0.000,1.6252623,5.7215075,4.3997936,9.409699,5.384986, 21:50:01.417
, 68.25, 80.38, 153.42, 140.27, 99.98, 71.62, 90.99, 86.46, 0.000, 0.000, 0.000,1.6252623,5.7215075,4.3997936,9.409699,5.384986, 21:50:01.417
, 68.17, 80.31, 153.35, 140.41, 99.92, 71.75, 91.02, 86.61, 0.000, 0.000, 0.000,1.6252623,5.7215075,4.3997936,9.409699,5.384986, 21:50:01.417
, 68.16, 80.30, 153.33, 140.48, 99.89, 71.80, 90.98, 86.70, 0.000, 0.000, 0.000,1.6252623,5.7215075,4.3997936,9.409699,5.384986, 21:50:01.417
, 68.23, 80.37, 153.41, 140.32, 99.96, 71.64, 90.93, 86.53, 0.310, 0.446, 0.820,1.6252623,5.7215075,4.3997936,9.409699,5.384986, 21:50:01.417
, 68.26, 80.40, 153.43, 140.25, 99.99, 71.60, 90.98, 86.44, 0.000, 0.000, 0.000,1.6252623,5.7215075,4.3997936,9.409699,5.384986, 21:50:01.417
, 68.20, 80.33, 153.37, 140.38, 99.94, 71.73, 91.03, 86.57, 0.000, 0.000, 0.000,1.6252623,5.7215075,4.3997936,9.409699,5.384986, 21:50:01.418
, 68.15, 80.29, 153.32, 140.49, 99.89, 71.82, 90.99, 86.71, 0.000, 0.000, 0.000,1.6252623,5.7215075,4.3997936,9.409699,5.384986, 21:50:01.418
, 68.22, 80.35, 153.39, 140.35, 99.94, 71.68, 90.92, 86.57, 0.000, 0.000, 0.000,1.6252623,5.7215075,4.3997936,9.409699,5.384986, 21:50:01.418
, 68.25, 80.37, 153.41, 140.26, 99.98, 71.60, 90.96, 86.46, 0.000, 0.000, 0.000,1.6252623,5.7215075,4.3997936,9.409699,5.384986, 21:50:01.418
, 68.20, 80.33, 153.37, 140.35, 99.95, 71.70, 91.01, 86.55, 0.000, 0.000, 0.000,1.6252623,5.7215075,4.3997936,9.409699,5.384986, 21:50:01.418
, 68.15, 80.28, 153.32, 140.48, 99.90, 71.81, 91.01, 86.71, 0.000, 0.000, 0.000,1.6252623,5.7215075,4.3997936,9.409699,5.384986, 21:50:01.418
, 68.21, 80.33, 153.38, 140.38, 99.94, 71.71, 90.94, 86.61, 0.000, 0.000, 0.000,1.6252623,5.7215075,4.3997936,9.409699,5.384986, 21:50:01.419
, 68.26, 80.38, 153.43, 140.25, 100.00, 71.59, 90.97, 86.46, 0.314, 0.450, 0.820,1.6252623,5.7215075,4.3997936,9.409699,5.384986, 21:50:01.419
, 68.23, 80.35, 153.40, 140.32, 99.97, 71.67, 91.03, 86.52, 0.000, 0.000, 0.000,1.6252623,5.7215075,4.3997936,9.409699,5.384986, 21:50:01.419
, 68.16, 80.29, 153.33, 140.47, 99.91, 71.80, 91.04, 86.68, 0.000, 0.000, 0.000,1.6252623,5.7215075,4.3997936,9.409699,5.384986, 21:50:01.419
, 68.18, 80.30, 153.35, 140.42, 99.92, 71.74, 90.96, 86.66, 0.000, 0.000, 0.000,1.6252623,5.7215075,4.3997936,9.409699,5.384986, 21:50:01.419
, 68.25, 80.38, 153.42, 140.25, 100.00, 71.59, 90.96, 86.46, 0.000, 0.000, 0.000,1.6252623,5.7215075,4.3997936,9.409699,5.384986, 21:50:01.420
, 68.23, 80.35, 153.39, 140.29, 99.99, 71.65, 91.02, 86.50, 0.000, 0.000, 0.000,1.6252623,5.7215075,4.3997936,9.409699,5.384986, 21:50:01.420
, 68.17, 80.28, 153.33, 140.44, 99.92, 71.79, 91.04, 86.66, 0.000, 0.000, 0.000,1.6252623,5.7215075,4.3997936,9.409699,5.384986, 21:50:01.420
, 68.16, 80.28, 153.33, 140.45, 99.91, 71.77, 90.97, 86.69, 0.000, 0.000, 0.000,1.6252623,5.7215075,4.3997936,9.409699,5.384986, 21:50:01.420
, 68.25, 80.36, 153.41, 140.28, 99.99, 71.61, 90.95, 86.50, 0.000, 0.000, 0.000,1.6252623,5.7215075,4.3997936,9.409699,5.384986, 21:50:01.420
, 68.24, 80.35, 153.40, 140.29, 99.99, 71.63, 91.01, 86.49, 0.000, 0.000, 0.000,1.6252623,5.7215075,4.3997936,9.409699,5.384986, 21:50:01.420
, 68.17, 80.28, 153.33, 140.43, 99.93, 71.77, 91.04, 86.65, 0.322, 0.452, 0.818,1.6252623,5.7215075,4.3997936,9.409699,5.384986, 21:50:01.420
, 68.16, 80.27, 153.32, 140.46, 99.91, 71.78, 90.99, 86.71, 0.000, 0.000, 0.000,1.6252623,5.7215075,4.3997936,9.409699,5.384986, 21:50:01.420
, 68.25, 80.36, 153.41, 140.28, 99.99, 71.61, 90.95, 86.51, 0.000, 0.000, 0.000,1.6252623,5.7215075,4.3997936,9.409699,5.384986, 21:50:01.421
, 68.25, 80.35, 153.40, 140.27, 100.00, 71.61, 91.02, 86.48, 0.000, 0.000, 0.000,1.6252623,5.7215075,4.3997936,9.409699,5.384986, 21:50:01.421
, 68.19, 80.29, 153.34, 140.39, 99.94, 71.73, 91.04, 86.62, 0.000, 0.000, 0.000,1.6252623,5.7215075,4.3997936,9.409699,5.384986, 21:50:01.421
, 68.16, 80.26, 153.31, 140.47, 99.90, 71.80, 91.01, 86.72, 0.000, 0.000, 0.000,1.6252623,5.7215075,4.3997936,9.409699,5.384986, 21:50:01.421
, 68.23, 80.33, 153.39, 140.32, 99.96, 71.64, 90.95, 86.56, 0.000, 0.000, 0.000,1.6252623,5.7215075,4.3997936,9.409699,5.384986, 21:50:01.421
, 68.27, 80.37, 153.43, 140.24, 100.01, 71.59, 91.01, 86.46, 0.000, 0.000, 0.000,1.6252623,5.7215075,4.3997936,9.409699,5.384986, 21:50:01.421
, 68.22, 80.31, 153.37, 140.36, 99.96, 71.71, 91.06, 86.57, 0.000, 0.000, 0.000,1.6252623,5.7215075,4.3997936,9.409699,5.384986, 21:50:01.421
, 68.17, 80.26, 153.31, 140.47, 99.91, 71.80, 91.03, 86.71, 0.000, 0.000, 0.000,1.6252623,5.7215075,4.3997936,9.409699,5.384986, 21:50:01.421
, 68.22, 80.32, 153.37, 140.35, 99.95, 71.67, 90.96, 86.59, 0.328, 0.452, 0.820,1.6252623,5.7215075,4.3997936,9.409699,5.384986, 21:50:01.422
, 68.27, 80.36, 153.42, 140.24, 100.01, 71.58, 91.00, 86.45, 0.000, 0.000, 0.000,1.6252623,5.7215075,4.3997936,9.409699,5.384986, 21:50:01.422
, 68.23, 80.32, 153.38, 140.33, 99.98, 71.68, 91.06, 86.54, 0.000, 0.000, 0.000,1.6252623,5.7215075,4.3997936,9.409699,5.384986, 21:50:01.422
, 68.16, 80.25, 153.30, 140.48, 99.90, 71.80, 91.04, 86.72, 0.000, 0.000, 0.000,1.6252623,5.7215075,4.3997936,9.409699,5.384986, 21:50:01.422
, 68.21, 80.30, 153.36, 140.38, 99.94, 71.71, 90.96, 86.64, 0.000, 0.000, 0.000,1.6252623,5.7215075,4.3997936,9.409699,5.384986, 21:50:01.422
, 68.28, 80.37, 153.43, 140.24, 100.01, 71.58, 90.98, 86.46, 0.000, 0.000, 0.000,1.6252623,5.7215075,4.3997936,9.409699,5.384986, 21:50:01.422
, 68.23, 80.32, 153.37, 140.32, 99.97, 71.66, 91.04, 86.53, 0.000, 0.000, 0.000,1.6252623,5.7215075,4.3997936,9.409699,5.384986, 21:50:01.422
, 68.16, 80.24, 153.30, 140.47, 99.90, 71.79, 91.03, 86.70, 0.000, 0.000, 0.000,1.6252623,5.7215075,4.3997936,9.409699,5.384986, 21:50:01.423
, 68.19, 80.28, 153.34, 140.42, 99.92, 71.74, 90.96, 86.67, 0.000, 0.000, 0.000,1.6252623,5.7215075,4.3997936,9.409699,5.384986, 21:50:01.423
, 68.27, 80.35, 153.42, 140.25, 100.00, 71.59, 90.96, 86.48, 0.328, 0.456, 0.818,1.6252623,5.7215075,4.3997936,9.409699,5.384986, 21:50:01.423
, 68.25, 80.33, 153.40, 140.28, 99.99, 71.64, 91.02, 86.50, 0.000, 0.000, 0.000,1.6252623,5.7215075,4.3997936,9.409699,5.384986, 21:50:01.423
, 68.18, 80.26, 153.33, 140.43, 99.92, 71.78, 91.04, 86.66, 0.000, 0.000, 0.000,1.6252623,5.7215075,4.3997936,9.409699,5.384986, 21:50:01.423
, 68.18, 80.26, 153.33, 140.44, 99.92, 71.77, 90.98, 86.69, 0.000, 0.000, 0.000,1.6252623,5.7215075,4.3997936,9.409699,5.384986, 21:50:01.423
, 68.27, 80.35, 153.42, 140.26, 100.00, 71.60, 90.97, 86.49, 0.000, 0.000, 0.000,1.6252623,5.7215075,4.3997936,9.409699,5.384986, 21:50:01.423
, 68.27, 80.34, 153.41, 140.26, 100.01, 71.61, 91.04, 86.47, 0.000, 0.000, 0.000,1.6252623,5.7215075,4.3997936,9.409699,5.384986, 21:50:01.423
, 68.20, 80.27, 153.33, 140.41, 99.94, 71.75, 91.05, 86.63, 0.000, 0.000, 0.000,1.6252623,5.7215075,4.3997936,9.409699,5.384986, 21:50:01.424
, 68.18, 80.25, 153.32, 140.46, 99.91, 71.78, 90.99, 86.71, 0.000, 0.000, 0.000,1.6252623,5.7215075,4.3997936,9.409699,5.384986, 21:50:01.424
, 68.25, 80.32, 153.39, 140.30, 99.97, 71.62, 90.94, 86.54, 0.000, 0.000, 0.000,1.6252623,5.7215075,4.3997936,9.409699,5.384986, 21:50:01.424
, 68.27, 80.34, 153.41, 140.25, 100.01, 71.60, 91.01, 86.47, 0.000, 0.000, 0.000,1.6252623,5.7215075,4.3997936,9.409699,5.384986, 21:50:01.424
, 68.22, 80.29, 153.36, 140.38, 99.96, 71.73, 91.05, 86.61, 0.318, 0.464, 0.824,1.6252623,5.7215075,4.3997936,9.409699,5.384986, 21:50:01.424
, 68.18, 80.25, 153.32, 140.47, 99.92, 71.80, 91.02, 86.72, 0.000, 0.000, 0.000,1.6252623,5.7215075,4.3997936,9.409699,5.384986, 21:50:01.424
, 68.26, 80.33, 153.40, 140.31, 99.99, 71.65, 90.96, 86.55, 0.000, 0.000, 0.000,1.6252623,5.7215075,4.3997936,9.409699,5.384986, 21:50:01.424
, 68.30, 80.36, 153.43, 140.23, 100.03, 71.59, 91.01, 86.45, 0.000, 0.000, 0.000,1.6252623,5.7215075,4.3997936,9.409699,5.384986, 21:50:01.424
, 68.24, 80.30, 153.37, 140.36, 99.98, 71.71, 91.06, 86.57, 0.000, 0.000, 0.000,1.6252623,5.7215075,4.3997936,9.409699,5.384986, 21:50:01.425
, 68.18, 80.24, 153.31, 140.48, 99.91, 71.81, 91.03, 86.73, 0.000, 0.000, 0.000,1.6252623,5.7215075,4.3997936,9.409699,5.384986, 21:50:01.425
, 68.24, 80.30, 153.38, 140.36, 99.96, 71.69, 90.96, 86.61, 0.000, 0.000, 0.000,1.6252623,5.7215075,4.3997936,9.409699,5.384986, 21:50:01.425
, 68.30, 80.36, 153.43, 140.24, 100.02, 71.59, 90.99, 86.46, 0.000, 0.000, 0.000,1.6252623,5.7215075,4.3997936,9.409699,5.384986, 21:50:01.425
, 68.26, 80.32, 153.39, 140.32, 99.99, 71.68, 91.05, 86.54, 0.000, 0.000, 0.000,1.6252623,5.7215075,4.3997936,9.409699,5.384986, 21:50:01.425
, 68.19, 80.25, 153.32, 140.47, 99.93, 71.81, 91.05, 86.70, 0.312, 0.462, 0.818,1.6252623,5.7215075,4.3997936,9.409699,5.384986, 21:50:01.425
, 68.22, 80.28, 153.35, 140.40, 99.94, 71.73, 90.97, 86.65, 0.000, 0.000, 0.000,1.6252623,5.7215075,4.3997936,9.409699,5.384986, 21:50:01.425
, 68.27, 80.33, 153.41, 140.25, 100.00, 71.60, 90.97, 86.48, 0.000, 0.000, 0.000,1.6252623,5.7215075,4.3997936,9.409699,5.384986, 21:50:01.426
, 68.26, 80.31, 153.39, 140.30, 100.00, 71.66, 91.04, 86.52, 0.000, 0.000, 0.000,1.6252623,5.7215075,4.3997936,9.409699,5.384986, 21:50:01.426
, 68.18, 80.23, 153.31, 140.45, 99.92, 71.79, 91.04, 86.69, 0.000, 0.000, 0.000,1.6252623,5.7215075,4.3997936,9.409699,5.384986, 21:50:01.426
, 68.21, 80.26, 153.34, 140.41, 99.93, 71.75, 90.98, 86.68, 0.000, 0.000, 0.000,1.6252623,5.7215075,4.3997936,9.409699,5.384986, 21:50:01.426
, 68.28, 80.33, 153.41, 140.24, 100.01, 71.59, 90.97, 86.48, 0.000, 0.000, 0.000,1.6252623,5.7215075,4.3997936,9.409699,5.384986, 21:50:01.426
, 68.26, 80.31, 153.39, 140.27, 100.00, 71.63, 91.03, 86.49, 0.000, 0.000, 0.000,1.6252623,5.7215075,4.3997936,9.409699,5.384986, 21:50:01.426
, 68.20, 80.25, 153.33, 140.41, 99.94, 71.77, 91.05, 86.65, 0.000, 0.000, 0.000,1.6252623,5.7215075,4.3997936,9.409699,5.384986, 21:50:01.426
, 68.21, 80.26, 153.34, 140.43, 99.94, 71.77, 91.01, 86.69, 0.000, 0.000, 0.000,1.6252623,5.7215075,4.3997936,9.409699,5.384986, 21:50:01.426
, 68.26, 80.31, 153.39, 140.27, 99.99, 71.62, 90.98, 86.52, 0.310, 0.466, 0.816,1.6252623,5.7215075,4.3997936,9.409699,5.384986, 21:50:01.427
, 68.26, 80.31, 153.39, 140.26, 100.01, 71.62, 91.03, 86.50, 0.000, 0.000, 0.000,1.6252623,5.7215075,4.3997936,9.409699,5.384986, 21:50:01.427
, 68.21, 80.25, 153.34, 140.39, 99.96, 71.74, 91.06, 86.63, 0.000, 0.000, 0.000,1.6252623,5.7215075,4.3997936,9.409699,5.384986, 21:50:01.427
, 68.17, 80.22, 153.30, 140.46, 99.91, 71.79, 91.02, 86.73, 0.000, 0.000, 0.000,1.6252623,5.7215075,4.3997936,9.409699,5.384986, 21:50:01.427
, 68.25, 80.29, 153.38, 140.29, 99.98, 71.63, 90.96, 86.55, 0.000, 0.000, 0.000,1.6252623,5.7215075,4.3997936,9.409699,5.384986, 21:50:01.427
, 68.28, 80.32, 153.41, 140.23, 100.02, 71.60, 91.02, 86.46, 0.000, 0.000, 0.000,1.6252623,5.7215075,4.3997936,9.409699,5.384986, 21:50:01.427
, 68.21, 80.25, 153.34, 140.37, 99.96, 71.73, 91.07, 86.61, 0.000, 0.000, 0.000,1.6252623,5.7215075,4.3997936,9.409699,5.384986, 21:50:01.427
, 68.17, 80.21, 153.30, 140.48, 99.90, 71.81, 91.02, 86.74, 0.000, 0.000, 0.000,1.6252623,5.7215075,4.3997936,9.409699,5.384986, 21:50:01.427
, 68.26, 80.29, 153.39, 140.32, 99.98, 71.66, 90.96, 86.58, 0.000, 0.000, 0.000,1.6252623,5.7215075,4.3997936,9.409699,5.384986, 21:50:01.428
, 68.29, 80.33, 153.42, 140.23, 100.03, 71.59, 91.01, 86.46, 0.000, 0.000, 0.000,1.6252623,5.7215075,4.3997936,9.409699,5.384986, 21:50:01.428
, 68.23, 80.26, 153.35, 140.35, 99.97, 71.71, 91.05, 86.58, 0.322, 0.464, 0.816,1.6252623,5.7215075,4.3997936,9.409699,5.384986, 21:50:01.428
, 68.18, 80.21, 153.30, 140.47, 99.91, 71.81, 91.03, 86.73, 0.000, 0.000, 0.000,1.6252623,5.7215075,4.3997936,9.409699,5.384986, 21:50:01.428
, 68.23, 80.26, 153.36, 140.37, 99.94, 71.70, 90.96, 86.63, 0.000, 0.000, 0.000,1.6252623,5.7215075,4.3997936,9.409699,5.384986, 21:50:01.428
, 68.30, 80.32, 153.42, 140.23, 100.02, 71.59, 90.99, 86.47, 0.000, 0.000, 0.000,1.6252623,5.7215075,4.3997936,9.409699,5.384986, 21:50:01.428
, 68.26, 80.28, 153.38, 140.31, 99.99, 71.68, 91.06, 86.55, 0.000, 0.000, 0.000,1.6252623,5.7215075,4.3997936,9.409699,5.384986, 21:50:01.428
, 68.20, 80.22, 153.31, 140.45, 99.92, 71.80, 91.05, 86.71, 0.000, 0.000, 0.000,1.6252623,5.7215075,4.3997936,9.409699,5.384986, 21:50:01.429
, 68.23, 80.25, 153.34, 140.40, 99.94, 71.73, 90.98, 86.66, 0.000, 0.000, 0.000,1.3074524,4.9742274,3.8982067,8.421915,4.7546034, 21:50:01.429
, 68.30, 80.32, 153.42, 140.24, 100.01, 71.59, 90.98, 86.48, 0.000, 0.000, 0.000,1.3074524,4.9742274,3.8982067,8.421915,4.7546034, 21:50:01.429
, 68.28, 80.30, 153.39, 140.29, 100.00, 71.65, 91.05, 86.52, 0.000, 0.000, 0.000,1.3074524,4.9742274,3.8982067,8.421915,4.7546034, 21:50:01.429
, 68.20, 80.22, 153.31, 140.45, 99.92, 71.79, 91.06, 86.69, 0.322, 0.462, 0.814,1.3074524,4.9742274,3.8982067,8.421915,4.7546034, 21:50:01.430
, 68.20, 80.22, 153.32, 140.44, 99.91, 71.77, 90.99, 86.71, 0.000, 0.000, 0.000,0.47131258,2.153204,2.2551665,3.1641426,2.8648703, 21:50:01.893
, 68.29, 80.31, 153.41, 140.25, 100.00, 71.60, 90.96, 86.50, 0.000, 0.000, 0.000,0.47131258,2.153204,2.2551665,3.1641426,2.8648703, 21:50:01.893
, 68.29, 80.30, 153.40, 140.27, 100.00, 71.64, 91.04, 86.50, 0.000, 0.000, 0.000,0.47131258,2.153204,2.2551665,3.1641426,2.8648703, 21:50:01.893
, 68.21, 80.23, 153.32, 140.42, 99.93, 71.78, 91.06, 86.67, 0.000, 0.000, 0.000,0.47131258,2.153204,2.2551665,3.1641426,2.8648703, 21:50:01.893
, 68.20, 80.21, 153.31, 140.46, 99.91, 71.79, 91.01, 86.73, 0.000, 0.000, 0.000,0.47131258,2.153204,2.2551665,3.1641426,2.8648703, 21:50:01.893
, 68.29, 80.30, 153.40, 140.27, 100.00, 71.62, 90.97, 86.53, 0.000, 0.000, 0.000,0.47131258,2.153204,2.2551665,3.1641426,2.8648703, 21:50:01.893
, 68.29, 80.31, 153.40, 140.25, 100.01, 71.62, 91.04, 86.49, 0.000, 0.000, 0.000,0.47131258,2.153204,2.2551665,3.1641426,2.8648703, 21:50:01.894
, 68.24, 80.25, 153.34, 140.38, 99.95, 71.75, 91.06, 86.62, 0.000, 0.000, 0.000,0.47131258,2.153204,2.2551665,3.1641426,2.8648703, 21:50:01.894
, 68.21, 80.21, 153.31, 140.47, 99.91, 71.81, 91.03, 86.73, 0.000, 0.000, 0.000,0.47131258,2.153204,2.2551665,3.1641426,2.8648703, 21:50:01.894
, 68.28, 80.29, 153.39, 140.30, 99.98, 71.65, 90.97, 86.56, 0.328, 0.454, 0.816,0.47131258,2.153204,2.2551665,3.1641426,2.8648703, 21:50:01.894
, 68.31, 80.32, 153.42, 140.24, 100.03, 71.61, 91.03, 86.47, 0.000, 0.000, 0.000,0.47131258,2.153204,2.2551665,3.1641426,2.8648703, 21:50:01.894
, 68.25, 80.26, 153.35, 140.36, 99.97, 71.73, 91.07, 86.59, 0.000, 0.000, 0.000,0.47131258,2.153204,2.2551665,3.1641426,2.8648703, 21:50:01.895
, 68.19, 80.19, 153.29, 140.47, 99.90, 71.82, 91.04, 86.74, 0.000, 0.000, 0.000,0.47131258,2.153204,2.2551665,3.1641426,2.8648703, 21:50:01.895
, 68.27, 80.27, 153.37, 140.33, 99.96, 71.68, 90.96, 86.60, 0.000, 0.000, 0.000,0.47131258,2.153204,2.2551665,3.1641426,2.8648703, 21:50:01.895
, 68.32, 80.32, 153.42, 140.22, 100.02, 71.59, 91.01, 86.47, 0.000, 0.000, 0.000,0.47131258,2.153204,2.2551665,3.1641426,2.8648703, 21:50:01.895
, 68.26, 80.25, 153.36, 140.33, 99.97, 71.70, 91.06, 86.57, 0.000, 0.000, 0.000,0.47131258,2.153204,2.2551665,3.1641426,2.8648703, 21:50:01.896
, 68.20, 80.20, 153.30, 140.47, 99.91, 71.81, 91.05, 86.73, 0.000, 0.000, 0.000,0.47131258,2.153204,2.2551665,3.1641426,2.8648703, 21:50:01.896
, 68.24, 80.24, 153.34, 140.38, 99.94, 71.71, 90.97, 86.66, 0.000, 0.000, 0.000,0.47131258,2.153204,2.2551665,3.1641426,2.8648703, 21:50:01.896
, 68.30, 80.30, 153.40, 140.24, 100.01, 71.59, 90.99, 86.50, 0.318, 0.452, 0.812,0.47131258,2.153204,2.2551665,3.1641426,2.8648703, 21:50:01.896
, 68.27, 80.26, 153.36, 140.31, 99.98, 71.67, 91.04, 86.56, 0.000, 0.000, 0.000,0.47131258,2.153204,2.2551665,3.1641426,2.8648703, 21:50:01.896
, 68.21, 80.20, 153.30, 140.45, 99.92, 71.80, 91.03, 86.72, 0.000, 0.000, 0.000,0.47131258,2.153204,2.2551665,3.1641426,2.8648703, 21:50:01.897
, 68.24, 80.23, 153.34, 140.41, 99.93, 71.74, 90.97, 86.69, 0.000, 0.000, 0.000,0.47131258,2.153204,2.2551665,3.1641426,2.8648703, 21:50:01.897
, 68.32, 80.31, 153.42, 140.24, 100.01, 71.59, 90.98, 86.49, 0.000, 0.000, 0.000,0.47131258,2.153204,2.2551665,3.1641426,2.8648703, 21:50:01.897
, 68.31, 80.29, 153.40, 140.28, 100.01, 71.65, 91.05, 86.51, 0.000, 0.000, 0.000,0.47131258,2.153204,2.2551665,3.1641426,2.8648703, 21:50:01.897
, 68.24, 80.22, 153.33, 140.44, 99.94, 71.79, 91.06, 86.68, 0.000, 0.000, 0.000,0.47131258,2.153204,2.2551665,3.1641426,2.8648703, 21:50:01.898
, 68.23, 80.21, 153.33, 140.44, 99.92, 71.77, 91.00, 86.71, 0.000, 0.000, 0.000,0.47131258,2.153204,2.2551665,3.1641426,2.8648703, 21:50:01.898
, 68.32, 80.30, 153.42, 140.26, 100.01, 71.60, 90.97, 86.51, 0.000, 0.000, 0.000,0.47131258,2.153204,2.2551665,3.1641426,2.8648703, 21:50:01.898
, 68.32, 80.30, 153.41, 140.26, 100.02, 71.62, 91.05, 86.49, 0.000, 0.000, 0.000,0.47131258,2.153204,2.2551665,3.1641426,2.8648703, 21:50:01.898
, 68.23, 80.21, 153.32, 140.42, 99.94, 71.76, 91.06, 86.66, 0.320, 0.452, 0.812,0.47131258,2.153204,2.2551665,3.1641426,2.8648703, 21:50:01.899
, 68.22, 80.21, 153.32, 140.46, 99.92, 71.78, 91.01, 86.72, 0.000, 0.000, 0.000,0.47131258,2.153204,2.2551665,3.1641426,2.8648703, 21:50:01.899
, 68.30, 80.28, 153.39, 140.29, 99.99, 71.62, 90.96, 86.53, 0.000, 0.000, 0.000,0.47131258,2.153204,2.2551665,3.1641426,2.8648703, 21:50:01.899
, 68.33, 80.31, 153.42, 140.24, 100.02, 71.60, 91.03, 86.46, 0.000, 0.000, 0.000,0.47131258,2.153204,2.2551665,3.1641426,2.8648703, 21:50:01.899
, 68.26, 80.24, 153.35, 140.38, 99.96, 71.73, 91.07, 86.61, 0.000, 0.000, 0.000,0.47131258,2.153204,2.2551665,3.1641426,2.8648703, 21:50:01.899
, 68.22, 80.20, 153.31, 140.48, 99.91, 71.80, 91.03, 86.73, 0.000, 0.000, 0.000,0.47131258,2.153204,2.2551665,3.1641426,2.8648703, 21:50:01.900
, 68.28, 80.26, 153.38, 140.33, 99.97, 71.65, 90.97, 86.58, 0.000, 0.000, 0.000,0.47131258,2.153204,2.2551665,3.1641426,2.8648703, 21:50:01.900
, 68.33, 80.30, 153.42, 140.24, 100.02, 71.59, 91.02, 86.47, 0.000, 0.000, 0.000,0.47131258,2.153204,2.2551665,3.1641426,2.8648703, 21:50:01.900
, 68.27, 80.25, 153.36, 140.36, 99.97, 71.71, 91.07, 86.58, 0.000, 0.000, 0.000,0.47131258,2.153204,2.2551665,3.1641426,2.8648703, 21:50:01.900
, 68.23, 80.20, 153.32, 140.48, 99.92, 71.81, 91.05, 86.73, 0.318, 0.452, 0.812,0.47131258,2.153204,2.2551665,3.1641426,2.8648703, 21:50:01.900
, 68.28, 80.26, 153.37, 140.36, 99.96, 71.68, 90.98, 86.61, 0.000, 0.000, 0.000,0.47131258,2.153204,2.2551665,3.1641426,2.8648703, 21:50:01.900
, 68.34, 80.31, 153.42, 140.24, 100.02, 71.59, 91.02, 86.47, 0.000, 0.000, 0.000,0.47131258,2.153204,2.2551665,3.1641426,2.8648703, 21:50:01.901
, 68.29, 80.26, 153.36, 140.35, 99.98, 71.69, 91.07, 86.58, 0.000, 0.000, 0.000,0.47131258,2.153204,2.2551665,3.1641426,2.8648703, 21:50:01.901
, 68.24, 80.21, 153.31, 140.48, 99.92, 71.81, 91.06, 86.73, 0.000, 0.000, 0.000,0.47131258,2.153204,2.2551665,3.1641426,2.8648703, 21:50:01.901
, 68.28, 80.25, 153.36, 140.40, 99.95, 71.72, 90.99, 86.66, 0.000, 0.000, 0.000,0.47131258,2.153204,2.2551665,3.1641426,2.8648703, 21:50:01.901
, 68.36, 80.33, 153.44, 140.25, 100.04, 71.59, 91.01, 86.49, 0.000, 0.000, 0.000,0.47131258,2.153204,2.2551665,3.1641426,2.8648703, 21:50:01.901
, 68.32, 80.28, 153.40, 140.33, 100.01, 71.68, 91.08, 86.55, 0.000, 0.000, 0.000,0.47131258,2.153204,2.2551665,3.1641426,2.8648703, 21:50:01.901
, 68.23, 80.20, 153.31, 140.49, 99.92, 71.81, 91.07, 86.74, 0.000, 0.000, 0.000,0.47131258,2.153204,2.2551665,3.1641426,2.8648703, 21:50:01.902
, 68.26, 80.22, 153.34, 140.44, 99.94, 71.76, 91.00, 86.72, 0.000, 0.000, 0.000,0.47131258,2.153204,2.2551665,3.1641426,2.8648703, 21:50:01.902
, 68.33, 80.30, 153.42, 140.27, 100.01, 71.61, 90.99, 86.53, 0.314, 0.444, 0.812,0.47131258,2.153204,2.2551665,3.1641426,2.8648703, 21:50:01.902
, 68.33, 80.28, 153.41, 140.30, 100.01, 71.66, 91.07, 86.54, 0.000, 0.000, 0.000,0.47131258,2.153204,2.2551665,3.1641426,2.8648703, 21:50:01.902
, 68.26, 80.22, 153.34, 140.45, 99.95, 71.79, 91.09, 86.71, 0.000, 0.000, 0.000,0.47131258,2.153204,2.2551665,3.1641426,2.8648703, 21:50:01.902
, 68.25, 80.21, 153.33, 140.47, 99.93, 71.79, 91.04, 86.75, 0.000, 0.000, 0.000,0.47131258,2.153204,2.2551665,3.1641426,2.8648703, 21:50:01.902
, 68.32, 80.28, 153.41, 140.30, 100.00, 71.62, 90.99, 86.56, 0.000, 0.000, 0.000,0.47131258,2.153204,2.2551665,3.1641426,2.8648703, 21:50:01.903
, 68.32, 80.28, 153.40, 140.29, 100.00, 71.64, 91.05, 86.55, 0.000, 0.000, 0.000,0.47131258,2.153204,2.2551665,3.1641426,2.8648703, 21:50:01.903
, 68.25, 80.21, 153.32, 140.44, 99.93, 71.78, 91.07, 86.71, 0.000, 0.000, 0.000,0.47131258,2.153204,2.2551665,3.1641426,2.8648703, 21:50:01.903
, 68.23, 80.18, 153.30, 140.49, 99.90, 71.81, 91.01, 86.79, 0.000, 0.000, 0.000,0.47131258,2.153204,2.2551665,3.1641426,2.8648703, 21:50:01.903
, 68.30, 80.25, 153.38, 140.33, 99.96, 71.65, 90.96, 86.62, 0.000, 0.000, 0.000,0.47131258,2.153204,2.2551665,3.1641426,2.8648703, 21:50:01.903
, 68.32, 80.28, 153.40, 140.28, 100.00, 71.62, 91.02, 86.55, 0.000, 0.000, 0.000,0.47131258,2.153204,2.2551665,3.1641426,2.8648703, 21:50:01.903
, 68.26, 80.22, 153.34, 140.41, 99.95, 71.75, 91.06, 86.69, 0.316, 0.446, 0.816,0.47131258,2.153204,2.2551665,3.1641426,2.8648703, 21:50:01.904
, 68.22, 80.18, 153.30, 140.50, 99.91, 71.82, 91.03, 86.81, 0.000, 0.000, 0.000,0.47131258,2.153204,2.2551665,3.1641426,2.8648703, 21:50:01.904
, 68.31, 80.26, 153.39, 140.34, 99.98, 71.67, 90.97, 86.64, 0.000, 0.000, 0.000,0.47131258,2.153204,2.2551665,3.1641426,2.8648703, 21:50:01.904
, 68.35, 80.29, 153.42, 140.26, 100.02, 71.61, 91.03, 86.53, 0.000, 0.000, 0.000,0.47131258,2.153204,2.2551665,3.1641426,2.8648703, 21:50:01.904
, 68.29, 80.24, 153.36, 140.38, 99.98, 71.73, 91.08, 86.65, 0.000, 0.000, 0.000,0.47131258,2.153204,2.2551665,3.1641426,2.8648703, 21:50:01.904
, 68.23, 80.18, 153.30, 140.50, 99.91, 71.83, 91.05, 86.80, 0.000, 0.000, 0.000,0.47131258,2.153204,2.2551665,3.1641426,2.8648703, 21:50:01.904
, 68.29, 80.23, 153.36, 140.39, 99.96, 71.71, 90.99, 86.69, 0.000, 0.000, 0.000,0.47131258,2.153204,2.2551665,3.1641426,2.8648703, 21:50:01.904
, 68.34, 80.28, 153.40, 140.27, 100.01, 71.61, 91.02, 86.55, 0.000, 0.000, 0.000,0.47131258,2.153204,2.2551665,3.1641426,2.8648703, 21:50:01.904
, 68.29, 80.24, 153.36, 140.35, 99.97, 71.70, 91.07, 86.64, 0.000, 0.000, 0.000,0.47131258,2.153204,2.2551665,3.1641426,2.8648703, 21:50:01.904
, 68.24, 80.18, 153.30, 140.48, 99.91, 71.82, 91.06, 86.79, 0.320, 0.452, 0.810,0.47131258,2.153204,2.2551665,3.1641426,2.8648703, 21:50:01.905
, 68.28, 80.22, 153.35, 140.41, 99.93, 71.73, 90.98, 86.72, 0.000, 0.000, 0.000,0.47131258,2.153204,2.2551665,3.1641426,2.8648703, 21:50:01.905
, 68.36, 80.30, 153.43, 140.25, 100.02, 71.59, 91.00, 86.53, 0.000, 0.000, 0.000,0.47131258,2.153204,2.2551665,3.1641426,2.8648703, 21:50:01.905
, 68.32, 80.26, 153.38, 140.32, 99.99, 71.67, 91.07, 86.58, 0.000, 0.000, 0.000,0.47131258,2.153204,2.2551665,3.1641426,2.8648703, 21:50:01.905
, 68.24, 80.18, 153.30, 140.47, 99.92, 71.81, 91.06, 86.76, 0.000, 0.000, 0.000,0.47131258,2.153204,2.2551665,3.1641426,2.8648703, 21:50:01.905
, 68.24, 80.18, 153.32, 140.45, 99.92, 71.77, 91.00, 86.76, 0.000, 0.000, 0.000,0.47131258,2.153204,2.2551665,3.1641426,2.8648703, 21:50:01.905
, 68.34, 80.28, 153.42, 140.26, 100.01, 71.61, 90.98, 86.55, 0.000, 0.000, 0.000,0.47131258,2.153204,2.2551665,3.1641426,2.8648703, 21:50:01.905
, 68.33, 80.26, 153.40, 140.29, 100.01, 71.65, 91.06, 86.56, 0.000, 0.000, 0.000,0.47131258,2.153204,2.2551665,3.1641426,2.8648703, 21:50:01.905
, 68.25, 80.18, 153.32, 140.45, 99.93, 71.79, 91.08, 86.73, 0.000, 0.000, 0.000,0.47131258,2.153204,2.2551665,3.1641426,2.8648703, 21:50:01.905
, 68.25, 80.19, 153.32, 140.47, 99.92, 71.79, 91.01, 86.77, 0.000, 0.000, 0.000,0.47131258,2.153204,2.2551665,3.1641426,2.8648703, 21:50:01.906
, 68.33, 80.26, 153.40, 140.29, 99.99, 71.62, 90.97, 86.58, 0.324, 0.458, 0.818,0.47131258,2.153204,2.2551665,3.1641426,2.8648703, 21:50:01.906
, 68.33, 80.26, 153.40, 140.28, 100.00, 71.62, 91.04, 86.55, 0.000, 0.000, 0.000,0.47131258,2.153204,2.2551665,3.1641426,2.8648703, 21:50:01.906
, 68.27, 80.20, 153.34, 140.42, 99.95, 71.76, 91.07, 86.69, 0.000, 0.000, 0.000,0.47131258,2.153204,2.2551665,3.1641426,2.8648703, 21:50:01.906
, 68.24, 80.17, 153.31, 140.48, 99.91, 71.80, 91.03, 86.78, 0.000, 0.000, 0.000,0.47131258,2.153204,2.2551665,3.1641426,2.8648703, 21:50:01.906
, 68.33, 80.25, 153.40, 140.31, 99.98, 71.64, 90.97, 86.60, 0.000, 0.000, 0.000,0.47131258,2.153204,2.2551665,3.1641426,2.8648703, 21:50:01.906
, 68.35, 80.28, 153.42, 140.26, 100.02, 71.60, 91.04, 86.52, 0.000, 0.000, 0.000,0.47131258,2.153204,2.2551665,3.1641426,2.8648703, 21:50:01.906
, 68.29, 80.22, 153.35, 140.38, 99.97, 71.73, 91.07, 86.65, 0.000, 0.000, 0.000,0.47131258,2.153204,2.2551665,3.1641426,2.8648703, 21:50:01.906
, 68.24, 80.16, 153.30, 140.49, 99.91, 71.81, 91.04, 86.78, 0.000, 0.000, 0.000,0.47131258,2.153204,2.2551665,3.1641426,2.8648703, 21:50:01.906
, 68.31, 80.23, 153.38, 140.35, 99.97, 71.67, 90.98, 86.63, 0.000, 0.000, 0.000,0.47131258,2.153204,2.2551665,3.1641426,2.8648703, 21:50:01.907
, 68.36, 80.29, 153.43, 140.24, 100.04, 71.59, 91.03, 86.49, 0.316, 0.458, 0.812,0.47131258,2.153204,2.2551665,3.1641426,2.8648703, 21:50:01.907
, 68.31, 80.23, 153.37, 140.36, 100.00, 71.70, 91.09, 86.60, 0.000, 0.000, 0.000,0.47131258,2.153204,2.2551665,3.1641426,2.8648703, 21:50:01.907
, 68.23, 80.16, 153.30, 140.50, 99.92, 71.81, 91.07, 86.77, 0.000, 0.000, 0.000,0.47131258,2.153204,2.2551665,3.1641426,2.8648703, 21:50:01.907
, 68.29, 80.21, 153.36, 140.40, 99.95, 71.71, 91.00, 86.68, 0.000, 0.000, 0.000,0.47131258,2.153204,2.2551665,3.1641426,2.8648703, 21:50:01.907
, 68.36, 80.28, 153.43, 140.26, 100.03, 71.59, 91.02, 86.51, 0.000, 0.000, 0.000,0.47131258,2.153204,2.2551665,3.1641426,2.8648703, 21:50:01.907
, 68.32, 80.24, 153.38, 140.34, 100.00, 71.68, 91.08, 86.59, 0.000, 0.000, 0.000,0.47131258,2.153204,2.2551665,3.1641426,2.8648703, 21:50:01.907
, 68.26, 80.18, 153.32, 140.49, 99.94, 71.81, 91.08, 86.75, 0.000, 0.000, 0.000,0.47131258,2.153204,2.2551665,3.1641426,2.8648703, 21:50:01.907
, 68.29, 80.21, 153.36, 140.43, 99.96, 71.74, 91.01, 86.71, 0.000, 0.000, 0.000,0.47131258,2.153204,2.2551665,3.1641426,2.8648703, 21:50:01.907
, 68.35, 80.27, 153.42, 140.28, 100.03, 71.60, 91.01, 86.52, 0.000, 0.000, 0.000,0.47131258,2.153204,2.2551665,3.1641426,2.8648703, 21:50:01.907
, 68.33, 80.25, 153.40, 140.33, 100.02, 71.66, 91.09, 86.56, 0.000, 0.000, 0.000,0.47131258,2.153204,2.2551665,3.1641426,2.8648703, 21:50:01.908
, 68.26, 80.17, 153.32, 140.48, 99.95, 71.80, 91.09, 86.73, 0.306, 0.452, 0.818,0.47131258,2.153204,2.2551665,3.1641426,2.8648703, 21:50:01.908
, 68.26, 80.18, 153.33, 140.47, 99.94, 71.77, 91.02, 86.74, 0.000, 0.000, 0.000,0.47131258,2.153204,2.2551665,3.1641426,2.8648703, 21:50:01.908
, 68.34, 80.26, 153.42, 140.29, 100.03, 71.61, 91.01, 86.54, 0.000, 0.000, 0.000,0.47131258,2.153204,2.2551665,3.1641426,2.8648703, 21:50:01.908
, 68.34, 80.25, 153.41, 140.30, 100.04, 71.64, 91.07, 86.53, 0.000, 0.000, 0.000,0.47131258,2.153204,2.2551665,3.1641426,2.8648703, 21:50:01.908
, 68.25, 80.17, 153.33, 140.45, 99.96, 71.78, 91.09, 86.70, 0.000, 0.000, 0.000,0.47131258,2.153204,2.2551665,3.1641426,2.8648703, 21:50:01.908
, 68.24, 80.15, 153.32, 140.49, 99.94, 71.80, 91.04, 86.77, 0.000, 0.000, 0.000,0.47131258,2.153204,2.2551665,3.1641426,2.8648703, 21:50:01.908
, 68.34, 80.25, 153.42, 140.30, 100.04, 71.63, 91.01, 86.57, 0.000, 0.000, 0.000,0.47131258,2.153204,2.2551665,3.1641426,2.8648703, 21:50:01.908
, 68.35, 80.26, 153.42, 140.28, 100.05, 71.63, 91.08, 86.53, 0.000, 0.000, 0.000,0.47131258,2.153204,2.2551665,3.1641426,2.8648703, 21:50:01.908
, 68.28, 80.19, 153.34, 140.43, 99.98, 71.76, 91.10, 86.68, 0.000, 0.000, 0.000,0.47131258,2.153204,2.2551665,3.1641426,2.8648703, 21:50:01.909
, 68.24, 80.15, 153.31, 140.51, 99.94, 71.82, 91.06, 86.80, 0.316, 0.454, 0.816,0.47131258,2.153204,2.2551665,3.1641426,2.8648703, 21:50:01.909
, 68.33, 80.23, 153.40, 140.35, 100.01, 71.66, 90.99, 86.62, 0.000, 0.000, 0.000,0.47131258,2.153204,2.2551665,3.1641426,2.8648703, 21:50:01.909
, 68.35, 80.25, 153.41, 140.28, 100.04, 71.62, 91.05, 86.54, 0.000, 0.000, 0.000,0.47131258,2.153204,2.2551665,3.1641426,2.8648703, 21:50:01.909
, 68.29, 80.18, 153.35, 140.40, 99.98, 71.74, 91.09, 86.68, 0.000, 0.000, 0.000,0.47131258,2.153204,2.2551665,3.1641426,2.8648703, 21:50:01.909
, 68.24, 80.14, 153.30, 140.51, 99.92, 71.82, 91.05, 86.81, 0.000, 0.000, 0.000,0.47131258,2.153204,2.2551665,3.1641426,2.8648703, 21:50:01.909
, 68.32, 80.21, 153.38, 140.37, 99.99, 71.68, 90.99, 86.67, 0.000, 0.000, 0.000,0.47131258,2.153204,2.2551665,3.1641426,2.8648703, 21:50:01.909
, 68.38, 80.27, 153.44, 140.25, 100.06, 71.59, 91.04, 86.52, 0.000, 0.000, 0.000,0.47131258,2.153204,2.2551665,3.1641426,2.8648703, 21:50:01.909
, 68.33, 80.22, 153.39, 140.36, 100.02, 71.70, 91.10, 86.61, 0.000, 0.000, 0.000,0.47131258,2.153204,2.2551665,3.1641426,2.8648703, 21:50:01.909
, 68.25, 80.14, 153.32, 140.50, 99.95, 71.82, 91.10, 86.79, 0.000, 0.000, 0.000,0.47131258,2.153204,2.2551665,3.1641426,2.8648703, 21:50:01.910
, 68.29, 80.18, 153.36, 140.42, 99.98, 71.72, 91.01, 86.72, 0.000, 0.000, 0.000,0.47131258,2.153204,2.2551665,3.1641426,2.8648703, 21:50:01.910
, 68.39, 80.28, 153.45, 140.26, 100.08, 71.59, 91.05, 86.53, 0.314, 0.454, 0.812,0.47131258,2.153204,2.2551665,3.1641426,2.8648703, 21:50:01.910
, 68.35, 80.23, 153.41, 140.34, 100.05, 71.67, 91.12, 86.59, 0.000, 0.000, 0.000,0.47131258,2.153204,2.2551665,3.1641426,2.8648703, 21:50:01.910
, 68.27, 80.15, 153.33, 140.49, 99.97, 71.80, 91.11, 86.77, 0.000, 0.000, 0.000,0.47131258,2.153204,2.2551665,3.1641426,2.8648703, 21:50:01.910
, 68.30, 80.17, 153.36, 140.46, 99.98, 71.75, 91.04, 86.75, 0.000, 0.000, 0.000,0.47131258,2.153204,2.2551665,3.1641426,2.8648703, 21:50:01.910
, 68.38, 80.26, 153.44, 140.28, 100.06, 71.60, 91.04, 86.55, 0.000, 0.000, 0.000,0.47131258,2.153204,2.2551665,3.1641426,2.8648703, 21:50:01.910
, 68.36, 80.24, 153.42, 140.32, 100.05, 71.65, 91.11, 86.57, 0.000, 0.000, 0.000,0.47131258,2.153204,2.2551665,3.1641426,2.8648703, 21:50:01.910
, 68.28, 80.16, 153.34, 140.48, 99.98, 71.79, 91.12, 86.74, 0.000, 0.000, 0.000,0.2936127,1.142981,1.1870908,2.1912465,1.6278152, 21:50:02.373
, 68.28, 80.16, 153.34, 140.49, 99.96, 71.78, 91.06, 86.78, 0.000, 0.000, 0.000,0.2936127,1.142981,1.1870908,2.1912465,1.6278152, 21:50:02.373
, 68.36, 80.24, 153.42, 140.30, 100.04, 71.61, 91.03, 86.59, 0.000, 0.000, 0.000,0.2936127,1.142981,1.1870908,2.1912465,1.6278152, 21:50:02.373
, 68.37, 80.25, 153.42, 140.30, 100.06, 71.63, 91.10, 86.56, 0.000, 0.000, 0.000,0.2936127,1.142981,1.1870908,2.1912465,1.6278152, 21:50:02.373
, 68.31, 80.18, 153.36, 140.44, 100.01, 71.77, 91.14, 86.72, 0.320, 0.462, 0.806,0.2936127,1.142981,1.1870908,2.1912465,1.6278152, 21:50:02.373
, 68.28, 80.16, 153.34, 140.50, 99.97, 71.80, 91.09, 86.80, 0.000, 0.000, 0.000,0.2936127,1.142981,1.1870908,2.1912465,1.6278152, 21:50:02.373
, 68.38, 80.26, 153.44, 140.31, 100.06, 71.63, 91.04, 86.60, 0.000, 0.000, 0.000,0.2936127,1.142981,1.1870908,2.1912465,1.6278152, 21:50:02.373
, 68.39, 80.27, 153.45, 140.28, 100.09, 71.61, 91.11, 86.54, 0.000, 0.000, 0.000,0.2936127,1.142981,1.1870908,2.1912465,1.6278152, 21:50:02.374
, 68.32, 80.20, 153.37, 140.42, 100.02, 71.74, 91.14, 86.68, 0.000, 0.000, 0.000,0.2936127,1.142981,1.1870908,2.1912465,1.6278152, 21:50:02.374
, 68.28, 80.15, 153.33, 140.50, 99.97, 71.81, 91.10, 86.79, 0.000, 0.000, 0.000,0.2936127,1.142981,1.1870908,2.1912465,1.6278152, 21:50:02.374
, 68.35, 80.22, 153.40, 140.36, 100.03, 71.66, 91.04, 86.64, 0.000, 0.000, 0.000,0.2936127,1.142981,1.1870908,2.1912465,1.6278152, 21:50:02.374
, 68.40, 80.27, 153.45, 140.26, 100.09, 71.60, 91.09, 86.52, 0.000, 0.000, 0.000,0.2936127,1.142981,1.1870908,2.1912465,1.6278152, 21:50:02.374
, 68.34, 80.22, 153.40, 140.38, 100.04, 71.72, 91.14, 86.63, 0.000, 0.000, 0.000,0.2936127,1.142981,1.1870908,2.1912465,1.6278152, 21:50:02.374
, 68.28, 80.15, 153.33, 140.51, 99.98, 71.82, 91.11, 86.78, 0.320, 0.462, 0.818,0.2936127,1.142981,1.1870908,2.1912465,1.6278152, 21:50:02.374
, 68.33, 80.20, 153.38, 140.40, 100.01, 71.70, 91.03, 86.67, 0.000, 0.000, 0.000,0.2936127,1.142981,1.1870908,2.1912465,1.6278152, 21:50:02.374
, 68.38, 80.25, 153.43, 140.28, 100.07, 71.60, 91.06, 86.53, 0.000, 0.000, 0.000,0.2936127,1.142981,1.1870908,2.1912465,1.6278152, 21:50:02.374
, 68.34, 80.21, 153.39, 140.37, 100.03, 71.70, 91.11, 86.62, 0.000, 0.000, 0.000,0.2936127,1.142981,1.1870908,2.1912465,1.6278152, 21:50:02.374
, 68.28, 80.15, 153.33, 140.50, 99.98, 71.82, 91.10, 86.78, 0.000, 0.000, 0.000,0.2936127,1.142981,1.1870908,2.1912465,1.6278152, 21:50:02.375
, 68.32, 80.19, 153.38, 140.42, 100.01, 71.73, 91.04, 86.71, 0.000, 0.000, 0.000,0.2936127,1.142981,1.1870908,2.1912465,1.6278152, 21:50:02.375
, 68.38, 80.24, 153.44, 140.28, 100.08, 71.60, 91.06, 86.55, 0.000, 0.000, 0.000,0.2936127,1.142981,1.1870908,2.1912465,1.6278152, 21:50:02.375
, 68.36, 80.23, 153.41, 140.33, 100.07, 71.67, 91.12, 86.59, 0.000, 0.000, 0.000,0.2936127,1.142981,1.1870908,2.1912465,1.6278152, 21:50:02.375
, 68.30, 80.16, 153.35, 140.49, 100.00, 71.80, 91.13, 86.76, 0.000, 0.000, 0.000,0.2936127,1.142981,1.1870908,2.1912465,1.6278152, 21:50:02.375
, 68.32, 80.18, 153.37, 140.46, 100.00, 71.76, 91.06, 86.75, 0.000, 0.000, 0.000,0.2936127,1.142981,1.1870908,2.1912465,1.6278152, 21:50:02.375
, 68.41, 80.27, 153.46, 140.28, 100.09, 71.60, 91.05, 86.54, 0.316, 0.458, 0.816,0.2936127,1.142981,1.1870908,2.1912465,1.6278152, 21:50:02.375
, 68.39, 80.25, 153.43, 140.31, 100.08, 71.65, 91.11, 86.56, 0.000, 0.000, 0.000,0.2936127,1.142981,1.1870908,2.1912465,1.6278152, 21:50:02.375
, 68.31, 80.17, 153.35, 140.47, 100.00, 71.78, 91.11, 86.73, 0.000, 0.000, 0.000,0.2936127,1.142981,1.1870908,2.1912465,1.6278152, 21:50:02.375
, 68.30, 80.15, 153.34, 140.50, 99.97, 71.78, 91.06, 86.78, 0.000, 0.000, 0.000,0.2936127,1.142981,1.1870908,2.1912465,1.6278152, 21:50:02.376
, 68.38, 80.24, 153.43, 140.32, 100.05, 71.61, 91.02, 86.59, 0.000, 0.000, 0.000,0.2936127,1.142981,1.1870908,2.1912465,1.6278152, 21:50:02.376
, 68.39, 80.25, 153.44, 140.30, 100.07, 71.62, 91.09, 86.55, 0.000, 0.000, 0.000,0.2936127,1.142981,1.1870908,2.1912465,1.6278152, 21:50:02.376
, 68.32, 80.18, 153.36, 140.45, 100.01, 71.76, 91.13, 86.71, 0.000, 0.000, 0.000,0.2936127,1.142981,1.1870908,2.1912465,1.6278152, 21:50:02.376
, 68.29, 80.15, 153.34, 140.51, 99.98, 71.80, 91.08, 86.80, 0.000, 0.000, 0.000,0.2936127,1.142981,1.1870908,2.1912465,1.6278152, 21:50:02.376
, 68.36, 80.22, 153.42, 140.35, 100.04, 71.64, 91.03, 86.62, 0.000, 0.000, 0.000,0.2936127,1.142981,1.1870908,2.1912465,1.6278152, 21:50:02.376
, 68.38, 80.24, 153.43, 140.30, 100.07, 71.61, 91.09, 86.55, 0.318, 0.456, 0.814,0.2936127,1.142981,1.1870908,2.1912465,1.6278152, 21:50:02.376
, 68.32, 80.17, 153.37, 140.43, 100.02, 71.73, 91.12, 86.69, 0.000, 0.000, 0.000,0.2936127,1.142981,1.1870908,2.1912465,1.6278152, 21:50:02.376
, 68.30, 80.15, 153.34, 140.51, 99.99, 71.80, 91.09, 86.79, 0.000, 0.000, 0.000,0.2936127,1.142981,1.1870908,2.1912465,1.6278152, 21:50:02.376
, 68.36, 80.21, 153.41, 140.37, 100.04, 71.66, 91.04, 86.64, 0.000, 0.000, 0.000,0.2936127,1.142981,1.1870908,2.1912465,1.6278152, 21:50:02.377
, 68.40, 80.25, 153.44, 140.28, 100.09, 71.59, 91.08, 86.53, 0.000, 0.000, 0.000,0.2936127,1.142981,1.1870908,2.1912465,1.6278152, 21:50:02.377
, 68.34, 80.19, 153.39, 140.39, 100.04, 71.70, 91.13, 86.65, 0.000, 0.000, 0.000,0.2936127,1.142981,1.1870908,2.1912465,1.6278152, 21:50:02.377
, 68.29, 80.14, 153.34, 140.51, 99.99, 71.81, 91.11, 86.79, 0.000, 0.000, 0.000,0.2936127,1.142981,1.1870908,2.1912465,1.6278152, 21:50:02.377
, 68.34, 80.18, 153.39, 140.41, 100.03, 71.70, 91.04, 86.69, 0.000, 0.000, 0.000,0.2936127,1.142981,1.1870908,2.1912465,1.6278152, 21:50:02.377
, 68.41, 80.24, 153.44, 140.28, 100.09, 71.59, 91.07, 86.54, 0.000, 0.000, 0.000,0.2936127,1.142981,1.1870908,2.1912465,1.6278152, 21:50:02.377
, 68.36, 80.20, 153.40, 140.37, 100.05, 71.68, 91.12, 86.62, 0.000, 0.000, 0.000,0.2936127,1.142981,1.1870908,2.1912465,1.6278152, 21:50:02.377
, 68.30, 80.13, 153.34, 140.50, 99.99, 71.80, 91.11, 86.78, 0.320, 0.460, 0.816,0.2936127,1.142981,1.1870908,2.1912465,1.6278152, 21:50:02.377
, 68.34, 80.18, 153.38, 140.43, 100.02, 71.73, 91.05, 86.72, 0.000, 0.000, 0.000,0.2936127,1.142981,1.1870908,2.1912465,1.6278152, 21:50:02.377
, 68.42, 80.25, 153.46, 140.28, 100.10, 71.59, 91.06, 86.54, 0.000, 0.000, 0.000,0.2936127,1.142981,1.1870908,2.1912465,1.6278152, 21:50:02.378
, 68.38, 80.21, 153.42, 140.34, 100.07, 71.66, 91.13, 86.58, 0.000, 0.000, 0.000,0.2936127,1.142981,1.1870908,2.1912465,1.6278152, 21:50:02.378
, 68.31, 80.13, 153.34, 140.49, 99.99, 71.79, 91.13, 86.76, 0.000, 0.000, 0.000,0.2936127,1.142981,1.1870908,2.1912465,1.6278152, 21:50:02.378
, 68.32, 80.15, 153.36, 140.47, 100.00, 71.75, 91.06, 86.76, 0.000, 0.000, 0.000,0.2936127,1.142981,1.1870908,2.1912465,1.6278152, 21:50:02.378
, 68.41, 80.23, 153.44, 140.29, 100.09, 71.60, 91.05, 86.56, 0.000, 0.000, 0.000,0.2936127,1.142981,1.1870908,2.1912465,1.6278152, 21:50:02.378
, 68.39, 80.22, 153.43, 140.31, 100.08, 71.63, 91.12, 86.57, 0.000, 0.000, 0.000,0.2936127,1.142981,1.1870908,2.1912465,1.6278152, 21:50:02.378
, 68.33, 80.15, 153.36, 140.46, 100.01, 71.77, 91.14, 86.73, 0.000, 0.000, 0.000,0.2936127,1.142981,1.1870908,2.1912465,1.6278152, 21:50:02.378
, 68.31, 80.13, 153.35, 140.49, 99.99, 71.78, 91.08, 86.79, 0.318, 0.456, 0.816,0.2936127,1.142981,1.1870908,2.1912465,1.6278152, 21:50:02.379
, 68.40, 80.22, 153.43, 140.32, 100.07, 71.61, 91.04, 86.59, 0.000, 0.000, 0.000,0.2936127,1.142981,1.1870908,2.1912465,1.6278152, 21:50:02.379
, 68.40, 80.22, 153.43, 140.30, 100.08, 71.61, 91.10, 86.56, 0.000, 0.000, 0.000,0.2936127,1.142981,1.1870908,2.1912465,1.6278152, 21:50:02.379
, 68.33, 80.15, 153.36, 140.44, 100.02, 71.75, 91.13, 86.71, 0.000, 0.000, 0.000,0.2936127,1.142981,1.1870908,2.1912465,1.6278152, 21:50:02.379
, 68.30, 80.11, 153.33, 140.51, 99.98, 71.80, 91.09, 86.81, 0.000, 0.000, 0.000,0.2936127,1.142981,1.1870908,2.1912465,1.6278152, 21:50:02.379
, 68.38, 80.19, 153.42, 140.34, 100.06, 71.64, 91.04, 86.63, 0.000, 0.000, 0.000,0.2936127,1.142981,1.1870908,2.1912465,1.6278152, 21:50:02.379
, 68.41, 80.22, 153.44, 140.27, 100.09, 71.60, 91.09, 86.55, 0.000, 0.000, 0.000,0.2936127,1.142981,1.1870908,2.1912465,1.6278152, 21:50:02.379
, 68.35, 80.16, 153.38, 140.40, 100.03, 71.72, 91.14, 86.67, 0.000, 0.000, 0.000,0.2936127,1.142981,1.1870908,2.1912465,1.6278152, 21:50:02.380
, 68.30, 80.12, 153.33, 140.50, 99.98, 71.80, 91.10, 86.80, 0.000, 0.000, 0.000,0.2936127,1.142981,1.1870908,2.1912465,1.6278152, 21:50:02.380
, 68.38, 80.19, 153.41, 140.37, 100.04, 71.67, 91.04, 86.66, 0.000, 0.000, 0.000,0.2936127,1.142981,1.1870908,2.1912465,1.6278152, 21:50:02.380
, 68.42, 80.23, 153.44, 140.27, 100.09, 71.59, 91.09, 86.54, 0.320, 0.454, 0.818,0.2936127,1.142981,1.1870908,2.1912465,1.6278152, 21:50:02.380
, 68.37, 80.18, 153.39, 140.38, 100.04, 71.70, 91.13, 86.64, 0.000, 0.000, 0.000,0.2936127,1.142981,1.1870908,2.1912465,1.6278152, 21:50:02.380
, 68.30, 80.11, 153.32, 140.51, 99.97, 71.81, 91.11, 86.80, 0.000, 0.000, 0.000,0.2936127,1.142981,1.1870908,2.1912465,1.6278152, 21:50:02.380
, 68.36, 80.17, 153.39, 140.40, 100.02, 71.70, 91.04, 86.70, 0.000, 0.000, 0.000,0.2936127,1.142981,1.1870908,2.1912465,1.6278152, 21:50:02.380
, 68.42, 80.23, 153.44, 140.26, 100.08, 71.58, 91.06, 86.54, 0.000, 0.000, 0.000,0.2936127,1.142981,1.1870908,2.1912465,1.6278152, 21:50:02.380
, 68.39, 80.20, 153.41, 140.34, 100.07, 71.67, 91.13, 86.60, 0.000, 0.000, 0.000,0.2936127,1.142981,1.1870908,2.1912465,1.6278152, 21:50:02.380
, 68.31, 80.11, 153.32, 140.50, 99.99, 71.81, 91.13, 86.79, 0.000, 0.000, 0.000,0.2936127,1.142981,1.1870908,2.1912465,1.6278152, 21:50:02.380
, 68.34, 80.14, 153.37, 140.44, 100.01, 71.74, 91.06, 86.75, 0.000, 0.000, 0.000,0.2936127,1.142981,1.1870908,2.1912465,1.6278152, 21:50:02.381
, 68.43, 80.22, 153.45, 140.27, 100.09, 71.59, 91.07, 86.55, 0.000, 0.000, 0.000,0.2936127,1.142981,1.1870908,2.1912465,1.6278152, 21:50:02.381
, 68.40, 80.20, 153.42, 140.32, 100.08, 71.65, 91.12, 86.58, 0.000, 0.000, 0.000,0.2936127,1.142981,1.1870908,2.1912465,1.6278152, 21:50:02.381
, 68.33, 80.13, 153.35, 140.47, 100.01, 71.79, 91.13, 86.75, 0.322, 0.458, 0.820,0.2936127,1.142981,1.1870908,2.1912465,1.6278152, 21:50:02.381
, 68.33, 80.13, 153.35, 140.47, 99.99, 71.77, 91.06, 86.77, 0.000, 0.000, 0.000,0.2936127,1.142981,1.1870908,2.1912465,1.6278152, 21:50:02.381
, 68.42, 80.21, 153.44, 140.29, 100.08, 71.60, 91.04, 86.56, 0.000, 0.000, 0.000,0.2936127,1.142981,1.1870908,2.1912465,1.6278152, 21:50:02.381
, 68.42, 80.21, 153.44, 140.30, 100.10, 71.63, 91.12, 86.55, 0.000, 0.000, 0.000,0.2936127,1.142981,1.1870908,2.1912465,1.6278152, 21:50:02.381
, 68.34, 80.14, 153.36, 140.46, 100.02, 71.78, 91.14, 86.72, 0.000, 0.000, 0.000,0.2936127,1.142981,1.1870908,2.1912465,1.6278152, 21:50:02.381
, 68.33, 80.12, 153.35, 140.49, 100.00, 71.80, 91.08, 86.79, 0.000, 0.000, 0.000,0.2936127,1.142981,1.1870908,2.1912465,1.6278152, 21:50:02.381
, 68.42, 80.21, 153.44, 140.32, 100.08, 71.63, 91.04, 86.59, 0.000, 0.000, 0.000,0.2936127,1.142981,1.1870908,2.1912465,1.6278152, 21:50:02.382
, 68.44, 80.23, 153.45, 140.29, 100.11, 71.62, 91.11, 86.54, 0.000, 0.000, 0.000,0.2936127,1.142981,1.1870908,2.1912465,1.6278152, 21:50:02.382
, 68.37, 80.15, 153.38, 140.43, 100.04, 71.75, 91.14, 86.69, 0.000, 0.000, 0.000,0.2936127,1.142981,1.1870908,2.1912465,1.6278152, 21:50:02.382
, 68.32, 80.11, 153.34, 140.52, 99.99, 71.81, 91.10, 86.81, 0.322, 0.458, 0.816,0.2936127,1.142981,1.1870908,2.1912465,1.6278152, 21:50:02.382
, 68.41, 80.20, 153.43, 140.35, 100.07, 71.65, 91.04, 86.63, 0.000, 0.000, 0.000,0.2936127,1.142981,1.1870908,2.1912465,1.6278152, 21:50:02.382
, 68.43, 80.22, 153.44, 140.29, 100.10, 71.61, 91.10, 86.54, 0.000, 0.000, 0.000,0.2936127,1.142981,1.1870908,2.1912465,1.6278152, 21:50:02.382
, 68.36, 80.15, 153.37, 140.41, 100.03, 71.73, 91.13, 86.68, 0.000, 0.000, 0.000,0.2936127,1.142981,1.1870908,2.1912465,1.6278152, 21:50:02.382
, 68.32, 80.10, 153.33, 140.51, 99.98, 71.82, 91.09, 86.81, 0.000, 0.000, 0.000,0.2936127,1.142981,1.1870908,2.1912465,1.6278152, 21:50:02.382
, 68.39, 80.17, 153.40, 140.38, 100.04, 71.69, 91.03, 86.67, 0.000, 0.000, 0.000,0.2936127,1.142981,1.1870908,2.1912465,1.6278152, 21:50:02.382
, 68.44, 80.22, 153.45, 140.27, 100.11, 71.59, 91.08, 86.53, 0.000, 0.000, 0.000,0.2936127,1.142981,1.1870908,2.1912465,1.6278152, 21:50:02.383
, 68.38, 80.16, 153.39, 140.37, 100.05, 71.70, 91.13, 86.63, 0.000, 0.000, 0.000,0.2936127,1.142981,1.1870908,2.1912465,1.6278152, 21:50:02.383
, 68.32, 80.10, 153.33, 140.50, 99.99, 71.81, 91.12, 86.79, 0.000, 0.000, 0.000,0.2936127,1.142981,1.1870908,2.1912465,1.6278152, 21:50:02.383
, 68.37, 80.15, 153.38, 140.41, 100.03, 71.72, 91.05, 86.71, 0.000, 0.000, 0.000,0.2936127,1.142981,1.1870908,2.1912465,1.6278152, 21:50:02.383
, 68.44, 80.22, 153.45, 140.27, 100.10, 71.59, 91.07, 86.53, 0.318, 0.458, 0.816,0.2936127,1.142981,1.1870908,2.1912465,1.6278152, 21:50:02.383
, 68.40, 80.18, 153.41, 140.34, 100.07, 71.67, 91.13, 86.60, 0.000, 0.000, 0.000,0.2936127,1.142981,1.1870908,2.1912465,1.6278152, 21:50:02.383
, 68.33, 80.11, 153.34, 140.49, 100.00, 71.80, 91.13, 86.76, 0.000, 0.000, 0.000,0.2936127,1.142981,1.1870908,2.1912465,1.6278152, 21:50:02.383
, 68.34, 80.12, 153.36, 140.45, 100.01, 71.76, 91.07, 86.75, 0.000, 0.000, 0.000,0.2936127,1.142981,1.1870908,2.1912465,1.6278152, 21:50:02.383
, 68.41, 80.19, 153.43, 140.29, 100.08, 71.60, 91.05, 86.56, 0.000, 0.000, 0.000,0.2936127,1.142981,1.1870908,2.1912465,1.6278152, 21:50:02.383
, 68.40, 80.18, 153.41, 140.32, 100.07, 71.65, 91.11, 86.58, 0.000, 0.000, 0.000,0.2936127,1.142981,1.1870908,2.1912465,1.6278152, 21:50:02.383
, 68.34, 80.11, 153.34, 140.46, 100.00, 71.79, 91.12, 86.75, 0.000, 0.000, 0.000,0.2936127,1.142981,1.1870908,2.1912465,1.6278152, 21:50:02.384
, 68.36, 80.13, 153.37, 140.46, 100.01, 71.77, 91.07, 86.76, 0.000, 0.000, 0.000,0.2936127,1.142981,1.1870908,2.1912465,1.6278152, 21:50:02.384
, 68.44, 80.22, 153.45, 140.28, 100.09, 71.61, 91.05, 86.56, 0.000, 0.000, 0.000,0.2936127,1.142981,1.1870908,2.1912465,1.6278152, 21:50:02.384
, 68.42, 80.20, 153.43, 140.30, 100.09, 71.64, 91.11, 86.55, 0.316, 0.450, 0.818,0.2936127,1.142981,1.1870908,2.1912465,1.6278152, 21:50:02.384
, 68.35, 80.13, 153.36, 140.44, 100.02, 71.77, 91.14, 86.72, 0.000, 0.000, 0.000,0.2936127,1.142981,1.1870908,2.1912465,1.6278152, 21:50:02.384
, 68.34, 80.12, 153.35, 140.49, 100.00, 71.80, 91.09, 86.79, 0.000, 0.000, 0.000,0.2936127,1.142981,1.1870908,2.1912465,1.6278152, 21:50:02.384
, 68.42, 80.20, 153.43, 140.32, 100.07, 71.64, 91.04, 86.61, 0.000, 0.000, 0.000,0.2936127,1.142981,1.1870908,2.1912465,1.6278152, 21:50:02.384
, 68.44, 80.21, 153.44, 140.29, 100.10, 71.62, 91.11, 86.55, 0.000, 0.000, 0.000,0.2936127,1.142981,1.1870908,2.1912465,1.6278152, 21:50:02.384
, 68.37, 80.14, 153.37, 140.43, 100.03, 71.75, 91.14, 86.70, 0.000, 0.000, 0.000,0.2936127,1.142981,1.1870908,2.1912465,1.6278152, 21:50:02.385
, 68.35, 80.12, 153.35, 140.50, 99.99, 71.81, 91.10, 86.80, 0.000, 0.000, 0.000,0.2936127,1.142981,1.1870908,2.1912465,1.6278152, 21:50:02.385
, 68.42, 80.19, 153.43, 140.36, 100.06, 71.66, 91.04, 86.64, 0.000, 0.000, 0.000,0.2936127,1.142981,1.1870908,2.1912465,1.6278152, 21:50:02.385
, 68.46, 80.23, 153.46, 140.28, 100.11, 71.60, 91.10, 86.54, 0.000, 0.000, 0.000,0.2936127,1.142981,1.1870908,2.1912465,1.6278152, 21:50:02.385
, 68.40, 80.17, 153.39, 140.40, 100.05, 71.71, 91.14, 86.66, 0.000, 0.000, 0.000,0.2936127,1.142981,1.1870908,2.1912465,1.6278152, 21:50:02.385
, 68.35, 80.12, 153.34, 140.51, 100.00, 71.81, 91.12, 86.80, 0.318, 0.452, 0.818,0.2936127,1.142981,1.1870908,2.1912465,1.6278152, 21:50:02.385
, 68.40, 80.16, 153.40, 140.40, 100.04, 71.69, 91.05, 86.69, 0.000, 0.000, 0.000,0.2936127,1.142981,1.1870908,2.1912465,1.6278152, 21:50:02.385
, 68.45, 80.21, 153.44, 140.28, 100.10, 71.59, 91.09, 86.55, 0.000, 0.000, 0.000,0.2936127,1.142981,1.1870908,2.1912465,1.6278152, 21:50:02.385
, 68.41, 80.17, 153.40, 140.36, 100.07, 71.69, 91.14, 86.63, 0.000, 0.000, 0.000,0.2936127,1.142981,1.1870908,2.1912465,1.6278152, 21:50:02.386
, 68.36, 80.12, 153.35, 140.49, 100.01, 71.81, 91.14, 86.78, 0.000, 0.000, 0.000,0.2936127,1.142981,1.1870908,2.1912465,1.6278152, 21:50:02.386
, 68.39, 80.15, 153.38, 140.42, 100.04, 71.73, 91.07, 86.72, 0.000, 0.000, 0.000,0.2936127,1.142981,1.1870908,2.1912465,1.6278152, 21:50:02.386
, 68.45, 80.21, 153.44, 140.28, 100.10, 71.60, 91.07, 86.55, 0.000, 0.000, 0.000,0.2936127,1.142981,1.1870908,2.1912465,1.6278152, 21:50:02.386
, 68.42, 80.18, 153.41, 140.33, 100.08, 71.67, 91.14, 86.60, 0.000, 0.000, 0.000,0.2936127,1.142981,1.1870908,2.1912465,1.6278152, 21:50:02.386
, 68.35, 80.11, 153.34, 140.48, 100.01, 71.80, 91.13, 86.78, 0.000, 0.000, 0.000,0.2936127,1.142981,1.1870908,2.1912465,1.6278152, 21:50:02.386
, 68.38, 80.13, 153.37, 140.45, 100.02, 71.76, 91.08, 86.77, 0.318, 0.452, 0.816,0.2936127,1.142981,1.1870908,2.1912465,1.6278152, 21:50:02.386
, 68.46, 80.21, 153.45, 140.28, 100.10, 71.60, 91.07, 86.57, 0.000, 0.000, 0.000,0.2936127,1.142981,1.1870908,2.1912465,1.6278152, 21:50:02.386
, 68.45, 80.20, 153.44, 140.31, 100.10, 71.64, 91.14, 86.58, 0.000, 0.000, 0.000,0.55754256,1.5997878,0.9949117,2.612063,1.5422512, 21:50:02.852
, 68.38, 80.12, 153.36, 140.47, 100.03, 71.79, 91.16, 86.76, 0.000, 0.000, 0.000,0.55754256,1.5997878,0.9949117,2.612063,1.5422512, 21:50:02.852
, 68.37, 80.12, 153.36, 140.49, 100.01, 71.79, 91.10, 86.81, 0.000, 0.000, 0.000,0.55754256,1.5997878,0.9949117,2.612063,1.5422512, 21:50:02.853
, 68.46, 80.20, 153.45, 140.31, 100.10, 71.63, 91.07, 86.61, 0.000, 0.000, 0.000,0.55754256,1.5997878,0.9949117,2.612063,1.5422512, 21:50:02.853
, 68.46, 80.20, 153.44, 140.30, 100.11, 71.64, 91.13, 86.58, 0.000, 0.000, 0.000,0.55754256,1.5997878,0.9949117,2.612063,1.5422512, 21:50:02.853
, 68.37, 80.11, 153.35, 140.45, 100.02, 71.78, 91.14, 86.75, 0.000, 0.000, 0.000,0.55754256,1.5997878,0.9949117,2.612063,1.5422512, 21:50:02.853
, 68.33, 80.08, 153.32, 140.52, 99.98, 71.82, 91.09, 86.85, 0.000, 0.000, 0.000,0.55754256,1.5997878,0.9949117,2.612063,1.5422512, 21:50:02.853
, 68.41, 80.16, 153.40, 140.34, 100.05, 71.65, 91.03, 86.66, 0.000, 0.000, 0.000,0.55754256,1.5997878,0.9949117,2.612063,1.5422512, 21:50:02.853
, 68.44, 80.19, 153.43, 140.28, 100.09, 71.61, 91.09, 86.58, 0.326, 0.458, 0.812,0.55754256,1.5997878,0.9949117,2.612063,1.5422512, 21:50:02.853
, 68.38, 80.13, 153.37, 140.40, 100.04, 71.74, 91.14, 86.71, 0.000, 0.000, 0.000,0.55754256,1.5997878,0.9949117,2.612063,1.5422512, 21:50:02.853
, 68.34, 80.09, 153.32, 140.51, 99.99, 71.82, 91.10, 86.83, 0.000, 0.000, 0.000,0.55754256,1.5997878,0.9949117,2.612063,1.5422512, 21:50:02.854
, 68.41, 80.15, 153.40, 140.36, 100.05, 71.67, 91.03, 86.68, 0.000, 0.000, 0.000,0.55754256,1.5997878,0.9949117,2.612063,1.5422512, 21:50:02.854
, 68.45, 80.19, 153.43, 140.27, 100.10, 71.60, 91.09, 86.56, 0.000, 0.000, 0.000,0.55754256,1.5997878,0.9949117,2.612063,1.5422512, 21:50:02.854
, 68.40, 80.14, 153.38, 140.38, 100.05, 71.71, 91.14, 86.67, 0.000, 0.000, 0.000,0.55754256,1.5997878,0.9949117,2.612063,1.5422512, 21:50:02.854
, 68.34, 80.08, 153.32, 140.51, 99.98, 71.82, 91.12, 86.83, 0.000, 0.000, 0.000,0.55754256,1.5997878,0.9949117,2.612063,1.5422512, 21:50:02.854
, 68.40, 80.15, 153.39, 140.40, 100.03, 71.70, 91.04, 86.72, 0.000, 0.000, 0.000,0.55754256,1.5997878,0.9949117,2.612063,1.5422512, 21:50:02.854
, 68.47, 80.21, 153.46, 140.27, 100.10, 71.59, 91.08, 86.55, 0.000, 0.000, 0.000,0.55754256,1.5997878,0.9949117,2.612063,1.5422512, 21:50:02.854
, 68.43, 80.17, 153.41, 140.36, 100.07, 71.69, 91.14, 86.64, 0.000, 0.000, 0.000,0.55754256,1.5997878,0.9949117,2.612063,1.5422512, 21:50:02.854
, 68.37, 80.10, 153.35, 140.50, 100.01, 71.81, 91.14, 86.80, 0.324, 0.464, 0.812,0.55754256,1.5997878,0.9949117,2.612063,1.5422512, 21:50:02.855
, 68.41, 80.14, 153.39, 140.44, 100.04, 71.74, 91.07, 86.75, 0.000, 0.000, 0.000,0.55754256,1.5997878,0.9949117,2.612063,1.5422512, 21:50:02.855
, 68.48, 80.21, 153.46, 140.29, 100.11, 71.60, 91.08, 86.57, 0.000, 0.000, 0.000,0.55754256,1.5997878,0.9949117,2.612063,1.5422512, 21:50:02.855
, 68.45, 80.17, 153.43, 140.34, 100.10, 71.67, 91.15, 86.61, 0.000, 0.000, 0.000,0.55754256,1.5997878,0.9949117,2.612063,1.5422512, 21:50:02.855
, 68.36, 80.09, 153.34, 140.50, 100.01, 71.81, 91.14, 86.79, 0.000, 0.000, 0.000,0.55754256,1.5997878,0.9949117,2.612063,1.5422512, 21:50:02.855
, 68.37, 80.10, 153.35, 140.48, 100.00, 71.77, 91.06, 86.80, 0.000, 0.000, 0.000,0.55754256,1.5997878,0.9949117,2.612063,1.5422512, 21:50:02.855
, 68.46, 80.18, 153.44, 140.29, 100.09, 71.61, 91.04, 86.59, 0.000, 0.000, 0.000,0.55754256,1.5997878,0.9949117,2.612063,1.5422512, 21:50:02.855
, 68.43, 80.16, 153.41, 140.32, 100.08, 71.64, 91.12, 86.60, 0.000, 0.000, 0.000,0.55754256,1.5997878,0.9949117,2.612063,1.5422512, 21:50:02.856
, 68.37, 80.10, 153.35, 140.46, 100.02, 71.78, 91.14, 86.76, 0.000, 0.000, 0.000,0.55754256,1.5997878,0.9949117,2.612063,1.5422512, 21:50:02.856
, 68.36, 80.09, 153.34, 140.49, 100.00, 71.79, 91.08, 86.81, 0.310, 0.460, 0.818,0.55754256,1.5997878,0.9949117,2.612063,1.5422512, 21:50:02.856
, 68.45, 80.17, 153.43, 140.31, 100.08, 71.62, 91.04, 86.61, 0.000, 0.000, 0.000,0.55754256,1.5997878,0.9949117,2.612063,1.5422512, 21:50:02.856
, 68.47, 80.19, 153.44, 140.29, 100.12, 71.61, 91.12, 86.56, 0.000, 0.000, 0.000,0.55754256,1.5997878,0.9949117,2.612063,1.5422512, 21:50:02.856
, 68.40, 80.12, 153.37, 140.44, 100.05, 71.75, 91.15, 86.71, 0.000, 0.000, 0.000,0.55754256,1.5997878,0.9949117,2.612063,1.5422512, 21:50:02.856
, 68.35, 80.07, 153.33, 140.53, 100.00, 71.81, 91.10, 86.83, 0.000, 0.000, 0.000,0.55754256,1.5997878,0.9949117,2.612063,1.5422512, 21:50:02.856
, 68.43, 80.15, 153.41, 140.36, 100.07, 71.65, 91.04, 86.66, 0.000, 0.000, 0.000,0.55754256,1.5997878,0.9949117,2.612063,1.5422512, 21:50:02.857
, 68.46, 80.18, 153.44, 140.29, 100.11, 71.60, 91.11, 86.56, 0.000, 0.000, 0.000,0.55754256,1.5997878,0.9949117,2.612063,1.5422512, 21:50:02.857
, 68.41, 80.12, 153.39, 140.41, 100.06, 71.72, 91.15, 86.69, 0.000, 0.000, 0.000,0.55754256,1.5997878,0.9949117,2.612063,1.5422512, 21:50:02.857
, 68.36, 80.06, 153.34, 140.53, 100.01, 71.81, 91.13, 86.83, 0.000, 0.000, 0.000,0.55754256,1.5997878,0.9949117,2.612063,1.5422512, 21:50:02.857
, 68.43, 80.13, 153.41, 140.39, 100.07, 71.67, 91.06, 86.69, 0.000, 0.000, 0.000,0.55754256,1.5997878,0.9949117,2.612063,1.5422512, 21:50:02.857
, 68.48, 80.18, 153.46, 140.28, 100.14, 71.59, 91.11, 86.55, 0.318, 0.458, 0.820,0.55754256,1.5997878,0.9949117,2.612063,1.5422512, 21:50:02.857
, 68.43, 80.13, 153.40, 140.38, 100.09, 71.70, 91.17, 86.65, 0.000, 0.000, 0.000,0.55754256,1.5997878,0.9949117,2.612063,1.5422512, 21:50:02.857
, 68.37, 80.07, 153.35, 140.51, 100.03, 71.81, 91.15, 86.80, 0.000, 0.000, 0.000,0.55754256,1.5997878,0.9949117,2.612063,1.5422512, 21:50:02.857
, 68.42, 80.12, 153.39, 140.42, 100.07, 71.71, 91.09, 86.71, 0.000, 0.000, 0.000,0.55754256,1.5997878,0.9949117,2.612063,1.5422512, 21:50:02.858
, 68.48, 80.19, 153.46, 140.27, 100.15, 71.59, 91.11, 86.53, 0.000, 0.000, 0.000,0.55754256,1.5997878,0.9949117,2.612063,1.5422512, 21:50:02.858
, 68.43, 80.13, 153.40, 140.36, 100.10, 71.68, 91.18, 86.62, 0.000, 0.000, 0.000,0.55754256,1.5997878,0.9949117,2.612063,1.5422512, 21:50:02.858
, 68.36, 80.07, 153.33, 140.51, 100.03, 71.80, 91.16, 86.79, 0.000, 0.000, 0.000,0.55754256,1.5997878,0.9949117,2.612063,1.5422512, 21:50:02.858
, 68.39, 80.10, 153.37, 140.46, 100.04, 71.74, 91.09, 86.75, 0.000, 0.000, 0.000,0.55754256,1.5997878,0.9949117,2.612063,1.5422512, 21:50:02.858
, 68.46, 80.16, 153.44, 140.30, 100.11, 71.59, 91.09, 86.57, 0.000, 0.000, 0.000,0.55754256,1.5997878,0.9949117,2.612063,1.5422512, 21:50:02.858
, 68.43, 80.14, 153.41, 140.34, 100.10, 71.65, 91.16, 86.60, 0.326, 0.456, 0.810,0.55754256,1.5997878,0.9949117,2.612063,1.5422512, 21:50:02.858
, 68.37, 80.07, 153.35, 140.49, 100.03, 71.78, 91.17, 86.77, 0.000, 0.000, 0.000,0.55754256,1.5997878,0.9949117,2.612063,1.5422512, 21:50:02.858
, 68.37, 80.07, 153.35, 140.49, 100.02, 71.76, 91.10, 86.79, 0.000, 0.000, 0.000,0.55754256,1.5997878,0.9949117,2.612063,1.5422512, 21:50:02.859
, 68.46, 80.16, 153.45, 140.30, 100.11, 71.59, 91.08, 86.59, 0.000, 0.000, 0.000,0.55754256,1.5997878,0.9949117,2.612063,1.5422512, 21:50:02.859
, 68.46, 80.16, 153.44, 140.31, 100.13, 71.62, 91.17, 86.57, 0.000, 0.000, 0.000,0.55754256,1.5997878,0.9949117,2.612063,1.5422512, 21:50:02.859
, 68.39, 80.09, 153.38, 140.46, 100.07, 71.76, 91.19, 86.74, 0.000, 0.000, 0.000,0.55754256,1.5997878,0.9949117,2.612063,1.5422512, 21:50:02.859
, 68.38, 80.08, 153.37, 140.50, 100.05, 71.79, 91.15, 86.80, 0.000, 0.000, 0.000,0.55754256,1.5997878,0.9949117,2.612063,1.5422512, 21:50:02.859
, 68.46, 80.15, 153.44, 140.34, 100.11, 71.63, 91.11, 86.63, 0.000, 0.000, 0.000,0.55754256,1.5997878,0.9949117,2.612063,1.5422512, 21:50:02.859
, 68.47, 80.16, 153.45, 140.31, 100.14, 71.62, 91.16, 86.58, 0.000, 0.000, 0.000,0.55754256,1.5997878,0.9949117,2.612063,1.5422512, 21:50:02.859
, 68.40, 80.09, 153.38, 140.44, 100.08, 71.75, 91.20, 86.73, 0.000, 0.000, 0.000,0.55754256,1.5997878,0.9949117,2.612063,1.5422512, 21:50:02.859
, 68.36, 80.05, 153.34, 140.53, 100.03, 71.81, 91.16, 86.85, 0.332, 0.458, 0.810,0.55754256,1.5997878,0.9949117,2.612063,1.5422512, 21:50:02.860
, 68.43, 80.12, 153.42, 140.37, 100.09, 71.65, 91.09, 86.69, 0.000, 0.000, 0.000,0.55754256,1.5997878,0.9949117,2.612063,1.5422512, 21:50:02.860
, 68.47, 80.15, 153.45, 140.29, 100.13, 71.60, 91.14, 86.58, 0.000, 0.000, 0.000,0.55754256,1.5997878,0.9949117,2.612063,1.5422512, 21:50:02.860
, 68.42, 80.10, 153.39, 140.41, 100.09, 71.71, 91.18, 86.70, 0.000, 0.000, 0.000,0.55754256,1.5997878,0.9949117,2.612063,1.5422512, 21:50:02.860
, 68.36, 80.05, 153.34, 140.53, 100.03, 71.81, 91.16, 86.85, 0.000, 0.000, 0.000,0.55754256,1.5997878,0.9949117,2.612063,1.5422512, 21:50:02.860
, 68.43, 80.11, 153.41, 140.40, 100.08, 71.68, 91.09, 86.72, 0.000, 0.000, 0.000,0.55754256,1.5997878,0.9949117,2.612063,1.5422512, 21:50:02.860
, 68.48, 80.16, 153.45, 140.29, 100.14, 71.58, 91.12, 86.57, 0.000, 0.000, 0.000,0.55754256,1.5997878,0.9949117,2.612063,1.5422512, 21:50:02.860
, 68.44, 80.12, 153.41, 140.38, 100.11, 71.68, 91.18, 86.66, 0.000, 0.000, 0.000,0.55754256,1.5997878,0.9949117,2.612063,1.5422512, 21:50:02.860
, 68.37, 80.06, 153.35, 140.52, 100.04, 71.80, 91.16, 86.82, 0.000, 0.000, 0.000,0.55754256,1.5997878,0.9949117,2.612063,1.5422512, 21:50:02.860
, 68.41, 80.09, 153.39, 140.43, 100.06, 71.71, 91.09, 86.74, 0.328, 0.470, 0.808,0.55754256,1.5997878,0.9949117,2.612063,1.5422512, 21:50:02.861
, 68.47, 80.15, 153.45, 140.29, 100.13, 71.58, 91.11, 86.58, 0.000, 0.000, 0.000,0.55754256,1.5997878,0.9949117,2.612063,1.5422512, 21:50:02.861
, 68.43, 80.12, 153.42, 140.36, 100.11, 71.66, 91.17, 86.64, 0.000, 0.000, 0.000,0.55754256,1.5997878,0.9949117,2.612063,1.5422512, 21:50:02.861
