%OpenBCI Raw EEG Data
%
%Sample Rate = 250.0 Hz
%First Column = SampleIndex
%Last Column = Timestamp 
%Other Columns = EEG data in microvolts followed by Accel Data (in G) interleaved with Aux Data
0, -62855.85, -73276.73, -187500.02, -187500.02, -75756.90, -174614.14, -96090.28, -77489.78, 0, 1, 1, 0, 1, 13:05:33.238
1, -62979.43, -73394.50, -187500.02, -187500.02, -75748.36, -174220.52, -95897.36, -77225.12, 0, 1, 1, 0, 1, 13:05:33.239
2, -63021.05, -73437.48, -187500.02, -187500.02, -75835.35, -173852.02, -95904.78, -77163.05, 0, 1, 1, 0, 1, 13:05:33.240
3, -62918.08, -73334.77, -187500.02, -187500.02, -75859.45, -174158.14, -96097.50, -77409.37, 0, 1, 1, 0, 1, 13:05:33.240
4, -62849.21, -73271.30, -187500.02, -187500.02, -75779.61, -174571.41, -96141.51, -77530.15, 0, 1, 1, 0, 1, 13:05:33.240
5, -62950.56, -73377.11, -187500.02, -187500.02, -75733.45, -174273.66, -95948.52, -77290.77, 0, 1, 1, 0, 1, 13:05:33.241
6, -63044.30, -73465.63, -187500.02, -187500.02, -75821.80, -173798.53, -95888.53, -77150.66, 0, 1, 1, 0, 1, 13:05:33.241
7, -62945.33, -73350.64, -187500.02, -187500.02, -75859.43, -174019.52, -96054.02, -77362.07, 0, 1, 1, 0, 1, 13:05:33.241
8, -62844.65, -73258.35, -187500.02, -187500.02, -75770.89, -174531.98, -96121.93, -77520.97, 0, 1, 1, 0, 1, 13:05:33.242
9, -62954.82, -73373.66, -187500.02, -187500.02, -75722.16, -174336.42, -95935.00, -77297.63, 0, 1, 1, 0, 1, 13:05:33.242
10, -63036.57, -73460.16, -187500.02, -187500.02, -75797.98, -173829.78, -95854.70, -77121.14, 0, 1, 1, 0, 1, 13:05:33.242
11, -62949.91, -73380.77, -187500.02, -187500.02, -75845.61, -173918.30, -96005.92, -77287.81, 0, 1, 1, 0, 1, 13:05:33.243
12, -62844.65, -73273.62, -187500.02, -187500.02, -75795.52, -174422.61, -96136.77, -77508.31, 0, 1, 1, 0, 1, 13:05:33.243
13, -62902.30, -73326.15, -187500.02, -187500.02, -75723.13, -174407.30, -96012.45, -77385.00, 0, 1, 1, 0, 1, 13:05:33.244
14, -63027.38, -73450.87, -187500.02, -187500.02, -75778.27, -173840.28, -95862.98, -77139.87, 0, 1, 1, 0, 1, 13:05:33.245
15, -62984.00, -73396.55, -187500.02, -187500.02, -75859.25, -173791.64, -95987.87, -77257.46, 0, 1, 1, 0, 1, 13:05:33.245
16, -62865.78, -73268.95, -187500.02, -187500.02, -75821.41, -174325.09, -96150.45, -77512.94, 0, 1, 1, 0, 1, 13:05:33.246
17, -62874.47, -73286.54, -187500.02, -187500.02, -75734.05, -174470.42, -96058.02, -77440.92, 0, 1, 1, 0, 1, 13:05:33.246
18, -63013.68, -73430.38, -187500.02, -187500.02, -75764.19, -173947.34, -95876.82, -77170.00, 0, 1, 1, 0, 1, 13:05:33.247
19, -63012.05, -73428.48, -187500.02, -187500.02, -75858.63, -173754.47, -95960.70, -77217.98, 0, 1, 1, 0, 1, 13:05:33.247
20, -62857.73, -73275.97, -187500.02, -187500.02, -75830.44, -174267.42, -96157.45, -77494.77, 0, 1, 1, 0, 1, 13:05:33.248
21, -62846.84, -73271.09, -187500.02, -187500.02, -75726.79, -174533.84, -96100.52, -77484.38, 0, 1, 1, 0, 1, 13:05:33.248
22, -62986.97, -73418.33, -187500.02, -187500.02, -75740.80, -174060.63, -95910.62, -77205.94, 0, 1, 1, 0, 1, 13:05:33.249
23, -63028.09, -73448.74, -187500.02, -187500.02, -75840.78, -173763.03, -95952.70, -77186.96, 0, 1, 1, 0, 1, 13:05:33.249
24, -62893.14, -73306.73, -187500.02, -187500.02, -75839.53, -174176.14, -96140.20, -77450.00, 0, 1, 1, 0, 1, 13:05:33.250
25, -62851.36, -73265.84, -187500.02, -187500.02, -75753.16, -174556.14, -96140.93, -77518.24, 0, 1, 1, 0, 1, 13:05:33.250
26, -62968.97, -73395.57, -187500.02, -187500.02, -75732.54, -174186.63, -95944.73, -77256.52, 0, 1, 1, 0, 1, 13:05:33.251
27, -63019.31, -73446.24, -187500.02, -187500.02, -75822.79, -173802.58, -95936.99, -77178.47, 0, 1, 1, 0, 1, 13:05:33.251
28, -62912.09, -73337.99, -187500.02, -187500.02, -75857.34, -174114.92, -96128.16, -77423.73, 0, 1, 1, 0, 1, 13:05:33.252
29, -62837.93, -73260.73, -187500.02, -187500.02, -75778.54, -174593.98, -96188.02, -77563.12, 0, 1, 1, 0, 1, 13:05:33.252
30, -62944.12, -73370.18, -187500.02, -187500.02, -75721.16, -174332.09, -95984.55, -77314.73, 0, 1, 1, 0, 1, 13:05:33.252
31, -63028.41, -73456.08, -187500.02, -187500.02, -75801.83, -173857.42, -95921.63, -77163.65, 0, 1, 1, 0, 1, 13:05:33.253
32, -62943.25, -73367.07, -187500.02, -187500.02, -75844.43, -174055.31, -96091.53, -77364.50, 0, 1, 1, 0, 1, 13:05:33.253
33, -62852.14, -73275.52, -187500.02, -187500.02, -75782.27, -174551.38, -96182.50, -77544.26, 0, 1, 1, 0, 1, 13:05:33.254
34, -62924.07, -73352.86, -187500.02, -187500.02, -75717.07, -174421.25, -96016.01, -77354.00, 0, 1, 1, 0, 1, 13:05:33.254
35, -63022.29, -73451.63, -187500.02, -187500.02, -75789.27, -173901.58, -95912.72, -77154.91, 0, 1, 1, 0, 1, 13:05:33.255
36, -62947.02, -73368.13, -187500.02, -187500.02, -75844.95, -173995.72, -96062.36, -77317.52, 0, 1, 1, 0, 1, 13:05:33.255
37, -62837.39, -73254.84, -187500.02, -187500.02, -75784.91, -174530.94, -96189.43, -77538.51, 0, 1, 1, 0, 1, 13:05:33.256
38, -62891.53, -73311.66, -187500.02, -187500.02, -75711.91, -174549.89, -96061.45, -77409.99, 0, 1, 1, 0, 1, 13:05:33.256
39, -63003.69, -73431.76, -187500.02, -187500.02, -75757.37, -174036.27, -95917.57, -77171.66, 0, 1, 1, 0, 1, 13:05:33.256
40, -62982.72, -73409.50, -187500.02, -187500.02, -75843.78, -173952.95, -96026.42, -77264.32, 0, 1, 1, 0, 1, 13:05:33.257
41, -62850.87, -73273.28, -187500.02, -187500.02, -75810.23, -174484.69, -96192.74, -77522.09, 0, 1, 1, 0, 1, 13:05:33.257
42, -62865.87, -73291.63, -187500.02, -187500.02, -75718.74, -174655.42, -96101.59, -77462.52, 0, 1, 1, 0, 1, 13:05:33.257
43, -63001.52, -73426.64, -187500.02, -187500.02, -75740.47, -174143.23, -95912.47, -77186.88, 0, 1, 1, 0, 1, 13:05:33.258
44, -63008.49, -73428.79, -187500.02, -187500.02, -75838.10, -173916.30, -95978.14, -77209.16, 0, 1, 1, 0, 1, 13:05:33.258
45, -62875.01, -73297.72, -187500.02, -187500.02, -75829.20, -174379.88, -96166.86, -77474.45, 0, 1, 1, 0, 1, 13:05:33.258
46, -62848.01, -73281.20, -187500.02, -187500.02, -75737.03, -174676.80, -96134.00, -77493.12, 0, 1, 1, 0, 1, 13:05:33.259
47, -62977.20, -73409.52, -187500.02, -187500.02, -75734.19, -174236.72, -95938.53, -77224.88, 0, 1, 1, 0, 1, 13:05:33.259
48, -63010.66, -73435.55, -187500.02, -187500.02, -75832.58, -173932.70, -95969.13, -77199.52, 0, 1, 1, 0, 1, 13:05:33.260
49, -62895.55, -73318.30, -187500.02, -187500.02, -75841.84, -174314.25, -96148.15, -77446.49, 0, 1, 1, 0, 1, 13:05:33.260
50, -62827.38, -73252.37, -187500.02, -187500.02, -75752.80, -174731.02, -96166.63, -77534.24, 0, 1, 1, 0, 1, 13:05:33.260
51, -62957.80, -73382.23, -187500.02, -187500.02, -75719.51, -174394.73, -95959.63, -77272.37, 0, 1, 1, 0, 1, 13:05:33.261
52, -63033.91, -73463.23, -187500.02, -187500.02, -75818.23, -173956.05, -95933.08, -77166.67, 0, 1, 1, 0, 1, 13:05:33.261
53, -62923.04, -73351.88, -187500.02, -187500.02, -75848.16, -174227.02, -96119.70, -77398.66, 0, 1, 1, 0, 1, 13:05:33.261
54, -62835.09, -73261.35, -187500.02, -187500.02, -75767.72, -174711.00, -96187.64, -77550.83, 0, 1, 1, 0, 1, 13:05:33.261
55, -62921.43, -73342.46, -187500.02, -187500.02, -75713.94, -174509.81, -96006.64, -77336.01, 0, 1, 1, 0, 1, 13:05:33.262
56, -63026.42, -73446.02, -187500.02, -187500.02, -75792.28, -174019.30, -95929.02, -77164.73, 0, 1, 1, 0, 1, 13:05:33.262
57, -62937.05, -73359.25, -187500.02, -187500.02, -75840.65, -174180.36, -96092.74, -77352.48, 0, 1, 1, 0, 1, 13:05:33.262
58, -62829.37, -73253.28, -187500.02, -187500.02, -75767.49, -174705.86, -96190.53, -77542.63, 0, 1, 1, 0, 1, 13:05:33.262
59, -62916.40, -73337.91, -187500.02, -187500.02, -75711.16, -174611.98, -96033.53, -77371.12, 0, 1, 1, 0, 1, 13:05:33.263
60, -63029.44, -73455.23, -187500.02, -187500.02, -75783.66, -174079.77, -95918.64, -77161.04, 0, 1, 1, 0, 1, 13:05:33.263
61, -62966.45, -73383.57, -187500.02, -187500.02, -75859.45, -174116.33, -96065.36, -77311.38, 0, 1, 1, 0, 1, 13:05:33.263
62, -62863.18, -73267.65, -187500.02, -187500.02, -75814.74, -174659.75, -96207.63, -77548.50, 0, 1, 1, 0, 1, 13:05:33.263
63, -62911.51, -73326.51, -187500.02, -187500.02, -75736.85, -174713.34, -96080.00, -77434.02, 0, 1, 1, 0, 1, 13:05:33.264
64, -63017.88, -73442.06, -187500.02, -187500.02, -75771.20, -174196.61, -95921.48, -77186.98, 0, 1, 1, 0, 1, 13:05:33.264
65, -63003.11, -73431.22, -187500.02, -187500.02, -75850.20, -174075.72, -96016.77, -77257.95, 0, 1, 1, 0, 1, 13:05:33.264
66, -62875.88, -73305.80, -187500.02, -187500.02, -75829.61, -174573.78, -96187.63, -77514.53, 0, 1, 1, 0, 1, 13:05:33.264
67, -62871.72, -73303.48, -187500.02, -187500.02, -75744.96, -174786.66, -96110.55, -77476.33, 0, 1, 1, 0, 1, 13:05:33.271
68, -62988.80, -73423.63, -187500.02, -187500.02, -75754.66, -174320.13, -95924.25, -77206.34, 0, 1, 1, 0, 1, 13:05:33.271
69, -63003.31, -73436.05, -187500.02, -187500.02, -75838.55, -174091.03, -95979.08, -77217.95, 0, 1, 1, 0, 1, 13:05:33.272
70, -62873.24, -73298.54, -187500.02, -187500.02, -75834.51, -174534.91, -96166.86, -77480.22, 0, 1, 1, 0, 1, 13:05:33.272
71, -62837.17, -73257.23, -187500.02, -187500.02, -75743.48, -174867.55, -96148.33, -77519.83, 0, 1, 1, 0, 1, 13:05:33.272
72, -62970.98, -73394.79, -187500.02, -187500.02, -75741.01, -174429.09, -95948.95, -77249.44, 0, 1, 1, 0, 1, 13:05:33.273
73, -63017.90, -73443.38, -187500.02, -187500.02, -75834.48, -174062.08, -95958.41, -77197.16, 0, 1, 1, 0, 1, 13:05:33.273
74, -62904.98, -73319.40, -187500.02, -187500.02, -75848.54, -174423.33, -96140.35, -77448.81, 0, 1, 1, 0, 1, 13:05:33.273
75, -62856.81, -73269.59, -187500.02, -187500.02, -75756.41, -174844.91, -96153.76, -77541.48, 0, 1, 1, 0, 1, 13:05:33.273
76, -62970.23, -73391.50, -187500.02, -187500.02, -75723.53, -174528.78, -95954.00, -77287.81, 0, 1, 1, 0, 1, 13:05:33.274
77, -63033.41, -73456.68, -187500.02, -187500.02, -75810.16, -174109.38, -95918.48, -77171.43, 0, 1, 1, 0, 1, 13:05:33.274
78, -62938.71, -73364.52, -187500.02, -187500.02, -75854.87, -174362.08, -96098.84, -77390.12, 0, 1, 1, 0, 1, 13:05:33.274
79, -62850.09, -73271.43, -187500.02, -187500.02, -75786.20, -174862.36, -96181.50, -77555.52, 0, 1, 1, 0, 1, 13:05:33.274
80, -62938.31, -73362.52, -187500.02, -187500.02, -75729.27, -174673.48, -96001.12, -77343.60, 0, 1, 1, 0, 1, 13:05:33.275
81, -63017.84, -73440.01, -187500.02, -187500.02, -75801.63, -174172.75, -95914.48, -77167.85, 0, 1, 1, 0, 1, 13:05:33.275
82, -62928.94, -73336.65, -187500.02, -187500.02, -75847.71, -174325.14, -96073.13, -77351.54, 0, 1, 1, 0, 1, 13:05:33.275
83, -62832.14, -73245.79, -187500.02, -187500.02, -75778.22, -174869.84, -96178.37, -77556.02, 0, 1, 1, 0, 1, 13:05:33.275
84, -62909.00, -73334.73, -187500.02, -187500.02, -75709.65, -174820.77, -96021.91, -77393.74, 0, 1, 1, 0, 1, 13:05:33.275
85, -63035.63, -73465.53, -187500.02, -187500.02, -75778.87, -174268.61, -95888.24, -77157.62, 0, 1, 1, 0, 1, 13:05:33.275
86, -62991.17, -73416.09, -187500.02, -187500.02, -75861.93, -174252.34, -96023.54, -77283.63, 0, 1, 1, 0, 1, 13:05:33.276
87, -62858.49, -73279.01, -187500.02, -187500.02, -75813.02, -174795.42, -96182.80, -77533.23, 0, 1, 1, 0, 1, 13:05:33.277
88, -62885.00, -73310.05, -187500.02, -187500.02, -75724.51, -174900.56, -96077.52, -77444.45, 0, 1, 1, 0, 1, 13:05:33.277
89, -63013.07, -73439.65, -187500.02, -187500.02, -75765.23, -174389.89, -95919.06, -77192.66, 0, 1, 1, 0, 1, 13:05:33.277
90, -62995.98, -73417.79, -187500.02, -187500.02, -75849.44, -174274.63, -96013.91, -77264.75, 0, 1, 1, 0, 1, 13:05:33.277
91, -62878.79, -73295.93, -187500.02, -187500.02, -75827.27, -174773.73, -96179.98, -77521.93, 0, 1, 1, 0, 1, 13:05:33.277
92, -62874.29, -73293.76, -187500.02, -187500.02, -75742.91, -175010.27, -96116.99, -77501.52, 0, 1, 1, 0, 1, 13:05:33.278
93, -62989.11, -73414.23, -187500.02, -187500.02, -75753.01, -174554.83, -95932.43, -77229.77, 0, 1, 1, 0, 1, 13:05:33.278
94, -63001.05, -73418.66, -187500.02, -187500.02, -75836.80, -174323.28, -95981.20, -77229.55, 0, 1, 1, 0, 1, 13:05:33.278
95, -62892.09, -73308.55, -187500.02, -187500.02, -75838.26, -174758.92, -96163.15, -77485.76, 0, 1, 1, 0, 1, 13:05:33.278
96, -62855.79, -73272.13, -187500.02, -187500.02, -75744.77, -175120.30, -96145.40, -77530.30, 0, 1, 1, 0, 1, 13:05:33.278
97, -62973.33, -73396.40, -187500.02, -187500.02, -75729.14, -174729.77, -95940.48, -77259.90, 0, 1, 1, 0, 1, 13:05:33.279
98, -63016.90, -73439.96, -187500.02, -187500.02, -75821.25, -174371.00, -95943.32, -77192.69, 0, 1, 1, 0, 1, 13:05:33.279
99, -62906.23, -73327.00, -187500.02, -187500.02, -75845.13, -174708.06, -96128.97, -77435.23, 0, 1, 1, 0, 1, 13:05:33.280
100, -62838.93, -73258.45, -187500.02, -187500.02, -75759.13, -175170.38, -96162.68, -77547.90, 0, 1, 1, 0, 1, 13:05:33.280
101, -62955.68, -73379.12, -187500.02, -187500.02, -75718.86, -174895.38, -95965.38, -77300.09, 0, 1, 1, 0, 1, 13:05:33.280
102, -63020.34, -73445.62, -187500.02, -187500.02, -75805.52, -174462.33, -95924.12, -77175.74, 0, 1, 1, 0, 1, 13:05:33.280
103, -62929.97, -73353.26, -187500.02, -187500.02, -75847.78, -174695.33, -96094.35, -77387.05, 0, 1, 1, 0, 1, 13:05:33.280
104, -62840.00, -73259.25, -187500.02, -187500.02, -75773.93, -175210.72, -96177.14, -77560.75, 0, 1, 1, 0, 1, 13:05:33.280
105, -62927.09, -73348.34, -187500.02, -187500.02, -75709.20, -175072.02, -96002.73, -77360.32, 0, 1, 1, 0, 1, 13:05:33.281
106, -63019.98, -73439.31, -187500.02, -187500.02, -75784.28, -174581.52, -95912.47, -77176.48, 0, 1, 1, 0, 1, 13:05:33.281
107, -62952.93, -73367.19, -187500.02, -187500.02, -75844.38, -174692.89, -96062.81, -77341.55, 0, 1, 1, 0, 1, 13:05:33.281
108, -62856.37, -73265.41, -187500.02, -187500.02, -75801.16, -175213.69, -96184.59, -77552.73, 0, 1, 1, 0, 1, 13:05:33.281
109, -62916.07, -73326.93, -187500.02, -187500.02, -75731.73, -175226.88, -96053.27, -77420.77, 0, 1, 1, 0, 1, 13:05:33.281
110, -63033.28, -73450.78, -187500.02, -187500.02, -75783.52, -174708.66, -95914.59, -77186.70, 0, 1, 1, 0, 1, 13:05:33.281
111, -62984.22, -73401.45, -187500.02, -187500.02, -75850.55, -174688.80, -96033.66, -77296.66, 0, 1, 1, 0, 1, 13:05:33.282
112, -62863.79, -73278.54, -187500.02, -187500.02, -75809.09, -175209.64, -96178.91, -77534.87, 0, 1, 1, 0, 1, 13:05:33.282
113, -62881.58, -73300.11, -187500.02, -187500.02, -75721.63, -175363.20, -96079.73, -77460.21, 0, 1, 1, 0, 1, 13:05:33.283
114, -63020.12, -73442.78, -187500.02, -187500.02, -75757.57, -174849.78, -95902.91, -77191.50, 0, 1, 1, 0, 1, 13:05:33.283
115, -63011.80, -73431.98, -187500.02, -187500.02, -75848.05, -174672.03, -95981.47, -77237.92, 0, 1, 1, 0, 1, 13:05:33.283
116, -62879.84, -73290.85, -187500.02, -187500.02, -75829.56, -175187.16, -96167.02, -77513.34, 0, 1, 1, 0, 1, 13:05:33.283
117, -62886.50, -73301.83, -187500.02, -187500.02, -75745.14, -175447.44, -96110.53, -77501.48, 0, 1, 1, 0, 1, 13:05:33.283
118, -63014.50, -73435.67, -187500.02, -187500.02, -75758.30, -174980.89, -95923.83, -77229.56, 0, 1, 1, 0, 1, 13:05:33.283
119, -63034.11, -73453.35, -187500.02, -187500.02, -75850.06, -174683.34, -95959.99, -77214.45, 0, 1, 1, 0, 1, 13:05:33.284
120, -62910.84, -73324.94, -187500.02, -187500.02, -75852.56, -175087.95, -96144.59, -77470.90, 0, 1, 1, 0, 1, 13:05:33.284
121, -62874.16, -73283.37, -187500.02, -187500.02, -75760.74, -175466.08, -96140.82, -77536.16, 0, 1, 1, 0, 1, 13:05:33.718
122, -62994.77, -73412.20, -187500.02, -187500.02, -75742.21, -175100.36, -95943.61, -77277.55, 0, 1, 1, 0, 1, 13:05:33.718
123, -63042.89, -73456.28, -187500.02, -187500.02, -75831.46, -174735.25, -95937.57, -77200.20, 0, 1, 1, 0, 1, 13:05:33.718
124, -62934.73, -73345.73, -187500.02, -187500.02, -75857.19, -175043.64, -96114.27, -77426.48, 0, 1, 1, 0, 1, 13:05:33.718
125, -62856.72, -73267.32, -187500.02, -187500.02, -75763.70, -175520.13, -96153.09, -77550.96, 0, 1, 1, 0, 1, 13:05:33.719
126, -62972.26, -73391.59, -187500.02, -187500.02, -75723.15, -175254.08, -95956.98, -77311.02, 0, 1, 1, 0, 1, 13:05:33.719
127, -63052.23, -73468.21, -187500.02, -187500.02, -75808.58, -174793.00, -95906.33, -77174.65, 0, 1, 1, 0, 1, 13:05:33.720
128, -62954.16, -73370.54, -187500.02, -187500.02, -75847.47, -174994.11, -96076.69, -77379.59, 0, 1, 1, 0, 1, 13:05:33.720
129, -62859.79, -73275.85, -187500.02, -187500.02, -75770.38, -175505.72, -96165.18, -77559.12, 0, 1, 1, 0, 1, 13:05:33.720
130, -62935.25, -73349.15, -187500.02, -187500.02, -75705.63, -175395.50, -95996.20, -77375.91, 0, 1, 1, 0, 1, 13:05:33.721
131, -63046.31, -73463.50, -187500.02, -187500.02, -75780.81, -174872.13, -95884.29, -77172.48, 0, 1, 1, 0, 1, 13:05:33.721
132, -62982.63, -73395.80, -187500.02, -187500.02, -75848.20, -174931.66, -96031.74, -77325.61, 0, 1, 1, 0, 1, 13:05:33.721
133, -62874.43, -73286.47, -187500.02, -187500.02, -75796.82, -175462.00, -96158.90, -77540.01, 0, 1, 1, 0, 1, 13:05:33.721
134, -62926.24, -73344.05, -187500.02, -187500.02, -75733.38, -175488.59, -96037.71, -77420.70, 0, 1, 1, 0, 1, 13:05:33.722
135, -63027.47, -73448.81, -187500.02, -187500.02, -75774.96, -174980.69, -95895.33, -77186.25, 0, 1, 1, 0, 1, 13:05:33.722
136, -63003.80, -73422.55, -187500.02, -187500.02, -75848.92, -174900.30, -95994.28, -77271.79, 0, 1, 1, 0, 1, 13:05:33.722
137, -62891.41, -73306.16, -187500.02, -187500.02, -75821.38, -175404.38, -96153.76, -77520.36, 0, 1, 1, 0, 1, 13:05:33.722
138, -62907.82, -73320.85, -187500.02, -187500.02, -75734.34, -175564.66, -96067.80, -77461.11, 0, 1, 1, 0, 1, 13:05:33.723
139, -63036.70, -73452.55, -187500.02, -187500.02, -75753.57, -175057.20, -95884.04, -77191.77, 0, 1, 1, 0, 1, 13:05:33.723
140, -63030.64, -73442.69, -187500.02, -187500.02, -75844.88, -174857.59, -95952.98, -77228.83, 0, 1, 1, 0, 1, 13:05:33.723
141, -62889.54, -73300.66, -187500.02, -187500.02, -75825.05, -175346.77, -96133.48, -77492.34, 0, 1, 1, 0, 1, 13:05:33.723
142, -62863.03, -73278.09, -187500.02, -187500.02, -75725.79, -175673.89, -96096.18, -77508.98, 0, 1, 1, 0, 1, 13:05:33.724
143, -63006.35, -73424.52, -187500.02, -187500.02, -75727.77, -175221.16, -95893.32, -77225.19, 0, 1, 1, 0, 1, 13:05:33.724
144, -63030.06, -73444.74, -187500.02, -187500.02, -75818.91, -174907.45, -95919.27, -77190.65, 0, 1, 1, 0, 1, 13:05:33.724
145, -62933.52, -73344.48, -187500.02, -187500.02, -75837.55, -175257.92, -96097.16, -77431.18, 0, 1, 1, 0, 1, 13:05:33.724
146, -62873.73, -73286.49, -187500.02, -187500.02, -75755.45, -175652.20, -96118.22, -77520.67, 0, 1, 1, 0, 1, 13:05:33.725
147, -62991.73, -73407.77, -187500.02, -187500.02, -75722.12, -175306.09, -95917.37, -77261.48, 0, 1, 1, 0, 1, 13:05:33.725
148, -63060.17, -73478.38, -187500.02, -187500.02, -75823.80, -174866.72, -95896.16, -77159.43, 0, 1, 1, 0, 1, 13:05:33.725
149, -62942.89, -73360.61, -187500.02, -187500.02, -75852.36, -175145.52, -96079.91, -77393.16, 0, 1, 1, 0, 1, 13:05:33.725
150, -62850.55, -73266.55, -187500.02, -187500.02, -75766.27, -175635.89, -96144.17, -77547.68, 0, 1, 1, 0, 1, 13:05:33.726
151, -62962.56, -73378.16, -187500.02, -187500.02, -75718.74, -175405.47, -95954.25, -77323.13, 0, 1, 1, 0, 1, 13:05:33.726
152, -63052.64, -73471.70, -187500.02, -187500.02, -75809.07, -174921.22, -95889.88, -77170.94, 0, 1, 1, 0, 1, 13:05:33.726
153, -62961.78, -73377.66, -187500.02, -187500.02, -75845.34, -175070.45, -96045.46, -77353.20, 0, 1, 1, 0, 1, 13:05:33.726
154, -62871.63, -73282.02, -187500.02, -187500.02, -75783.61, -175577.66, -96145.73, -77542.02, 0, 1, 1, 0, 1, 13:05:33.726
155, -62944.03, -73357.69, -187500.02, -187500.02, -75725.77, -175504.23, -95997.21, -77382.63, 0, 1, 1, 0, 1, 13:05:33.727
156, -63047.54, -73461.30, -187500.02, -187500.02, -75776.52, -174996.83, -95878.12, -77171.38, 0, 1, 1, 0, 1, 13:05:33.727
157, -62997.92, -73409.27, -187500.02, -187500.02, -75847.00, -175013.66, -96010.71, -77301.20, 0, 1, 1, 0, 1, 13:05:33.727
158, -62877.55, -73284.46, -187500.02, -187500.02, -75808.51, -175538.14, -96156.98, -77534.55, 0, 1, 1, 0, 1, 13:05:33.727
159, -62906.70, -73322.17, -187500.02, -187500.02, -75726.75, -175621.58, -96043.81, -77436.05, 0, 1, 1, 0, 1, 13:05:33.727
160, -63032.30, -73454.83, -187500.02, -187500.02, -75770.04, -175094.69, -95884.22, -77183.95, 0, 1, 1, 0, 1, 13:05:33.727
161, -63017.90, -73429.97, -187500.02, -187500.02, -75854.91, -174971.28, -95981.90, -77259.34, 0, 1, 1, 0, 1, 13:05:33.727
162, -62886.50, -73290.32, -187500.02, -187500.02, -75829.32, -175472.56, -96151.66, -77518.57, 0, 1, 1, 0, 1, 13:05:33.728
163, -62885.51, -73293.36, -187500.02, -187500.02, -75734.59, -175696.11, -96081.70, -77489.83, 0, 1, 1, 0, 1, 13:05:33.728
164, -63028.70, -73451.59, -187500.02, -187500.02, -75753.48, -175197.61, -95892.84, -77215.26, 0, 1, 1, 0, 1, 13:05:33.728
165, -63036.43, -73455.14, -187500.02, -187500.02, -75849.62, -174955.34, -95955.32, -77231.51, 0, 1, 1, 0, 1, 13:05:33.728
166, -62910.50, -73322.34, -187500.02, -187500.02, -75839.02, -175393.34, -96134.45, -77487.80, 0, 1, 1, 0, 1, 13:05:33.728
167, -62866.98, -73281.27, -187500.02, -187500.02, -75747.13, -175747.36, -96118.69, -77533.59, 0, 1, 1, 0, 1, 13:05:33.728
168, -62996.38, -73413.90, -187500.02, -187500.02, -75735.42, -175338.88, -95915.40, -77262.52, 0, 1, 1, 0, 1, 13:05:33.729
169, -63035.76, -73446.20, -187500.02, -187500.02, -75825.48, -175001.14, -95922.53, -77204.71, 0, 1, 1, 0, 1, 13:05:33.729
170, -62921.59, -73323.69, -187500.02, -187500.02, -75846.75, -175361.92, -96105.26, -77448.34, 0, 1, 1, 0, 1, 13:05:33.729
171, -62861.24, -73266.98, -187500.02, -187500.02, -75763.07, -175791.38, -96129.06, -77544.93, 0, 1, 1, 0, 1, 13:05:33.729
172, -62978.96, -73395.62, -187500.02, -187500.02, -75733.77, -175472.44, -95936.74, -77297.45, 0, 1, 1, 0, 1, 13:05:33.729
173, -63046.58, -73465.24, -187500.02, -187500.02, -75830.21, -175034.53, -95906.34, -77185.40, 0, 1, 1, 0, 1, 13:05:33.729
174, -62961.44, -73373.40, -187500.02, -187500.02, -75873.87, -175265.50, -96082.79, -77401.38, 0, 1, 1, 0, 1, 13:05:33.729
175, -62861.69, -73265.23, -187500.02, -187500.02, -75786.47, -175776.73, -96161.00, -77562.96, 0, 1, 1, 0, 1, 13:05:33.730
176, -62947.20, -73353.75, -187500.02, -187500.02, -75721.83, -175613.94, -95978.63, -77353.87, 0, 1, 1, 0, 1, 13:05:33.730
177, -63047.12, -73448.77, -187500.02, -187500.02, -75800.62, -175116.95, -95886.48, -77173.48, 0, 1, 1, 0, 1, 13:05:33.730
178, -62977.69, -73385.36, -187500.02, -187500.02, -75863.45, -175223.45, -96035.41, -77339.91, 0, 1, 1, 0, 1, 13:05:33.730
179, -62856.61, -73266.84, -187500.02, -187500.02, -75799.99, -175766.47, -96150.98, -77552.88, 0, 1, 1, 0, 1, 13:05:33.730
180, -62922.82, -73334.93, -187500.02, -187500.02, -75721.16, -175726.72, -95995.20, -77396.40, 0, 1, 1, 0, 1, 13:05:33.730
181, -63040.57, -73456.55, -187500.02, -187500.02, -75780.15, -175195.67, -95864.04, -77173.93, 0, 1, 1, 0, 1, 13:05:33.731
182, -62993.34, -73405.07, -187500.02, -187500.02, -75853.01, -175171.44, -95988.60, -77295.03, 0, 1, 1, 0, 1, 13:05:33.731
183, -62868.62, -73278.47, -187500.02, -187500.02, -75802.66, -175700.16, -96135.77, -77535.67, 0, 1, 1, 0, 1, 13:05:33.731
184, -62887.55, -73304.64, -187500.02, -187500.02, -75719.05, -175822.34, -96037.20, -77454.73, 0, 1, 1, 0, 1, 13:05:33.731
185, -63030.51, -73446.42, -187500.02, -187500.02, -75761.57, -175297.39, -95873.80, -77197.83, 0, 1, 1, 0, 1, 13:05:33.732
186, -63016.47, -73424.27, -187500.02, -187500.02, -75851.55, -175161.41, -95971.32, -77264.39, 0, 1, 1, 0, 1, 13:05:33.732
187, -62879.88, -73284.55, -187500.02, -187500.02, -75823.57, -175662.55, -96140.93, -77518.55, 0, 1, 1, 0, 1, 13:05:33.733
188, -62873.82, -73281.47, -187500.02, -187500.02, -75731.64, -175911.89, -96080.91, -77502.01, 0, 1, 1, 0, 1, 13:05:33.733
189, -63005.36, -73415.69, -187500.02, -187500.02, -75745.39, -175453.52, -95896.87, -77235.71, 0, 1, 1, 0, 1, 13:05:33.733
190, -63019.04, -73428.98, -187500.02, -187500.02, -75832.07, -175203.11, -95942.09, -77230.05, 0, 1, 1, 0, 1, 13:05:33.733
191, -62904.71, -73314.55, -187500.02, -187500.02, -75835.55, -175611.92, -96123.25, -77476.93, 0, 1, 1, 0, 1, 13:05:33.733
192, -62865.55, -73279.01, -187500.02, -187500.02, -75750.91, -175963.75, -96120.12, -77528.88, 0, 1, 1, 0, 1, 13:05:33.733
193, -62988.09, -73407.13, -187500.02, -187500.02, -75737.41, -175578.63, -95925.50, -77263.97, 0, 1, 1, 0, 1, 13:05:33.733
194, -63045.42, -73462.65, -187500.02, -187500.02, -75833.12, -175191.27, -95925.37, -77188.93, 0, 1, 1, 0, 1, 13:05:33.734
195, -62929.90, -73346.06, -187500.02, -187500.02, -75858.40, -175518.59, -96118.53, -77431.70, 0, 1, 1, 0, 1, 13:05:33.734
196, -62859.41, -73278.88, -187500.02, -187500.02, -75771.43, -175963.14, -96156.89, -77545.40, 0, 1, 1, 0, 1, 13:05:33.734
197, -62971.12, -73396.17, -187500.02, -187500.02, -75736.45, -175681.58, -95968.87, -77307.93, 0, 1, 1, 0, 1, 13:05:33.734
198, -63048.86, -73473.71, -187500.02, -187500.02, -75818.41, -175218.77, -95915.98, -77172.84, 0, 1, 1, 0, 1, 13:05:33.734
199, -62955.00, -73381.53, -187500.02, -187500.02, -75861.37, -175407.00, -96084.42, -77374.30, 0, 1, 1, 0, 1, 13:05:33.734
200, -62850.89, -73276.48, -187500.02, -187500.02, -75786.52, -175921.88, -96179.40, -77556.46, 0, 1, 1, 0, 1, 13:05:33.735
201, -62939.38, -73362.67, -187500.02, -187500.02, -75735.02, -175781.20, -96022.87, -77372.95, 0, 1, 1, 0, 1, 13:05:33.735
202, -63030.66, -73464.26, -187500.02, -187500.02, -75803.68, -175277.61, -95928.05, -77187.55, 0, 1, 1, 0, 1, 13:05:33.735
203, -62972.84, -73405.52, -187500.02, -187500.02, -75853.55, -175349.63, -96065.25, -77335.60, 0, 1, 1, 0, 1, 13:05:33.735
204, -62873.58, -73302.48, -187500.02, -187500.02, -75800.44, -175861.80, -96185.99, -77544.81, 0, 1, 1, 0, 1, 13:05:33.735
205, -62931.34, -73365.62, -187500.02, -187500.02, -75735.84, -175856.45, -96058.25, -77415.66, 0, 1, 1, 0, 1, 13:05:33.735
206, -63055.48, -73493.56, -187500.02, -187500.02, -75796.15, -175302.72, -95918.41, -77176.28, 0, 1, 1, 0, 1, 13:05:33.735
207, -63009.70, -73444.74, -187500.02, -187500.02, -75871.30, -175239.08, -96036.26, -77280.17, 0, 1, 1, 0, 1, 13:05:33.736
208, -62870.25, -73301.18, -187500.02, -187500.02, -75823.28, -175772.30, -96194.55, -77533.33, 0, 1, 1, 0, 1, 13:05:33.736
209, -62901.74, -73334.75, -187500.02, -187500.02, -75734.70, -175913.19, -96099.49, -77466.47, 0, 1, 1, 0, 1, 13:05:33.736
210, -63034.09, -73474.45, -187500.02, -187500.02, -75770.34, -175393.91, -95930.69, -77207.77, 0, 1, 1, 0, 1, 13:05:33.736
211, -63018.11, -73458.20, -187500.02, -187500.02, -75852.61, -175209.42, -96005.52, -77249.10, 0, 1, 1, 0, 1, 13:05:33.736
212, -62901.99, -73340.12, -187500.02, -187500.02, -75837.16, -175654.17, -96174.48, -77496.65, 0, 1, 1, 0, 1, 13:05:33.736
213, -62878.67, -73321.56, -187500.02, -187500.02, -75753.28, -175931.45, -96142.27, -77510.70, 0, 1, 1, 0, 1, 13:05:33.737
214, -63007.75, -73448.77, -187500.02, -187500.02, -75761.84, -175488.81, -95955.86, -77248.32, 0, 1, 1, 0, 1, 13:05:33.737
215, -63031.16, -73471.95, -187500.02, -187500.02, -75848.27, -175189.22, -95982.39, -77224.02, 0, 1, 1, 0, 1, 13:05:33.737
216, -62900.69, -73337.88, -187500.02, -187500.02, -75847.47, -175583.31, -96160.64, -77471.97, 0, 1, 1, 0, 1, 13:05:33.737
217, -62864.14, -73296.71, -187500.02, -187500.02, -75762.58, -175951.50, -96161.16, -77534.94, 0, 1, 1, 0, 1, 13:05:33.737
218, -62985.83, -73422.39, -187500.02, -187500.02, -75747.69, -175594.19, -95973.88, -77286.97, 0, 1, 1, 0, 1, 13:05:33.737
219, -63045.82, -73486.70, -187500.02, -187500.02, -75840.31, -175180.50, -95955.77, -77193.63, 0, 1, 1, 0, 1, 13:05:33.737
220, -62934.53, -73369.51, -187500.02, -187500.02, -75868.61, -175464.42, -96138.36, -77424.00, 0, 1, 1, 0, 1, 13:05:33.738
221, -62859.41, -73293.18, -187500.02, -187500.02, -75795.08, -175928.77, -96196.56, -77561.47, 0, 1, 1, 0, 1, 13:05:33.738
222, -62961.29, -73398.41, -187500.02, -187500.02, -75747.13, -175700.48, -96014.58, -77340.45, 0, 1, 1, 0, 1, 13:05:33.739
223, -63045.33, -73488.13, -187500.02, -187500.02, -75824.70, -175220.64, -95943.98, -77186.74, 0, 1, 1, 0, 1, 13:05:33.739
224, -62966.58, -73404.84, -187500.02, -187500.02, -75881.60, -175377.34, -96106.87, -77378.56, 0, 1, 1, 0, 1, 13:05:33.739
225, -62863.86, -73300.24, -187500.02, -187500.02, -75816.34, -175891.50, -96212.57, -77571.59, 0, 1, 1, 0, 1, 13:05:33.739
226, -62948.25, -73387.68, -187500.02, -187500.02, -75754.02, -175777.52, -96050.56, -77391.15, 0, 1, 1, 0, 1, 13:05:33.740
227, -63055.25, -73496.20, -187500.02, -187500.02, -75829.25, -175250.45, -95944.46, -77193.89, 0, 1, 1, 0, 1, 13:05:33.740
228, -62981.45, -73426.23, -187500.02, -187500.02, -75883.88, -175287.36, -96078.30, -77337.81, 0, 1, 1, 0, 1, 13:05:33.740
229, -62870.45, -73307.17, -187500.02, -187500.02, -75831.55, -175797.61, -96208.59, -77560.75, 0, 1, 1, 0, 1, 13:05:33.740
230, -62899.84, -73335.38, -187500.02, -187500.02, -75743.89, -175861.94, -96087.17, -77455.34, 0, 1, 1, 0, 1, 13:05:33.740
231, -63023.89, -73466.80, -187500.02, -187500.02, -75784.30, -175351.83, -95930.35, -77212.11, 0, 1, 1, 0, 1, 13:05:33.741
232, -63001.05, -73437.26, -187500.02, -187500.02, -75869.93, -175281.13, -96039.38, -77303.35, 0, 1, 1, 0, 1, 13:05:33.741
233, -62875.37, -73309.63, -187500.02, -187500.02, -75841.26, -175795.09, -96203.05, -77551.14, 0, 1, 1, 0, 1, 13:05:33.741
234, -62880.84, -73320.78, -187500.02, -187500.02, -75747.63, -175984.16, -96116.84, -77500.73, 0, 1, 1, 0, 1, 13:05:33.741
235, -63014.24, -73461.60, -187500.02, -187500.02, -75772.61, -175491.98, -95940.48, -77238.84, 0, 1, 1, 0, 1, 13:05:33.742
236, -63029.21, -73470.88, -187500.02, -187500.02, -75866.63, -175285.13, -96011.71, -77268.68, 0, 1, 1, 0, 1, 13:05:33.742
237, -62906.77, -73339.05, -187500.02, -187500.02, -75860.12, -175728.67, -96187.84, -77523.36, 0, 1, 1, 0, 1, 13:05:33.742
238, -62873.76, -73309.63, -187500.02, -187500.02, -75764.79, -176041.31, -96151.37, -77543.41, 0, 1, 1, 0, 1, 13:05:33.742
239, -62994.10, -73436.43, -187500.02, -187500.02, -75753.66, -175630.38, -95952.62, -77273.80, 0, 1, 1, 0, 1, 13:05:33.742
240, -63039.20, -73484.40, -187500.02, -187500.02, -75852.77, -175298.11, -95970.61, -77226.19, 0, 1, 1, 0, 1, 13:05:33.743
241, -62908.89, -73354.80, -187500.02, -187500.02, -75868.19, -175668.33, -96158.14, -77476.27, 0, 1, 1, 0, 1, 13:05:34.198
242, -62855.03, -73297.52, -187500.02, -187500.02, -75776.81, -176077.58, -96173.67, -77564.71, 0, 1, 1, 0, 1, 13:05:34.199
243, -62972.06, -73414.16, -187500.02, -187500.02, -75751.83, -175766.13, -95985.30, -77312.89, 0, 1, 1, 0, 1, 13:05:34.199
244, -63041.28, -73486.25, -187500.02, -187500.02, -75844.48, -175339.23, -95953.40, -77198.84, 0, 1, 1, 0, 1, 13:05:34.199
245, -62957.35, -73390.63, -187500.02, -187500.02, -75885.76, -175583.94, -96129.93, -77417.97, 0, 1, 1, 0, 1, 13:05:34.199
246, -62860.68, -73292.02, -187500.02, -187500.02, -75801.85, -176080.20, -96199.89, -77574.59, 0, 1, 1, 0, 1, 13:05:34.199
247, -62939.36, -73385.36, -187500.02, -187500.02, -75738.15, -175895.80, -96014.27, -77360.59, 0, 1, 1, 0, 1, 13:05:34.199
248, -63025.26, -73471.05, -187500.02, -187500.02, -75811.64, -175428.23, -95936.74, -77197.54, 0, 1, 1, 0, 1, 13:05:34.200
249, -62953.60, -73385.83, -187500.02, -187500.02, -75863.47, -175575.27, -96090.62, -77374.30, 0, 1, 1, 0, 1, 13:05:34.200
250, -62851.81, -73290.90, -187500.02, -187500.02, -75805.85, -176082.81, -96192.45, -77566.30, 0, 1, 1, 0, 1, 13:05:34.200
251, -62913.34, -73360.81, -187500.02, -187500.02, -75738.70, -176029.08, -96043.79, -77410.91, 0, 1, 1, 0, 1, 13:05:34.200
252, -63026.15, -73475.48, -187500.02, -187500.02, -75798.95, -175522.08, -95921.77, -77200.02, 0, 1, 1, 0, 1, 13:05:34.200
253, -62996.09, -73438.71, -187500.02, -187500.02, -75877.73, -175505.91, -96045.35, -77318.88, 0, 1, 1, 0, 1, 13:05:34.201
254, -62872.97, -73306.21, -187500.02, -187500.02, -75838.88, -176032.03, -96196.49, -77557.96, 0, 1, 1, 0, 1, 13:05:34.201
255, -62898.10, -73335.94, -187500.02, -187500.02, -75744.45, -176138.02, -96079.33, -77462.29, 0, 1, 1, 0, 1, 13:05:34.201
0, -63026.80, -73468.44, -187500.02, -187500.02, -75783.32, -175614.45, -95912.18, -77208.38, 0, 1, 1, 0, 1, 13:05:34.201
1, -63000.07, -73438.22, -187500.02, -187500.02, -75861.98, -175497.27, -96009.23, -77280.66, 0, 1, 1, 0, 1, 13:05:34.202
2, -62877.22, -73310.03, -187500.02, -187500.02, -75835.45, -175992.31, -96175.51, -77530.64, 0, 1, 1, 0, 1, 13:05:34.202
3, -62873.58, -73307.21, -187500.02, -187500.02, -75742.21, -176221.44, -96110.98, -77503.46, 0, 1, 1, 0, 1, 13:05:34.202
4, -63009.05, -73447.02, -187500.02, -187500.02, -75759.42, -175745.64, -95928.19, -77235.63, 0, 1, 1, 0, 1, 13:05:34.202
5, -63024.18, -73462.78, -187500.02, -187500.02, -75855.09, -175492.28, -95980.06, -77235.49, 0, 1, 1, 0, 1, 13:05:34.202
6, -62902.61, -73339.40, -187500.02, -187500.02, -75853.34, -175908.14, -96155.05, -77483.28, 0, 1, 1, 0, 1, 13:05:34.203
7, -62866.63, -73305.43, -187500.02, -187500.02, -75763.11, -176242.98, -96137.13, -77526.29, 0, 1, 1, 0, 1, 13:05:34.203
8, -63004.52, -73444.59, -187500.02, -187500.02, -75758.38, -175836.41, -95945.44, -77267.67, 0, 1, 1, 0, 1, 13:05:34.203
9, -63040.41, -73478.88, -187500.02, -187500.02, -75853.48, -175497.44, -95963.73, -77220.18, 0, 1, 1, 0, 1, 13:05:34.203
10, -62926.24, -73363.67, -187500.02, -187500.02, -75869.73, -175835.28, -96143.59, -77456.91, 0, 1, 1, 0, 1, 13:05:34.204
11, -62860.28, -73302.12, -187500.02, -187500.02, -75786.13, -176265.98, -96176.13, -77561.80, 0, 1, 1, 0, 1, 13:05:34.204
12, -62978.41, -73424.49, -187500.02, -187500.02, -75752.45, -175966.50, -95983.33, -77317.79, 0, 1, 1, 0, 1, 13:05:34.205
13, -63057.02, -73494.01, -187500.02, -187500.02, -75845.26, -175524.22, -95946.70, -77201.05, 0, 1, 1, 0, 1, 13:05:34.205
14, -62946.18, -73385.34, -187500.02, -187500.02, -75870.58, -175749.30, -96111.56, -77407.24, 0, 1, 1, 0, 1, 13:05:34.205
15, -62846.06, -73282.74, -187500.02, -187500.02, -75783.95, -176256.39, -96184.34, -77570.45, 0, 1, 1, 0, 1, 13:05:34.205
16, -62943.85, -73384.80, -187500.02, -187500.02, -75731.02, -176103.83, -96010.77, -77372.95, 0, 1, 1, 0, 1, 13:05:34.205
17, -63054.52, -73498.92, -187500.02, -187500.02, -75814.50, -175585.06, -95915.83, -77186.56, 0, 1, 1, 0, 1, 13:05:34.205
18, -62964.15, -73414.66, -187500.02, -187500.02, -75866.16, -175684.91, -96064.76, -77353.41, 0, 1, 1, 0, 1, 13:05:34.206
19, -62851.45, -73306.03, -187500.02, -187500.02, -75799.13, -176186.97, -96169.80, -77547.88, 0, 1, 1, 0, 1, 13:05:34.206
20, -62914.50, -73366.54, -187500.02, -187500.02, -75725.52, -176158.03, -96028.81, -77403.10, 0, 1, 1, 0, 1, 13:05:34.206
21, -63041.02, -73495.35, -187500.02, -187500.02, -75791.99, -175626.64, -95901.79, -77180.33, 0, 1, 1, 0, 1, 13:05:34.206
22, -62993.41, -73442.51, -187500.02, -187500.02, -75876.50, -175605.63, -96035.41, -77307.17, 0, 1, 1, 0, 1, 13:05:34.207
23, -62873.80, -73317.36, -187500.02, -187500.02, -75829.34, -176122.28, -96180.70, -77546.89, 0, 1, 1, 0, 1, 13:05:34.207
24, -62906.46, -73354.45, -187500.02, -187500.02, -75744.85, -176229.13, -96077.02, -77465.17, 0, 1, 1, 0, 1, 13:05:34.207
25, -63033.57, -73483.84, -187500.02, -187500.02, -75782.54, -175707.27, -95911.27, -77206.56, 0, 1, 1, 0, 1, 13:05:34.207
26, -63014.97, -73459.97, -187500.02, -187500.02, -75861.20, -175544.50, -95993.14, -77257.69, 0, 1, 1, 0, 1, 13:05:34.207
27, -62881.58, -73323.82, -187500.02, -187500.02, -75836.47, -176020.66, -96158.84, -77510.41, 0, 1, 1, 0, 1, 13:05:34.208
28, -62881.02, -73320.67, -187500.02, -187500.02, -75747.42, -176272.16, -96108.14, -77502.05, 0, 1, 1, 0, 1, 13:05:34.208
29, -63023.76, -73468.53, -187500.02, -187500.02, -75765.26, -175787.02, -95921.57, -77233.92, 0, 1, 1, 0, 1, 13:05:34.208
30, -63048.57, -73497.77, -187500.02, -187500.02, -75867.09, -175485.39, -95968.20, -77225.03, 0, 1, 1, 0, 1, 13:05:34.208
31, -62915.98, -73365.20, -187500.02, -187500.02, -75863.31, -175872.61, -96145.09, -77474.79, 0, 1, 1, 0, 1, 13:05:34.209
32, -62870.85, -73320.23, -187500.02, -187500.02, -75774.69, -176232.80, -96145.04, -77536.90, 0, 1, 1, 0, 1, 13:05:34.209
33, -63001.79, -73452.66, -187500.02, -187500.02, -75755.24, -175846.22, -95945.66, -77269.46, 0, 1, 1, 0, 1, 13:05:34.209
34, -63048.08, -73502.57, -187500.02, -187500.02, -75849.30, -175453.41, -95939.20, -77194.59, 0, 1, 1, 0, 1, 13:05:34.209
35, -62935.92, -73382.80, -187500.02, -187500.02, -75867.56, -175766.53, -96120.79, -77428.09, 0, 1, 1, 0, 1, 13:05:34.209
36, -62875.16, -73318.99, -187500.02, -187500.02, -75784.80, -176201.67, -96162.45, -77543.27, 0, 1, 1, 0, 1, 13:05:34.210
37, -62977.40, -73432.98, -187500.02, -187500.02, -75751.76, -175928.08, -95982.12, -77317.88, 0, 1, 1, 0, 1, 13:05:34.210
38, -63055.52, -73505.85, -187500.02, -187500.02, -75834.21, -175482.28, -95932.52, -77190.49, 0, 1, 1, 0, 1, 13:05:34.210
39, -62984.04, -73425.19, -187500.02, -187500.02, -75882.02, -175639.83, -96086.81, -77375.81, 0, 1, 1, 0, 1, 13:05:34.211
40, -62869.26, -73314.63, -187500.02, -187500.02, -75813.83, -176128.66, -96180.52, -77553.82, 0, 1, 1, 0, 1, 13:05:34.211
41, -62939.18, -73386.07, -187500.02, -187500.02, -75745.57, -176024.09, -96024.39, -77382.95, 0, 1, 1, 0, 1, 13:05:34.211
42, -63061.69, -73502.88, -187500.02, -187500.02, -75818.50, -175488.95, -95914.17, -77185.51, 0, 1, 1, 0, 1, 13:05:34.212
43, -62989.65, -73429.14, -187500.02, -187500.02, -75891.21, -175536.78, -96064.69, -77343.52, 0, 1, 1, 0, 1, 13:05:34.212
44, -62877.62, -73318.13, -187500.02, -187500.02, -75831.84, -176054.20, -96189.48, -77560.87, 0, 1, 1, 0, 1, 13:05:34.212
45, -62937.57, -73379.75, -187500.02, -187500.02, -75766.73, -176058.63, -96067.39, -77441.39, 0, 1, 1, 0, 1, 13:05:34.213
46, -63053.42, -73498.08, -187500.02, -187500.02, -75815.48, -175546.23, -95931.60, -77217.81, 0, 1, 1, 0, 1, 13:05:34.213
47, -63029.53, -73473.13, -187500.02, -187500.02, -75891.21, -175461.52, -96032.16, -77304.84, 0, 1, 1, 0, 1, 13:05:34.213
48, -62898.34, -73340.90, -187500.02, -187500.02, -75850.11, -175949.78, -96181.99, -77540.37, 0, 1, 1, 0, 1, 13:05:34.213
49, -62916.58, -73357.28, -187500.02, -187500.02, -75764.34, -176103.58, -96097.57, -77483.46, 0, 1, 1, 0, 1, 13:05:34.214
50, -63048.17, -73487.52, -187500.02, -187500.02, -75795.75, -175612.02, -95931.36, -77231.24, 0, 1, 1, 0, 1, 13:05:34.214
51, -63044.37, -73482.52, -187500.02, -187500.02, -75880.28, -175426.03, -96002.51, -77267.90, 0, 1, 1, 0, 1, 13:05:34.214
52, -62919.18, -73355.09, -187500.02, -187500.02, -75865.48, -175868.13, -96169.43, -77513.59, 0, 1, 1, 0, 1, 13:05:34.214
53, -62902.99, -73335.78, -187500.02, -187500.02, -75781.06, -176142.83, -96132.10, -77523.07, 0, 1, 1, 0, 1, 13:05:34.215
54, -63028.48, -73465.35, -187500.02, -187500.02, -75780.66, -175703.23, -95942.02, -77260.86, 0, 1, 1, 0, 1, 13:05:34.215
55, -63054.45, -73490.55, -187500.02, -187500.02, -75871.66, -175408.42, -95974.23, -77238.04, 0, 1, 1, 0, 1, 13:05:34.215
56, -62931.18, -73366.40, -187500.02, -187500.02, -75873.98, -175790.19, -96149.80, -77478.14, 0, 1, 1, 0, 1, 13:05:34.215
57, -62888.55, -73326.03, -187500.02, -187500.02, -75782.29, -176166.05, -96150.81, -77545.15, 0, 1, 1, 0, 1, 13:05:34.215
58, -63018.21, -73456.19, -187500.02, -187500.02, -75762.15, -175808.80, -95958.98, -77296.89, 0, 1, 1, 0, 1, 13:05:34.216
59, -63064.55, -73504.60, -187500.02, -187500.02, -75851.13, -175415.28, -95947.72, -77211.39, 0, 1, 1, 0, 1, 13:05:34.216
60, -62951.14, -73387.41, -187500.02, -187500.02, -75870.02, -175690.92, -96115.47, -77429.59, 0, 1, 1, 0, 1, 13:05:34.216
61, -62881.42, -73315.95, -187500.02, -187500.02, -75791.77, -176134.78, -96164.96, -77560.77, 0, 1, 1, 0, 1, 13:05:34.217
62, -62984.20, -73422.55, -187500.02, -187500.02, -75762.60, -175902.17, -95993.36, -77351.65, 0, 1, 1, 0, 1, 13:05:34.217
63, -63057.93, -73498.14, -187500.02, -187500.02, -75834.23, -175439.48, -95924.45, -77199.81, 0, 1, 1, 0, 1, 13:05:34.217
64, -62978.16, -73415.53, -187500.02, -187500.02, -75881.38, -175585.11, -96074.74, -77374.56, 0, 1, 1, 0, 1, 13:05:34.217
65, -62881.42, -73322.46, -187500.02, -187500.02, -75819.30, -176070.66, -96172.71, -77559.12, 0, 1, 1, 0, 1, 13:05:34.218
66, -62948.52, -73399.64, -187500.02, -187500.02, -75753.32, -175980.17, -96022.55, -77395.88, 0, 1, 1, 0, 1, 13:05:34.218
67, -63071.03, -73515.02, -187500.02, -187500.02, -75825.92, -175458.22, -95914.73, -77194.12, 0, 1, 1, 0, 1, 13:05:34.218
68, -63007.57, -73443.92, -187500.02, -187500.02, -75891.63, -175489.84, -96052.53, -77336.07, 0, 1, 1, 0, 1, 13:05:34.218
69, -62870.34, -73303.77, -187500.02, -187500.02, -75828.07, -176040.08, -96183.94, -77563.99, 0, 1, 1, 0, 1, 13:05:34.218
70, -62926.75, -73353.10, -187500.02, -187500.02, -75750.35, -176099.91, -96060.89, -77452.57, 0, 1, 1, 0, 1, 13:05:34.219
71, -63055.25, -73495.33, -187500.02, -187500.02, -75802.01, -175593.08, -95915.24, -77215.02, 0, 1, 1, 0, 1, 13:05:34.219
72, -63027.65, -73472.69, -187500.02, -187500.02, -75872.23, -175485.00, -96005.30, -77285.71, 0, 1, 1, 0, 1, 13:05:34.219
73, -62901.74, -73343.65, -187500.02, -187500.02, -75840.92, -175956.86, -96155.48, -77518.75, 0, 1, 1, 0, 1, 13:05:34.219
74, -62911.87, -73350.53, -187500.02, -187500.02, -75756.12, -176155.30, -96084.80, -77486.68, 0, 1, 1, 0, 1, 13:05:34.219
75, -63044.19, -73488.11, -187500.02, -187500.02, -75770.29, -175669.02, -95901.01, -77224.11, 0, 1, 1, 0, 1, 13:05:34.219
76, -63055.39, -73497.77, -187500.02, -187500.02, -75865.66, -175420.80, -95956.39, -77236.52, 0, 1, 1, 0, 1, 13:05:34.219
77, -62931.98, -73370.18, -187500.02, -187500.02, -75857.98, -175834.55, -96125.15, -77480.17, 0, 1, 1, 0, 1, 13:05:34.220
78, -62908.60, -73345.57, -187500.02, -187500.02, -75782.27, -176133.53, -96107.58, -77516.02, 0, 1, 1, 0, 1, 13:05:34.220
79, -63022.91, -73466.13, -187500.02, -187500.02, -75771.09, -175726.77, -95924.36, -77261.95, 0, 1, 1, 0, 1, 13:05:34.220
80, -63049.29, -73488.60, -187500.02, -187500.02, -75853.37, -175415.08, -95941.48, -77220.27, 0, 1, 1, 0, 1, 13:05:34.220
81, -62943.16, -73375.52, -187500.02, -187500.02, -75869.10, -175752.31, -96112.01, -77449.82, 0, 1, 1, 0, 1, 13:05:34.220
82, -62879.52, -73316.76, -187500.02, -187500.02, -75786.91, -176157.59, -96137.55, -77546.42, 0, 1, 1, 0, 1, 13:05:34.220
83, -62984.44, -73424.72, -187500.02, -187500.02, -75745.55, -175851.20, -95944.73, -77307.57, 0, 1, 1, 0, 1, 13:05:34.221
84, -63051.86, -73497.90, -187500.02, -187500.02, -75836.65, -175427.50, -95913.10, -77201.34, 0, 1, 1, 0, 1, 13:05:34.221
85, -62958.29, -73400.87, -187500.02, -187500.02, -75873.59, -175647.64, -96077.27, -77403.04, 0, 1, 1, 0, 1, 13:05:34.221
86, -62883.75, -73323.20, -187500.02, -187500.02, -75802.90, -176103.06, -96145.78, -77548.46, 0, 1, 1, 0, 1, 13:05:34.221
87, -62979.32, -73420.34, -187500.02, -187500.02, -75757.44, -175903.13, -95977.45, -77347.90, 0, 1, 1, 0, 1, 13:05:34.221
88, -63060.10, -73500.96, -187500.02, -187500.02, -75827.17, -175434.39, -95905.43, -77189.83, 0, 1, 1, 0, 1, 13:05:34.221
89, -62992.36, -73428.98, -187500.02, -187500.02, -75879.12, -175525.81, -96041.80, -77345.98, 0, 1, 1, 0, 1, 13:05:34.222
90, -62882.85, -73319.35, -187500.02, -187500.02, -75825.88, -176015.44, -96153.71, -77543.54, 0, 1, 1, 0, 1, 13:05:34.222
91, -62944.50, -73380.26, -187500.02, -187500.02, -75760.74, -175975.38, -96024.52, -77404.65, 0, 1, 1, 0, 1, 13:05:34.222
92, -63050.40, -73489.18, -187500.02, -187500.02, -75814.56, -175457.34, -95902.55, -77190.90, 0, 1, 1, 0, 1, 13:05:34.222
93, -63012.40, -73444.90, -187500.02, -187500.02, -75881.29, -175438.39, -96023.59, -77307.87, 0, 1, 1, 0, 1, 13:05:34.222
94, -62887.48, -73320.96, -187500.02, -187500.02, -75835.58, -175940.00, -96163.44, -77537.57, 0, 1, 1, 0, 1, 13:05:34.222
95, -62911.71, -73349.99, -187500.02, -187500.02, -75754.06, -176037.61, -96058.38, -77451.59, 0, 1, 1, 0, 1, 13:05:34.223
96, -63030.98, -73477.38, -187500.02, -187500.02, -75782.00, -175541.88, -95901.77, -77211.41, 0, 1, 1, 0, 1, 13:05:34.223
97, -63031.58, -73472.71, -187500.02, -187500.02, -75873.09, -175382.59, -95988.05, -77269.64, 0, 1, 1, 0, 1, 13:05:34.223
98, -62898.19, -73334.55, -187500.02, -187500.02, -75854.29, -175856.34, -96159.13, -77521.59, 0, 1, 1, 0, 1, 13:05:34.223
99, -62895.39, -73332.56, -187500.02, -187500.02, -75764.45, -176068.38, -96090.84, -77497.18, 0, 1, 1, 0, 1, 13:05:34.223
100, -63032.79, -73474.16, -187500.02, -187500.02, -75780.81, -175588.17, -95908.45, -77236.14, 0, 1, 1, 0, 1, 13:05:34.223
101, -63063.86, -73500.89, -187500.02, -187500.02, -75874.83, -175316.73, -95957.65, -77237.84, 0, 1, 1, 0, 1, 13:05:34.223
102, -62938.60, -73371.84, -187500.02, -187500.02, -75868.95, -175709.77, -96135.77, -77482.63, 0, 1, 1, 0, 1, 13:05:34.224
103, -62892.33, -73327.04, -187500.02, -187500.02, -75778.16, -176050.80, -96127.81, -77534.16, 0, 1, 1, 0, 1, 13:05:34.224
104, -63012.27, -73449.51, -187500.02, -187500.02, -75763.74, -175672.66, -95944.59, -77287.13, 0, 1, 1, 0, 1, 13:05:34.224
105, -63051.23, -73489.43, -187500.02, -187500.02, -75849.32, -175332.80, -95954.25, -77231.66, 0, 1, 1, 0, 1, 13:05:34.678
106, -62950.51, -73382.65, -187500.02, -187500.02, -75864.77, -175634.02, -96120.74, -77447.67, 0, 1, 1, 0, 1, 13:05:34.678
107, -62885.91, -73317.07, -187500.02, -187500.02, -75793.29, -176043.16, -96161.05, -77549.27, 0, 1, 1, 0, 1, 13:05:34.678
108, -62985.63, -73425.52, -187500.02, -187500.02, -75757.55, -175783.98, -95991.93, -77328.07, 0, 1, 1, 0, 1, 13:05:34.678
109, -63067.95, -73509.74, -187500.02, -187500.02, -75842.75, -175334.86, -95946.73, -77202.34, 0, 1, 1, 0, 1, 13:05:34.679
110, -62957.62, -73400.00, -187500.02, -187500.02, -75882.20, -175536.05, -96113.98, -77405.12, 0, 1, 1, 0, 1, 13:05:34.679
111, -62861.42, -73296.09, -187500.02, -187500.02, -75806.25, -176025.75, -96197.99, -77572.73, 0, 1, 1, 0, 1, 13:05:34.679
112, -62961.87, -73396.40, -187500.02, -187500.02, -75744.41, -175878.36, -96031.85, -77383.05, 0, 1, 1, 0, 1, 13:05:34.679
113, -63065.55, -73498.28, -187500.02, -187500.02, -75813.00, -175387.56, -95943.97, -77204.09, 0, 1, 1, 0, 1, 13:05:34.679
114, -63002.48, -73432.16, -187500.02, -187500.02, -75873.87, -175463.84, -96091.06, -77359.23, 0, 1, 1, 0, 1, 13:05:34.679
115, -62897.54, -73322.91, -187500.02, -187500.02, -75820.16, -175968.11, -96210.16, -77564.41, 0, 1, 1, 0, 1, 13:05:34.679
116, -62974.72, -73394.77, -187500.02, -187500.02, -75759.89, -175934.39, -96077.23, -77429.37, 0, 1, 1, 0, 1, 13:05:34.680
117, -63093.54, -73513.39, -187500.02, -187500.02, -75824.94, -175410.58, -95959.52, -77212.89, 0, 1, 1, 0, 1, 13:05:34.680
118, -63055.39, -73467.52, -187500.02, -187500.02, -75898.63, -175356.41, -96078.19, -77317.09, 0, 1, 1, 0, 1, 13:05:34.680
119, -62938.84, -73343.60, -187500.02, -187500.02, -75865.10, -175834.94, -96227.32, -77550.83, 0, 1, 1, 0, 1, 13:05:34.680
120, -62952.64, -73363.61, -187500.02, -187500.02, -75782.40, -175962.67, -96142.00, -77488.40, 0, 1, 1, 0, 1, 13:05:34.680
121, -63067.43, -73490.01, -187500.02, -187500.02, -75810.95, -175461.36, -95984.13, -77242.10, 0, 1, 1, 0, 1, 13:05:34.680
122, -63049.31, -73470.70, -187500.02, -187500.02, -75882.70, -175310.06, -96065.20, -77295.10, 0, 1, 1, 0, 1, 13:05:34.680
123, -62946.73, -73363.52, -187500.02, -187500.02, -75865.53, -175721.94, -96211.78, -77523.52, 0, 1, 1, 0, 1, 13:05:34.681
124, -62936.48, -73356.68, -187500.02, -187500.02, -75787.09, -175941.53, -96167.44, -77523.02, 0, 1, 1, 0, 1, 13:05:34.681
125, -63062.07, -73487.91, -187500.02, -187500.02, -75789.76, -175467.80, -95987.22, -77267.63, 0, 1, 1, 0, 1, 13:05:34.681
126, -63073.31, -73497.74, -187500.02, -187500.02, -75873.13, -175183.69, -96028.09, -77259.83, 0, 1, 1, 0, 1, 13:05:34.681
127, -62944.21, -73358.84, -187500.02, -187500.02, -75866.63, -175578.41, -96199.83, -77503.60, 0, 1, 1, 0, 1, 13:05:34.681
128, -62908.65, -73326.28, -187500.02, -187500.02, -75782.05, -175924.11, -96191.55, -77556.73, 0, 1, 1, 0, 1, 13:05:34.681
129, -63042.00, -73467.32, -187500.02, -187500.02, -75778.78, -175529.97, -96004.52, -77302.45, 0, 1, 1, 0, 1, 13:05:34.681
130, -63101.14, -73521.05, -187500.02, -187500.02, -75878.85, -175138.97, -96006.02, -77235.83, 0, 1, 1, 0, 1, 13:05:34.682
131, -62994.86, -73409.23, -187500.02, -187500.02, -75894.50, -175418.25, -96174.77, -77457.38, 0, 1, 1, 0, 1, 13:05:34.682
132, -62920.34, -73330.91, -187500.02, -187500.02, -75807.81, -175853.17, -96216.66, -77578.45, 0, 1, 1, 0, 1, 13:05:34.682
133, -63027.87, -73442.84, -187500.02, -187500.02, -75773.35, -175594.94, -96038.11, -77360.93, 0, 1, 1, 0, 1, 13:05:34.682
134, -63101.23, -73518.33, -187500.02, -187500.02, -75860.95, -175135.17, -95988.16, -77226.10, 0, 1, 1, 0, 1, 13:05:34.682
135, -63003.35, -73419.64, -187500.02, -187500.02, -75894.98, -175303.86, -96143.45, -77411.94, 0, 1, 1, 0, 1, 13:05:34.682
136, -62911.20, -73326.80, -187500.02, -187500.02, -75827.93, -175783.81, -96233.63, -77591.84, 0, 1, 1, 0, 1, 13:05:34.682
137, -62982.56, -73407.82, -187500.02, -187500.02, -75768.63, -175674.89, -96082.68, -77427.71, 0, 1, 1, 0, 1, 13:05:34.683
138, -63087.15, -73508.49, -187500.02, -187500.02, -75829.01, -175166.03, -95974.32, -77229.12, 0, 1, 1, 0, 1, 13:05:34.683
139, -63035.85, -73450.55, -187500.02, -187500.02, -75897.11, -175194.63, -96107.76, -77367.74, 0, 1, 1, 0, 1, 13:05:34.683
140, -62918.30, -73334.80, -187500.02, -187500.02, -75844.67, -175706.55, -96234.67, -77587.84, 0, 1, 1, 0, 1, 13:05:34.683
141, -62971.23, -73387.79, -187500.02, -187500.02, -75775.25, -175724.31, -96110.66, -77473.55, 0, 1, 1, 0, 1, 13:05:34.683
142, -63092.02, -73512.41, -187500.02, -187500.02, -75833.19, -175208.25, -95974.90, -77250.29, 0, 1, 1, 0, 1, 13:05:34.683
143, -63061.64, -73474.41, -187500.02, -187500.02, -75905.88, -175129.83, -96078.57, -77338.87, 0, 1, 1, 0, 1, 13:05:34.684
144, -62951.63, -73360.08, -187500.02, -187500.02, -75875.77, -175579.81, -96221.71, -77565.73, 0, 1, 1, 0, 1, 13:05:34.684
145, -62956.39, -73368.84, -187500.02, -187500.02, -75797.36, -175736.47, -96145.78, -77522.04, 0, 1, 1, 0, 1, 13:05:34.684
146, -63073.92, -73492.16, -187500.02, -187500.02, -75819.20, -175257.41, -95979.05, -77272.19, 0, 1, 1, 0, 1, 13:05:34.684
147, -63067.66, -73484.40, -187500.02, -187500.02, -75901.76, -175059.84, -96047.56, -77298.74, 0, 1, 1, 0, 1, 13:05:34.684
148, -62941.86, -73358.34, -187500.02, -187500.02, -75873.95, -175488.09, -96199.24, -77530.11, 0, 1, 1, 0, 1, 13:05:34.684
149, -62938.31, -73353.88, -187500.02, -187500.02, -75805.85, -175750.91, -96170.03, -77546.11, 0, 1, 1, 0, 1, 13:05:34.684
150, -63062.63, -73484.11, -187500.02, -187500.02, -75815.23, -175321.05, -95994.16, -77289.96, 0, 1, 1, 0, 1, 13:05:34.685
151, -63089.25, -73516.07, -187500.02, -187500.02, -75900.09, -174992.19, -96017.19, -77251.00, 0, 1, 1, 0, 1, 13:05:34.685
152, -62986.97, -73411.42, -187500.02, -187500.02, -75911.41, -175323.30, -96190.84, -77487.35, 0, 1, 1, 0, 1, 13:05:34.685
153, -62917.39, -73342.98, -187500.02, -187500.02, -75820.53, -175714.52, -96203.89, -77571.37, 0, 1, 1, 0, 1, 13:05:34.685
154, -63032.03, -73462.11, -187500.02, -187500.02, -75788.95, -175391.03, -96011.09, -77321.09, 0, 1, 1, 0, 1, 13:05:34.685
155, -63103.78, -73531.18, -187500.02, -187500.02, -75890.74, -174986.66, -95997.27, -77231.69, 0, 1, 1, 0, 1, 13:05:34.685
156, -63012.18, -73434.48, -187500.02, -187500.02, -75918.08, -175221.98, -96159.98, -77436.25, 0, 1, 1, 0, 1, 13:05:34.685
157, -62927.58, -73354.27, -187500.02, -187500.02, -75837.41, -175657.56, -96215.70, -77572.38, 0, 1, 1, 0, 1, 13:05:34.685
158, -63009.14, -73439.29, -187500.02, -187500.02, -75783.72, -175459.00, -96045.63, -77373.55, 0, 1, 1, 0, 1, 13:05:34.686
159, -63107.29, -73536.66, -187500.02, -187500.02, -75858.09, -174979.42, -95970.30, -77214.59, 0, 1, 1, 0, 1, 13:05:34.686
160, -63034.38, -73463.70, -187500.02, -187500.02, -75903.59, -175098.84, -96118.47, -77385.70, 0, 1, 1, 0, 1, 13:05:34.686
161, -62928.03, -73353.20, -187500.02, -187500.02, -75843.65, -175579.41, -96218.80, -77571.39, 0, 1, 1, 0, 1, 13:05:34.686
162, -62998.43, -73426.51, -187500.02, -187500.02, -75785.15, -175491.39, -96071.73, -77413.41, 0, 1, 1, 0, 1, 13:05:34.686
163, -63105.05, -73536.16, -187500.02, -187500.02, -75856.03, -174976.45, -95969.23, -77219.87, 0, 1, 1, 0, 1, 13:05:34.686
164, -63050.34, -73481.07, -187500.02, -187500.02, -75908.13, -174972.33, -96086.66, -77342.60, 0, 1, 1, 0, 1, 13:05:34.686
165, -62930.60, -73364.63, -187500.02, -187500.02, -75868.05, -175464.14, -96225.02, -77572.77, 0, 1, 1, 0, 1, 13:05:34.687
166, -62955.65, -73393.02, -187500.02, -187500.02, -75776.79, -175520.59, -96104.09, -77471.73, 0, 1, 1, 0, 1, 13:05:34.687
167, -63078.95, -73519.20, -187500.02, -187500.02, -75823.04, -175009.92, -95959.88, -77240.30, 0, 1, 1, 0, 1, 13:05:34.687
168, -63072.75, -73510.44, -187500.02, -187500.02, -75910.34, -174867.66, -96054.47, -77309.30, 0, 1, 1, 0, 1, 13:05:34.687
169, -62949.71, -73383.81, -187500.02, -187500.02, -75889.55, -175320.64, -96215.31, -77554.72, 0, 1, 1, 0, 1, 13:05:34.687
170, -62944.21, -73380.33, -187500.02, -187500.02, -75800.17, -175519.17, -96146.88, -77524.34, 0, 1, 1, 0, 1, 13:05:34.687
171, -63072.66, -73514.30, -187500.02, -187500.02, -75809.88, -175028.77, -95968.59, -77261.40, 0, 1, 1, 0, 1, 13:05:34.687
172, -63084.89, -73525.37, -187500.02, -187500.02, -75900.80, -174778.67, -96027.43, -77273.71, 0, 1, 1, 0, 1, 13:05:34.688
173, -62972.55, -73402.81, -187500.02, -187500.02, -75895.75, -175171.89, -96193.77, -77516.79, 0, 1, 1, 0, 1, 13:05:34.688
174, -62929.59, -73366.73, -187500.02, -187500.02, -75808.22, -175467.88, -96173.34, -77553.87, 0, 1, 1, 0, 1, 13:05:34.688
175, -63045.42, -73492.00, -187500.02, -187500.02, -75797.55, -175065.97, -95987.02, -77300.42, 0, 1, 1, 0, 1, 13:05:34.688
176, -63103.04, -73548.84, -187500.02, -187500.02, -75896.38, -174693.98, -95995.35, -77243.29, 0, 1, 1, 0, 1, 13:05:34.688
177, -62992.54, -73434.51, -187500.02, -187500.02, -75913.83, -174988.81, -96168.04, -77471.88, 0, 1, 1, 0, 1, 13:05:34.688
178, -62930.69, -73374.20, -187500.02, -187500.02, -75833.30, -175355.33, -96188.38, -77561.87, 0, 1, 1, 0, 1, 13:05:34.688
179, -63033.41, -73483.99, -187500.02, -187500.02, -75806.66, -175043.81, -96015.34, -77338.55, 0, 1, 1, 0, 1, 13:05:34.688
180, -63118.53, -73569.55, -187500.02, -187500.02, -75899.86, -174581.83, -95983.95, -77227.45, 0, 1, 1, 0, 1, 13:05:34.689
181, -63020.38, -73467.45, -187500.02, -187500.02, -75931.22, -174763.34, -96143.43, -77425.16, 0, 1, 1, 0, 1, 13:05:34.689
182, -62924.16, -73364.86, -187500.02, -187500.02, -75850.20, -175203.05, -96204.52, -77571.32, 0, 1, 1, 0, 1, 13:05:34.689
183, -63013.25, -73459.88, -187500.02, -187500.02, -75805.89, -175033.22, -96053.35, -77393.80, 0, 1, 1, 0, 1, 13:05:34.689
184, -63112.47, -73559.01, -187500.02, -187500.02, -75870.70, -174526.03, -95963.44, -77216.87, 0, 1, 1, 0, 1, 13:05:34.689
185, -63041.02, -73483.28, -187500.02, -187500.02, -75927.58, -174587.53, -96102.93, -77371.81, 0, 1, 1, 0, 1, 13:05:34.689
186, -62933.77, -73376.51, -187500.02, -187500.02, -75865.41, -175054.14, -96204.74, -77562.05, 0, 1, 1, 0, 1, 13:05:34.689
187, -62999.30, -73443.41, -187500.02, -187500.02, -75799.81, -174972.73, -96061.55, -77413.16, 0, 1, 1, 0, 1, 13:05:34.689
188, -63115.22, -73566.12, -187500.02, -187500.02, -75856.37, -174419.58, -95935.12, -77196.64, 0, 1, 1, 0, 1, 13:05:34.690
189, -63066.92, -73525.93, -187500.02, -187500.02, -75925.38, -174343.25, -96045.38, -77299.02, 0, 1, 1, 0, 1, 13:05:34.690
190, -62955.96, -73409.36, -187500.02, -187500.02, -75890.00, -174776.23, -96178.50, -77519.67, 0, 1, 1, 0, 1, 13:05:34.690
191, -62999.64, -73450.83, -187500.02, -187500.02, -75820.65, -174818.59, -96083.93, -77442.71, 0, 1, 1, 0, 1, 13:05:34.690
192, -63127.61, -73579.52, -187500.02, -187500.02, -75869.73, -174265.44, -95940.92, -77208.20, 0, 1, 1, 0, 1, 13:05:34.690
193, -63082.81, -73535.02, -187500.02, -187500.02, -75931.16, -174107.39, -96025.48, -77269.58, 0, 1, 1, 0, 1, 13:05:34.690
194, -62964.19, -73414.62, -187500.02, -187500.02, -75892.71, -174506.61, -96160.76, -77491.06, 0, 1, 1, 0, 1, 13:05:34.690
195, -62951.81, -73409.66, -187500.02, -187500.02, -75815.05, -174684.05, -96109.99, -77475.70, 0, 1, 1, 0, 1, 13:05:34.691
196, -63096.89, -73551.70, -187500.02, -187500.02, -75835.20, -174168.45, -95932.16, -77216.36, 0, 1, 1, 0, 1, 13:05:34.691
197, -63114.86, -73567.34, -187500.02, -187500.02, -75921.70, -173840.73, -95974.19, -77210.30, 0, 1, 1, 0, 1, 13:05:34.691
198, -63003.91, -73454.36, -187500.02, -187500.02, -75916.16, -174152.89, -96136.82, -77447.77, 0, 1, 1, 0, 1, 13:05:34.691
199, -62961.89, -73406.86, -187500.02, -187500.02, -75832.98, -174424.25, -96130.60, -77497.09, 0, 1, 1, 0, 1, 13:05:34.691
200, -63080.73, -73527.00, -187500.02, -187500.02, -75819.84, -174013.53, -95953.30, -77252.16, 0, 1, 1, 0, 1, 13:05:34.691
201, -63119.47, -73570.85, -187500.02, -187500.02, -75902.50, -173594.86, -95948.01, -77179.09, 0, 1, 1, 0, 1, 13:05:34.691
202, -63027.18, -73470.36, -187500.02, -187500.02, -75926.39, -173826.47, -96113.44, -77397.43, 0, 1, 1, 0, 1, 13:05:34.691
203, -62968.93, -73414.05, -187500.02, -187500.02, -75853.75, -174164.09, -96149.45, -77508.23, 0, 1, 1, 0, 1, 13:05:34.692
204, -63069.87, -73523.65, -187500.02, -187500.02, -75822.26, -173845.20, -95981.13, -77293.94, 0, 1, 1, 0, 1, 13:05:34.692
205, -63113.64, -73574.25, -187500.02, -187500.02, -75893.47, -173363.39, -95933.28, -77166.83, 0, 1, 1, 0, 1, 13:05:34.692
206, -63025.32, -73479.05, -187500.02, -187500.02, -75921.63, -173483.80, -96076.31, -77346.96, 0, 1, 1, 0, 1, 13:05:34.692
207, -62945.64, -73393.70, -187500.02, -187500.02, -75863.31, -173908.02, -96161.42, -77518.71, 0, 1, 1, 0, 1, 13:05:34.692
208, -63031.98, -73478.54, -187500.02, -187500.02, -75815.82, -173732.59, -96016.14, -77348.52, 0, 1, 1, 0, 1, 13:05:34.692
209, -63125.82, -73573.91, -187500.02, -187500.02, -75882.23, -173197.56, -95927.58, -77172.10, 0, 1, 1, 0, 1, 13:05:34.693
210, -63039.27, -73484.98, -187500.02, -187500.02, -75933.05, -173246.73, -96072.29, -77327.80, 0, 1, 1, 0, 1, 13:05:34.693
211, -62939.85, -73381.04, -187500.02, -187500.02, -75877.40, -173705.17, -96183.69, -77527.85, 0, 1, 1, 0, 1, 13:05:34.693
212, -62996.94, -73443.41, -187500.02, -187500.02, -75815.51, -173669.56, -96064.42, -77408.20, 0, 1, 1, 0, 1, 13:05:34.693
213, -63113.23, -73562.47, -187500.02, -187500.02, -75870.09, -173121.20, -95936.19, -77184.80, 0, 1, 1, 0, 1, 13:05:34.693
214, -63068.55, -73512.91, -187500.02, -187500.02, -75941.41, -173049.91, -96058.43, -77295.10, 0, 1, 1, 0, 1, 13:05:34.693
215, -62948.59, -73387.59, -187500.02, -187500.02, -75894.54, -173509.59, -96196.14, -77523.78, 0, 1, 1, 0, 1, 13:05:34.693
216, -62961.69, -73408.78, -187500.02, -187500.02, -75813.07, -173642.52, -96113.93, -77471.01, 0, 1, 1, 0, 1, 13:05:34.694
217, -63088.60, -73545.69, -187500.02, -187500.02, -75848.61, -173140.89, -95959.21, -77233.37, 0, 1, 1, 0, 1, 13:05:34.694
218, -63074.18, -73532.19, -187500.02, -187500.02, -75919.35, -172939.48, -96021.68, -77264.93, 0, 1, 1, 0, 1, 13:05:34.694
219, -62954.78, -73402.70, -187500.02, -187500.02, -75898.19, -173363.70, -96180.27, -77504.70, 0, 1, 1, 0, 1, 13:05:34.694
220, -62937.95, -73382.77, -187500.02, -187500.02, -75816.00, -173634.77, -96146.74, -77522.93, 0, 1, 1, 0, 1, 13:05:34.694
221, -63062.98, -73514.98, -187500.02, -187500.02, -75825.16, -173208.06, -95971.75, -77277.73, 0, 1, 1, 0, 1, 13:05:34.694
222, -63095.44, -73544.21, -187500.02, -187500.02, -75918.73, -172916.64, -96010.04, -77259.77, 0, 1, 1, 0, 1, 13:05:34.694
223, -62974.94, -73421.01, -187500.02, -187500.02, -75915.55, -173270.92, -96178.62, -77490.88, 0, 1, 1, 0, 1, 13:05:34.694
224, -62936.00, -73381.84, -187500.02, -187500.02, -75834.68, -173619.20, -96182.10, -77561.29, 0, 1, 1, 0, 1, 13:05:34.695
225, -63034.38, -73485.54, -187500.02, -187500.02, -75819.48, -173297.56, -96015.13, -77335.49, 0, 1, 1, 0, 1, 13:05:35.158
226, -63088.73, -73542.40, -187500.02, -187500.02, -75899.28, -172923.27, -95996.34, -77247.52, 0, 1, 1, 0, 1, 13:05:35.158
227, -63007.49, -73452.05, -187500.02, -187500.02, -75934.66, -173168.38, -96155.50, -77453.95, 0, 1, 1, 0, 1, 13:05:35.158
228, -62919.84, -73364.55, -187500.02, -187500.02, -75857.99, -173606.27, -96209.80, -77586.63, 0, 1, 1, 0, 1, 13:05:35.159
229, -62998.55, -73451.74, -187500.02, -187500.02, -75801.42, -173395.33, -96033.13, -77378.32, 0, 1, 1, 0, 1, 13:05:35.159
230, -63096.76, -73552.93, -187500.02, -187500.02, -75879.92, -172933.42, -95967.23, -77230.04, 0, 1, 1, 0, 1, 13:05:35.159
231, -63026.15, -73479.05, -187500.02, -187500.02, -75930.04, -173067.63, -96113.86, -77404.67, 0, 1, 1, 0, 1, 13:05:35.159
232, -62925.23, -73377.29, -187500.02, -187500.02, -75865.46, -173549.94, -96206.09, -77587.28, 0, 1, 1, 0, 1, 13:05:35.159
233, -62993.29, -73448.12, -187500.02, -187500.02, -75807.39, -173456.61, -96060.46, -77429.99, 0, 1, 1, 0, 1, 13:05:35.159
234, -63082.34, -73538.40, -187500.02, -187500.02, -75870.85, -172977.66, -95963.34, -77246.38, 0, 1, 1, 0, 1, 13:05:35.159
235, -63016.70, -73479.95, -187500.02, -187500.02, -75925.88, -173005.17, -96084.42, -77374.98, 0, 1, 1, 0, 1, 13:05:35.160
236, -62917.16, -73375.41, -187500.02, -187500.02, -75873.98, -173476.94, -96195.40, -77582.03, 0, 1, 1, 0, 1, 13:05:35.160
237, -62962.11, -73424.34, -187500.02, -187500.02, -75805.65, -173509.28, -96084.02, -77480.69, 0, 1, 1, 0, 1, 13:05:35.160
238, -63071.61, -73538.98, -187500.02, -187500.02, -75854.84, -173016.47, -95953.51, -77256.34, 0, 1, 1, 0, 1, 13:05:35.160
239, -63039.70, -73512.07, -187500.02, -187500.02, -75923.98, -172907.84, -96043.70, -77328.30, 0, 1, 1, 0, 1, 13:05:35.161
240, -62928.81, -73401.41, -187500.02, -187500.02, -75895.01, -173360.13, -96187.76, -77559.63, 0, 1, 1, 0, 1, 13:05:35.161
241, -62943.16, -73420.02, -187500.02, -187500.02, -75817.78, -173511.69, -96114.63, -77512.59, 0, 1, 1, 0, 1, 13:05:35.161
242, -63073.58, -73553.82, -187500.02, -187500.02, -75846.20, -173031.20, -95954.70, -77259.49, 0, 1, 1, 0, 1, 13:05:35.161
243, -63059.90, -73536.09, -187500.02, -187500.02, -75922.16, -172835.23, -96023.25, -77285.20, 0, 1, 1, 0, 1, 13:05:35.161
244, -62941.88, -73420.96, -187500.02, -187500.02, -75905.54, -173237.09, -96177.66, -77514.17, 0, 1, 1, 0, 1, 13:05:35.162
245, -62912.80, -73392.17, -187500.02, -187500.02, -75833.14, -173525.95, -96161.49, -77544.84, 0, 1, 1, 0, 1, 13:05:35.162
246, -63027.18, -73506.37, -187500.02, -187500.02, -75818.37, -173134.73, -95977.76, -77297.72, 0, 1, 1, 0, 1, 13:05:35.162
247, -63058.79, -73536.68, -187500.02, -187500.02, -75893.34, -172815.88, -95982.14, -77250.11, 0, 1, 1, 0, 1, 13:05:35.162
248, -62955.45, -73432.72, -187500.02, -187500.02, -75905.34, -173142.16, -96143.12, -77476.11, 0, 1, 1, 0, 1, 13:05:35.163
249, -62892.64, -73378.67, -187500.02, -187500.02, -75824.73, -173523.45, -96163.66, -77566.12, 0, 1, 1, 0, 1, 13:05:35.163
250, -62980.87, -73467.08, -187500.02, -187500.02, -75793.63, -173254.16, -95992.96, -77348.43, 0, 1, 1, 0, 1, 13:05:35.163
251, -63051.05, -73535.76, -187500.02, -187500.02, -75866.40, -172865.30, -95955.90, -77238.46, 0, 1, 1, 0, 1, 13:05:35.163
252, -62965.58, -73446.80, -187500.02, -187500.02, -75900.73, -173085.56, -96109.63, -77435.02, 0, 1, 1, 0, 1, 13:05:35.163
253, -62893.58, -73373.38, -187500.02, -187500.02, -75848.85, -173538.98, -96183.87, -77590.97, 0, 1, 1, 0, 1, 13:05:35.164
254, -62983.19, -73464.86, -187500.02, -187500.02, -75810.27, -173377.20, -96032.23, -77408.67, 0, 1, 1, 0, 1, 13:05:35.164
255, -63056.46, -73540.05, -187500.02, -187500.02, -75876.99, -172924.42, -95957.84, -77247.83, 0, 1, 1, 0, 1, 13:05:35.164
0, -62985.92, -73456.05, -187500.02, -187500.02, -75925.43, -173050.75, -96100.98, -77410.55, 0, 1, 1, 0, 1, 13:05:35.164
1, -62888.73, -73364.50, -187500.02, -187500.02, -75859.90, -173530.38, -96190.48, -77584.94, 0, 1, 1, 0, 1, 13:05:35.164
2, -62934.42, -73420.38, -187500.02, -187500.02, -75792.26, -173500.69, -96060.06, -77444.59, 0, 1, 1, 0, 1, 13:05:35.165
3, -63056.64, -73538.51, -187500.02, -187500.02, -75847.11, -173007.95, -95936.50, -77232.77, 0, 1, 1, 0, 1, 13:05:35.165
4, -63023.76, -73491.91, -187500.02, -187500.02, -75917.61, -173007.02, -96055.61, -77353.95, 0, 1, 1, 0, 1, 13:05:35.165
5, -62916.34, -73379.03, -187500.02, -187500.02, -75874.02, -173485.89, -96181.66, -77568.58, 0, 1, 1, 0, 1, 13:05:35.165
6, -62937.75, -73403.51, -187500.02, -187500.02, -75799.44, -173572.88, -96080.96, -77485.59, 0, 1, 1, 0, 1, 13:05:35.165
7, -63050.27, -73515.31, -187500.02, -187500.02, -75835.38, -173102.55, -95941.66, -77259.36, 0, 1, 1, 0, 1, 13:05:35.166
8, -63039.41, -73502.30, -187500.02, -187500.02, -75909.65, -172960.70, -96017.30, -77312.94, 0, 1, 1, 0, 1, 13:05:35.166
9, -62911.82, -73378.54, -187500.02, -187500.02, -75884.82, -173409.75, -96166.25, -77541.51, 0, 1, 1, 0, 1, 13:05:35.166
10, -62910.95, -73370.09, -187500.02, -187500.02, -75800.10, -173638.05, -96110.04, -77524.50, 0, 1, 1, 0, 1, 13:05:35.166
11, -63046.54, -73507.62, -187500.02, -187500.02, -75825.05, -173201.78, -95951.48, -77286.61, 0, 1, 1, 0, 1, 13:05:35.166
12, -63048.93, -73509.97, -187500.02, -187500.02, -75907.33, -172999.25, -96008.95, -77302.81, 0, 1, 1, 0, 1, 13:05:35.167
13, -62922.71, -73385.02, -187500.02, -187500.02, -75890.74, -173420.86, -96164.87, -77532.45, 0, 1, 1, 0, 1, 13:05:35.167
14, -62893.83, -73359.85, -187500.02, -187500.02, -75811.30, -173754.03, -96148.69, -77572.95, 0, 1, 1, 0, 1, 13:05:35.167
15, -63015.80, -73487.05, -187500.02, -187500.02, -75804.87, -173398.22, -95973.05, -77328.92, 0, 1, 1, 0, 1, 13:05:35.167
16, -63046.69, -73521.12, -187500.02, -187500.02, -75882.49, -173084.86, -95977.47, -77274.31, 0, 1, 1, 0, 1, 13:05:35.168
17, -62952.19, -73420.09, -187500.02, -187500.02, -75897.94, -173393.27, -96135.37, -77488.78, 0, 1, 1, 0, 1, 13:05:35.168
18, -62892.04, -73355.85, -187500.02, -187500.02, -75824.18, -173805.58, -96172.67, -77595.17, 0, 1, 1, 0, 1, 13:05:35.168
19, -62984.42, -73455.81, -187500.02, -187500.02, -75784.10, -173549.80, -95996.67, -77372.04, 0, 1, 1, 0, 1, 13:05:35.168
20, -63044.48, -73506.19, -187500.02, -187500.02, -75860.86, -173165.64, -95959.39, -77262.71, 0, 1, 1, 0, 1, 13:05:35.168
21, -62967.41, -73422.77, -187500.02, -187500.02, -75896.53, -173398.84, -96115.56, -77461.73, 0, 1, 1, 0, 1, 13:05:35.169
22, -62891.05, -73343.23, -187500.02, -187500.02, -75825.02, -173882.75, -96182.59, -77607.22, 0, 1, 1, 0, 1, 13:05:35.169
23, -62989.88, -73449.48, -187500.02, -187500.02, -75773.06, -173730.53, -96013.48, -77407.58, 0, 1, 1, 0, 1, 13:05:35.169
24, -63083.86, -73550.11, -187500.02, -187500.02, -75859.60, -173262.84, -95943.23, -77245.99, 0, 1, 1, 0, 1, 13:05:35.169
25, -63005.92, -73469.40, -187500.02, -187500.02, -75912.02, -173373.41, -96089.07, -77406.26, 0, 1, 1, 0, 1, 13:05:35.169
26, -62896.89, -73363.74, -187500.02, -187500.02, -75849.68, -173861.14, -96191.31, -77595.42, 0, 1, 1, 0, 1, 13:05:35.170
27, -62949.24, -73418.19, -187500.02, -187500.02, -75778.83, -173858.36, -96066.16, -77466.94, 0, 1, 1, 0, 1, 13:05:35.170
28, -63083.91, -73550.63, -187500.02, -187500.02, -75841.48, -173342.94, -95944.44, -77250.11, 0, 1, 1, 0, 1, 13:05:35.170
29, -63027.63, -73485.23, -187500.02, -187500.02, -75911.53, -173332.98, -96072.87, -77367.74, 0, 1, 1, 0, 1, 13:05:35.170
30, -62909.74, -73365.40, -187500.02, -187500.02, -75854.71, -173818.09, -96195.02, -77578.48, 0, 1, 1, 0, 1, 13:05:35.171
31, -62932.70, -73393.80, -187500.02, -187500.02, -75779.92, -173926.63, -96099.06, -77500.76, 0, 1, 1, 0, 1, 13:05:35.171
32, -63049.33, -73516.02, -187500.02, -187500.02, -75810.66, -173457.11, -95948.46, -77263.18, 0, 1, 1, 0, 1, 13:05:35.171
33, -63048.26, -73507.87, -187500.02, -187500.02, -75886.25, -173281.13, -96015.78, -77295.15, 0, 1, 1, 0, 1, 13:05:35.171
34, -62932.25, -73389.40, -187500.02, -187500.02, -75870.09, -173709.50, -96174.32, -77528.21, 0, 1, 1, 0, 1, 13:05:35.171
35, -62917.45, -73381.71, -187500.02, -187500.02, -75792.88, -173951.69, -96137.38, -77529.62, 0, 1, 1, 0, 1, 13:05:35.172
36, -63044.95, -73517.48, -187500.02, -187500.02, -75806.72, -173511.16, -95975.50, -77285.65, 0, 1, 1, 0, 1, 13:05:35.172
37, -63066.76, -73536.66, -187500.02, -187500.02, -75889.31, -173232.03, -96012.83, -77269.44, 0, 1, 1, 0, 1, 13:05:35.172
38, -62970.92, -73438.91, -187500.02, -187500.02, -75890.23, -173570.13, -96167.69, -77485.56, 0, 1, 1, 0, 1, 13:05:35.172
39, -62922.37, -73396.78, -187500.02, -187500.02, -75805.42, -173892.16, -96164.09, -77542.67, 0, 1, 1, 0, 1, 13:05:35.172
40, -63026.69, -73504.60, -187500.02, -187500.02, -75784.52, -173532.70, -95981.70, -77299.39, 0, 1, 1, 0, 1, 13:05:35.173
41, -63065.64, -73548.19, -187500.02, -187500.02, -75864.43, -173151.11, -95967.95, -77213.85, 0, 1, 1, 0, 1, 13:05:35.173
42, -62976.11, -73455.30, -187500.02, -187500.02, -75894.88, -173380.20, -96125.48, -77415.04, 0, 1, 1, 0, 1, 13:05:35.173
43, -62915.71, -73395.13, -187500.02, -187500.02, -75829.43, -173760.17, -96171.93, -77531.54, 0, 1, 1, 0, 1, 13:05:35.173
44, -63028.72, -73510.86, -187500.02, -187500.02, -75806.37, -173458.78, -96001.12, -77317.01, 0, 1, 1, 0, 1, 13:05:35.173
45, -63102.35, -73580.06, -187500.02, -187500.02, -75873.06, -172983.44, -95950.25, -77189.42, 0, 1, 1, 0, 1, 13:05:35.174
46, -63014.91, -73486.48, -187500.02, -187500.02, -75901.42, -173103.06, -96090.48, -77365.87, 0, 1, 1, 0, 1, 13:05:35.174
47, -62915.38, -73385.52, -187500.02, -187500.02, -75832.96, -173541.31, -96173.97, -77532.55, 0, 1, 1, 0, 1, 13:05:35.174
48, -63004.36, -73468.70, -187500.02, -187500.02, -75780.30, -173385.14, -96025.52, -77361.69, 0, 1, 1, 0, 1, 13:05:35.174
49, -63095.62, -73568.64, -187500.02, -187500.02, -75844.54, -172880.44, -95935.56, -77188.53, 0, 1, 1, 0, 1, 13:05:35.174
50, -63013.03, -73493.54, -187500.02, -187500.02, -75886.00, -172896.28, -96054.52, -77318.19, 0, 1, 1, 0, 1, 13:05:35.175
51, -62895.46, -73360.37, -187500.02, -187500.02, -75823.91, -173362.73, -96162.39, -77512.43, 0, 1, 1, 0, 1, 13:05:35.175
52, -62971.86, -73439.56, -187500.02, -187500.02, -75771.16, -173323.25, -96039.70, -77388.51, 0, 1, 1, 0, 1, 13:05:35.175
53, -63075.66, -73567.23, -187500.02, -187500.02, -75819.57, -172791.63, -95916.38, -77174.24, 0, 1, 1, 0, 1, 13:05:35.175
54, -63021.66, -73510.62, -187500.02, -187500.02, -75880.80, -172722.36, -96023.41, -77275.90, 0, 1, 1, 0, 1, 13:05:35.175
55, -62923.02, -73395.28, -187500.02, -187500.02, -75846.20, -173181.13, -96160.94, -77506.30, 0, 1, 1, 0, 1, 13:05:35.176
56, -62943.80, -73418.08, -187500.02, -187500.02, -75775.92, -173304.80, -96083.15, -77454.88, 0, 1, 1, 0, 1, 13:05:35.176
57, -63055.70, -73540.50, -187500.02, -187500.02, -75797.84, -172822.52, -95926.45, -77213.12, 0, 1, 1, 0, 1, 13:05:35.176
58, -63049.98, -73537.10, -187500.02, -187500.02, -75879.68, -172597.11, -95989.85, -77237.77, 0, 1, 1, 0, 1, 13:05:35.176
59, -62923.60, -73397.96, -187500.02, -187500.02, -75862.35, -173004.53, -96148.30, -77475.30, 0, 1, 1, 0, 1, 13:05:35.177
60, -62917.54, -73386.41, -187500.02, -187500.02, -75787.86, -173251.19, -96119.63, -77494.19, 0, 1, 1, 0, 1, 13:05:35.177
61, -63041.11, -73519.51, -187500.02, -187500.02, -75790.09, -172822.28, -95951.68, -77253.23, 0, 1, 1, 0, 1, 13:05:35.177
62, -63056.93, -73536.14, -187500.02, -187500.02, -75869.48, -172513.17, -95970.20, -77216.27, 0, 1, 1, 0, 1, 13:05:35.177
63, -62940.97, -73415.66, -187500.02, -187500.02, -75870.98, -172843.34, -96128.41, -77437.88, 0, 1, 1, 0, 1, 13:05:35.177
64, -62883.19, -73351.70, -187500.02, -187500.02, -75780.05, -173213.81, -96139.03, -77515.04, 0, 1, 1, 0, 1, 13:05:35.178
65, -62999.20, -73470.12, -187500.02, -187500.02, -75745.84, -172883.30, -95954.29, -77274.76, 0, 1, 1, 0, 1, 13:05:35.178
66, -63060.66, -73533.48, -187500.02, -187500.02, -75836.05, -172475.05, -95934.29, -77176.23, 0, 1, 1, 0, 1, 13:05:35.178
67, -62971.48, -73439.91, -187500.02, -187500.02, -75872.48, -172698.83, -96095.60, -77378.95, 0, 1, 1, 0, 1, 13:05:35.178
68, -62890.14, -73363.54, -187500.02, -187500.02, -75804.71, -173139.47, -96155.05, -77518.40, 0, 1, 1, 0, 1, 13:05:35.178
69, -62990.54, -73468.08, -187500.02, -187500.02, -75758.58, -172931.53, -95983.15, -77323.98, 0, 1, 1, 0, 1, 13:05:35.179
70, -63069.42, -73542.58, -187500.02, -187500.02, -75831.69, -172483.84, -95926.09, -77181.33, 0, 1, 1, 0, 1, 13:05:35.179
71, -62976.98, -73450.04, -187500.02, -187500.02, -75863.09, -172648.13, -96078.79, -77364.91, 0, 1, 1, 0, 1, 13:05:35.179
72, -62877.29, -73351.59, -187500.02, -187500.02, -75788.88, -173135.91, -96169.38, -77544.30, 0, 1, 1, 0, 1, 13:05:35.179
73, -62942.40, -73415.22, -187500.02, -187500.02, -75725.43, -173077.58, -96025.59, -77397.77, 0, 1, 1, 0, 1, 13:05:35.179
74, -63038.71, -73508.23, -187500.02, -187500.02, -75789.42, -172618.09, -95921.32, -77209.49, 0, 1, 1, 0, 1, 13:05:35.179
75, -62987.68, -73458.07, -187500.02, -187500.02, -75851.76, -172650.55, -96037.42, -77331.71, 0, 1, 1, 0, 1, 13:05:35.180
76, -62880.51, -73350.60, -187500.02, -187500.02, -75811.66, -173156.30, -96166.74, -77545.98, 0, 1, 1, 0, 1, 13:05:35.180
77, -62911.55, -73388.98, -187500.02, -187500.02, -75742.51, -173235.25, -96064.51, -77450.55, 0, 1, 1, 0, 1, 13:05:35.180
78, -63026.82, -73504.27, -187500.02, -187500.02, -75785.40, -172773.81, -95925.21, -77223.46, 0, 1, 1, 0, 1, 13:05:35.180
79, -62998.43, -73463.97, -187500.02, -187500.02, -75852.81, -172703.36, -96012.38, -77295.57, 0, 1, 1, 0, 1, 13:05:35.180
80, -62884.86, -73356.10, -187500.02, -187500.02, -75822.84, -173167.77, -96154.66, -77516.67, 0, 1, 1, 0, 1, 13:05:35.180
81, -62902.30, -73369.30, -187500.02, -187500.02, -75738.59, -173374.97, -96092.18, -77488.11, 0, 1, 1, 0, 1, 13:05:35.181
82, -63020.09, -73484.33, -187500.02, -187500.02, -75753.73, -172957.45, -95927.90, -77247.70, 0, 1, 1, 0, 1, 13:05:35.181
83, -63022.73, -73481.98, -187500.02, -187500.02, -75821.63, -172751.69, -95967.14, -77249.15, 0, 1, 1, 0, 1, 13:05:35.181
84, -62932.43, -73391.23, -187500.02, -187500.02, -75817.83, -173142.91, -96119.43, -77469.22, 0, 1, 1, 0, 1, 13:05:35.181
85, -62892.53, -73352.25, -187500.02, -187500.02, -75743.45, -173452.48, -96107.60, -77507.02, 0, 1, 1, 0, 1, 13:05:35.181
86, -62996.78, -73465.89, -187500.02, -187500.02, -75731.09, -173097.95, -95933.05, -77267.09, 0, 1, 1, 0, 1, 13:05:35.181
87, -63022.57, -73488.04, -187500.02, -187500.02, -75804.77, -172798.42, -95932.70, -77211.91, 0, 1, 1, 0, 1, 13:05:35.181
88, -62925.41, -73389.94, -187500.02, -187500.02, -75820.94, -173121.83, -96090.70, -77425.01, 0, 1, 1, 0, 1, 13:05:35.182
89, -62876.48, -73347.05, -187500.02, -187500.02, -75745.73, -173521.09, -96115.78, -77514.02, 0, 1, 1, 0, 1, 13:05:35.182
90, -62969.60, -73444.66, -187500.02, -187500.02, -75713.80, -173241.80, -95938.35, -77284.87, 0, 1, 1, 0, 1, 13:05:35.638
91, -63038.64, -73508.45, -187500.02, -187500.02, -75794.92, -172862.28, -95908.13, -77183.88, 0, 1, 1, 0, 1, 13:05:35.638
92, -62936.79, -73401.16, -187500.02, -187500.02, -75814.12, -173081.02, -96051.52, -77367.86, 0, 1, 1, 0, 1, 13:05:35.638
93, -62850.84, -73312.24, -187500.02, -187500.02, -75743.09, -173533.03, -96114.73, -77509.59, 0, 1, 1, 0, 1, 13:05:35.639
94, -62920.43, -73380.73, -187500.02, -187500.02, -75687.74, -173397.58, -95957.58, -77326.57, 0, 1, 1, 0, 1, 13:05:35.639
95, -63008.20, -73469.33, -187500.02, -187500.02, -75743.42, -172977.48, -95871.10, -77163.74, 0, 1, 1, 0, 1, 13:05:35.639
96, -62952.17, -73402.16, -187500.02, -187500.02, -75794.74, -173100.38, -96004.34, -77317.50, 0, 1, 1, 0, 1, 13:05:35.639
97, -62845.01, -73290.56, -187500.02, -187500.02, -75733.41, -173592.84, -96101.30, -77493.80, 0, 1, 1, 0, 1, 13:05:35.640
98, -62918.21, -73368.28, -187500.02, -187500.02, -75678.76, -173544.33, -95961.80, -77345.20, 0, 1, 1, 0, 1, 13:05:35.640
99, -63032.25, -73488.48, -187500.02, -187500.02, -75745.16, -173062.58, -95852.37, -77148.12, 0, 1, 1, 0, 1, 13:05:35.640
100, -62985.96, -73439.11, -187500.02, -187500.02, -75803.68, -173063.88, -95968.10, -77265.71, 0, 1, 1, 0, 1, 13:05:35.640
101, -62880.26, -73322.48, -187500.02, -187500.02, -75757.05, -173523.05, -96090.75, -77462.36, 0, 1, 1, 0, 1, 13:05:35.640
102, -62905.32, -73346.89, -187500.02, -187500.02, -75683.18, -173631.67, -96002.33, -77383.39, 0, 1, 1, 0, 1, 13:05:35.640
103, -63025.91, -73466.83, -187500.02, -187500.02, -75716.55, -173145.80, -95846.16, -77145.41, 0, 1, 1, 0, 1, 13:05:35.641
104, -62998.81, -73439.47, -187500.02, -187500.02, -75792.48, -173026.22, -95928.56, -77204.64, 0, 1, 1, 0, 1, 13:05:35.641
105, -62873.40, -73311.73, -187500.02, -187500.02, -75760.05, -173473.00, -96074.81, -77423.69, 0, 1, 1, 0, 1, 13:05:35.641
106, -62878.09, -73310.81, -187500.02, -187500.02, -75683.77, -173692.73, -96025.33, -77409.23, 0, 1, 1, 0, 1, 13:05:35.641
107, -62997.63, -73433.34, -187500.02, -187500.02, -75696.33, -173264.91, -95860.59, -77169.09, 0, 1, 1, 0, 1, 13:05:35.641
108, -63011.38, -73437.75, -187500.02, -187500.02, -75781.66, -173041.97, -95914.20, -77179.48, 0, 1, 1, 0, 1, 13:05:35.642
109, -62887.91, -73313.52, -187500.02, -187500.02, -75769.38, -173436.80, -96075.75, -77411.84, 0, 1, 1, 0, 1, 13:05:35.642
110, -62840.92, -73277.42, -187500.02, -187500.02, -75684.10, -173776.78, -96068.38, -77464.51, 0, 1, 1, 0, 1, 13:05:35.642
111, -62956.35, -73387.66, -187500.02, -187500.02, -75659.34, -173453.70, -95883.59, -77230.64, 0, 1, 1, 0, 1, 13:05:35.642
112, -62997.20, -73426.23, -187500.02, -187500.02, -75739.89, -173135.88, -95874.41, -77162.98, 0, 1, 1, 0, 1, 13:05:35.642
113, -62902.75, -73331.13, -187500.02, -187500.02, -75775.25, -173450.17, -96045.27, -77383.34, 0, 1, 1, 0, 1, 13:05:35.642
114, -62849.26, -73268.44, -187500.02, -187500.02, -75711.34, -173869.77, -96093.21, -77495.57, 0, 1, 1, 0, 1, 13:05:35.642
115, -62932.36, -73354.53, -187500.02, -187500.02, -75666.66, -173687.11, -95938.27, -77301.96, 0, 1, 1, 0, 1, 13:05:35.643
116, -62993.14, -73423.69, -187500.02, -187500.02, -75736.34, -173340.31, -95897.50, -77195.46, 0, 1, 1, 0, 1, 13:05:35.643
117, -62905.79, -73330.30, -187500.02, -187500.02, -75774.42, -173588.69, -96052.48, -77384.27, 0, 1, 1, 0, 1, 13:05:35.643
118, -62810.32, -73227.35, -187500.02, -187500.02, -75699.68, -174100.91, -96122.06, -77531.05, 0, 1, 1, 0, 1, 13:05:35.643
119, -62875.93, -73293.98, -187500.02, -187500.02, -75645.74, -174047.34, -95973.96, -77363.12, 0, 1, 1, 0, 1, 13:05:35.643
120, -62968.53, -73384.15, -187500.02, -187500.02, -75705.42, -173672.09, -95882.77, -77199.10, 0, 1, 1, 0, 1, 13:05:35.643
121, -62910.30, -73327.63, -187500.02, -187500.02, -75760.09, -173816.56, -96012.34, -77342.73, 0, 1, 1, 0, 1, 13:05:35.643
122, -62796.75, -73215.39, -187500.02, -187500.02, -75705.45, -174361.86, -96127.98, -77539.36, 0, 1, 1, 0, 1, 13:05:35.644
123, -62849.41, -73270.78, -187500.02, -187500.02, -75634.48, -174432.61, -96003.31, -77419.53, 0, 1, 1, 0, 1, 13:05:35.644
124, -62943.23, -73366.00, -187500.02, -187500.02, -75677.30, -174057.13, -95885.76, -77222.68, 0, 1, 1, 0, 1, 13:05:35.644
125, -62906.17, -73325.48, -187500.02, -187500.02, -75738.01, -174104.70, -95988.05, -77317.43, 0, 1, 1, 0, 1, 13:05:35.644
126, -62800.60, -73212.17, -187500.02, -187500.02, -75714.45, -174638.44, -96126.60, -77534.00, 0, 1, 1, 0, 1, 13:05:35.644
127, -62807.89, -73225.07, -187500.02, -187500.02, -75638.81, -174874.77, -96053.24, -77488.13, 0, 1, 1, 0, 1, 13:05:35.644
128, -62938.31, -73357.48, -187500.02, -187500.02, -75666.77, -174523.58, -95900.29, -77258.71, 0, 1, 1, 0, 1, 13:05:35.644
129, -62924.02, -73336.88, -187500.02, -187500.02, -75739.51, -174458.69, -95967.23, -77294.61, 0, 1, 1, 0, 1, 13:05:35.644
130, -62807.59, -73217.67, -187500.02, -187500.02, -75717.56, -174956.23, -96118.24, -77513.55, 0, 1, 1, 0, 1, 13:05:35.644
131, -62801.56, -73221.88, -187500.02, -187500.02, -75640.00, -175272.41, -96077.88, -77510.95, 0, 1, 1, 0, 1, 13:05:35.645
132, -62909.43, -73327.00, -187500.02, -187500.02, -75638.73, -174964.36, -95905.30, -77276.68, 0, 1, 1, 0, 1, 13:05:35.645
133, -62937.14, -73346.22, -187500.02, -187500.02, -75717.02, -174793.47, -95930.76, -77256.16, 0, 1, 1, 0, 1, 13:05:35.645
134, -62835.47, -73246.09, -187500.02, -187500.02, -75727.28, -175207.72, -96088.58, -77470.05, 0, 1, 1, 0, 1, 13:05:35.645
135, -62790.50, -73203.77, -187500.02, -187500.02, -75652.83, -175606.36, -96093.43, -77528.48, 0, 1, 1, 0, 1, 13:05:35.645
136, -62889.13, -73303.75, -187500.02, -187500.02, -75628.40, -175380.41, -95919.87, -77304.89, 0, 1, 1, 0, 1, 13:05:35.645
137, -62923.85, -73337.61, -187500.02, -187500.02, -75693.15, -175133.95, -95899.69, -77228.45, 0, 1, 1, 0, 1, 13:05:35.645
138, -62834.04, -73244.45, -187500.02, -187500.02, -75712.76, -175465.91, -96050.83, -77423.24, 0, 1, 1, 0, 1, 13:05:35.645
139, -62777.98, -73190.61, -187500.02, -187500.02, -75649.68, -175931.94, -96097.03, -77531.52, 0, 1, 1, 0, 1, 13:05:35.645
140, -62868.75, -73282.45, -187500.02, -187500.02, -75612.88, -175787.08, -95936.79, -77332.09, 0, 1, 1, 0, 1, 13:05:35.646
141, -62936.95, -73344.32, -187500.02, -187500.02, -75677.15, -175466.80, -95879.73, -77206.07, 0, 1, 1, 0, 1, 13:05:35.646
142, -62868.46, -73271.30, -187500.02, -187500.02, -75728.47, -175690.22, -96027.67, -77373.82, 0, 1, 1, 0, 1, 13:05:35.646
143, -62784.86, -73188.59, -187500.02, -187500.02, -75681.26, -176201.17, -96126.84, -77546.85, 0, 1, 1, 0, 1, 13:05:35.646
144, -62834.13, -73237.66, -187500.02, -187500.02, -75609.58, -176201.86, -95987.30, -77397.83, 0, 1, 1, 0, 1, 13:05:35.646
145, -62910.91, -73314.81, -187500.02, -187500.02, -75643.89, -175839.42, -95869.78, -77205.36, 0, 1, 1, 0, 1, 13:05:35.646
146, -62858.16, -73259.85, -187500.02, -187500.02, -75698.78, -175945.75, -95981.59, -77319.40, 0, 1, 1, 0, 1, 13:05:35.646
147, -62792.95, -73188.30, -187500.02, -187500.02, -75675.49, -176416.59, -96091.38, -77503.71, 0, 1, 1, 0, 1, 13:05:35.646
148, -62825.27, -73221.67, -187500.02, -187500.02, -75608.62, -176504.56, -95987.22, -77407.22, 0, 1, 1, 0, 1, 13:05:35.646
149, -62926.28, -73322.19, -187500.02, -187500.02, -75638.26, -176103.05, -95845.55, -77192.13, 0, 1, 1, 0, 1, 13:05:35.646
150, -62900.29, -73293.47, -187500.02, -187500.02, -75705.13, -176051.59, -95919.91, -77251.56, 0, 1, 1, 0, 1, 13:05:35.647
151, -62805.47, -73201.96, -187500.02, -187500.02, -75692.99, -176481.88, -96059.77, -77457.91, 0, 1, 1, 0, 1, 13:05:35.647
152, -62821.74, -73219.64, -187500.02, -187500.02, -75633.16, -176653.67, -96006.98, -77428.02, 0, 1, 1, 0, 1, 13:05:35.647
153, -62918.86, -73318.95, -187500.02, -187500.02, -75636.49, -176257.56, -95844.14, -77191.66, 0, 1, 1, 0, 1, 13:05:35.647
154, -62931.94, -73331.13, -187500.02, -187500.02, -75702.95, -176075.22, -95884.55, -77191.57, 0, 1, 1, 0, 1, 13:05:35.647
155, -62847.31, -73239.22, -187500.02, -187500.02, -75722.92, -176446.98, -96052.22, -77411.35, 0, 1, 1, 0, 1, 13:05:35.647
156, -62834.53, -73224.13, -187500.02, -187500.02, -75668.38, -176700.19, -96035.09, -77430.64, 0, 1, 1, 0, 1, 13:05:35.647
157, -62937.77, -73333.55, -187500.02, -187500.02, -75640.98, -176320.64, -95843.36, -77186.52, 0, 1, 1, 0, 1, 13:05:35.647
158, -62961.82, -73361.17, -187500.02, -187500.02, -75720.94, -176030.06, -95850.45, -77143.38, 0, 1, 1, 0, 1, 13:05:35.647
159, -62885.89, -73274.02, -187500.02, -187500.02, -75762.80, -176308.59, -96018.09, -77350.00, 0, 1, 1, 0, 1, 13:05:35.647
160, -62843.67, -73226.66, -187500.02, -187500.02, -75685.73, -176630.23, -96043.12, -77432.41, 0, 1, 1, 0, 1, 13:05:35.648
161, -62934.38, -73328.20, -187500.02, -187500.02, -75638.70, -176330.53, -95863.05, -77214.81, 0, 1, 1, 0, 1, 13:05:35.648
162, -62985.36, -73377.38, -187500.02, -187500.02, -75715.30, -175950.72, -95825.88, -77118.91, 0, 1, 1, 0, 1, 13:05:35.648
163, -62920.98, -73312.76, -187500.02, -187500.02, -75763.85, -176132.17, -95982.14, -77310.19, 0, 1, 1, 0, 1, 13:05:35.648
164, -62882.85, -73264.68, -187500.02, -187500.02, -75735.06, -176493.22, -96065.09, -77452.05, 0, 1, 1, 0, 1, 13:05:35.648
165, -62940.61, -73331.80, -187500.02, -187500.02, -75681.64, -176313.50, -95915.91, -77277.33, 0, 1, 1, 0, 1, 13:05:35.648
166, -62996.96, -73394.27, -187500.02, -187500.02, -75705.11, -175885.84, -95823.91, -77123.93, 0, 1, 1, 0, 1, 13:05:35.648
167, -62940.66, -73334.44, -187500.02, -187500.02, -75764.86, -175951.94, -95957.20, -77263.07, 0, 1, 1, 0, 1, 13:05:35.648
168, -62864.64, -73259.98, -187500.02, -187500.02, -75745.70, -176386.13, -96087.51, -77458.58, 0, 1, 1, 0, 1, 13:05:35.648
169, -62916.94, -73318.77, -187500.02, -187500.02, -75677.44, -176331.28, -95962.49, -77333.16, 0, 1, 1, 0, 1, 13:05:35.648
170, -62997.41, -73400.13, -187500.02, -187500.02, -75713.27, -175880.22, -95845.33, -77145.75, 0, 1, 1, 0, 1, 13:05:35.648
171, -62975.68, -73370.31, -187500.02, -187500.02, -75804.69, -175883.53, -95981.43, -77275.61, 0, 1, 1, 0, 1, 13:05:35.649
172, -62896.80, -73288.51, -187500.02, -187500.02, -75785.82, -176307.78, -96119.63, -77485.85, 0, 1, 1, 0, 1, 13:05:35.649
173, -62925.55, -73324.63, -187500.02, -187500.02, -75722.92, -176375.98, -96035.95, -77418.82, 0, 1, 1, 0, 1, 13:05:35.649
174, -63020.68, -73423.29, -187500.02, -187500.02, -75729.80, -175954.41, -95884.22, -77205.13, 0, 1, 1, 0, 1, 13:05:35.649
175, -63006.23, -73402.37, -187500.02, -187500.02, -75810.66, -175860.22, -95975.08, -77272.41, 0, 1, 1, 0, 1, 13:05:35.649
176, -62917.86, -73313.48, -187500.02, -187500.02, -75819.64, -176279.53, -96146.02, -77505.14, 0, 1, 1, 0, 1, 13:05:35.649
177, -62930.60, -73333.30, -187500.02, -187500.02, -75761.80, -176471.67, -96114.06, -77498.30, 0, 1, 1, 0, 1, 13:05:35.649
178, -63024.70, -73431.98, -187500.02, -187500.02, -75749.23, -176103.20, -95949.89, -77274.13, 0, 1, 1, 0, 1, 13:05:35.649
179, -63032.30, -73436.01, -187500.02, -187500.02, -75819.82, -175926.86, -95986.39, -77277.87, 0, 1, 1, 0, 1, 13:05:35.649
180, -62940.88, -73342.02, -187500.02, -187500.02, -75830.91, -176319.42, -96154.12, -77505.32, 0, 1, 1, 0, 1, 13:05:35.649
181, -62928.50, -73329.50, -187500.02, -187500.02, -75771.90, -176610.72, -96153.22, -77549.84, 0, 1, 1, 0, 1, 13:05:35.650
182, -63029.73, -73448.08, -187500.02, -187500.02, -75759.89, -176276.56, -95975.62, -77319.71, 0, 1, 1, 0, 1, 13:05:35.650
183, -63067.59, -73484.46, -187500.02, -187500.02, -75838.39, -175974.61, -95968.33, -77255.61, 0, 1, 1, 0, 1, 13:05:35.650
184, -62994.34, -73397.36, -187500.02, -187500.02, -75861.98, -176255.75, -96133.89, -77463.92, 0, 1, 1, 0, 1, 13:05:35.650
185, -62961.09, -73367.68, -187500.02, -187500.02, -75809.78, -176597.89, -96177.20, -77564.69, 0, 1, 1, 0, 1, 13:05:35.650
186, -63024.63, -73434.38, -187500.02, -187500.02, -75765.41, -176367.95, -96018.53, -77373.84, 0, 1, 1, 0, 1, 13:05:35.650
187, -63063.63, -73476.71, -187500.02, -187500.02, -75810.99, -176026.83, -95969.80, -77266.60, 0, 1, 1, 0, 1, 13:05:35.650
188, -62997.07, -73410.41, -187500.02, -187500.02, -75861.13, -176212.03, -96121.28, -77444.48, 0, 1, 1, 0, 1, 13:05:35.650
189, -62944.54, -73355.80, -187500.02, -187500.02, -75822.14, -176618.38, -96203.52, -77595.30, 0, 1, 1, 0, 1, 13:05:35.651
190, -63022.33, -73430.22, -187500.02, -187500.02, -75778.20, -176478.28, -96059.62, -77431.42, 0, 1, 1, 0, 1, 13:05:35.651
191, -63094.52, -73501.52, -187500.02, -187500.02, -75828.24, -176063.45, -95968.91, -77271.23, 0, 1, 1, 0, 1, 13:05:35.651
192, -63032.57, -73442.38, -187500.02, -187500.02, -75884.57, -176144.39, -96097.66, -77415.06, 0, 1, 1, 0, 1, 13:05:35.651
193, -62953.75, -73363.05, -187500.02, -187500.02, -75845.59, -176581.80, -96213.82, -77606.08, 0, 1, 1, 0, 1, 13:05:35.651
194, -63000.67, -73418.95, -187500.02, -187500.02, -75782.89, -176550.91, -96096.45, -77482.38, 0, 1, 1, 0, 1, 13:05:35.651
195, -63092.98, -73511.22, -187500.02, -187500.02, -75821.45, -176087.55, -95975.30, -77278.72, 0, 1, 1, 0, 1, 13:05:35.651
196, -63053.26, -73465.94, -187500.02, -187500.02, -75882.09, -176059.55, -96088.16, -77380.15, 0, 1, 1, 0, 1, 13:05:35.651
197, -62969.71, -73378.59, -187500.02, -187500.02, -75862.31, -176459.91, -96222.16, -77581.83, 0, 1, 1, 0, 1, 13:05:35.652
198, -63000.47, -73411.55, -187500.02, -187500.02, -75796.66, -176531.95, -96140.84, -77513.74, 0, 1, 1, 0, 1, 13:05:35.652
199, -63108.29, -73526.51, -187500.02, -187500.02, -75808.87, -176043.88, -95971.93, -77270.70, 0, 1, 1, 0, 1, 13:05:35.652
200, -63100.52, -73514.26, -187500.02, -187500.02, -75885.71, -175859.70, -96037.48, -77310.48, 0, 1, 1, 0, 1, 13:05:35.652
201, -62990.21, -73401.30, -187500.02, -187500.02, -75873.48, -176232.86, -96190.66, -77531.76, 0, 1, 1, 0, 1, 13:05:35.652
202, -62993.09, -73409.95, -187500.02, -187500.02, -75796.87, -176370.39, -96129.80, -77503.09, 0, 1, 1, 0, 1, 13:05:35.652
203, -63111.54, -73531.80, -187500.02, -187500.02, -75803.19, -175886.77, -95953.89, -77255.65, 0, 1, 1, 0, 1, 13:05:35.652
204, -63144.08, -73561.51, -187500.02, -187500.02, -75890.98, -175542.75, -95982.52, -77234.04, 0, 1, 1, 0, 1, 13:05:35.652
205, -63055.66, -73470.18, -187500.02, -187500.02, -75904.06, -175767.67, -96141.78, -77443.85, 0, 1, 1, 0, 1, 13:05:35.652
206, -63027.98, -73437.77, -187500.02, -187500.02, -75835.69, -175959.78, -96142.41, -77494.52, 0, 1, 1, 0, 1, 13:05:35.652
207, -63122.64, -73532.70, -187500.02, -187500.02, -75811.28, -175546.59, -95972.48, -77267.41, 0, 1, 1, 0, 1, 13:05:35.652
208, -63170.97, -73581.07, -187500.02, -187500.02, -75887.95, -175118.63, -95960.35, -77192.41, 0, 1, 1, 0, 1, 13:05:35.653
209, -63105.14, -73511.98, -187500.02, -187500.02, -75933.48, -175258.84, -96128.08, -77394.32, 0, 1, 1, 0, 1, 13:05:35.653
210, -63061.24, -73469.33, -187500.02, -187500.02, -75878.07, -175504.86, -96176.13, -77499.40, 0, 1, 1, 0, 1, 13:05:36.118
211, -63142.04, -73553.80, -187500.02, -187500.02, -75839.22, -175175.75, -96018.38, -77306.23, 0, 1, 1, 0, 1, 13:05:36.118
212, -63194.01, -73604.83, -187500.02, -187500.02, -75901.18, -174707.23, -95971.64, -77192.55, 0, 1, 1, 0, 1, 13:05:36.119
213, -63118.42, -73526.55, -187500.02, -187500.02, -75945.66, -174799.38, -96127.56, -77374.98, 0, 1, 1, 0, 1, 13:05:36.119
214, -63046.38, -73451.49, -187500.02, -187500.02, -75899.19, -175160.28, -96219.80, -77542.42, 0, 1, 1, 0, 1, 13:05:36.119
215, -63112.36, -73517.57, -187500.02, -187500.02, -75846.35, -174998.84, -96085.54, -77392.45, 0, 1, 1, 0, 1, 13:05:36.119
216, -63187.93, -73593.18, -187500.02, -187500.02, -75899.91, -174520.41, -96002.35, -77231.58, 0, 1, 1, 0, 1, 13:05:36.119
217, -63120.18, -73521.16, -187500.02, -187500.02, -75945.91, -174574.45, -96138.72, -77381.36, 0, 1, 1, 0, 1, 13:05:36.119
218, -63036.03, -73437.93, -187500.02, -187500.02, -75902.21, -174976.05, -96251.97, -77569.23, 0, 1, 1, 0, 1, 13:05:36.119
219, -63071.61, -73474.90, -187500.02, -187500.02, -75846.06, -174980.98, -96160.09, -77477.11, 0, 1, 1, 0, 1, 13:05:36.119
220, -63150.52, -73556.05, -187500.02, -187500.02, -75869.95, -174547.05, -96034.91, -77277.84, 0, 1, 1, 0, 1, 13:05:36.119
221, -63129.75, -73537.04, -187500.02, -187500.02, -75933.99, -174480.55, -96126.34, -77357.73, 0, 1, 1, 0, 1, 13:05:36.120
222, -63036.01, -73439.83, -187500.02, -187500.02, -75922.28, -174876.80, -96269.66, -77571.21, 0, 1, 1, 0, 1, 13:05:36.120
223, -63032.68, -73440.07, -187500.02, -187500.02, -75850.87, -175020.02, -96215.07, -77541.46, 0, 1, 1, 0, 1, 13:05:36.120
224, -63134.96, -73546.58, -187500.02, -187500.02, -75854.91, -174612.25, -96062.07, -77323.02, 0, 1, 1, 0, 1, 13:05:36.120
225, -63151.99, -73552.80, -187500.02, -187500.02, -75935.73, -174442.11, -96125.28, -77357.06, 0, 1, 1, 0, 1, 13:05:36.120
226, -63043.41, -73443.63, -187500.02, -187500.02, -75932.96, -174825.19, -96284.88, -77583.17, 0, 1, 1, 0, 1, 13:05:36.120
227, -63001.43, -73414.55, -187500.02, -187500.02, -75844.07, -175086.48, -96260.20, -77605.16, 0, 1, 1, 0, 1, 13:05:36.120
228, -63103.38, -73522.02, -187500.02, -187500.02, -75830.50, -174746.94, -96094.64, -77380.06, 0, 1, 1, 0, 1, 13:05:36.120
229, -63133.73, -73546.71, -187500.02, -187500.02, -75912.20, -174496.86, -96115.63, -77351.14, 0, 1, 1, 0, 1, 13:05:36.120
230, -63044.10, -73451.83, -187500.02, -187500.02, -75938.28, -174831.92, -96283.20, -77570.74, 0, 1, 1, 0, 1, 13:05:36.121
231, -63001.45, -73413.79, -187500.02, -187500.02, -75866.60, -175169.45, -96300.16, -77643.88, 0, 1, 1, 0, 1, 13:05:36.121
232, -63087.68, -73501.61, -187500.02, -187500.02, -75834.08, -174912.14, -96141.82, -77439.83, 0, 1, 1, 0, 1, 13:05:36.121
233, -63118.30, -73528.92, -187500.02, -187500.02, -75899.39, -174637.77, -96131.36, -77371.77, 0, 1, 1, 0, 1, 13:05:36.121
234, -63018.71, -73427.49, -187500.02, -187500.02, -75914.77, -174936.14, -96281.05, -77570.52, 0, 1, 1, 0, 1, 13:05:36.121
235, -62971.07, -73377.71, -187500.02, -187500.02, -75857.34, -175359.69, -96326.07, -77688.27, 0, 1, 1, 0, 1, 13:05:36.121
236, -63048.12, -73462.34, -187500.02, -187500.02, -75816.89, -175199.83, -96172.67, -77504.65, 0, 1, 1, 0, 1, 13:05:36.121
237, -63102.79, -73518.30, -187500.02, -187500.02, -75869.46, -174857.63, -96113.10, -77376.20, 0, 1, 1, 0, 1, 13:05:36.121
238, -63024.59, -73437.23, -187500.02, -187500.02, -75906.56, -175060.47, -96252.98, -77543.16, 0, 1, 1, 0, 1, 13:05:36.121
239, -62955.52, -73366.07, -187500.02, -187500.02, -75867.27, -175539.98, -96346.90, -77709.32, 0, 1, 1, 0, 1, 13:05:36.122
240, -63021.93, -73437.64, -187500.02, -187500.02, -75822.52, -175508.19, -96218.04, -77570.66, 0, 1, 1, 0, 1, 13:05:36.122
241, -63083.10, -73501.83, -187500.02, -187500.02, -75854.20, -175148.06, -96113.99, -77398.39, 0, 1, 1, 0, 1, 13:05:36.122
242, -63046.07, -73460.99, -187500.02, -187500.02, -75906.90, -175236.27, -96225.20, -77511.42, 0, 1, 1, 0, 1, 13:05:36.122
243, -62971.86, -73377.73, -187500.02, -187500.02, -75886.67, -175728.27, -96351.98, -77710.30, 0, 1, 1, 0, 1, 13:05:36.122
244, -62988.98, -73400.69, -187500.02, -187500.02, -75815.53, -175836.70, -96251.80, -77620.16, 0, 1, 1, 0, 1, 13:05:36.122
245, -63066.59, -73483.34, -187500.02, -187500.02, -75825.32, -175470.33, -96103.65, -77398.16, 0, 1, 1, 0, 1, 13:05:36.122
246, -63064.04, -73476.53, -187500.02, -187500.02, -75899.23, -175418.30, -96180.58, -77453.38, 0, 1, 1, 0, 1, 13:05:36.122
247, -62968.08, -73377.84, -187500.02, -187500.02, -75888.15, -175868.86, -96321.48, -77661.00, 0, 1, 1, 0, 1, 13:05:36.122
248, -62962.80, -73370.78, -187500.02, -187500.02, -75813.00, -176080.47, -96257.88, -77626.82, 0, 1, 1, 0, 1, 13:05:36.122
249, -63048.88, -73464.99, -187500.02, -187500.02, -75809.52, -175736.19, -96097.45, -77401.85, 0, 1, 1, 0, 1, 13:05:36.123
250, -63074.23, -73484.73, -187500.02, -187500.02, -75885.78, -175579.45, -96139.19, -77405.70, 0, 1, 1, 0, 1, 13:05:36.123
251, -62979.97, -73388.22, -187500.02, -187500.02, -75889.58, -175950.67, -96288.32, -77618.09, 0, 1, 1, 0, 1, 13:05:36.123
252, -62944.84, -73353.38, -187500.02, -187500.02, -75815.41, -176247.48, -96273.59, -77651.73, 0, 1, 1, 0, 1, 13:05:36.123
253, -63038.22, -73460.05, -187500.02, -187500.02, -75795.41, -175929.91, -96094.66, -77410.19, 0, 1, 1, 0, 1, 13:05:36.123
254, -63081.92, -73500.22, -187500.02, -187500.02, -75862.04, -175673.73, -96082.86, -77349.10, 0, 1, 1, 0, 1, 13:05:36.123
255, -63008.16, -73414.37, -187500.02, -187500.02, -75888.41, -175986.67, -96232.48, -77555.50, 0, 1, 1, 0, 1, 13:05:36.123
0, -62956.79, -73362.05, -187500.02, -187500.02, -75822.10, -176354.20, -96258.66, -77646.80, 0, 1, 1, 0, 1, 13:05:36.123
1, -63046.40, -73456.52, -187500.02, -187500.02, -75787.70, -176110.38, -96095.96, -77438.11, 0, 1, 1, 0, 1, 13:05:36.123
2, -63100.36, -73511.47, -187500.02, -187500.02, -75848.52, -175743.69, -96052.95, -77328.45, 0, 1, 1, 0, 1, 13:05:36.123
3, -63037.10, -73450.65, -187500.02, -187500.02, -75879.05, -175908.16, -96186.20, -77493.07, 0, 1, 1, 0, 1, 13:05:36.124
4, -62960.28, -73374.94, -187500.02, -187500.02, -75833.14, -176299.92, -96254.25, -77627.77, 0, 1, 1, 0, 1, 13:05:36.124
5, -63032.18, -73439.47, -187500.02, -187500.02, -75784.98, -176159.97, -96104.25, -77450.24, 0, 1, 1, 0, 1, 13:05:36.124
6, -63128.25, -73533.37, -187500.02, -187500.02, -75838.37, -175740.23, -96017.39, -77287.63, 0, 1, 1, 0, 1, 13:05:36.124
7, -63078.01, -73478.27, -187500.02, -187500.02, -75887.39, -175842.53, -96143.84, -77431.96, 0, 1, 1, 0, 1, 13:05:36.124
8, -63003.22, -73398.39, -187500.02, -187500.02, -75845.10, -176277.19, -96239.14, -77605.27, 0, 1, 1, 0, 1, 13:05:36.124
9, -63071.86, -73466.29, -187500.02, -187500.02, -75799.16, -176212.47, -96118.42, -77471.88, 0, 1, 1, 0, 1, 13:05:36.124
10, -63156.39, -73552.73, -187500.02, -187500.02, -75848.77, -175766.72, -96018.58, -77290.25, 0, 1, 1, 0, 1, 13:05:36.124
11, -63115.76, -73505.36, -187500.02, -187500.02, -75899.39, -175757.61, -96120.88, -77395.10, 0, 1, 1, 0, 1, 13:05:36.124
12, -63030.82, -73414.50, -187500.02, -187500.02, -75878.00, -176166.39, -96248.02, -77594.57, 0, 1, 1, 0, 1, 13:05:36.124
13, -63059.88, -73452.41, -187500.02, -187500.02, -75813.70, -176236.48, -96164.27, -77523.24, 0, 1, 1, 0, 1, 13:05:36.125
14, -63178.90, -73568.91, -187500.02, -187500.02, -75842.69, -175776.48, -96019.09, -77299.05, 0, 1, 1, 0, 1, 13:05:36.125
15, -63161.20, -73547.36, -187500.02, -187500.02, -75917.20, -175648.98, -96099.94, -77356.08, 0, 1, 1, 0, 1, 13:05:36.125
16, -63056.39, -73438.91, -187500.02, -187500.02, -75898.63, -176053.59, -96245.00, -77576.64, 0, 1, 1, 0, 1, 13:05:36.125
17, -63063.93, -73449.71, -187500.02, -187500.02, -75836.63, -176224.36, -96195.67, -77559.66, 0, 1, 1, 0, 1, 13:05:36.125
18, -63149.78, -73542.02, -187500.02, -187500.02, -75844.30, -175840.92, -96052.70, -77344.03, 0, 1, 1, 0, 1, 13:05:36.125
19, -63175.10, -73564.41, -187500.02, -187500.02, -75916.85, -175603.05, -96086.84, -77335.11, 0, 1, 1, 0, 1, 13:05:36.125
20, -63092.58, -73472.84, -187500.02, -187500.02, -75925.77, -175924.58, -96236.95, -77548.91, 0, 1, 1, 0, 1, 13:05:36.125
21, -63056.46, -73434.35, -187500.02, -187500.02, -75853.48, -176197.86, -96232.10, -77595.95, 0, 1, 1, 0, 1, 13:05:36.125
22, -63151.41, -73529.37, -187500.02, -187500.02, -75833.19, -175864.66, -96073.02, -77378.59, 0, 1, 1, 0, 1, 13:05:36.126
23, -63197.90, -73573.45, -187500.02, -187500.02, -75913.20, -175532.67, -96072.84, -77321.79, 0, 1, 1, 0, 1, 13:05:36.126
24, -63100.43, -73476.93, -187500.02, -187500.02, -75931.27, -175792.69, -96226.40, -77530.76, 0, 1, 1, 0, 1, 13:05:36.126
25, -63044.08, -73428.77, -187500.02, -187500.02, -75867.27, -176141.08, -96259.37, -77629.59, 0, 1, 1, 0, 1, 13:05:36.126
26, -63126.93, -73515.84, -187500.02, -187500.02, -75841.08, -175922.34, -96111.73, -77442.24, 0, 1, 1, 0, 1, 13:05:36.126
27, -63183.37, -73566.88, -187500.02, -187500.02, -75907.21, -175574.95, -96077.56, -77344.81, 0, 1, 1, 0, 1, 13:05:36.126
28, -63120.54, -73492.84, -187500.02, -187500.02, -75945.13, -175760.19, -96223.34, -77526.66, 0, 1, 1, 0, 1, 13:05:36.126
29, -63044.55, -73420.18, -187500.02, -187500.02, -75885.58, -176191.06, -96295.60, -77675.28, 0, 1, 1, 0, 1, 13:05:36.126
30, -63120.23, -73500.49, -187500.02, -187500.02, -75846.64, -176068.58, -96159.70, -77513.21, 0, 1, 1, 0, 1, 13:05:36.126
31, -63191.48, -73567.30, -187500.02, -187500.02, -75907.82, -175685.20, -96092.20, -77365.98, 0, 1, 1, 0, 1, 13:05:36.126
32, -63132.19, -73500.94, -187500.02, -187500.02, -75954.60, -175797.38, -96216.97, -77504.16, 0, 1, 1, 0, 1, 13:05:36.127
33, -63034.53, -73396.98, -187500.02, -187500.02, -75910.95, -176295.52, -96326.65, -77695.00, 0, 1, 1, 0, 1, 13:05:36.127
34, -63075.70, -73443.41, -187500.02, -187500.02, -75848.20, -176341.67, -96214.31, -77582.39, 0, 1, 1, 0, 1, 13:05:36.127
35, -63173.61, -73543.95, -187500.02, -187500.02, -75892.59, -175925.20, -96095.94, -77380.13, 0, 1, 1, 0, 1, 13:05:36.127
36, -63134.76, -73507.11, -187500.02, -187500.02, -75961.44, -175922.69, -96206.53, -77486.08, 0, 1, 1, 0, 1, 13:05:36.127
37, -63029.82, -73402.79, -187500.02, -187500.02, -75919.73, -176409.30, -96335.19, -77705.01, 0, 1, 1, 0, 1, 13:05:36.127
38, -63057.46, -73435.02, -187500.02, -187500.02, -75867.90, -176548.22, -96263.46, -77655.55, 0, 1, 1, 0, 1, 13:05:36.127
39, -63162.72, -73540.26, -187500.02, -187500.02, -75908.04, -176161.00, -96136.44, -77450.00, 0, 1, 1, 0, 1, 13:05:36.127
40, -63154.47, -73526.44, -187500.02, -187500.02, -75975.25, -176061.05, -96201.97, -77490.27, 0, 1, 1, 0, 1, 13:05:36.127
41, -63048.59, -73416.98, -187500.02, -187500.02, -75948.45, -176527.83, -96339.70, -77711.31, 0, 1, 1, 0, 1, 13:05:36.127
42, -63035.18, -73403.93, -187500.02, -187500.02, -75880.39, -176826.28, -96308.39, -77719.34, 0, 1, 1, 0, 1, 13:05:36.127
43, -63143.54, -73518.06, -187500.02, -187500.02, -75882.36, -176505.50, -96153.31, -77490.01, 0, 1, 1, 0, 1, 13:05:36.128
44, -63166.74, -73541.75, -187500.02, -187500.02, -75965.48, -176316.88, -96192.56, -77479.44, 0, 1, 1, 0, 1, 13:05:36.128
45, -63060.95, -73432.88, -187500.02, -187500.02, -75959.41, -176714.14, -96337.73, -77692.91, 0, 1, 1, 0, 1, 13:05:36.128
46, -63017.55, -73390.84, -187500.02, -187500.02, -75873.80, -177090.78, -96328.62, -77745.38, 0, 1, 1, 0, 1, 13:05:36.128
47, -63117.70, -73494.59, -187500.02, -187500.02, -75863.13, -176841.67, -96169.34, -77525.55, 0, 1, 1, 0, 1, 13:05:36.128
48, -63161.18, -73535.74, -187500.02, -187500.02, -75937.14, -176583.41, -96163.77, -77455.70, 0, 1, 1, 0, 1, 13:05:36.128
49, -63078.83, -73452.55, -187500.02, -187500.02, -75948.48, -176886.94, -96299.90, -77641.69, 0, 1, 1, 0, 1, 13:05:36.128
50, -63002.50, -73375.68, -187500.02, -187500.02, -75878.16, -177341.48, -96340.28, -77755.55, 0, 1, 1, 0, 1, 13:05:36.128
51, -63088.33, -73468.80, -187500.02, -187500.02, -75840.63, -177191.39, -96185.63, -77563.91, 0, 1, 1, 0, 1, 13:05:36.128
52, -63140.75, -73521.37, -187500.02, -187500.02, -75907.62, -176847.22, -96139.30, -77438.91, 0, 1, 1, 0, 1, 13:05:36.128
53, -63074.74, -73456.46, -187500.02, -187500.02, -75946.42, -177058.38, -96278.13, -77602.37, 0, 1, 1, 0, 1, 13:05:36.129
54, -63021.46, -73403.87, -187500.02, -187500.02, -75903.17, -177506.69, -96348.13, -77749.40, 0, 1, 1, 0, 1, 13:05:36.129
55, -63075.79, -73455.97, -187500.02, -187500.02, -75853.28, -177458.70, -96216.05, -77598.19, 0, 1, 1, 0, 1, 13:05:36.129
56, -63166.50, -73547.25, -187500.02, -187500.02, -75911.35, -177062.16, -96131.90, -77427.80, 0, 1, 1, 0, 1, 13:05:36.129
57, -63126.20, -73501.12, -187500.02, -187500.02, -75962.47, -177140.03, -96244.91, -77547.63, 0, 1, 1, 0, 1, 13:05:36.129
58, -63011.55, -73386.63, -187500.02, -187500.02, -75913.85, -177659.69, -96358.28, -77748.80, 0, 1, 1, 0, 1, 13:05:36.129
59, -63026.91, -73406.30, -187500.02, -187500.02, -75830.55, -177788.94, -96250.45, -77649.87, 0, 1, 1, 0, 1, 13:05:36.129
60, -63149.64, -73531.83, -187500.02, -187500.02, -75884.52, -177380.69, -96125.28, -77433.62, 0, 1, 1, 0, 1, 13:05:36.129
61, -63121.08, -73501.92, -187500.02, -187500.02, -75956.84, -177372.27, -96222.70, -77517.91, 0, 1, 1, 0, 1, 13:05:36.129
62, -63023.56, -73400.04, -187500.02, -187500.02, -75928.56, -177851.95, -96348.84, -77726.42, 0, 1, 1, 0, 1, 13:05:36.129
63, -63023.02, -73401.63, -187500.02, -187500.02, -75861.10, -178071.25, -96287.73, -77691.09, 0, 1, 1, 0, 1, 13:05:36.130
64, -63125.26, -73507.73, -187500.02, -187500.02, -75892.46, -177712.05, -96154.09, -77471.34, 0, 1, 1, 0, 1, 13:05:36.130
65, -63114.60, -73492.04, -187500.02, -187500.02, -75957.15, -177629.38, -96225.28, -77511.04, 0, 1, 1, 0, 1, 13:05:36.130
66, -63021.77, -73399.77, -187500.02, -187500.02, -75937.52, -178089.39, -96362.19, -77730.85, 0, 1, 1, 0, 1, 13:05:36.130
67, -63007.69, -73384.87, -187500.02, -187500.02, -75866.53, -178402.50, -96331.14, -77746.67, 0, 1, 1, 0, 1, 13:05:36.130
68, -63115.20, -73490.90, -187500.02, -187500.02, -75868.19, -178101.48, -96178.97, -77519.98, 0, 1, 1, 0, 1, 13:05:36.130
69, -63151.99, -73525.99, -187500.02, -187500.02, -75952.92, -177875.16, -96201.23, -77486.77, 0, 1, 1, 0, 1, 13:05:36.130
70, -63034.87, -73409.20, -187500.02, -187500.02, -75954.29, -178268.98, -96351.04, -77704.43, 0, 1, 1, 0, 1, 13:05:36.130
71, -62969.20, -73342.38, -187500.02, -187500.02, -75869.33, -178728.25, -96361.56, -77785.19, 0, 1, 1, 0, 1, 13:05:36.130
72, -63090.64, -73462.78, -187500.02, -187500.02, -75855.74, -178500.33, -96189.86, -77556.26, 0, 1, 1, 0, 1, 13:05:36.130
73, -63144.44, -73520.23, -187500.02, -187500.02, -75936.48, -178198.98, -96171.23, -77466.59, 0, 1, 1, 0, 1, 13:05:36.131
74, -63069.80, -73441.48, -187500.02, -187500.02, -75959.83, -178455.66, -96297.73, -77641.89, 0, 1, 1, 0, 1, 13:05:36.598
75, -62989.52, -73357.88, -187500.02, -187500.02, -75890.23, -178923.92, -96339.68, -77763.51, 0, 1, 1, 0, 1, 13:05:36.598
76, -63075.88, -73449.75, -187500.02, -187500.02, -75855.36, -178776.53, -96182.37, -77566.49, 0, 1, 1, 0, 1, 13:05:36.599
77, -63168.17, -73546.06, -187500.02, -187500.02, -75924.78, -178373.28, -96122.98, -77421.39, 0, 1, 1, 0, 1, 13:05:36.599
78, -63097.03, -73475.63, -187500.02, -187500.02, -75954.27, -178502.75, -96237.89, -77562.72, 0, 1, 1, 0, 1, 13:05:36.599
79, -63019.33, -73394.50, -187500.02, -187500.02, -75898.81, -178951.39, -96306.94, -77716.70, 0, 1, 1, 0, 1, 13:05:36.599
80, -63091.17, -73466.52, -187500.02, -187500.02, -75866.34, -178915.47, -96196.97, -77585.74, 0, 1, 1, 0, 1, 13:05:36.599
81, -63188.76, -73564.41, -187500.02, -187500.02, -75931.84, -178472.77, -96110.84, -77403.95, 0, 1, 1, 0, 1, 13:05:36.599
82, -63133.82, -73513.48, -187500.02, -187500.02, -75967.23, -178467.86, -96197.10, -77493.18, 0, 1, 1, 0, 1, 13:05:36.599
83, -63047.05, -73424.00, -187500.02, -187500.02, -75928.27, -178887.94, -96302.64, -77677.61, 0, 1, 1, 0, 1, 13:05:36.599
84, -63073.69, -73449.41, -187500.02, -187500.02, -75879.92, -178958.72, -96227.95, -77606.73, 0, 1, 1, 0, 1, 13:05:36.599
85, -63179.66, -73556.77, -187500.02, -187500.02, -75912.42, -178467.98, -96087.48, -77371.09, 0, 1, 1, 0, 1, 13:05:36.599
86, -63201.14, -73575.52, -187500.02, -187500.02, -76008.31, -178316.75, -96178.30, -77435.98, 0, 1, 1, 0, 1, 13:05:36.600
87, -63086.50, -73460.33, -187500.02, -187500.02, -75979.32, -178713.05, -96313.13, -77653.47, 0, 1, 1, 0, 1, 13:05:36.600
88, -63089.00, -73464.17, -187500.02, -187500.02, -75911.10, -178852.53, -96257.83, -77625.17, 0, 1, 1, 0, 1, 13:05:36.600
89, -63197.59, -73578.23, -187500.02, -187500.02, -75939.09, -178409.86, -96126.60, -77405.45, 0, 1, 1, 0, 1, 13:05:36.600
90, -63214.96, -73593.32, -187500.02, -187500.02, -76014.70, -178149.86, -96171.04, -77403.77, 0, 1, 1, 0, 1, 13:05:36.600
91, -63120.25, -73495.88, -187500.02, -187500.02, -76008.76, -178458.02, -96308.88, -77612.34, 0, 1, 1, 0, 1, 13:05:36.600
92, -63093.77, -73471.52, -187500.02, -187500.02, -75943.54, -178714.31, -96302.24, -77654.30, 0, 1, 1, 0, 1, 13:05:36.600
93, -63204.54, -73584.27, -187500.02, -187500.02, -75949.75, -178324.78, -96153.24, -77429.66, 0, 1, 1, 0, 1, 13:05:36.600
94, -63236.14, -73619.89, -187500.02, -187500.02, -76024.00, -177997.42, -96165.00, -77383.57, 0, 1, 1, 0, 1, 13:05:36.600
95, -63135.83, -73517.39, -187500.02, -187500.02, -76015.93, -178248.94, -96288.98, -77574.88, 0, 1, 1, 0, 1, 13:05:36.601
96, -63092.73, -73468.84, -187500.02, -187500.02, -75953.33, -178586.67, -96310.63, -77664.20, 0, 1, 1, 0, 1, 13:05:36.601
97, -63199.09, -73579.34, -187500.02, -187500.02, -75949.84, -178290.89, -96168.69, -77465.35, 0, 1, 1, 0, 1, 13:05:36.601
98, -63256.24, -73639.77, -187500.02, -187500.02, -76028.92, -177858.09, -96145.69, -77365.46, 0, 1, 1, 0, 1, 13:05:36.601
99, -63174.05, -73552.32, -187500.02, -187500.02, -76044.70, -178007.08, -96281.27, -77545.33, 0, 1, 1, 0, 1, 13:05:36.601
100, -63087.93, -73464.08, -187500.02, -187500.02, -75976.57, -178396.58, -96341.49, -77688.27, 0, 1, 1, 0, 1, 13:05:36.602
101, -63177.23, -73553.64, -187500.02, -187500.02, -75955.77, -178215.39, -96217.59, -77522.91, 0, 1, 1, 0, 1, 13:05:36.602
102, -63246.29, -73625.37, -187500.02, -187500.02, -76006.95, -177750.41, -96140.52, -77363.72, 0, 1, 1, 0, 1, 13:05:36.602
103, -63180.42, -73556.08, -187500.02, -187500.02, -76033.68, -177804.33, -96242.96, -77499.06, 0, 1, 1, 0, 1, 13:05:36.602
104, -63098.10, -73473.00, -187500.02, -187500.02, -75987.03, -178227.50, -96332.23, -77678.32, 0, 1, 1, 0, 1, 13:05:36.602
105, -63150.00, -73528.38, -187500.02, -187500.02, -75935.09, -178175.11, -96217.15, -77554.56, 0, 1, 1, 0, 1, 13:05:36.602
106, -63245.40, -73627.74, -187500.02, -187500.02, -75989.11, -177683.44, -96113.82, -77358.47, 0, 1, 1, 0, 1, 13:05:36.602
107, -63207.20, -73589.90, -187500.02, -187500.02, -76029.12, -177619.34, -96199.54, -77445.71, 0, 1, 1, 0, 1, 13:05:36.602
108, -63118.38, -73495.10, -187500.02, -187500.02, -75984.17, -178008.08, -96299.41, -77642.72, 0, 1, 1, 0, 1, 13:05:36.602
109, -63136.57, -73519.51, -187500.02, -187500.02, -75924.20, -178040.27, -96208.38, -77570.38, 0, 1, 1, 0, 1, 13:05:36.602
110, -63231.21, -73617.08, -187500.02, -187500.02, -75955.74, -177533.34, -96079.73, -77350.80, 0, 1, 1, 0, 1, 13:05:36.603
111, -63226.98, -73619.11, -187500.02, -187500.02, -76023.06, -177351.61, -96162.05, -77409.19, 0, 1, 1, 0, 1, 13:05:36.603
112, -63124.61, -73510.62, -187500.02, -187500.02, -75978.52, -177698.53, -96276.16, -77613.84, 0, 1, 1, 0, 1, 13:05:36.603
113, -63130.85, -73515.09, -187500.02, -187500.02, -75917.83, -177849.77, -96228.59, -77599.98, 0, 1, 1, 0, 1, 13:05:36.603
114, -63233.84, -73624.68, -187500.02, -187500.02, -75950.69, -177404.72, -96099.35, -77381.20, 0, 1, 1, 0, 1, 13:05:36.603
115, -63232.43, -73621.16, -187500.02, -187500.02, -76005.34, -177133.33, -96132.48, -77368.03, 0, 1, 1, 0, 1, 13:05:36.603
116, -63147.48, -73528.19, -187500.02, -187500.02, -75998.50, -177424.91, -96264.78, -77573.83, 0, 1, 1, 0, 1, 13:05:36.603
117, -63109.81, -73485.94, -187500.02, -187500.02, -75932.92, -177699.02, -96264.20, -77627.98, 0, 1, 1, 0, 1, 13:05:36.603
118, -63201.84, -73590.84, -187500.02, -187500.02, -75931.53, -177318.53, -96111.58, -77399.15, 0, 1, 1, 0, 1, 13:05:36.603
119, -63233.84, -73629.28, -187500.02, -187500.02, -75994.56, -176947.28, -96114.64, -77333.28, 0, 1, 1, 0, 1, 13:05:36.604
120, -63148.01, -73544.14, -187500.02, -187500.02, -75990.54, -177167.13, -96246.01, -77529.10, 0, 1, 1, 0, 1, 13:05:36.604
121, -63082.19, -73481.60, -187500.02, -187500.02, -75914.66, -177501.09, -96268.98, -77628.45, 0, 1, 1, 0, 1, 13:05:36.604
122, -63161.45, -73569.73, -187500.02, -187500.02, -75890.25, -177213.72, -96116.05, -77422.59, 0, 1, 1, 0, 1, 13:05:36.604
123, -63246.88, -73653.11, -187500.02, -187500.02, -75970.16, -176731.13, -96067.98, -77293.60, 0, 1, 1, 0, 1, 13:05:36.604
124, -63165.67, -73561.24, -187500.02, -187500.02, -75986.63, -176828.41, -96190.77, -77464.26, 0, 1, 1, 0, 1, 13:05:36.604
125, -63071.86, -73462.34, -187500.02, -187500.02, -75897.16, -177215.95, -96239.77, -77611.22, 0, 1, 1, 0, 1, 13:05:36.604
126, -63151.81, -73558.13, -187500.02, -187500.02, -75864.39, -177022.69, -96099.09, -77441.93, 0, 1, 1, 0, 1, 13:05:36.604
127, -63239.07, -73653.06, -187500.02, -187500.02, -75931.76, -176453.72, -96012.23, -77253.37, 0, 1, 1, 0, 1, 13:05:36.604
128, -63189.96, -73591.82, -187500.02, -187500.02, -75966.13, -176425.48, -96127.79, -77391.66, 0, 1, 1, 0, 1, 13:05:36.604
129, -63074.43, -73476.46, -187500.02, -187500.02, -75893.58, -176802.45, -96204.56, -77571.32, 0, 1, 1, 0, 1, 13:05:36.605
130, -63112.07, -73512.18, -187500.02, -187500.02, -75842.84, -176731.73, -96088.23, -77446.18, 0, 1, 1, 0, 1, 13:05:36.605
131, -63214.69, -73620.45, -187500.02, -187500.02, -75903.93, -176197.09, -95992.42, -77249.28, 0, 1, 1, 0, 1, 13:05:36.605
132, -63183.28, -73585.07, -187500.02, -187500.02, -75950.27, -176058.92, -96080.05, -77331.87, 0, 1, 1, 0, 1, 13:05:36.605
133, -63106.15, -73497.20, -187500.02, -187500.02, -75909.45, -176397.23, -96185.84, -77534.76, 0, 1, 1, 0, 1, 13:05:36.605
134, -63126.46, -73519.94, -187500.02, -187500.02, -75864.55, -176424.30, -96121.80, -77479.84, 0, 1, 1, 0, 1, 13:05:36.605
135, -63226.45, -73635.16, -187500.02, -187500.02, -75907.69, -175900.33, -96004.94, -77262.16, 0, 1, 1, 0, 1, 13:05:36.605
136, -63232.37, -73640.44, -187500.02, -187500.02, -75971.54, -175628.52, -96066.74, -77290.77, 0, 1, 1, 0, 1, 13:05:36.605
137, -63104.23, -73503.42, -187500.02, -187500.02, -75934.30, -175969.52, -96202.62, -77517.86, 0, 1, 1, 0, 1, 13:05:36.605
138, -63090.97, -73492.31, -187500.02, -187500.02, -75860.52, -176153.89, -96167.44, -77528.09, 0, 1, 1, 0, 1, 13:05:36.605
139, -63210.86, -73610.53, -187500.02, -187500.02, -75898.50, -175675.97, -96032.37, -77297.16, 0, 1, 1, 0, 1, 13:05:36.606
140, -63211.83, -73607.13, -187500.02, -187500.02, -75965.77, -175359.02, -96074.37, -77284.53, 0, 1, 1, 0, 1, 13:05:36.606
141, -63114.57, -73509.38, -187500.02, -187500.02, -75944.25, -175636.30, -96203.40, -77498.23, 0, 1, 1, 0, 1, 13:05:36.606
142, -63080.24, -73477.49, -187500.02, -187500.02, -75875.41, -175909.19, -96204.61, -77563.86, 0, 1, 1, 0, 1, 13:05:36.606
143, -63185.68, -73588.02, -187500.02, -187500.02, -75892.66, -175527.28, -96069.00, -77345.66, 0, 1, 1, 0, 1, 13:05:36.606
144, -63216.23, -73611.38, -187500.02, -187500.02, -75961.30, -175125.17, -96072.51, -77272.34, 0, 1, 1, 0, 1, 13:05:36.606
145, -63114.17, -73501.23, -187500.02, -187500.02, -75945.05, -175340.38, -96200.66, -77469.58, 0, 1, 1, 0, 1, 13:05:36.606
146, -63048.97, -73439.72, -187500.02, -187500.02, -75873.82, -175706.25, -96231.01, -77588.87, 0, 1, 1, 0, 1, 13:05:36.606
147, -63140.01, -73533.93, -187500.02, -187500.02, -75864.39, -175464.08, -96102.13, -77405.92, 0, 1, 1, 0, 1, 13:05:36.606
148, -63210.86, -73607.91, -187500.02, -187500.02, -75945.73, -174993.45, -96066.05, -77277.16, 0, 1, 1, 0, 1, 13:05:36.606
149, -63135.90, -73532.34, -187500.02, -187500.02, -75958.55, -175084.03, -96181.38, -77434.95, 0, 1, 1, 0, 1, 13:05:36.607
150, -63048.41, -73443.23, -187500.02, -187500.02, -75894.98, -175494.69, -96252.87, -77602.08, 0, 1, 1, 0, 1, 13:05:36.607
151, -63114.64, -73513.45, -187500.02, -187500.02, -75863.59, -175384.20, -96141.69, -77462.80, 0, 1, 1, 0, 1, 13:05:36.607
152, -63203.78, -73603.98, -187500.02, -187500.02, -75935.63, -174912.03, -96077.67, -77297.56, 0, 1, 1, 0, 1, 13:05:36.607
153, -63156.42, -73546.78, -187500.02, -187500.02, -75974.36, -174919.41, -96186.37, -77424.07, 0, 1, 1, 0, 1, 13:05:36.607
154, -63048.41, -73435.23, -187500.02, -187500.02, -75910.05, -175345.16, -96276.98, -77613.55, 0, 1, 1, 0, 1, 13:05:36.607
155, -63066.68, -73458.47, -187500.02, -187500.02, -75858.40, -175411.67, -96200.16, -77535.98, 0, 1, 1, 0, 1, 13:05:36.607
156, -63180.94, -73576.27, -187500.02, -187500.02, -75914.08, -174961.20, -96102.95, -77339.73, 0, 1, 1, 0, 1, 13:05:36.607
157, -63152.37, -73546.89, -187500.02, -187500.02, -75957.80, -174866.78, -96176.67, -77410.64, 0, 1, 1, 0, 1, 13:05:36.608
158, -63038.00, -73428.32, -187500.02, -187500.02, -75907.26, -175284.08, -96278.59, -77618.73, 0, 1, 1, 0, 1, 13:05:36.608
159, -63037.44, -73429.44, -187500.02, -187500.02, -75845.86, -175447.39, -96217.20, -77579.93, 0, 1, 1, 0, 1, 13:05:36.608
160, -63153.98, -73549.91, -187500.02, -187500.02, -75893.29, -175001.39, -96094.21, -77350.76, 0, 1, 1, 0, 1, 13:05:36.608
161, -63154.29, -73547.52, -187500.02, -187500.02, -75957.51, -174799.23, -96144.38, -77367.48, 0, 1, 1, 0, 1, 13:05:36.608
162, -63053.24, -73445.10, -187500.02, -187500.02, -75915.64, -175171.80, -96253.13, -77576.80, 0, 1, 1, 0, 1, 13:05:36.608
163, -63026.35, -73419.69, -187500.02, -187500.02, -75842.06, -175421.98, -96214.71, -77592.16, 0, 1, 1, 0, 1, 13:05:36.608
164, -63135.03, -73527.00, -187500.02, -187500.02, -75872.41, -175053.09, -96086.55, -77376.28, 0, 1, 1, 0, 1, 13:05:36.608
165, -63171.66, -73560.55, -187500.02, -187500.02, -75944.70, -174749.64, -96107.05, -77337.13, 0, 1, 1, 0, 1, 13:05:36.608
166, -63079.01, -73465.87, -187500.02, -187500.02, -75925.16, -175021.31, -96220.37, -77526.17, 0, 1, 1, 0, 1, 13:05:36.608
167, -63021.84, -73410.97, -187500.02, -187500.02, -75847.38, -175347.86, -96216.37, -77593.56, 0, 1, 1, 0, 1, 13:05:36.609
168, -63120.92, -73518.26, -187500.02, -187500.02, -75859.83, -175045.56, -96089.52, -77392.48, 0, 1, 1, 0, 1, 13:05:36.609
169, -63179.62, -73576.95, -187500.02, -187500.02, -75947.42, -174649.89, -96090.34, -77309.70, 0, 1, 1, 0, 1, 13:05:36.609
170, -63107.62, -73494.16, -187500.02, -187500.02, -75950.11, -174819.63, -96209.37, -77490.95, 0, 1, 1, 0, 1, 13:05:36.609
171, -63034.84, -73423.55, -187500.02, -187500.02, -75885.89, -175195.83, -96253.02, -77622.66, 0, 1, 1, 0, 1, 13:05:36.609
172, -63113.34, -73506.08, -187500.02, -187500.02, -75865.10, -174992.16, -96118.22, -77439.56, 0, 1, 1, 0, 1, 13:05:36.609
173, -63185.63, -73579.82, -187500.02, -187500.02, -75944.79, -174544.39, -96077.38, -77307.88, 0, 1, 1, 0, 1, 13:05:36.609
174, -63101.83, -73495.91, -187500.02, -187500.02, -75952.21, -174649.19, -96188.96, -77461.06, 0, 1, 1, 0, 1, 13:05:36.609
175, -63017.30, -73407.09, -187500.02, -187500.02, -75880.02, -175080.47, -96252.62, -77625.52, 0, 1, 1, 0, 1, 13:05:36.610
176, -63080.29, -73469.53, -187500.02, -187500.02, -75853.19, -175003.00, -96145.84, -77489.70, 0, 1, 1, 0, 1, 13:05:36.610
177, -63165.60, -73556.02, -187500.02, -187500.02, -75920.16, -174555.58, -96081.14, -77319.22, 0, 1, 1, 0, 1, 13:05:36.610
178, -63123.94, -73513.92, -187500.02, -187500.02, -75951.74, -174531.27, -96168.42, -77417.61, 0, 1, 1, 0, 1, 13:05:36.610
179, -63019.60, -73408.02, -187500.02, -187500.02, -75894.20, -174939.14, -96251.81, -77606.39, 0, 1, 1, 0, 1, 13:05:36.610
180, -63051.27, -73442.17, -187500.02, -187500.02, -75844.54, -175003.25, -96168.35, -77535.63, 0, 1, 1, 0, 1, 13:05:36.610
181, -63162.88, -73559.05, -187500.02, -187500.02, -75895.23, -174531.48, -96059.79, -77325.57, 0, 1, 1, 0, 1, 13:05:36.610
182, -63144.28, -73538.33, -187500.02, -187500.02, -75950.24, -174392.17, -96133.44, -77383.32, 0, 1, 1, 0, 1, 13:05:36.610
183, -63037.06, -73429.77, -187500.02, -187500.02, -75905.59, -174789.81, -96239.75, -77591.13, 0, 1, 1, 0, 1, 13:05:36.611
184, -63028.36, -73422.10, -187500.02, -187500.02, -75844.32, -174968.42, -96190.57, -77575.98, 0, 1, 1, 0, 1, 13:05:36.611
185, -63124.12, -73522.20, -187500.02, -187500.02, -75881.95, -174568.53, -96077.56, -77366.90, 0, 1, 1, 0, 1, 13:05:36.611
186, -63145.11, -73535.98, -187500.02, -187500.02, -75948.30, -174336.14, -96120.57, -77367.74, 0, 1, 1, 0, 1, 13:05:36.611
187, -63049.35, -73441.28, -187500.02, -187500.02, -75921.90, -174654.22, -96234.00, -77567.75, 0, 1, 1, 0, 1, 13:05:36.611
188, -63014.62, -73406.14, -187500.02, -187500.02, -75851.00, -174928.56, -96215.78, -77603.80, 0, 1, 1, 0, 1, 13:05:36.611
189, -63129.66, -73520.88, -187500.02, -187500.02, -75866.84, -174575.20, -96081.07, -77381.98, 0, 1, 1, 0, 1, 13:05:36.611
190, -63155.88, -73552.21, -187500.02, -187500.02, -75945.46, -174251.25, -96099.55, -77329.75, 0, 1, 1, 0, 1, 13:05:36.611
191, -63049.78, -73451.74, -187500.02, -187500.02, -75921.81, -174517.05, -96210.98, -77522.15, 0, 1, 1, 0, 1, 13:05:36.611
192, -63000.16, -73399.48, -187500.02, -187500.02, -75848.70, -174870.97, -96220.59, -77608.85, 0, 1, 1, 0, 1, 13:05:36.611
193, -63093.86, -73494.41, -187500.02, -187500.02, -75845.19, -174615.33, -96088.38, -77407.53, 0, 1, 1, 0, 1, 13:05:36.611
194, -63159.70, -73560.35, -187500.02, -187500.02, -75930.04, -174222.67, -96078.12, -77306.59, 0, 1, 1, 0, 1, 13:05:37.079
195, -63082.28, -73484.20, -187500.02, -187500.02, -75936.54, -174378.42, -96192.05, -77474.88, 0, 1, 1, 0, 1, 13:05:37.079
196, -62993.54, -73392.48, -187500.02, -187500.02, -75862.98, -174787.31, -96239.19, -77617.62, 0, 1, 1, 0, 1, 13:05:37.079
197, -63062.23, -73461.95, -187500.02, -187500.02, -75842.59, -174663.88, -96127.30, -77463.41, 0, 1, 1, 0, 1, 13:05:37.079
198, -63153.24, -73555.81, -187500.02, -187500.02, -75925.86, -174231.73, -96084.52, -77318.99, 0, 1, 1, 0, 1, 13:05:37.079
199, -63084.13, -73485.00, -187500.02, -187500.02, -75938.13, -174307.86, -96179.84, -77454.27, 0, 1, 1, 0, 1, 13:05:37.079
200, -62988.71, -73384.93, -187500.02, -187500.02, -75871.25, -174746.45, -96246.12, -77627.13, 0, 1, 1, 0, 1, 13:05:37.079
