%OpenBCI Raw EEG Data
%
%Sample Rate = 250.0 Hz
%First Column = SampleIndex
%5 Columns before Timestamp are Frequency Power factors DELTA THETA ALPHA BETA GAMMA
%Last Column = Timestamp 
%Other Columns = EEG data in microvolts followed by Accel Data (in G) interleaved with Aux Data
41560.406250, 40443.558594, 187500.015625, 96427.296875, 61132.085938, 83892.195313, 56239.914063, 89437.890625, 0.164, 0.128, 0.446,0.0,0.0,0.0,0.0,0.0, 12:55:00.818
41287.738281, 40122.429688, 187500.015625, 96428.218750, 61075.714844, 83730.101563, 56236.117188, 89473.289063, 0.000, 0.000, 0.000,0.0,0.0,0.0,0.0,0.0, 12:55:01.296
40622.640625, 39494.839844, 187500.015625, 96929.367188, 60601.277344, 83120.656250, 56158.355469, 89026.812500, 0.000, 0.000, 0.000,0.0,0.0,0.0,0.0,0.0, 12:55:01.298
40774.050781, 39704.988281, 187500.015625, 96988.351563, 60584.714844, 83176.179688, 56147.511719, 88918.898438, 0.000, 0.000, 0.000,0.0,0.0,0.0,0.0,0.0, 12:55:01.298
41500.863281, 40401.378906, 187500.015625, 96462.500000, 61078.867188, 83822.968750, 56228.226563, 89374.093750, 0.000, 0.000, 0.000,0.0,0.0,0.0,0.0,0.0, 12:55:01.299
41452.089844, 40290.960938, 187500.015625, 96317.750000, 61177.437500, 83865.554688, 56255.785156, 89562.367188, 0.000, 0.000, 0.000,0.0,0.0,0.0,0.0,0.0, 12:55:01.300
40698.882813, 39566.742188, 187500.015625, 96802.476563, 60690.660156, 83199.273438, 56171.585938, 89113.609375, 0.246, 0.200, 0.672,0.0,0.0,0.0,0.0,0.0, 12:55:01.301
40679.167969, 39610.328125, 187500.015625, 96990.562500, 60539.226563, 83089.968750, 56136.941406, 88881.906250, 0.000, 0.000, 0.000,0.0,0.0,0.0,0.0,0.0, 12:55:01.302
41373.925781, 40286.492188, 187500.015625, 96523.187500, 60974.753906, 83681.398438, 56194.429688, 89256.929688, 0.000, 0.000, 0.000,0.0,0.0,0.0,0.0,0.0, 12:55:01.303
41519.726563, 40364.121094, 187500.015625, 96255.726563, 61191.875000, 83903.234375, 56235.312500, 89558.500000, 0.000, 0.000, 0.000,0.0,0.0,0.0,0.0,0.0, 12:55:01.304
40789.183594, 39645.308594, 187500.015625, 96683.335938, 60758.945313, 83280.828125, 56164.925781, 89190.187500, 0.000, 0.000, 0.000,0.0,0.0,0.0,0.0,0.0, 12:55:01.304
40589.605469, 39513.792969, 187500.015625, 96994.429688, 60500.625000, 83020.187500, 56116.308594, 88863.562500, 0.000, 0.000, 0.000,0.0,0.0,0.0,0.0,0.0, 12:55:01.304
41299.921875, 40220.332031, 187500.015625, 96589.414063, 60918.113281, 83611.523438, 56183.140625, 89210.148438, 0.000, 0.000, 0.000,0.0,0.0,0.0,0.0,0.0, 12:55:01.305
41595.902344, 40447.847656, 187500.015625, 96206.195313, 61240.960938, 83951.226563, 56245.503906, 89588.492188, 0.000, 0.000, 0.000,0.0,0.0,0.0,0.0,0.0, 12:55:01.305
40944.683594, 39788.203125, 187500.015625, 96533.937500, 60879.175781, 83417.984375, 56186.898438, 89297.648438, 0.000, 0.000, 0.000,0.0,0.0,0.0,0.0,0.0, 12:55:01.306
40550.511719, 39464.351563, 187500.015625, 96941.617188, 60511.289063, 83001.773438, 56121.898438, 88885.265625, 0.000, 0.000, 0.000,0.0,0.0,0.0,0.0,0.0, 12:55:01.306
41131.054688, 40057.429688, 187500.015625, 96653.898438, 60815.339844, 83456.132813, 56166.289063, 89095.992188, 0.290, 0.224, 0.786,0.0,0.0,0.0,0.0,0.0, 12:55:01.307
41633.273438, 40489.355469, 187500.015625, 96184.421875, 61231.953125, 83964.484375, 56242.015625, 89552.460938, 0.000, 0.000, 0.000,0.0,0.0,0.0,0.0,0.0, 12:55:01.307
41108.476563, 39939.929688, 187500.015625, 96395.382813, 60978.128906, 83566.218750, 56203.660156, 89397.898438, 0.000, 0.000, 0.000,0.0,0.0,0.0,0.0,0.0, 12:55:01.308
40586.160156, 39478.679688, 187500.015625, 96863.117188, 60548.683594, 83051.390625, 56132.960938, 88949.789063, 0.000, 0.000, 0.000,0.0,0.0,0.0,0.0,0.0, 12:55:01.308
41052.820313, 39970.371094, 187500.015625, 96688.679688, 60756.488281, 83382.445313, 56164.835938, 89058.265625, 0.000, 0.000, 0.000,0.0,0.0,0.0,0.0,0.0, 12:55:01.308
41633.117188, 40492.574219, 187500.015625, 96169.804688, 61215.660156, 83939.250000, 56241.726563, 89515.578125, 0.000, 0.000, 0.000,0.0,0.0,0.0,0.0,0.0, 12:55:01.309
41274.683594, 40098.468750, 187500.015625, 96252.757813, 61084.410156, 83700.398438, 56229.277344, 89477.453125, 0.000, 0.000, 0.000,0.0,0.0,0.0,0.0,0.0, 12:55:01.309
40655.453125, 39513.324219, 187500.015625, 96748.937500, 60617.949219, 83102.421875, 56153.300781, 89017.921875, 0.000, 0.000, 0.000,0.0,0.0,0.0,0.0,0.0, 12:55:01.309
40923.941406, 39818.000000, 187500.015625, 96719.031250, 60667.863281, 83238.656250, 56148.542969, 88967.695313, 0.000, 0.000, 0.000,0.0,0.0,0.0,0.0,0.0, 12:55:01.309
41638.707031, 40481.890625, 187500.015625, 96181.382813, 61166.597656, 83883.765625, 56227.597656, 89439.921875, 0.308, 0.234, 0.846,0.0,0.0,0.0,0.0,0.0, 12:55:01.310
41452.402344, 40251.757813, 187500.015625, 96126.179688, 61167.445313, 83808.351563, 56240.472656, 89539.453125, 0.000, 0.000, 0.000,0.0,0.0,0.0,0.0,0.0, 12:55:01.310
40730.085938, 39571.101563, 187500.015625, 96626.226563, 60674.769531, 83164.937500, 56162.757813, 89084.820313, 0.000, 0.000, 0.000,0.0,0.0,0.0,0.0,0.0, 12:55:01.310
40817.613281, 39715.718750, 187500.015625, 96731.460938, 60605.992188, 83152.484375, 56147.558594, 88922.523438, 0.000, 0.000, 0.000,0.0,0.0,0.0,0.0,0.0, 12:55:01.311
41548.179688, 40418.253906, 187500.015625, 96221.085938, 61091.113281, 83791.968750, 56223.105469, 89354.406250, 0.000, 0.000, 0.000,0.0,0.0,0.0,0.0,0.0, 12:55:01.311
41526.835938, 40341.523438, 187500.015625, 96040.164063, 61213.425781, 83869.640625, 56248.410156, 89562.921875, 0.000, 0.000, 0.000,0.0,0.0,0.0,0.0,0.0, 12:55:01.311
40812.562500, 39652.105469, 187500.015625, 96499.335938, 60747.367188, 83251.953125, 56169.082031, 89158.109375, 0.000, 0.000, 0.000,0.0,0.0,0.0,0.0,0.0, 12:55:01.312
40735.179688, 39635.496094, 187500.015625, 96717.695313, 60569.605469, 83099.937500, 56130.210938, 88907.367188, 0.000, 0.000, 0.000,0.0,0.0,0.0,0.0,0.0, 12:55:01.312
41446.546875, 40325.695313, 187500.015625, 96260.507813, 61012.167969, 83702.671875, 56198.363281, 89275.523438, 0.000, 0.000, 0.000,0.0,0.0,0.0,0.0,0.0, 12:55:01.312
41574.199219, 40387.253906, 187500.015625, 95968.148438, 61227.191406, 83905.789063, 56239.402344, 89552.570313, 0.000, 0.000, 0.000,0.0,0.0,0.0,0.0,0.0, 12:55:01.313
40916.500000, 39739.902344, 187500.015625, 96354.367188, 60825.218750, 83358.640625, 56172.750000, 89226.304688, 0.314, 0.244, 0.864,0.0,0.0,0.0,0.0,0.0, 12:55:01.313
40668.750000, 39557.578125, 187500.015625, 96680.210938, 60550.894531, 83056.757813, 56123.261719, 88891.140625, 0.000, 0.000, 0.000,0.0,0.0,0.0,0.0,0.0, 12:55:01.313
41305.574219, 40198.628906, 187500.015625, 96310.734375, 60916.457031, 83568.273438, 56180.371094, 89170.671875, 0.000, 0.000, 0.000,0.0,0.0,0.0,0.0,0.0, 12:55:01.313
41649.343750, 40476.234375, 187500.015625, 95905.117188, 61251.062500, 83960.101563, 56239.355469, 89561.960938, 0.000, 0.000, 0.000,0.0,0.0,0.0,0.0,0.0, 12:55:01.314
41054.656250, 39864.781250, 187500.015625, 96193.906250, 60919.609375, 83481.773438, 56184.101563, 89322.414063, 0.000, 0.000, 0.000,0.0,0.0,0.0,0.0,0.0, 12:55:01.314
40633.011719, 39504.089844, 187500.015625, 96609.734375, 60538.714844, 83039.007813, 56113.382813, 88908.171875, 0.000, 0.000, 0.000,0.0,0.0,0.0,0.0,0.0, 12:55:01.314
41198.867188, 40087.425781, 187500.015625, 96345.718750, 60826.203125, 83471.828125, 56157.125000, 89099.664063, 0.000, 0.000, 0.000,0.0,0.0,0.0,0.0,0.0, 12:55:01.315
41709.335938, 40533.726563, 187500.015625, 95854.539063, 61262.062500, 83982.500000, 56235.242188, 89557.875000, 0.000, 0.000, 0.000,0.0,0.0,0.0,0.0,0.0, 12:55:01.315
41213.128906, 40014.089844, 187500.015625, 96026.132813, 61041.250000, 83608.171875, 56201.714844, 89420.875000, 0.000, 0.000, 0.000,0.0,0.0,0.0,0.0,0.0, 12:55:01.315
40663.878906, 39524.007813, 187500.015625, 96500.656250, 60597.855469, 83067.570313, 56120.871094, 88962.171875, 0.000, 0.000, 0.000,0.0,0.0,0.0,0.0,0.0, 12:55:01.315
41091.691406, 39984.007813, 187500.015625, 96361.453125, 60766.546875, 83365.187500, 56141.164063, 89039.781250, 0.318, 0.252, 0.878,0.0,0.0,0.0,0.0,0.0, 12:55:01.316
41731.777344, 40574.941406, 187500.015625, 95824.382813, 61265.054688, 83980.906250, 56225.542969, 89530.757813, 0.000, 0.000, 0.000,0.0,0.0,0.0,0.0,0.0, 12:55:01.316
41378.039063, 40185.640625, 187500.015625, 95857.617188, 61158.082031, 83759.539063, 56211.820313, 89524.117188, 0.000, 0.000, 0.000,0.0,0.0,0.0,0.0,0.0, 12:55:01.316
40719.847656, 39574.699219, 187500.015625, 96352.085938, 60679.867188, 83146.679688, 56131.507813, 89058.375000, 0.000, 0.000, 0.000,0.0,0.0,0.0,0.0,0.0, 12:55:01.316
40936.570313, 39835.925781, 187500.015625, 96354.500000, 60710.777344, 83252.179688, 56132.156250, 88994.828125, 0.000, 0.000, 0.000,0.0,0.0,0.0,0.0,0.0, 12:55:01.324
41628.402344, 40496.597656, 187500.015625, 95824.585938, 61190.042969, 83879.812500, 56204.039063, 89441.820313, 0.000, 0.000, 0.000,0.0,0.0,0.0,0.0,0.0, 12:55:01.324
41457.835938, 40281.441406, 187500.015625, 95734.890625, 61211.949219, 83827.171875, 56210.367188, 89548.664063, 0.000, 0.000, 0.000,0.0,0.0,0.0,0.0,0.0, 12:55:01.324
40751.074219, 39607.691406, 187500.015625, 96219.984375, 60724.257813, 83202.312500, 56127.687500, 89107.281250, 0.000, 0.000, 0.000,0.0,0.0,0.0,0.0,0.0, 12:55:01.325
40799.332031, 39716.210938, 187500.015625, 96354.812500, 60619.738281, 83162.281250, 56106.921875, 88929.789063, 0.000, 0.000, 0.000,0.0,0.0,0.0,0.0,0.0, 12:55:01.325
41557.343750, 40447.246094, 187500.015625, 95846.984375, 61115.968750, 83820.179688, 56193.089844, 89366.429688, 0.324, 0.242, 0.884,0.0,0.0,0.0,0.0,0.0, 12:55:01.325
41568.117188, 40390.851563, 187500.015625, 95628.937500, 61264.339844, 83918.187500, 56227.195313, 89590.687500, 0.000, 0.000, 0.000,0.0,0.0,0.0,0.0,0.0, 12:55:01.325
40857.042969, 39699.109375, 187500.015625, 96061.671875, 60809.550781, 83301.507813, 56151.156250, 89196.531250, 0.000, 0.000, 0.000,0.0,0.0,0.0,0.0,0.0, 12:55:01.326
40703.843750, 39609.636719, 187500.015625, 96322.382813, 60580.601563, 83061.984375, 56104.796875, 88880.750000, 0.000, 0.000, 0.000,0.0,0.0,0.0,0.0,0.0, 12:55:01.326
41470.933594, 40370.421875, 187500.015625, 95873.375000, 61042.343750, 83721.945313, 56187.925781, 89268.593750, 0.000, 0.000, 0.000,0.0,0.0,0.0,0.0,0.0, 12:55:01.326
41684.570313, 40507.351563, 187500.015625, 95526.703125, 61325.988281, 84017.257813, 56251.335938, 89637.804688, 0.000, 0.000, 0.000,0.0,0.0,0.0,0.0,0.0, 12:55:01.326
40982.859375, 39808.722656, 187500.015625, 95892.601563, 60912.257813, 83421.046875, 56184.214844, 89293.468750, 0.000, 0.000, 0.000,0.0,0.0,0.0,0.0,0.0, 12:55:01.327
40708.382813, 39604.921875, 187500.015625, 96240.773438, 60608.160156, 83100.187500, 56133.609375, 88936.625000, 0.000, 0.000, 0.000,0.0,0.0,0.0,0.0,0.0, 12:55:01.328
41343.753906, 40249.367188, 187500.015625, 95892.984375, 60969.679688, 83617.156250, 56200.820313, 89216.695313, 0.000, 0.000, 0.000,0.0,0.0,0.0,0.0,0.0, 12:55:01.329
41722.570313, 40559.742188, 187500.015625, 95459.085938, 61337.519531, 84017.117188, 56277.398438, 89614.664063, 0.000, 0.000, 0.000,0.0,0.0,0.0,0.0,0.0, 12:55:01.329
41150.609375, 39976.449219, 187500.015625, 95706.078125, 61030.363281, 83552.648438, 56231.890625, 89393.382813, 0.326, 0.252, 0.890,0.0,0.0,0.0,0.0,0.0, 12:55:01.330
40688.265625, 39575.593750, 187500.015625, 96138.804688, 60631.273438, 83076.382813, 56165.484375, 88965.125000, 0.000, 0.000, 0.000,0.0,0.0,0.0,0.0,0.0, 12:55:01.330
41184.695313, 40093.933594, 187500.015625, 95918.148438, 60873.945313, 83466.375000, 56209.964844, 89116.757813, 0.000, 0.000, 0.000,0.0,0.0,0.0,0.0,0.0, 12:55:01.330
41703.593750, 40555.761719, 187500.015625, 95430.281250, 61299.546875, 83975.187500, 56288.664063, 89555.523438, 0.000, 0.000, 0.000,0.0,0.0,0.0,0.0,0.0, 12:55:01.331
41268.562500, 40098.042969, 187500.015625, 95567.226563, 61113.554688, 83662.062500, 56269.933594, 89460.554688, 0.000, 0.000, 0.000,0.0,0.0,0.0,0.0,0.0, 12:55:01.331
40676.976563, 39557.578125, 187500.015625, 96051.390625, 60658.742188, 83104.453125, 56196.910156, 89006.632813, 0.000, 0.000, 0.000,0.0,0.0,0.0,0.0,0.0, 12:55:01.331
41037.890625, 39950.703125, 187500.015625, 95957.625000, 60781.632813, 83346.343750, 56208.667969, 89040.335938, 0.000, 0.000, 0.000,0.0,0.0,0.0,0.0,0.0, 12:55:01.332
41680.949219, 40547.539063, 187500.015625, 95431.375000, 61265.457031, 83944.476563, 56290.230469, 89503.023438, 0.000, 0.000, 0.000,0.0,0.0,0.0,0.0,0.0, 12:55:01.332
41400.054688, 40233.136719, 187500.015625, 95427.390625, 61186.804688, 83784.593750, 56279.746094, 89529.617188, 0.000, 0.000, 0.000,0.0,0.0,0.0,0.0,0.0, 12:55:01.332
40719.980469, 39604.250000, 187500.015625, 95917.476563, 60703.179688, 83163.484375, 56192.976563, 89059.695313, 0.330, 0.270, 0.890,0.0,0.0,0.0,0.0,0.0, 12:55:01.332
40906.441406, 39844.753906, 187500.015625, 95959.500000, 60712.386719, 83249.179688, 56195.390625, 88978.398438, 0.000, 0.000, 0.000,0.0,0.0,0.0,0.0,0.0, 12:55:01.333
41615.996094, 40519.417969, 187500.015625, 95444.000000, 61205.062500, 83881.109375, 56280.820313, 89424.453125, 0.000, 0.000, 0.000,0.0,0.0,0.0,0.0,0.0, 12:55:01.333
41536.179688, 40391.074219, 187500.015625, 95305.976563, 61282.804688, 83895.835938, 56301.718750, 89583.710938, 0.000, 0.000, 0.000,0.0,0.0,0.0,0.0,0.0, 12:55:01.334
40819.671875, 39709.707031, 187500.015625, 95769.015625, 60804.363281, 83270.414063, 56219.351563, 89156.703125, 0.000, 0.000, 0.000,0.0,0.0,0.0,0.0,0.0, 12:55:01.334
40783.640625, 39731.273438, 187500.015625, 95943.875000, 60659.546875, 83160.398438, 56186.808594, 88931.929688, 0.000, 0.000, 0.000,0.0,0.0,0.0,0.0,0.0, 12:55:01.335
41508.683594, 40440.988281, 187500.015625, 95469.750000, 61118.855469, 83787.320313, 56259.496094, 89327.984375, 0.000, 0.000, 0.000,0.0,0.0,0.0,0.0,0.0, 12:55:01.336
41558.015625, 40429.589844, 187500.015625, 95222.476563, 61290.894531, 83923.492188, 56289.804688, 89569.960938, 0.000, 0.000, 0.000,0.0,0.0,0.0,0.0,0.0, 12:55:01.336
40868.308594, 39758.410156, 187500.015625, 95642.125000, 60855.394531, 83333.804688, 56214.410156, 89193.429688, 0.000, 0.000, 0.000,0.0,0.0,0.0,0.0,0.0, 12:55:01.337
40710.437500, 39656.730469, 187500.015625, 95926.421875, 60628.078125, 83114.843750, 56177.171875, 88910.632813, 0.000, 0.000, 0.000,0.0,0.0,0.0,0.0,0.0, 12:55:01.338
41352.984375, 40299.234375, 187500.015625, 95537.632813, 61005.261719, 83633.718750, 56236.183594, 89203.125000, 0.322, 0.280, 0.890,0.0,0.0,0.0,0.0,0.0, 12:55:01.339
41631.105469, 40524.316406, 187500.015625, 95175.265625, 61301.109375, 83971.945313, 56289.511719, 89559.367188, 0.000, 0.000, 0.000,0.0,0.0,0.0,0.0,0.0, 12:55:01.340
41018.847656, 39906.511719, 187500.015625, 95490.781250, 60963.015625, 83491.164063, 56229.855469, 89312.742188, 0.000, 0.000, 0.000,0.0,0.0,0.0,0.0,0.0, 12:55:01.340
40633.703125, 39588.269531, 187500.015625, 95876.109375, 60608.785156, 83080.578125, 56158.597656, 88912.781250, 0.000, 0.000, 0.000,0.0,0.0,0.0,0.0,0.0, 12:55:01.341
41210.109375, 40182.890625, 187500.015625, 95582.695313, 60917.332031, 83538.992188, 56208.218750, 89136.359375, 0.000, 0.000, 0.000,0.0,0.0,0.0,0.0,0.0, 12:55:01.342
41648.898438, 40564.054688, 187500.015625, 95137.070313, 61308.039063, 84001.921875, 56276.484375, 89557.515625, 0.000, 0.000, 0.000,0.0,0.0,0.0,0.0,0.0, 12:55:01.343
41143.613281, 40048.894531, 187500.015625, 95341.046875, 61056.714844, 83623.843750, 56231.644531, 89399.242188, 0.000, 0.000, 0.000,0.0,0.0,0.0,0.0,0.0, 12:55:01.343
40644.789063, 39614.128906, 187500.015625, 95776.257813, 60648.910156, 83136.101563, 56154.464844, 88974.085938, 0.000, 0.000, 0.000,0.0,0.0,0.0,0.0,0.0, 12:55:01.344
41076.917969, 40078.507813, 187500.015625, 95599.125000, 60847.144531, 83451.484375, 56185.218750, 89076.929688, 0.000, 0.000, 0.000,0.0,0.0,0.0,0.0,0.0, 12:55:01.345
41655.515625, 40602.480469, 187500.015625, 95105.460938, 61305.156250, 84008.851563, 56271.273438, 89535.406250, 0.000, 0.000, 0.000,5.3886974E-6,7.1381596E-6,8.7747385E-6,2.761563E-5,3.5088746E-5, 12:55:01.345
41256.199219, 40174.039063, 187500.015625, 95198.687500, 61145.027344, 83728.335938, 56242.039063, 89473.562500, 0.316, 0.282, 0.892,5.3886974E-6,7.1381596E-6,8.7747385E-6,2.761563E-5,3.5088746E-5, 12:55:01.346
40608.894531, 39580.667969, 187500.015625, 95691.054688, 60659.191406, 83107.273438, 56152.699219, 88982.898438, 0.000, 0.000, 0.000,5.3886974E-6,7.1381596E-6,8.7747385E-6,2.761563E-5,3.5088746E-5, 12:55:01.347
40896.425781, 39916.726563, 187500.015625, 95649.390625, 60732.300781, 83283.937500, 56158.062500, 88965.015625, 0.000, 0.000, 0.000,5.3886974E-6,7.1381596E-6,8.7747385E-6,2.761563E-5,3.5088746E-5, 12:55:01.348
41578.734375, 40558.960938, 187500.015625, 95132.664063, 61221.582031, 83917.031250, 56242.550781, 89438.398438, 0.000, 0.000, 0.000,5.3886974E-6,7.1381596E-6,8.7747385E-6,2.761563E-5,3.5088746E-5, 12:55:01.349
41343.394531, 40278.937500, 187500.015625, 95098.421875, 61195.410156, 83804.265625, 56239.601563, 89503.671875, 0.000, 0.000, 0.000,5.3886974E-6,7.1381596E-6,8.7747385E-6,2.761563E-5,3.5088746E-5, 12:55:01.351
40695.484375, 39671.597656, 187500.015625, 95569.710938, 60739.320313, 83220.460938, 56156.968750, 89081.468750, 0.000, 0.000, 0.000,5.3886974E-6,7.1381596E-6,8.7747385E-6,2.761563E-5,3.5088746E-5, 12:55:01.351
40802.773438, 39837.468750, 187500.015625, 95650.351563, 60708.207031, 83236.398438, 56147.648438, 88958.171875, 0.000, 0.000, 0.000,5.3886974E-6,7.1381596E-6,8.7747385E-6,2.761563E-5,3.5088746E-5, 12:55:01.352
41512.148438, 40513.898438, 187500.015625, 95152.531250, 61187.429688, 83858.515625, 56231.265625, 89385.382813, 0.000, 0.000, 0.000,5.3886974E-6,7.1381596E-6,8.7747385E-6,2.761563E-5,3.5088746E-5, 12:55:01.353
41433.023438, 40380.480469, 187500.015625, 94998.304688, 61269.011719, 83871.070313, 56251.828125, 89540.125000, 0.000, 0.000, 0.000,5.3886974E-6,7.1381596E-6,8.7747385E-6,2.761563E-5,3.5088746E-5, 12:55:01.354
40738.644531, 39715.160156, 187500.015625, 95446.750000, 60805.707031, 83265.250000, 56165.617188, 89126.507813, 0.304, 0.292, 0.900,5.3886974E-6,7.1381596E-6,8.7747385E-6,2.761563E-5,3.5088746E-5, 12:55:01.355
40733.035156, 39770.992188, 187500.015625, 95635.492188, 60673.449219, 83185.007813, 56142.082031, 88927.039063, 0.000, 0.000, 0.000,5.3886974E-6,7.1381596E-6,8.7747385E-6,2.761563E-5,3.5088746E-5, 12:55:01.357
41392.992188, 40425.050781, 187500.015625, 95192.078125, 61103.609375, 83755.492188, 56213.496094, 89295.460938, 0.000, 0.000, 0.000,5.3886974E-6,7.1381596E-6,8.7747385E-6,2.761563E-5,3.5088746E-5, 12:55:01.357
41504.417969, 40482.406250, 187500.015625, 94916.992188, 61301.066406, 83946.492188, 56249.460938, 89562.523438, 0.000, 0.000, 0.000,5.3886974E-6,7.1381596E-6,8.7747385E-6,2.761563E-5,3.5088746E-5, 12:55:01.358
40869.269531, 39859.886719, 187500.015625, 95282.218750, 60914.582031, 83418.804688, 56184.125000, 89247.718750, 0.000, 0.000, 0.000,5.3886974E-6,7.1381596E-6,8.7747385E-6,2.761563E-5,3.5088746E-5, 12:55:01.359
40603.015625, 39661.515625, 187500.015625, 95590.609375, 60641.128906, 83115.539063, 56130.683594, 88921.023438, 0.000, 0.000, 0.000,5.3886974E-6,7.1381596E-6,8.7747385E-6,2.761563E-5,3.5088746E-5, 12:55:01.360
41214.761719, 40278.894531, 187500.015625, 95238.453125, 60985.906250, 83616.890625, 56184.148438, 89190.992188, 0.000, 0.000, 0.000,5.3886974E-6,7.1381596E-6,8.7747385E-6,2.761563E-5,3.5088746E-5, 12:55:01.360
41546.570313, 40555.339844, 187500.015625, 94857.937500, 61316.421875, 83994.007813, 56246.910156, 89565.539063, 0.000, 0.000, 0.000,5.3886974E-6,7.1381596E-6,8.7747385E-6,2.761563E-5,3.5088746E-5, 12:55:01.361
40949.042969, 39951.886719, 187500.015625, 95141.625000, 60995.226563, 83509.710938, 56183.945313, 89319.828125, 0.000, 0.000, 0.000,5.3886974E-6,7.1381596E-6,8.7747385E-6,2.761563E-5,3.5088746E-5, 12:55:01.362
40532.964844, 39605.367188, 187500.015625, 95541.835938, 60617.570313, 83074.140625, 56109.714844, 88905.578125, 0.000, 0.000, 0.000,5.3886974E-6,7.1381596E-6,8.7747385E-6,2.761563E-5,3.5088746E-5, 12:55:01.362
41086.617188, 40179.808594, 187500.015625, 95284.273438, 60902.800781, 83510.382813, 56162.355469, 89107.531250, 0.302, 0.290, 0.900,5.3886974E-6,7.1381596E-6,8.7747385E-6,2.761563E-5,3.5088746E-5, 12:55:01.363
41593.757813, 40618.058594, 187500.015625, 94820.765625, 61337.187500, 84023.914063, 56252.410156, 89572.242188, 0.000, 0.000, 0.000,5.3886974E-6,7.1381596E-6,8.7747385E-6,2.761563E-5,3.5088746E-5, 12:55:01.364
41108.859375, 40107.343750, 187500.015625, 94997.640625, 61108.035156, 83657.796875, 56217.628906, 89434.601563, 0.000, 0.000, 0.000,5.3886974E-6,7.1381596E-6,8.7747385E-6,2.761563E-5,3.5088746E-5, 12:55:01.364
40575.703125, 39638.761719, 187500.015625, 95444.226563, 60689.433594, 83151.664063, 56146.953125, 89009.765625, 0.000, 0.000, 0.000,5.3886974E-6,7.1381596E-6,8.7747385E-6,2.761563E-5,3.5088746E-5, 12:55:01.366
40969.917969, 40071.804688, 187500.015625, 95309.664063, 60850.410156, 83424.304688, 56182.046875, 89076.593750, 0.000, 0.000, 0.000,5.3886974E-6,7.1381596E-6,8.7747385E-6,2.761563E-5,3.5088746E-5, 12:55:01.367
41565.437500, 40614.546875, 187500.015625, 94809.234375, 61306.160156, 83977.531250, 56275.117188, 89525.617188, 0.000, 0.000, 0.000,5.3886974E-6,7.1381596E-6,8.7747385E-6,2.761563E-5,3.5088746E-5, 12:55:01.369
41234.386719, 40257.277344, 187500.015625, 94849.000000, 61192.234375, 83754.148438, 56257.593750, 89500.718750, 0.000, 0.000, 0.000,5.3886974E-6,7.1381596E-6,8.7747385E-6,2.761563E-5,3.5088746E-5, 12:55:01.370
40575.031250, 39645.218750, 187500.015625, 95332.601563, 60712.050781, 83150.562500, 56167.539063, 89031.171875, 0.000, 0.000, 0.000,5.3886974E-6,7.1381596E-6,8.7747385E-6,2.761563E-5,3.5088746E-5, 12:55:01.371
40824.992188, 39943.660156, 187500.015625, 95329.335938, 60764.398438, 83310.445313, 56180.191406, 89016.179688, 0.000, 0.000, 0.000,5.3886974E-6,7.1381596E-6,8.7747385E-6,2.761563E-5,3.5088746E-5, 12:55:01.372
41527.347656, 40606.234375, 187500.015625, 94817.796875, 61268.500000, 83960.257813, 56281.152344, 89496.804688, 0.306, 0.298, 0.904,5.3886974E-6,7.1381596E-6,8.7747385E-6,2.761563E-5,3.5088746E-5, 12:55:01.372
41333.492188, 40369.527344, 187500.015625, 94746.492188, 61269.906250, 83877.937500, 56284.753906, 89581.320313, 0.000, 0.000, 0.000,0.0,0.0,0.0,0.0,0.0, 12:55:01.775
40646.757813, 39717.527344, 187500.015625, 95212.664063, 60799.402344, 83263.085938, 56197.335938, 89146.820313, 0.000, 0.000, 0.000,0.0,0.0,0.0,0.0,0.0, 12:55:01.776
40706.996094, 39832.058594, 187500.015625, 95332.554688, 60713.683594, 83232.796875, 56181.128906, 88983.367188, 0.000, 0.000, 0.000,0.0,0.0,0.0,0.0,0.0, 12:55:01.776
41432.621094, 40525.433594, 187500.015625, 94850.320313, 61195.765625, 83865.750000, 56277.445313, 89416.046875, 0.000, 0.000, 0.000,0.0,0.0,0.0,0.0,0.0, 12:55:01.777
41410.335938, 40449.054688, 187500.015625, 94661.828125, 61312.710938, 83931.781250, 56308.042969, 89606.507813, 0.000, 0.000, 0.000,0.0,0.0,0.0,0.0,0.0, 12:55:01.777
40740.992188, 39801.347656, 187500.015625, 95080.671875, 60878.191406, 83355.265625, 56229.789063, 89222.882813, 0.000, 0.000, 0.000,0.0,0.0,0.0,0.0,0.0, 12:55:01.778
40625.925781, 39744.687500, 187500.015625, 95314.671875, 60676.625000, 83171.062500, 56188.238281, 88949.164063, 0.000, 0.000, 0.000,0.0,0.0,0.0,0.0,0.0, 12:55:01.778
41283.023438, 40392.371094, 187500.015625, 94907.023438, 61083.113281, 83730.390625, 56263.070313, 89287.171875, 0.000, 0.000, 0.000,0.0,0.0,0.0,0.0,0.0, 12:55:01.779
41470.218750, 40519.597656, 187500.015625, 94605.523438, 61328.625000, 83974.921875, 56307.863281, 89584.492188, 0.000, 0.000, 0.000,0.0,0.0,0.0,0.0,0.0, 12:55:01.779
40814.531250, 39864.757813, 187500.015625, 94963.234375, 60933.335938, 83416.351563, 56226.773438, 89244.632813, 0.312, 0.310, 0.900,0.0,0.0,0.0,0.0,0.0, 12:55:01.780
40559.160156, 39680.691406, 187500.015625, 95297.867188, 60641.597656, 83118.671875, 56162.980469, 88900.906250, 0.000, 0.000, 0.000,0.0,0.0,0.0,0.0,0.0, 12:55:01.780
41190.484375, 40311.257813, 187500.015625, 94968.828125, 61002.578125, 83633.273438, 56229.253906, 89185.625000, 0.000, 0.000, 0.000,0.0,0.0,0.0,0.0,0.0, 12:55:01.780
41546.972656, 40601.027344, 187500.015625, 94572.148438, 61350.441406, 84008.382813, 56299.437500, 89564.757813, 0.000, 0.000, 0.000,0.0,0.0,0.0,0.0,0.0, 12:55:01.781
41005.167969, 40042.769531, 187500.015625, 94817.304688, 61058.839844, 83579.335938, 56236.292969, 89357.039063, 0.000, 0.000, 0.000,0.0,0.0,0.0,0.0,0.0, 12:55:01.781
40540.093750, 39639.945313, 187500.015625, 95231.367188, 60659.101563, 83112.367188, 56151.269531, 88928.179688, 0.000, 0.000, 0.000,0.0,0.0,0.0,0.0,0.0, 12:55:01.782
41026.000000, 40146.167969, 187500.015625, 95020.328125, 60894.015625, 83475.515625, 56191.769531, 89069.554688, 0.000, 0.000, 0.000,0.0,0.0,0.0,0.0,0.0, 12:55:01.782
41574.398438, 40633.078125, 187500.015625, 94552.859375, 61325.652344, 84021.414063, 56285.535156, 89529.664063, 0.000, 0.000, 0.000,0.0,0.0,0.0,0.0,0.0, 12:55:01.783
41114.000000, 40143.128906, 187500.015625, 94692.734375, 61129.582031, 83688.414063, 56246.261719, 89418.796875, 0.000, 0.000, 0.000,0.0,0.0,0.0,0.0,0.0, 12:55:01.784
40531.890625, 39617.996094, 187500.015625, 95159.687500, 60676.648438, 83129.421875, 56151.648438, 88942.820313, 0.000, 0.000, 0.000,0.0,0.0,0.0,0.0,0.0, 12:55:01.784
40885.832031, 40002.535156, 187500.015625, 95069.164063, 60808.902344, 83360.562500, 56173.753906, 88974.710938, 0.306, 0.302, 0.900,0.0,0.0,0.0,0.0,0.0, 12:55:01.784
41510.226563, 40577.714844, 187500.015625, 94582.765625, 61274.535156, 83951.226563, 56259.539063, 89427.562500, 0.000, 0.000, 0.000,0.0,0.0,0.0,0.0,0.0, 12:55:01.785
41219.476563, 40245.453125, 187500.015625, 94609.140625, 61193.398438, 83773.304688, 56247.804688, 89438.375000, 0.000, 0.000, 0.000,0.0,0.0,0.0,0.0,0.0, 12:55:01.785
40562.804688, 39632.367188, 187500.015625, 95087.398438, 60710.753906, 83165.609375, 56147.156250, 88975.765625, 0.000, 0.000, 0.000,0.0,0.0,0.0,0.0,0.0, 12:55:01.785
40760.082031, 39880.652344, 187500.015625, 95122.898438, 60720.164063, 83260.109375, 56143.332031, 88898.984375, 0.000, 0.000, 0.000,0.0,0.0,0.0,0.0,0.0, 12:55:01.786
41468.093750, 40551.582031, 187500.015625, 94632.234375, 61216.710938, 83897.742188, 56240.964844, 89358.000000, 0.000, 0.000, 0.000,0.0,0.0,0.0,0.0,0.0, 12:55:01.786
41348.289063, 40373.304688, 187500.015625, 94531.468750, 61267.941406, 83872.820313, 56258.535156, 89487.796875, 0.000, 0.000, 0.000,0.0,0.0,0.0,0.0,0.0, 12:55:01.787
40666.964844, 39717.839844, 187500.015625, 94988.453125, 60802.285156, 83264.023438, 56163.828125, 89067.007813, 0.000, 0.000, 0.000,0.0,0.0,0.0,0.0,0.0, 12:55:01.787
40687.125000, 39792.875000, 187500.015625, 95146.523438, 60700.675781, 83201.507813, 56139.109375, 88888.523438, 0.000, 0.000, 0.000,0.0,0.0,0.0,0.0,0.0, 12:55:01.788
41363.867188, 40441.546875, 187500.015625, 94712.117188, 61150.660156, 83781.195313, 56228.605469, 89272.906250, 0.298, 0.306, 0.888,0.0,0.0,0.0,0.0,0.0, 12:55:01.788
41436.152344, 40457.214844, 187500.015625, 94496.828125, 61318.476563, 83930.171875, 56266.312500, 89512.523438, 0.000, 0.000, 0.000,0.0,0.0,0.0,0.0,0.0, 12:55:01.789
40775.527344, 39807.671875, 187500.015625, 94901.546875, 60896.722656, 83363.960938, 56183.230469, 89156.007813, 0.000, 0.000, 0.000,0.0,0.0,0.0,0.0,0.0, 12:55:01.789
40615.777344, 39703.000000, 187500.015625, 95175.851563, 60672.488281, 83140.085938, 56141.320313, 88875.984375, 0.000, 0.000, 0.000,0.0,0.0,0.0,0.0,0.0, 12:55:01.789
41249.046875, 40330.949219, 187500.015625, 94812.789063, 61059.800781, 83666.960938, 56223.687500, 89192.781250, 0.000, 0.000, 0.000,0.0,0.0,0.0,0.0,0.0, 12:55:01.790
41506.964844, 40526.214844, 187500.015625, 94497.789063, 61343.957031, 83975.703125, 56293.023438, 89527.984375, 0.000, 0.000, 0.000,0.0,0.0,0.0,0.0,0.0, 12:55:01.790
40906.953125, 39919.746094, 187500.015625, 94823.296875, 60993.191406, 83488.546875, 56228.984375, 89256.523438, 0.000, 0.000, 0.000,0.0,0.0,0.0,0.0,0.0, 12:55:01.790
40541.703125, 39613.281250, 187500.015625, 95201.085938, 60643.007813, 83093.789063, 56160.925781, 88864.921875, 0.000, 0.000, 0.000,0.0,0.0,0.0,0.0,0.0, 12:55:01.791
41110.601563, 40192.882813, 187500.015625, 94929.171875, 60950.812500, 83550.015625, 56227.980469, 89088.507813, 0.000, 0.000, 0.000,0.0,0.0,0.0,0.0,0.0, 12:55:01.791
41491.562500, 40504.957031, 187500.015625, 94544.257813, 61311.750000, 83947.335938, 56313.453125, 89473.828125, 0.000, 0.000, 0.000,0.0,0.0,0.0,0.0,0.0, 12:55:01.792
40957.199219, 39959.242188, 187500.015625, 94788.648438, 61023.949219, 83528.328125, 56257.976563, 89272.617188, 0.296, 0.310, 0.892,0.0,0.0,0.0,0.0,0.0, 12:55:01.792
40491.257813, 39547.386719, 187500.015625, 95231.078125, 60617.460938, 83057.156250, 56175.632813, 88854.867188, 0.000, 0.000, 0.000,0.0,0.0,0.0,0.0,0.0, 12:55:01.792
40917.035156, 39994.625000, 187500.015625, 95086.687500, 60817.640625, 83363.312500, 56212.265625, 88950.929688, 0.000, 0.000, 0.000,0.0,0.0,0.0,0.0,0.0, 12:55:01.793
41464.472656, 40481.710938, 187500.015625, 94647.031250, 61255.781250, 83897.875000, 56310.636719, 89395.734375, 0.000, 0.000, 0.000,0.0,0.0,0.0,0.0,0.0, 12:55:01.793
41076.781250, 40066.171875, 187500.015625, 94775.437500, 61085.125000, 83621.984375, 56282.226563, 89321.835938, 0.000, 0.000, 0.000,0.0,0.0,0.0,0.0,0.0, 12:55:01.794
40505.652344, 39543.898438, 187500.015625, 95247.398438, 60645.062500, 83080.578125, 56190.964844, 88889.304688, 0.000, 0.000, 0.000,0.0,0.0,0.0,0.0,0.0, 12:55:01.794
40802.304688, 39876.316406, 187500.015625, 95211.273438, 60737.710938, 83270.546875, 56210.992188, 88894.921875, 0.000, 0.000, 0.000,0.0,0.0,0.0,0.0,0.0, 12:55:01.795
41449.765625, 40469.730469, 187500.015625, 94744.882813, 61209.156250, 83857.820313, 56314.167969, 89347.203125, 0.000, 0.000, 0.000,0.0,0.0,0.0,0.0,0.0, 12:55:01.795
41241.894531, 40217.804688, 187500.015625, 94739.203125, 61180.476563, 83755.898438, 56314.593750, 89410.414063, 0.000, 0.000, 0.000,0.0,0.0,0.0,0.0,0.0, 12:55:01.796
40593.605469, 39606.351563, 187500.015625, 95216.078125, 60718.710938, 83169.656250, 56224.828125, 88980.929688, 0.288, 0.308, 0.894,0.0,0.0,0.0,0.0,0.0, 12:55:01.796
40710.816406, 39769.160156, 187500.015625, 95306.851563, 60682.613281, 83189.296875, 56218.257813, 88861.210938, 0.000, 0.000, 0.000,0.0,0.0,0.0,0.0,0.0, 12:55:01.797
41380.296875, 40400.308594, 187500.015625, 94862.070313, 61137.046875, 83775.632813, 56313.585938, 89263.789063, 0.000, 0.000, 0.000,0.0,0.0,0.0,0.0,0.0, 12:55:01.797
41311.097656, 40274.265625, 187500.015625, 94750.765625, 61208.148438, 83788.929688, 56331.066406, 89411.734375, 0.000, 0.000, 0.000,0.0,0.0,0.0,0.0,0.0, 12:55:01.797
40627.714844, 39620.476563, 187500.015625, 95210.109375, 60748.687500, 83187.179688, 56231.375000, 88996.843750, 0.000, 0.000, 0.000,0.0,0.0,0.0,0.0,0.0, 12:55:01.798
40587.125000, 39637.062500, 187500.015625, 95417.937500, 60603.468750, 83080.406250, 56201.515625, 88782.960938, 0.000, 0.000, 0.000,0.0,0.0,0.0,0.0,0.0, 12:55:01.798
41257.585938, 40288.906250, 187500.015625, 95022.757813, 61034.500000, 83644.515625, 56292.015625, 89141.304688, 0.000, 0.000, 0.000,0.0,0.0,0.0,0.0,0.0, 12:55:01.798
41374.621094, 40342.574219, 187500.015625, 94798.148438, 61228.554688, 83824.601563, 56338.910156, 89402.929688, 0.000, 0.000, 0.000,0.0,0.0,0.0,0.0,0.0, 12:55:01.799
40722.753906, 39697.007813, 187500.015625, 95196.257813, 60816.679688, 83269.117188, 56247.222656, 89061.773438, 0.000, 0.000, 0.000,0.0,0.0,0.0,0.0,0.0, 12:55:01.799
40529.343750, 39557.066406, 187500.015625, 95503.617188, 60567.996094, 83014.796875, 56193.757813, 88760.273438, 0.000, 0.000, 0.000,0.0,0.0,0.0,0.0,0.0, 12:55:01.800
41149.089844, 40175.828125, 187500.015625, 95178.750000, 60936.554688, 83519.390625, 56271.117188, 89052.585938, 0.280, 0.310, 0.898,0.0,0.0,0.0,0.0,0.0, 12:55:01.800
41448.871094, 40417.292969, 187500.015625, 94853.710938, 61253.074219, 83862.312500, 56346.667969, 89409.968750, 0.000, 0.000, 0.000,0.0,0.0,0.0,0.0,0.0, 12:55:01.801
40888.582031, 39847.257813, 187500.015625, 95158.617188, 60932.328125, 83412.125000, 56282.675781, 89176.796875, 0.000, 0.000, 0.000,0.0,0.0,0.0,0.0,0.0, 12:55:01.801
40464.007813, 39479.726563, 187500.015625, 95565.820313, 60553.667969, 82969.921875, 56198.765625, 88768.070313, 0.000, 0.000, 0.000,0.0,0.0,0.0,0.0,0.0, 12:55:01.802
40988.113281, 40020.394531, 187500.015625, 95348.898438, 60822.605469, 83374.085938, 56248.074219, 88946.953125, 0.000, 0.000, 0.000,0.0,0.0,0.0,0.0,0.0, 12:55:01.803
41464.964844, 40435.511719, 187500.015625, 94944.218750, 61232.691406, 83855.648438, 56339.894531, 89377.960938, 0.000, 0.000, 0.000,0.0,0.0,0.0,0.0,0.0, 12:55:01.803
40995.042969, 39947.484375, 187500.015625, 95147.039063, 60994.488281, 83495.632813, 56294.453125, 89226.640625, 0.000, 0.000, 0.000,0.0,0.0,0.0,0.0,0.0, 12:55:01.803
40470.804688, 39474.542969, 187500.015625, 95604.085938, 60564.105469, 82974.234375, 56192.707031, 88781.882813, 0.000, 0.000, 0.000,0.0,0.0,0.0,0.0,0.0, 12:55:01.804
40854.695313, 39890.957031, 187500.015625, 95497.312500, 60723.695313, 83252.335938, 56218.300781, 88852.695313, 0.000, 0.000, 0.000,0.0,0.0,0.0,0.0,0.0, 12:55:01.804
41460.851563, 40445.726563, 187500.015625, 95043.953125, 61191.718750, 83831.867188, 56320.023438, 89322.640625, 0.288, 0.320, 0.896,0.0,0.0,0.0,0.0,0.0, 12:55:01.805
41105.527344, 40052.402344, 187500.015625, 95136.820313, 61060.628906, 83583.921875, 56296.285156, 89281.421875, 0.000, 0.000, 0.000,0.0,0.0,0.0,0.0,0.0, 12:55:01.805
40464.277344, 39461.871094, 187500.015625, 95630.843750, 60577.785156, 82983.554688, 56188.371094, 88809.375000, 0.000, 0.000, 0.000,0.0,0.0,0.0,0.0,0.0, 12:55:01.805
40758.136719, 39794.531250, 187500.015625, 95630.859375, 60654.652344, 83161.718750, 56201.156250, 88795.859375, 0.000, 0.000, 0.000,0.0,0.0,0.0,0.0,0.0, 12:55:01.805
41408.371094, 40399.750000, 187500.015625, 95171.804688, 61137.070313, 83755.718750, 56297.425781, 89242.445313, 0.000, 0.000, 0.000,0.0,0.0,0.0,0.0,0.0, 12:55:01.806
41215.183594, 40163.265625, 187500.015625, 95145.335938, 61122.808594, 83667.718750, 56295.660156, 89316.492188, 0.000, 0.000, 0.000,0.0,0.0,0.0,0.0,0.0, 12:55:01.807
40542.777344, 39520.609375, 187500.015625, 95624.804688, 60647.007813, 83056.039063, 56193.714844, 88875.828125, 0.000, 0.000, 0.000,0.0,0.0,0.0,0.0,0.0, 12:55:01.808
40613.140625, 39640.214844, 187500.015625, 95758.625000, 60571.101563, 83025.976563, 56170.980469, 88711.968750, 0.000, 0.000, 0.000,0.0,0.0,0.0,0.0,0.0, 12:55:01.809
41319.902344, 40313.984375, 187500.015625, 95323.414063, 61043.082031, 83644.562500, 56267.476563, 89135.781250, 0.000, 0.000, 0.000,0.0,0.0,0.0,0.0,0.0, 12:55:01.809
41308.234375, 40254.125000, 187500.015625, 95177.101563, 61161.769531, 83727.601563, 56293.804688, 89332.562500, 0.000, 0.000, 0.000,0.0,0.0,0.0,0.0,0.0, 12:55:01.810
40651.988281, 39616.320313, 187500.015625, 95612.289063, 60727.496094, 83146.835938, 56197.625000, 88950.085938, 0.282, 0.320, 0.890,0.0,0.0,0.0,0.0,0.0, 12:55:01.810
40556.480469, 39566.585938, 187500.015625, 95854.804688, 60541.867188, 82971.054688, 56152.742188, 88692.523438, 0.000, 0.000, 0.000,0.0,0.0,0.0,0.0,0.0, 12:55:01.810
41208.636719, 40209.246094, 187500.015625, 95479.140625, 60943.304688, 83528.554688, 56228.941406, 89031.937500, 0.000, 0.000, 0.000,0.0,0.0,0.0,0.0,0.0, 12:55:01.811
41367.601563, 40310.812500, 187500.015625, 95223.296875, 61173.792969, 83751.734375, 56274.335938, 89317.726563, 0.000, 0.000, 0.000,0.0,0.0,0.0,0.0,0.0, 12:55:01.811
40733.078125, 39684.941406, 187500.015625, 95592.304688, 60784.250000, 83225.062500, 56182.804688, 89002.679688, 0.000, 0.000, 0.000,0.0,0.0,0.0,0.0,0.0, 12:55:01.811
40451.984375, 39461.199219, 187500.015625, 95939.093750, 60483.953125, 82891.867188, 56110.453125, 88650.234375, 0.000, 0.000, 0.000,0.0,0.0,0.0,0.0,0.0, 12:55:01.812
41083.691406, 40089.035156, 187500.015625, 95640.070313, 60838.406250, 83392.570313, 56183.632813, 88924.648438, 0.000, 0.000, 0.000,0.0,0.0,0.0,0.0,0.0, 12:55:01.812
41425.558594, 40367.070313, 187500.015625, 95284.968750, 61173.593750, 83768.281250, 56257.214844, 89297.921875, 0.000, 0.000, 0.000,0.0,0.0,0.0,0.0,0.0, 12:55:01.814
40856.839844, 39794.195313, 187500.015625, 95564.835938, 60855.304688, 83314.718750, 56186.070313, 89062.062500, 0.000, 0.000, 0.000,0.0,0.0,0.0,0.0,0.0, 12:55:01.815
40480.816406, 39468.394531, 187500.015625, 95971.414063, 60506.257813, 82919.851563, 56117.093750, 88689.375000, 0.000, 0.000, 0.000,0.0,0.0,0.0,0.0,0.0, 12:55:01.816
40970.902344, 39969.140625, 187500.015625, 95772.375000, 60761.070313, 83291.804688, 56172.949219, 88853.078125, 0.282, 0.320, 0.898,0.0,0.0,0.0,0.0,0.0, 12:55:01.816
41467.445313, 40407.371094, 187500.015625, 95349.859375, 61179.492188, 83780.148438, 56267.542969, 89286.406250, 0.000, 0.000, 0.000,0.0,0.0,0.0,0.0,0.0, 12:55:01.817
41033.511719, 39952.468750, 187500.015625, 95512.398438, 60976.363281, 83463.000000, 56223.218750, 89177.335938, 0.000, 0.000, 0.000,0.0,0.0,0.0,0.0,0.0, 12:55:01.817
40485.289063, 39447.093750, 187500.015625, 95969.023438, 60539.003906, 82926.179688, 56126.257813, 88738.859375, 0.000, 0.000, 0.000,0.0,0.0,0.0,0.0,0.0, 12:55:01.818
40829.171875, 39826.761719, 187500.015625, 95894.281250, 60660.441406, 83154.898438, 56143.312500, 88769.929688, 0.000, 0.000, 0.000,0.0,0.0,0.0,0.0,0.0, 12:55:01.818
41494.515625, 40442.441406, 187500.015625, 95418.070313, 61157.343750, 83780.437500, 56246.890625, 89260.882813, 0.000, 0.000, 0.000,0.0,0.0,0.0,0.0,0.0, 12:55:01.819
41181.878906, 40083.160156, 187500.015625, 95461.882813, 61067.421875, 83565.257813, 56226.839844, 89253.015625, 0.000, 0.000, 0.000,0.0,0.0,0.0,0.0,0.0, 12:55:01.820
40553.082031, 39497.140625, 187500.015625, 95934.914063, 60599.511719, 82985.789063, 56126.167969, 88804.593750, 0.000, 0.000, 0.000,0.0,0.0,0.0,0.0,0.0, 12:55:01.820
40740.746094, 39726.984375, 187500.015625, 95970.695313, 60617.972656, 83070.570313, 56127.777344, 88734.500000, 0.000, 0.000, 0.000,0.0,0.0,0.0,0.0,0.0, 12:55:01.821
41415.523438, 40369.304688, 187500.015625, 95507.546875, 61087.003906, 83669.531250, 56223.554688, 89164.390625, 0.280, 0.318, 0.896,0.0,0.0,0.0,0.0,0.0, 12:55:01.821
41310.156250, 40213.492188, 187500.015625, 95424.015625, 61132.667969, 83671.156250, 56238.550781, 89303.039063, 0.000, 0.000, 0.000,0.0,0.0,0.0,0.0,0.0, 12:55:01.822
40622.507813, 39554.359375, 187500.015625, 95880.304688, 60661.871094, 83062.234375, 56138.125000, 88880.656250, 0.000, 0.000, 0.000,0.0,0.0,0.0,0.0,0.0, 12:55:01.822
40663.320313, 39642.628906, 187500.015625, 96030.828125, 60567.527344, 83011.000000, 56116.535156, 88709.625000, 0.000, 0.000, 0.000,0.0,0.0,0.0,0.0,0.0, 12:55:01.823
41360.582031, 40307.210938, 187500.015625, 95595.257813, 61027.390625, 83607.390625, 56210.367188, 89111.015625, 0.000, 0.000, 0.000,0.0,0.0,0.0,0.0,0.0, 12:55:01.823
41403.230469, 40291.343750, 187500.015625, 95397.937500, 61180.433594, 83722.343750, 56244.722656, 89325.750000, 0.000, 0.000, 0.000,0.0,0.0,0.0,0.0,0.0, 12:55:01.823
40751.429688, 39655.503906, 187500.015625, 95798.296875, 60764.152344, 83159.867188, 56154.753906, 88968.296875, 0.000, 0.000, 0.000,0.0,0.0,0.0,0.0,0.0, 12:55:01.824
40589.292969, 39549.085938, 187500.015625, 96061.867188, 60535.851563, 82925.843750, 56102.921875, 88679.914063, 0.000, 0.000, 0.000,0.0,0.0,0.0,0.0,0.0, 12:55:01.824
41242.363281, 40191.496094, 187500.015625, 95694.679688, 60931.007813, 83471.070313, 56181.644531, 88997.515625, 0.000, 0.000, 0.000,0.0,0.0,0.0,0.0,0.0, 12:55:01.825
41478.109375, 40365.460938, 187500.015625, 95389.734375, 61212.417969, 83763.851563, 56243.222656, 89334.062500, 0.000, 0.000, 0.000,0.0,0.0,0.0,0.0,0.0, 12:55:01.826
40860.128906, 39754.074219, 187500.015625, 95725.609375, 60843.480469, 83254.414063, 56166.109375, 89049.007813, 0.274, 0.318, 0.898,0.0,0.0,0.0,0.0,0.0, 12:55:01.826
40549.707031, 39504.089844, 187500.015625, 96082.523438, 60526.464844, 82912.140625, 56096.773438, 88691.875000, 0.000, 0.000, 0.000,0.0,0.0,0.0,0.0,0.0, 12:55:01.827
41129.644531, 40080.164063, 187500.015625, 95808.937500, 60843.949219, 83370.257813, 56161.125000, 88923.304688, 0.000, 0.000, 0.000,0.0,0.0,0.0,0.0,0.0, 12:55:01.827
41534.097656, 40415.910156, 187500.015625, 95424.195313, 61209.289063, 83784.101563, 56245.390625, 89319.734375, 0.000, 0.000, 0.000,0.0,0.0,0.0,0.0,0.0, 12:55:01.827
41017.191406, 39889.210938, 187500.015625, 95660.812500, 60939.054688, 83378.867188, 56192.507813, 89132.203125, 0.000, 0.000, 0.000,0.0,0.0,0.0,0.0,0.0, 12:55:01.828
40576.953125, 39505.457031, 187500.015625, 96079.726563, 60554.652344, 82934.156250, 56110.453125, 88736.804688, 0.000, 0.000, 0.000,0.0,0.0,0.0,0.0,0.0, 12:55:01.828
41035.253906, 39980.832031, 187500.015625, 95907.468750, 60774.234375, 83264.226563, 56150.218750, 88866.640625, 0.000, 0.000, 0.000,0.0,0.0,0.0,0.0,0.0, 12:55:01.830
41580.078125, 40469.195313, 187500.015625, 95458.734375, 61216.062500, 83795.281250, 56249.660156, 89313.968750, 0.000, 0.000, 0.000,0.0,0.0,0.0,0.0,0.0, 12:55:01.831
41149.941406, 40014.136719, 187500.015625, 95589.781250, 61033.695313, 83482.109375, 56218.078125, 89216.070313, 0.000, 0.000, 0.000,0.0,0.0,0.0,0.0,0.0, 12:55:01.831
40570.023438, 39491.550781, 187500.015625, 96058.656250, 60585.718750, 82932.031250, 56123.550781, 88762.843750, 0.276, 0.320, 0.902,0.0,0.0,0.0,0.0,0.0, 12:55:01.831
40899.421875, 39849.960938, 187500.015625, 96003.242188, 60684.292969, 83152.062500, 56140.226563, 88790.046875, 0.000, 0.000, 0.000,0.0,0.0,0.0,0.0,0.0, 12:55:01.832
41528.511719, 40430.972656, 187500.015625, 95534.726563, 61148.871094, 83737.523438, 56238.214844, 89247.804688, 0.000, 0.000, 0.000,0.0,0.0,0.0,0.0,0.0, 12:55:01.833
41273.097656, 40141.093750, 187500.015625, 95540.671875, 61091.785156, 83591.250000, 56227.332031, 89274.406250, 0.000, 0.000, 0.000,0.0,0.0,0.0,0.0,0.0, 12:55:01.833
40654.582031, 39561.894531, 187500.015625, 96000.046875, 60642.316406, 83035.812500, 56132.695313, 88860.562500, 0.000, 0.000, 0.000,0.0,0.0,0.0,0.0,0.0, 12:55:01.834
40788.601563, 39739.320313, 187500.015625, 96068.242188, 60625.238281, 83074.703125, 56128.269531, 88758.484375, 0.000, 0.000, 0.000,0.0,0.0,0.0,0.0,0.0, 12:55:01.835
41474.308594, 40396.687500, 187500.015625, 95608.507813, 61102.000000, 83675.695313, 56230.167969, 89177.781250, 0.000, 0.000, 0.000,0.0,0.0,0.0,0.0,0.0, 12:55:02.255
41400.257813, 40264.699219, 187500.015625, 95491.476563, 61172.921875, 83690.468750, 56248.542969, 89331.132813, 0.000, 0.000, 0.000,0.0,0.0,0.0,0.0,0.0, 12:55:02.257
40704.269531, 39593.230469, 187500.015625, 95947.320313, 60696.718750, 83069.898438, 56142.929688, 88901.468750, 0.000, 0.000, 0.000,0.0,0.0,0.0,0.0,0.0, 12:55:02.258
40686.074219, 39624.656250, 187500.015625, 96136.796875, 60552.304688, 82966.406250, 56104.976563, 88690.351563, 0.000, 0.000, 0.000,0.0,0.0,0.0,0.0,0.0, 12:55:02.258
41378.488281, 40300.910156, 187500.015625, 95716.023438, 60997.550781, 83567.781250, 56194.718750, 89076.820313, 0.290, 0.322, 0.898,0.0,0.0,0.0,0.0,0.0, 12:55:02.258
41486.914063, 40354.039063, 187500.015625, 95481.578125, 61199.722656, 83746.039063, 56241.523438, 89335.960938, 0.000, 0.000, 0.000,0.0,0.0,0.0,0.0,0.0, 12:55:02.259
40824.363281, 39707.000000, 187500.015625, 95866.312500, 60789.992188, 83186.062500, 56150.753906, 88989.421875, 0.000, 0.000, 0.000,0.0,0.0,0.0,0.0,0.0, 12:55:02.259
40593.804688, 39538.804688, 187500.015625, 96165.718750, 60527.335938, 82905.656250, 56085.332031, 88667.710938, 0.000, 0.000, 0.000,0.0,0.0,0.0,0.0,0.0, 12:55:02.259
41243.796875, 40180.500000, 187500.015625, 95821.750000, 60899.382813, 83425.781250, 56149.750000, 88959.312500, 0.000, 0.000, 0.000,0.0,0.0,0.0,0.0,0.0, 12:55:02.260
41562.417969, 40430.750000, 187500.015625, 95480.007813, 61221.136719, 83783.835938, 56220.089844, 89332.765625, 0.000, 0.000, 0.000,0.0,0.0,0.0,0.0,0.0, 12:55:02.260
40963.191406, 39829.644531, 187500.015625, 95782.789063, 60884.429688, 83300.273438, 56150.128906, 89080.773438, 0.000, 0.000, 0.000,0.0,0.0,0.0,0.0,0.0, 12:55:02.260
40606.433594, 39528.523438, 187500.015625, 96159.414063, 60539.339844, 82909.320313, 56074.355469, 88701.507813, 0.000, 0.000, 0.000,0.0,0.0,0.0,0.0,0.0, 12:55:02.260
41160.667969, 40087.875000, 187500.015625, 95904.875000, 60832.148438, 83343.015625, 56134.480469, 88912.664063, 0.000, 0.000, 0.000,0.0,0.0,0.0,0.0,0.0, 12:55:02.261
41596.171875, 40460.566406, 187500.015625, 95489.867188, 61216.867188, 83784.773438, 56214.949219, 89316.609375, 0.000, 0.000, 0.000,0.0,0.0,0.0,0.0,0.0, 12:55:02.261
41117.531250, 39970.257813, 187500.015625, 95683.453125, 60983.425781, 83427.882813, 56166.398438, 89165.531250, 0.292, 0.320, 0.900,0.0,0.0,0.0,0.0,0.0, 12:55:02.262
40631.937500, 39536.210938, 187500.015625, 96115.539063, 60586.769531, 82949.867188, 56085.621094, 88754.906250, 0.000, 0.000, 0.000,0.0,0.0,0.0,0.0,0.0, 12:55:02.262
41036.953125, 39966.972656, 187500.015625, 95977.468750, 60769.609375, 83224.210938, 56119.148438, 88838.773438, 0.000, 0.000, 0.000,0.0,0.0,0.0,0.0,0.0, 12:55:02.262
41610.921875, 40486.785156, 187500.015625, 95515.125000, 61213.468750, 83763.335938, 56215.507813, 89283.281250, 0.000, 0.000, 0.000,0.0,0.0,0.0,0.0,0.0, 12:55:02.262
41257.117188, 40096.750000, 187500.015625, 95599.460938, 61075.781250, 83537.500000, 56194.988281, 89242.328125, 0.000, 0.000, 0.000,0.0,0.0,0.0,0.0,0.0, 12:55:02.263
40648.164063, 39536.121094, 187500.015625, 96070.093750, 60605.500000, 82969.093750, 56094.183594, 88800.484375, 0.000, 0.000, 0.000,0.0,0.0,0.0,0.0,0.0, 12:55:02.263
40920.386719, 39843.480469, 187500.015625, 96054.960938, 60674.835938, 83126.359375, 56105.515625, 88785.867188, 0.000, 0.000, 0.000,0.0,0.0,0.0,0.0,0.0, 12:55:02.263
41560.652344, 40436.023438, 187500.015625, 95585.648438, 61141.718750, 83700.531250, 56205.785156, 89220.585938, 0.000, 0.000, 0.000,0.0,0.0,0.0,0.0,0.0, 12:55:02.264
41379.871094, 40218.656250, 187500.015625, 95543.734375, 61136.242188, 83634.078125, 56209.070313, 89304.359375, 0.000, 0.000, 0.000,0.0,0.0,0.0,0.0,0.0, 12:55:02.264
40715.890625, 39585.632813, 187500.015625, 96003.625000, 60685.296875, 83035.609375, 56114.945313, 88877.484375, 0.298, 0.324, 0.896,0.0,0.0,0.0,0.0,0.0, 12:55:02.264
40794.300781, 39717.281250, 187500.015625, 96113.593750, 60605.433594, 83015.562500, 56095.097656, 88715.789063, 0.000, 0.000, 0.000,0.0,0.0,0.0,0.0,0.0, 12:55:02.265
41549.230469, 40438.351563, 187500.015625, 95643.335938, 61097.328125, 83681.265625, 56205.894531, 89176.570313, 0.000, 0.000, 0.000,0.0,0.0,0.0,0.0,0.0, 12:55:02.265
41518.855469, 40356.968750, 187500.015625, 95477.195313, 61217.222656, 83749.546875, 56235.421875, 89376.171875, 0.000, 0.000, 0.000,0.0,0.0,0.0,0.0,0.0, 12:55:02.266
40836.679688, 39705.347656, 187500.015625, 95898.140625, 60771.640625, 83159.351563, 56137.050781, 88976.164063, 0.000, 0.000, 0.000,0.0,0.0,0.0,0.0,0.0, 12:55:02.266
40716.429688, 39638.269531, 187500.015625, 96122.132813, 60579.664063, 82963.570313, 56091.277344, 88705.953125, 0.000, 0.000, 0.000,0.0,0.0,0.0,0.0,0.0, 12:55:02.266
41399.339844, 40314.476563, 187500.015625, 95714.882813, 61002.714844, 83543.195313, 56175.988281, 89062.445313, 0.000, 0.000, 0.000,0.0,0.0,0.0,0.0,0.0, 12:55:02.267
41558.777344, 40406.519531, 187500.015625, 95440.093750, 61231.617188, 83763.875000, 56226.460938, 89350.601563, 0.000, 0.000, 0.000,0.0,0.0,0.0,0.0,0.0, 12:55:02.267
40921.929688, 39775.507813, 187500.015625, 95796.195313, 60835.210938, 83226.851563, 56136.718750, 89016.960938, 0.000, 0.000, 0.000,0.0,0.0,0.0,0.0,0.0, 12:55:02.267
40685.648438, 39594.078125, 187500.015625, 96104.539063, 60556.281250, 82946.117188, 56071.339844, 88703.210938, 0.000, 0.000, 0.000,0.0,0.0,0.0,0.0,0.0, 12:55:02.268
41331.859375, 40240.605469, 187500.015625, 95765.132813, 60936.417969, 83473.460938, 56145.925781, 89007.679688, 0.286, 0.316, 0.902,0.0,0.0,0.0,0.0,0.0, 12:55:02.268
41646.574219, 40494.183594, 187500.015625, 95391.070313, 61274.085938, 83818.343750, 56216.402344, 89362.156250, 0.000, 0.000, 0.000,0.0,0.0,0.0,0.0,0.0, 12:55:02.268
41046.988281, 39892.363281, 187500.015625, 95660.007813, 60940.195313, 83339.195313, 56139.980469, 89117.164063, 0.000, 0.000, 0.000,0.0,0.0,0.0,0.0,0.0, 12:55:02.269
40643.472656, 39549.980469, 187500.015625, 96051.414063, 60572.578125, 82931.382813, 56064.832031, 88733.492188, 0.000, 0.000, 0.000,0.0,0.0,0.0,0.0,0.0, 12:55:02.269
41157.988281, 40078.488281, 187500.015625, 95820.515625, 60830.808594, 83325.578125, 56115.527344, 88917.562500, 0.000, 0.000, 0.000,0.0,0.0,0.0,0.0,0.0, 12:55:02.269
41651.089844, 40514.906250, 187500.015625, 95374.734375, 61247.957031, 83803.484375, 56200.933594, 89343.968750, 0.000, 0.000, 0.000,0.0,0.0,0.0,0.0,0.0, 12:55:02.269
41204.234375, 40054.480469, 187500.015625, 95524.554688, 61038.410156, 83476.382813, 56162.308594, 89223.984375, 0.000, 0.000, 0.000,0.0,0.0,0.0,0.0,0.0, 12:55:02.270
40662.648438, 39565.023438, 187500.015625, 95964.460938, 60606.394531, 82968.398438, 56074.847656, 88804.351563, 0.000, 0.000, 0.000,0.0,0.0,0.0,0.0,0.0, 12:55:02.270
41010.777344, 39940.597656, 187500.015625, 95863.476563, 60739.789063, 83193.906250, 56099.769531, 88848.875000, 0.000, 0.000, 0.000,0.0,0.0,0.0,0.0,0.0, 12:55:02.271
41642.906250, 40518.437500, 187500.015625, 95381.078125, 61216.777344, 83785.179688, 56203.390625, 89311.664063, 0.282, 0.306, 0.898,0.0,0.0,0.0,0.0,0.0, 12:55:02.271
41313.980469, 40159.847656, 187500.015625, 95418.945313, 61116.351563, 83578.023438, 56188.394531, 89292.578125, 0.000, 0.000, 0.000,0.0,0.0,0.0,0.0,0.0, 12:55:02.272
40718.753906, 39611.761719, 187500.015625, 95869.687500, 60670.253906, 83028.437500, 56100.082031, 88864.875000, 0.000, 0.000, 0.000,0.0,0.0,0.0,0.0,0.0, 12:55:02.272
40942.269531, 39873.343750, 187500.015625, 95878.226563, 60710.375000, 83142.718750, 56113.648438, 88822.320313, 0.000, 0.000, 0.000,0.0,0.0,0.0,0.0,0.0, 12:55:02.273
41640.492188, 40526.574219, 187500.015625, 95387.585938, 61199.007813, 83766.515625, 56213.875000, 89279.992188, 0.000, 0.000, 0.000,0.0,0.0,0.0,0.0,0.0, 12:55:02.273
41507.121094, 40346.929688, 187500.015625, 95292.882813, 61231.238281, 83743.265625, 56228.984375, 89411.242188, 0.000, 0.000, 0.000,0.0,0.0,0.0,0.0,0.0, 12:55:02.273
40823.246094, 39694.281250, 187500.015625, 95735.000000, 60771.621094, 83139.500000, 56132.960938, 88992.554688, 0.000, 0.000, 0.000,0.0,0.0,0.0,0.0,0.0, 12:55:02.274
40844.035156, 39762.457031, 187500.015625, 95874.875000, 60657.804688, 83056.421875, 56103.257813, 88790.828125, 0.000, 0.000, 0.000,0.0,0.0,0.0,0.0,0.0, 12:55:02.274
41559.535156, 40459.203125, 187500.015625, 95419.570313, 61129.941406, 83680.835938, 56202.722656, 89204.289063, 0.000, 0.000, 0.000,0.0,0.0,0.0,0.0,0.0, 12:55:02.274
41619.707031, 40459.136719, 187500.015625, 95208.437500, 61303.234375, 83824.335938, 56249.167969, 89443.945313, 0.000, 0.000, 0.000,0.0,0.0,0.0,0.0,0.0, 12:55:02.274
40936.882813, 39788.808594, 187500.015625, 95609.671875, 60868.179688, 83243.500000, 56164.566406, 89065.867188, 0.296, 0.310, 0.900,0.0,0.0,0.0,0.0,0.0, 12:55:02.275
40798.457031, 39714.578125, 187500.015625, 95849.570313, 60658.855469, 83048.617188, 56119.664063, 88797.468750, 0.000, 0.000, 0.000,0.0,0.0,0.0,0.0,0.0, 12:55:02.276
41456.269531, 40362.242188, 187500.015625, 95457.304688, 61061.656250, 83593.867188, 56199.769531, 89132.695313, 0.000, 0.000, 0.000,0.0,0.0,0.0,0.0,0.0, 12:55:02.276
41668.613281, 40517.320313, 187500.015625, 95146.101563, 61321.136719, 83859.648438, 56259.339844, 89447.968750, 0.000, 0.000, 0.000,0.0,0.0,0.0,0.0,0.0, 12:55:02.276
41041.242188, 39895.046875, 187500.015625, 95473.171875, 60950.031250, 83340.218750, 56181.867188, 89153.773438, 0.000, 0.000, 0.000,0.0,0.0,0.0,0.0,0.0, 12:55:02.277
40737.347656, 39656.308594, 187500.015625, 95808.335938, 60632.613281, 83001.101563, 56110.007813, 88796.906250, 0.000, 0.000, 0.000,0.0,0.0,0.0,0.0,0.0, 12:55:02.277
41354.816406, 40275.988281, 187500.015625, 95494.453125, 60980.093750, 83501.687500, 56180.839844, 89067.140625, 0.000, 0.000, 0.000,0.0,0.0,0.0,0.0,0.0, 12:55:02.278
41744.875000, 40600.667969, 187500.015625, 95087.578125, 61353.726563, 83914.304688, 56264.835938, 89466.851563, 0.000, 0.000, 0.000,0.0,0.0,0.0,0.0,0.0, 12:55:02.278
41173.363281, 40019.164063, 187500.015625, 95323.031250, 61049.183594, 83455.468750, 56197.738281, 89230.062500, 0.000, 0.000, 0.000,0.0,0.0,0.0,0.0,0.0, 12:55:02.278
40738.667969, 39639.164063, 187500.015625, 95728.023438, 60652.148438, 83007.359375, 56106.476563, 88812.867188, 0.000, 0.000, 0.000,0.0,0.0,0.0,0.0,0.0, 12:55:02.279
41210.492188, 40133.875000, 187500.015625, 95528.359375, 60886.441406, 83364.851563, 56152.765625, 88960.765625, 0.298, 0.312, 0.886,0.0,0.0,0.0,0.0,0.0, 12:55:02.279
41732.089844, 40604.734375, 187500.015625, 95070.101563, 61319.347656, 83872.726563, 56240.050781, 89394.125000, 0.000, 0.000, 0.000,0.0,0.0,0.0,0.0,0.0, 12:55:02.279
41339.796875, 40186.132813, 187500.015625, 95184.031250, 61148.781250, 83601.289063, 56205.335938, 89321.414063, 0.000, 0.000, 0.000,0.0,0.0,0.0,0.0,0.0, 12:55:02.279
40766.496094, 39671.371094, 187500.015625, 95631.960938, 60704.964844, 83052.109375, 56111.570313, 88870.914063, 0.000, 0.000, 0.000,0.0,0.0,0.0,0.0,0.0, 12:55:02.280
41102.867188, 40044.890625, 187500.015625, 95546.195313, 60831.699219, 83281.859375, 56135.578125, 88908.617188, 0.000, 0.000, 0.000,0.0,0.0,0.0,0.0,0.0, 12:55:02.280
41721.742188, 40619.085938, 187500.015625, 95053.718750, 61299.367188, 83864.234375, 56232.406250, 89362.828125, 0.000, 0.000, 0.000,0.0,0.0,0.0,0.0,0.0, 12:55:02.280
41412.171875, 40272.746094, 187500.015625, 95055.953125, 61210.851563, 83664.718750, 56209.582031, 89348.054688, 0.000, 0.000, 0.000,0.0,0.0,0.0,0.0,0.0, 12:55:02.281
40757.019531, 39660.195313, 187500.015625, 95518.187500, 60723.964844, 83063.976563, 56097.156250, 88884.953125, 0.000, 0.000, 0.000,0.0,0.0,0.0,0.0,0.0, 12:55:02.281
40955.816406, 39899.964844, 187500.015625, 95554.460938, 60739.542969, 83160.039063, 56098.363281, 88822.117188, 0.000, 0.000, 0.000,0.0,0.0,0.0,0.0,0.0, 12:55:02.282
41653.996094, 40570.070313, 187500.015625, 95062.617188, 61229.382813, 83794.515625, 56201.714844, 89273.625000, 0.288, 0.312, 0.892,0.0,0.0,0.0,0.0,0.0, 12:55:02.282
41567.785156, 40438.148438, 187500.015625, 94926.156250, 61300.238281, 83805.156250, 56218.343750, 89426.757813, 0.000, 0.000, 0.000,0.0,0.0,0.0,0.0,0.0, 12:55:02.282
40896.136719, 39801.882813, 187500.015625, 95350.437500, 60847.214844, 83207.429688, 56120.332031, 89025.296875, 0.000, 0.000, 0.000,0.0,0.0,0.0,0.0,0.0, 12:55:02.282
40912.003906, 39865.808594, 187500.015625, 95499.929688, 60740.394531, 83134.804688, 56097.000000, 88851.507813, 0.000, 0.000, 0.000,0.0,0.0,0.0,0.0,0.0, 12:55:02.283
41621.046875, 40550.980469, 187500.015625, 95045.179688, 61207.992188, 83736.156250, 56192.328125, 89256.054688, 0.000, 0.000, 0.000,0.0,0.0,0.0,0.0,0.0, 12:55:02.284
41710.789063, 40585.515625, 187500.015625, 94790.078125, 61398.160156, 83910.812500, 56237.968750, 89515.914063, 0.000, 0.000, 0.000,0.0,0.0,0.0,0.0,0.0, 12:55:02.284
41011.156250, 39898.062500, 187500.015625, 95165.031250, 60959.441406, 83320.617188, 56145.835938, 89146.781250, 0.000, 0.000, 0.000,0.0,0.0,0.0,0.0,0.0, 12:55:02.284
40838.019531, 39783.355469, 187500.015625, 95432.867188, 60711.070313, 83082.679688, 56091.207031, 88840.179688, 0.000, 0.000, 0.000,0.0,0.0,0.0,0.0,0.0, 12:55:02.285
41522.589844, 40458.289063, 187500.015625, 95045.382813, 61131.101563, 83649.523438, 56185.175781, 89180.414063, 0.000, 0.000, 0.000,0.0,0.0,0.0,0.0,0.0, 12:55:02.285
41789.757813, 40663.789063, 187500.015625, 94688.851563, 61440.988281, 83966.648438, 56262.156250, 89524.343750, 0.000, 0.000, 0.000,0.0,0.0,0.0,0.0,0.0, 12:55:02.285
41186.375000, 40058.707031, 187500.015625, 94971.398438, 61088.992188, 83478.484375, 56194.296875, 89256.906250, 0.290, 0.310, 0.892,0.0,0.0,0.0,0.0,0.0, 12:55:02.285
40815.984375, 39752.933594, 187500.015625, 95327.835938, 60734.292969, 83084.539063, 56122.390625, 88876.859375, 0.000, 0.000, 0.000,0.0,0.0,0.0,0.0,0.0, 12:55:02.286
41378.933594, 40323.058594, 187500.015625, 95044.062500, 61041.718750, 83521.289063, 56191.367188, 89103.570313, 0.000, 0.000, 0.000,0.0,0.0,0.0,0.0,0.0, 12:55:02.286
41782.160156, 40670.359375, 187500.015625, 94620.273438, 61413.023438, 83938.328125, 56274.917969, 89493.210938, 0.000, 0.000, 0.000,0.0,0.0,0.0,0.0,0.0, 12:55:02.286
41291.515625, 40163.312500, 187500.015625, 94806.265625, 61168.117188, 83569.390625, 56225.386719, 89335.562500, 0.000, 0.000, 0.000,0.0,0.0,0.0,0.0,0.0, 12:55:02.287
40785.628906, 39719.183594, 187500.015625, 95228.601563, 60745.871094, 83069.609375, 56133.519531, 88901.554688, 0.000, 0.000, 0.000,0.0,0.0,0.0,0.0,0.0, 12:55:02.288
41192.140625, 40147.417969, 187500.015625, 95074.281250, 60931.343750, 83363.601563, 56171.117188, 88990.828125, 0.000, 0.000, 0.000,0.0,0.0,0.0,0.0,0.0, 12:55:02.288
41774.312500, 40681.089844, 187500.015625, 94597.742188, 61385.843750, 83917.093750, 56272.660156, 89437.976563, 0.000, 0.000, 0.000,0.0,0.0,0.0,0.0,0.0, 12:55:02.288
41409.777344, 40289.285156, 187500.015625, 94665.828125, 61251.957031, 83666.640625, 56248.253906, 89390.546875, 0.000, 0.000, 0.000,0.0,0.0,0.0,0.0,0.0, 12:55:02.289
40804.316406, 39727.027344, 187500.015625, 95119.007813, 60786.437500, 83090.796875, 56149.703125, 88933.046875, 0.292, 0.308, 0.892,0.0,0.0,0.0,0.0,0.0, 12:55:02.289
41065.898438, 40026.070313, 187500.015625, 95085.656250, 60845.894531, 83258.257813, 56169.863281, 88913.601563, 0.000, 0.000, 0.000,0.0,0.0,0.0,0.0,0.0, 12:55:02.289
41743.199219, 40662.671875, 187500.015625, 94587.195313, 61339.441406, 83882.984375, 56280.527344, 89384.195313, 0.000, 0.000, 0.000,0.0,0.0,0.0,0.0,0.0, 12:55:02.290
41540.179688, 40416.601563, 187500.015625, 94533.546875, 61320.867188, 83786.382813, 56280.750000, 89456.218750, 0.000, 0.000, 0.000,0.0,0.0,0.0,0.0,0.0, 12:55:02.290
40886.191406, 39802.308594, 187500.015625, 94977.296875, 60849.558594, 83197.031250, 56182.292969, 89019.687500, 0.000, 0.000, 0.000,0.0,0.0,0.0,0.0,0.0, 12:55:02.290
41002.753906, 39961.140625, 187500.015625, 95055.882813, 60810.152344, 83206.156250, 56175.542969, 88895.500000, 0.000, 0.000, 0.000,0.0,0.0,0.0,0.0,0.0, 12:55:02.291
41724.535156, 40653.886719, 187500.015625, 94572.242188, 61298.250000, 83833.679688, 56283.054688, 89334.265625, 0.000, 0.000, 0.000,0.0,0.0,0.0,0.0,0.0, 12:55:02.291
41682.000000, 40562.335938, 187500.015625, 94392.773438, 61412.644531, 83890.273438, 56316.937500, 89512.609375, 0.000, 0.000, 0.000,0.0,0.0,0.0,0.0,0.0, 12:55:02.291
40992.406250, 39906.511719, 187500.015625, 94805.007813, 60961.832031, 83302.984375, 56221.832031, 89116.023438, 0.000, 0.000, 0.000,0.0,0.0,0.0,0.0,0.0, 12:55:02.291
40912.566406, 39868.378906, 187500.015625, 95004.476563, 60783.218750, 83147.726563, 56183.476563, 88883.320313, 0.000, 0.000, 0.000,0.0,0.0,0.0,0.0,0.0, 12:55:02.292
41611.437500, 40551.046875, 187500.015625, 94579.054688, 61222.343750, 83740.117188, 56282.832031, 89244.992188, 0.288, 0.304, 0.892,0.0,0.0,0.0,0.0,0.0, 12:55:02.292
41753.972656, 40632.453125, 187500.015625, 94294.789063, 61438.281250, 83956.367188, 56330.082031, 89532.367188, 0.000, 0.000, 0.000,0.0,0.0,0.0,0.0,0.0, 12:55:02.292
41093.078125, 39986.375000, 187500.015625, 94647.429688, 61027.992188, 83395.718750, 56236.675781, 89185.710938, 0.000, 0.000, 0.000,0.0,0.0,0.0,0.0,0.0, 12:55:02.292
40846.222656, 39792.027344, 187500.015625, 94952.976563, 60756.980469, 83096.117188, 56179.386719, 88855.687500, 0.000, 0.000, 0.000,0.0,0.0,0.0,0.0,0.0, 12:55:02.293
41491.609375, 40429.675781, 187500.015625, 94611.000000, 61129.292969, 83616.242188, 56263.050781, 89145.367188, 0.000, 0.000, 0.000,0.0,0.0,0.0,0.0,0.0, 12:55:02.293
41816.828125, 40685.226563, 187500.015625, 94237.273438, 61456.097656, 83970.742188, 56342.507813, 89511.070313, 0.000, 0.000, 0.000,0.0,0.0,0.0,0.0,0.0, 12:55:02.293
41279.335938, 40107.230469, 187500.015625, 94500.179688, 61139.304688, 83515.632813, 56277.867188, 89280.085938, 0.000, 0.000, 0.000,0.0,0.0,0.0,0.0,0.0, 12:55:02.294
40883.953125, 39754.296875, 187500.015625, 94889.835938, 60768.691406, 83085.945313, 56198.363281, 88876.726563, 0.000, 0.000, 0.000,0.0,0.0,0.0,0.0,0.0, 12:55:02.294
41387.718750, 40276.636719, 187500.015625, 94658.671875, 61028.148438, 83473.546875, 56250.867188, 89045.414063, 0.000, 0.000, 0.000,0.0,0.0,0.0,0.0,0.0, 12:55:02.294
41876.394531, 40711.980469, 187500.015625, 94215.125000, 61439.085938, 83968.703125, 56342.105469, 89480.554688, 0.000, 0.000, 0.000,0.0,0.0,0.0,0.0,0.0, 12:55:02.294
41412.683594, 40231.484375, 187500.015625, 94371.679688, 61220.105469, 83622.031250, 56299.324219, 89347.742188, 0.290, 0.310, 0.898,0.0,0.0,0.0,0.0,0.0, 12:55:02.295
40881.808594, 39752.710938, 187500.015625, 94808.718750, 60787.488281, 83095.781250, 56202.921875, 88907.656250, 0.000, 0.000, 0.000,0.0,0.0,0.0,0.0,0.0, 12:55:02.295
41280.453125, 40180.566406, 187500.015625, 94687.687500, 60949.046875, 83373.390625, 56235.109375, 88984.328125, 0.000, 0.000, 0.000,0.0,0.0,0.0,0.0,0.0, 12:55:02.296
41888.152344, 40740.722656, 187500.015625, 94200.687500, 61426.101563, 83956.773438, 56337.660156, 89445.937500, 0.000, 0.000, 0.000,0.0,0.0,0.0,0.0,0.0, 12:55:02.297
41583.921875, 40414.656250, 187500.015625, 94225.718750, 61337.812500, 83786.179688, 56321.386719, 89454.960938, 0.000, 0.000, 0.000,0.0,0.0,0.0,0.0,0.0, 12:55:02.297
40959.347656, 39830.113281, 187500.015625, 94675.703125, 60876.515625, 83203.625000, 56225.207031, 89018.187500, 0.000, 0.000, 0.000,0.0,0.0,0.0,0.0,0.0, 12:55:02.297
41176.070313, 40078.398438, 187500.015625, 94680.937500, 60900.855469, 83303.429688, 56227.578125, 88955.625000, 0.000, 0.000, 0.000,0.0,0.0,0.0,0.0,0.0, 12:55:02.298
41839.984375, 40701.230469, 187500.015625, 94195.429688, 61375.453125, 83901.781250, 56328.695313, 89392.023438, 0.000, 0.000, 0.000,0.0,0.0,0.0,0.0,0.0, 12:55:02.298
41672.007813, 40493.917969, 187500.015625, 94110.500000, 61383.968750, 83846.484375, 56333.589844, 89484.312500, 0.000, 0.000, 0.000,0.0,0.0,0.0,0.0,0.0, 12:55:02.298
40986.863281, 39840.128906, 187500.015625, 94557.171875, 60903.828125, 83233.757813, 56226.527344, 89046.015625, 0.288, 0.314, 0.902,0.0,0.0,0.0,0.0,0.0, 12:55:02.299
41040.460938, 39940.824219, 187500.015625, 94685.695313, 60815.765625, 83195.109375, 56206.523438, 88879.007813, 0.000, 0.000, 0.000,0.0,0.0,0.0,0.0,0.0, 12:55:02.734
41733.476563, 40610.859375, 187500.015625, 94233.343750, 61280.414063, 83802.320313, 56309.964844, 89292.039063, 0.000, 0.000, 0.000,0.0,0.0,0.0,0.0,0.0, 12:55:02.735
41755.984375, 40589.941406, 187500.015625, 94032.960938, 61429.765625, 83916.875000, 56346.914063, 89517.171875, 0.000, 0.000, 0.000,0.0,0.0,0.0,0.0,0.0, 12:55:02.736
41123.050781, 39978.375000, 187500.015625, 94421.679688, 61019.703125, 83373.367188, 56260.882813, 89171.546875, 0.000, 0.000, 0.000,0.0,0.0,0.0,0.0,0.0, 12:55:02.736
41038.382813, 39936.664063, 187500.015625, 94643.343750, 60847.636719, 83205.437500, 56225.519531, 88930.632813, 0.000, 0.000, 0.000,0.0,0.0,0.0,0.0,0.0, 12:55:02.736
41689.152344, 40571.523438, 187500.015625, 94244.562500, 61254.574219, 83750.914063, 56313.027344, 89259.718750, 0.000, 0.000, 0.000,0.0,0.0,0.0,0.0,0.0, 12:55:02.737
41846.062500, 40667.523438, 187500.015625, 93946.500000, 61487.859375, 83970.335938, 56366.312500, 89536.750000, 0.000, 0.000, 0.000,0.0,0.0,0.0,0.0,0.0, 12:55:02.737
41180.136719, 40006.359375, 187500.015625, 94294.500000, 61084.722656, 83414.453125, 56278.070313, 89197.625000, 0.000, 0.000, 0.000,0.0,0.0,0.0,0.0,0.0, 12:55:02.737
40930.757813, 39816.570313, 187500.015625, 94625.882813, 60785.878906, 83120.125000, 56212.042969, 88865.031250, 0.000, 0.000, 0.000,0.0,0.0,0.0,0.0,0.0, 12:55:02.737
41533.027344, 40419.484375, 187500.015625, 94315.460938, 61138.812500, 83601.867188, 56289.937500, 89138.015625, 0.292, 0.314, 0.900,0.0,0.0,0.0,0.0,0.0, 12:55:02.738
41856.636719, 40691.886719, 187500.015625, 93937.382813, 61477.062500, 83962.671875, 56362.738281, 89500.046875, 0.000, 0.000, 0.000,0.0,0.0,0.0,0.0,0.0, 12:55:02.738
41324.441406, 40158.773438, 187500.015625, 94177.015625, 61176.921875, 83553.632813, 56300.847656, 89297.492188, 0.000, 0.000, 0.000,0.0,0.0,0.0,0.0,0.0, 12:55:02.738
40890.949219, 39780.941406, 187500.015625, 94580.148438, 60796.472656, 83113.375000, 56218.726563, 88902.585938, 0.000, 0.000, 0.000,0.0,0.0,0.0,0.0,0.0, 12:55:02.739
41349.855469, 40257.726563, 187500.015625, 94385.601563, 61023.480469, 83435.882813, 56264.949219, 89032.179688, 0.000, 0.000, 0.000,0.0,0.0,0.0,0.0,0.0, 12:55:02.739
41864.281250, 40718.039063, 187500.015625, 93936.085938, 61446.417969, 83946.000000, 56360.679688, 89465.156250, 0.000, 0.000, 0.000,0.0,0.0,0.0,0.0,0.0, 12:55:02.739
41425.695313, 40262.085938, 187500.015625, 94068.210938, 61248.718750, 83654.734375, 56324.292969, 89367.187500, 0.000, 0.000, 0.000,0.0,0.0,0.0,0.0,0.0, 12:55:02.739
40871.953125, 39763.191406, 187500.015625, 94517.343750, 60806.777344, 83124.281250, 56228.203125, 88927.328125, 0.000, 0.000, 0.000,0.0,0.0,0.0,0.0,0.0, 12:55:02.740
41186.015625, 40095.273438, 187500.015625, 94448.765625, 60911.453125, 83312.859375, 56248.296875, 88940.250000, 0.000, 0.000, 0.000,0.0,0.0,0.0,0.0,0.0, 12:55:02.740
41802.789063, 40665.957031, 187500.015625, 93976.093750, 61370.824219, 83882.429688, 56343.179688, 89374.187500, 0.290, 0.314, 0.894,0.0,0.0,0.0,0.0,0.0, 12:55:02.740
41545.789063, 40377.753906, 187500.015625, 93980.898438, 61305.960938, 83740.046875, 56325.074219, 89403.265625, 0.000, 0.000, 0.000,0.0,0.0,0.0,0.0,0.0, 12:55:02.740
40931.226563, 39807.023438, 187500.015625, 94436.585938, 60858.031250, 83178.304688, 56229.656250, 88983.679688, 0.000, 0.000, 0.000,0.0,0.0,0.0,0.0,0.0, 12:55:02.741
41116.570313, 40025.312500, 187500.015625, 94474.382813, 60872.648438, 83252.937500, 56234.550781, 88914.992188, 0.000, 0.000, 0.000,0.0,0.0,0.0,0.0,0.0, 12:55:02.741
41788.843750, 40658.402344, 187500.015625, 93998.875000, 61342.503906, 83852.140625, 56338.777344, 89348.812500, 0.000, 0.000, 0.000,0.0,0.0,0.0,0.0,0.0, 12:55:02.741
41672.726563, 40500.285156, 187500.015625, 93883.601563, 61400.039063, 83847.671875, 56363.542969, 89491.062500, 0.000, 0.000, 0.000,0.0,0.0,0.0,0.0,0.0, 12:55:02.741
41000.496094, 39867.687500, 187500.015625, 94322.234375, 60944.242188, 83255.414063, 56268.769531, 89079.765625, 0.000, 0.000, 0.000,0.0,0.0,0.0,0.0,0.0, 12:55:02.742
40992.425781, 39907.339844, 187500.015625, 94488.796875, 60816.726563, 83158.390625, 56241.816406, 88880.726563, 0.000, 0.000, 0.000,0.0,0.0,0.0,0.0,0.0, 12:55:02.742
41673.843750, 40566.335938, 187500.015625, 94059.492188, 61257.703125, 83739.492188, 56336.945313, 89254.781250, 0.000, 0.000, 0.000,0.0,0.0,0.0,0.0,0.0, 12:55:02.742
41780.347656, 40619.578125, 187500.015625, 93822.625000, 61455.738281, 83927.578125, 56388.531250, 89523.585938, 0.000, 0.000, 0.000,0.0,0.0,0.0,0.0,0.0, 12:55:02.742
41084.941406, 39944.777344, 187500.015625, 94211.304688, 61024.417969, 83331.812500, 56294.453125, 89145.031250, 0.294, 0.314, 0.900,0.0,0.0,0.0,0.0,0.0, 12:55:02.743
40897.253906, 39811.628906, 187500.015625, 94489.937500, 60771.933594, 83082.664063, 56241.390625, 88841.007813, 0.000, 0.000, 0.000,0.0,0.0,0.0,0.0,0.0, 12:55:02.743
41525.292969, 40425.519531, 187500.015625, 94139.484375, 61144.355469, 83593.507813, 56319.308594, 89139.890625, 0.000, 0.000, 0.000,0.0,0.0,0.0,0.0,0.0, 12:55:02.743
41797.515625, 40646.734375, 187500.015625, 93818.468750, 61441.187500, 83925.523438, 56393.539063, 89486.101563, 0.000, 0.000, 0.000,0.0,0.0,0.0,0.0,0.0, 12:55:02.743
41225.980469, 40082.375000, 187500.015625, 94118.921875, 61123.054688, 83481.843750, 56335.312500, 89248.367188, 0.000, 0.000, 0.000,0.0,0.0,0.0,0.0,0.0, 12:55:02.744
40882.523438, 39785.300781, 187500.015625, 94481.492188, 60787.601563, 83102.843750, 56261.171875, 88881.867188, 0.000, 0.000, 0.000,0.0,0.0,0.0,0.0,0.0, 12:55:02.744
41427.437500, 40332.605469, 187500.015625, 94220.804688, 61072.652344, 83515.929688, 56321.386719, 89080.773438, 0.000, 0.000, 0.000,0.0,0.0,0.0,0.0,0.0, 12:55:02.744
41838.640625, 40698.277344, 187500.015625, 93817.109375, 61441.792969, 83950.265625, 56404.265625, 89476.039063, 0.000, 0.000, 0.000,0.0,0.0,0.0,0.0,0.0, 12:55:02.744
41343.550781, 40183.785156, 187500.015625, 94023.148438, 61190.738281, 83569.257813, 56352.636719, 89307.710938, 0.000, 0.000, 0.000,0.0,0.0,0.0,0.0,0.0, 12:55:02.745
40875.796875, 39765.449219, 187500.015625, 94450.289063, 60785.097656, 83092.898438, 56270.156250, 88876.437500, 0.294, 0.314, 0.896,0.0,0.0,0.0,0.0,0.0, 12:55:02.745
41302.246094, 40213.179688, 187500.015625, 94299.007813, 60983.199219, 83406.093750, 56317.007813, 88988.703125, 0.000, 0.000, 0.000,0.0,0.0,0.0,0.0,0.0, 12:55:02.745
41827.511719, 40695.843750, 187500.015625, 93853.179688, 61418.925781, 83922.906250, 56414.863281, 89423.093750, 0.000, 0.000, 0.000,0.0,0.0,0.0,0.0,0.0, 12:55:02.746
41484.480469, 40332.203125, 187500.015625, 93944.421875, 61282.714844, 83680.953125, 56382.855469, 89368.218750, 0.000, 0.000, 0.000,0.0,0.0,0.0,0.0,0.0, 12:55:02.746
40908.363281, 39801.371094, 187500.015625, 94403.281250, 60842.945313, 83147.523438, 56285.132813, 88939.804688, 0.000, 0.000, 0.000,0.0,0.0,0.0,0.0,0.0, 12:55:02.746
41211.765625, 40139.730469, 187500.015625, 94363.007813, 60942.183594, 83347.976563, 56305.808594, 88961.664063, 0.000, 0.000, 0.000,0.0,0.0,0.0,0.0,0.0, 12:55:02.746
41831.332031, 40709.207031, 187500.015625, 93890.445313, 61415.484375, 83914.859375, 56406.121094, 89399.015625, 0.000, 0.000, 0.000,0.0,0.0,0.0,0.0,0.0, 12:55:02.747
41579.585938, 40432.738281, 187500.015625, 93876.828125, 61363.359375, 83775.812500, 56398.097656, 89431.984375, 0.000, 0.000, 0.000,0.0,0.0,0.0,0.0,0.0, 12:55:02.747
40924.187500, 39819.386719, 187500.015625, 94338.125000, 60893.792969, 83186.171875, 56295.191406, 89002.789063, 0.000, 0.000, 0.000,0.0,0.0,0.0,0.0,0.0, 12:55:02.747
41052.039063, 39981.570313, 187500.015625, 94429.164063, 60856.109375, 83208.187500, 56285.289063, 88887.453125, 0.000, 0.000, 0.000,0.0,0.0,0.0,0.0,0.0, 12:55:02.747
41721.027344, 40605.363281, 187500.015625, 93987.046875, 61311.816406, 83785.156250, 56383.882813, 89292.531250, 0.290, 0.312, 0.904,0.0,0.0,0.0,0.0,0.0, 12:55:02.748
41667.695313, 40507.773438, 187500.015625, 93858.007813, 61392.507813, 83827.820313, 56404.781250, 89449.687500, 0.000, 0.000, 0.000,0.0,0.0,0.0,0.0,0.0, 12:55:02.748
40997.746094, 39872.828125, 187500.015625, 94291.476563, 60950.566406, 83257.203125, 56309.941406, 89059.609375, 0.000, 0.000, 0.000,0.0,0.0,0.0,0.0,0.0, 12:55:02.748
40947.144531, 39872.804688, 187500.015625, 94497.945313, 60795.109375, 83126.851563, 56272.839844, 88839.375000, 0.000, 0.000, 0.000,0.0,0.0,0.0,0.0,0.0, 12:55:02.748
41620.710938, 40524.382813, 187500.015625, 94096.953125, 61221.628906, 83689.937500, 56359.406250, 89197.625000, 0.000, 0.000, 0.000,0.0,0.0,0.0,0.0,0.0, 12:55:02.749
41708.332031, 40562.132813, 187500.015625, 93863.148438, 61407.996094, 83852.031250, 56400.421875, 89448.570313, 0.000, 0.000, 0.000,0.0,0.0,0.0,0.0,0.0, 12:55:02.749
41097.816406, 39973.500000, 187500.015625, 94238.390625, 61024.617188, 83339.304688, 56314.144531, 89133.632813, 0.000, 0.000, 0.000,0.0,0.0,0.0,0.0,0.0, 12:55:02.749
40887.687500, 39811.964844, 187500.015625, 94546.710938, 60767.304688, 83068.625000, 56260.187500, 88828.468750, 0.000, 0.000, 0.000,0.0,0.0,0.0,0.0,0.0, 12:55:02.749
41489.687500, 40401.402344, 187500.015625, 94229.046875, 61113.980469, 83553.992188, 56335.984375, 89099.343750, 0.000, 0.000, 0.000,0.0,0.0,0.0,0.0,0.0, 12:55:02.750
41789.312500, 40641.238281, 187500.015625, 93889.726563, 61426.859375, 83897.070313, 56402.816406, 89450.132813, 0.000, 0.000, 0.000,0.0,0.0,0.0,0.0,0.0, 12:55:02.750
41213.621094, 40070.195313, 187500.015625, 94182.226563, 61103.253906, 83440.375000, 56330.460938, 89203.078125, 0.288, 0.310, 0.898,0.0,0.0,0.0,0.0,0.0, 12:55:02.750
40829.101563, 39738.425781, 187500.015625, 94580.265625, 60743.253906, 83034.070313, 56247.761719, 88815.992188, 0.000, 0.000, 0.000,0.0,0.0,0.0,0.0,0.0, 12:55:02.750
41337.359375, 40259.894531, 187500.015625, 94362.359375, 61002.089844, 83418.718750, 56299.460938, 88989.601563, 0.000, 0.000, 0.000,0.0,0.0,0.0,0.0,0.0, 12:55:02.751
41805.605469, 40670.429688, 187500.015625, 93948.648438, 61409.070313, 83881.085938, 56387.906250, 89398.281250, 0.000, 0.000, 0.000,0.0,0.0,0.0,0.0,0.0, 12:55:02.751
41340.308594, 40197.621094, 187500.015625, 94133.070313, 61184.902344, 83548.781250, 56342.128906, 89256.101563, 0.000, 0.000, 0.000,0.0,0.0,0.0,0.0,0.0, 12:55:02.751
40814.886719, 39724.792969, 187500.015625, 94584.218750, 60765.406250, 83045.984375, 56258.757813, 88844.468750, 0.000, 0.000, 0.000,0.0,0.0,0.0,0.0,0.0, 12:55:02.752
41214.960938, 40151.914063, 187500.015625, 94471.609375, 60932.910156, 83314.421875, 56295.257813, 88922.296875, 0.000, 0.000, 0.000,0.0,0.0,0.0,0.0,0.0, 12:55:02.752
41780.191406, 40664.460938, 187500.015625, 94017.578125, 61381.734375, 83829.968750, 56391.906250, 89340.726563, 0.000, 0.000, 0.000,0.0,0.0,0.0,0.0,0.0, 12:55:02.752
41405.511719, 40262.152344, 187500.015625, 94106.406250, 61235.261719, 83607.390625, 56357.171875, 89292.351563, 0.000, 0.000, 0.000,0.0,0.0,0.0,0.0,0.0, 12:55:02.753
40788.511719, 39692.406250, 187500.015625, 94593.609375, 60759.570313, 83034.203125, 56250.980469, 88841.406250, 0.292, 0.316, 0.900,0.0,0.0,0.0,0.0,0.0, 12:55:02.753
41064.199219, 39999.652344, 187500.015625, 94597.921875, 60819.050781, 83195.671875, 56262.042969, 88822.476563, 0.000, 0.000, 0.000,0.0,0.0,0.0,0.0,0.0, 12:55:02.753
41734.011719, 40620.515625, 187500.015625, 94130.835938, 61307.882813, 83798.718750, 56368.882813, 89280.375000, 0.000, 0.000, 0.000,0.0,0.0,0.0,0.0,0.0, 12:55:02.753
41541.832031, 40386.335938, 187500.015625, 94090.203125, 61303.546875, 83709.562500, 56372.214844, 89353.132813, 0.000, 0.000, 0.000,0.0,0.0,0.0,0.0,0.0, 12:55:02.754
40872.601563, 39758.410156, 187500.015625, 94559.968750, 60827.968750, 83108.187500, 56271.253906, 88918.187500, 0.000, 0.000, 0.000,0.0,0.0,0.0,0.0,0.0, 12:55:02.754
40939.273438, 39875.109375, 187500.015625, 94691.710938, 60750.117188, 83087.171875, 56251.425781, 88767.757813, 0.000, 0.000, 0.000,0.0,0.0,0.0,0.0,0.0, 12:55:02.754
41657.390625, 40559.699219, 187500.015625, 94244.632813, 61233.292969, 83716.109375, 56360.726563, 89203.640625, 0.000, 0.000, 0.000,0.0,0.0,0.0,0.0,0.0, 12:55:02.754
41608.910156, 40461.617188, 187500.015625, 94086.734375, 61338.792969, 83759.671875, 56392.265625, 89376.109375, 0.000, 0.000, 0.000,0.0,0.0,0.0,0.0,0.0, 12:55:02.754
40930.246094, 39806.847656, 187500.015625, 94519.734375, 60881.746094, 83174.101563, 56294.968750, 88978.539063, 0.000, 0.000, 0.000,0.0,0.0,0.0,0.0,0.0, 12:55:02.755
40868.351563, 39795.066406, 187500.015625, 94758.296875, 60700.675781, 83036.414063, 56254.289063, 88747.062500, 0.000, 0.000, 0.000,0.0,0.0,0.0,0.0,0.0, 12:55:02.755
41520.710938, 40440.339844, 187500.015625, 94374.539063, 61118.964844, 83586.828125, 56335.984375, 89091.859375, 0.296, 0.320, 0.896,0.0,0.0,0.0,0.0,0.0, 12:55:02.755
41691.613281, 40551.382813, 187500.015625, 94101.781250, 61357.035156, 83816.312500, 56388.734375, 89376.976563, 0.000, 0.000, 0.000,0.0,0.0,0.0,0.0,0.0, 12:55:02.755
41066.859375, 39934.988281, 187500.015625, 94459.898438, 60974.910156, 83297.484375, 56303.460938, 89066.937500, 0.000, 0.000, 0.000,0.0,0.0,0.0,0.0,0.0, 12:55:02.755
40799.421875, 39717.996094, 187500.015625, 94801.210938, 60682.683594, 82974.453125, 56235.445313, 88727.171875, 0.000, 0.000, 0.000,0.0,0.0,0.0,0.0,0.0, 12:55:02.755
41402.113281, 40323.640625, 187500.015625, 94503.085938, 61026.140625, 83459.265625, 56307.707031, 88985.687500, 0.000, 0.000, 0.000,0.0,0.0,0.0,0.0,0.0, 12:55:02.756
41761.304688, 40626.460938, 187500.015625, 94133.117188, 61379.632813, 83862.265625, 56385.648438, 89376.953125, 0.000, 0.000, 0.000,0.0,0.0,0.0,0.0,0.0, 12:55:02.756
41231.078125, 40088.390625, 187500.015625, 94386.070313, 61095.093750, 83454.437500, 56323.289063, 89179.296875, 0.000, 0.000, 0.000,0.0,0.0,0.0,0.0,0.0, 12:55:02.756
40771.414063, 39683.554688, 187500.015625, 94802.710938, 60706.261719, 82980.828125, 56236.652344, 88759.578125, 0.000, 0.000, 0.000,0.0,0.0,0.0,0.0,0.0, 12:55:02.757
41219.675781, 40145.320313, 187500.015625, 94625.640625, 60915.050781, 83297.546875, 56273.843750, 88874.218750, 0.000, 0.000, 0.000,0.0,0.0,0.0,0.0,0.0, 12:55:02.757
41754.128906, 40626.664063, 187500.015625, 94195.632813, 61347.847656, 83824.562500, 56365.667969, 89317.453125, 0.276, 0.312, 0.898,0.0,0.0,0.0,0.0,0.0, 12:55:02.757
41304.347656, 40158.683594, 187500.015625, 94347.515625, 61155.152344, 83503.898438, 56323.644531, 89214.390625, 0.000, 0.000, 0.000,0.0,0.0,0.0,0.0,0.0, 12:55:02.757
40722.796875, 39626.980469, 187500.015625, 94820.390625, 60689.230469, 82924.882813, 56216.222656, 88738.234375, 0.000, 0.000, 0.000,0.0,0.0,0.0,0.0,0.0, 12:55:02.758
41115.207031, 40042.523438, 187500.015625, 94744.617188, 60834.449219, 83188.789063, 56243.355469, 88795.679688, 0.000, 0.000, 0.000,0.0,0.0,0.0,0.0,0.0, 12:55:02.758
41759.070313, 40634.933594, 187500.015625, 94274.382813, 61314.207031, 83794.273438, 56343.359375, 89274.203125, 0.000, 0.000, 0.000,0.0,0.0,0.0,0.0,0.0, 12:55:02.758
41451.597656, 40289.824219, 187500.015625, 94310.585938, 61229.496094, 83609.265625, 56329.054688, 89281.937500, 0.000, 0.000, 0.000,0.0,0.0,0.0,0.0,0.0, 12:55:02.759
40792.246094, 39680.761719, 187500.015625, 94795.015625, 60742.339844, 83001.523438, 56220.738281, 88814.320313, 0.000, 0.000, 0.000,0.0,0.0,0.0,0.0,0.0, 12:55:02.759
41029.105469, 39953.765625, 187500.015625, 94833.281250, 60774.660156, 83127.945313, 56223.332031, 88765.617188, 0.000, 0.000, 0.000,0.0,0.0,0.0,0.0,0.0, 12:55:02.759
41696.820313, 40583.906250, 187500.015625, 94371.210938, 61260.070313, 83726.773438, 56324.851563, 89207.398438, 0.000, 0.000, 0.000,0.0,0.0,0.0,0.0,0.0, 12:55:02.760
41544.871094, 40391.792969, 187500.015625, 94292.593750, 61291.878906, 83683.296875, 56334.218750, 89315.421875, 0.000, 0.000, 0.000,0.0,0.0,0.0,0.0,0.0, 12:55:02.760
40872.218750, 39758.363281, 187500.015625, 94748.390625, 60831.699219, 83094.796875, 56233.277344, 88897.085938, 0.288, 0.310, 0.898,0.0,0.0,0.0,0.0,0.0, 12:55:02.760
40851.410156, 39779.980469, 187500.015625, 94925.796875, 60693.476563, 82984.914063, 56199.929688, 88686.289063, 0.000, 0.000, 0.000,0.0,0.0,0.0,0.0,0.0, 12:55:02.760
41552.875000, 40450.710938, 187500.015625, 94510.703125, 61130.074219, 83576.453125, 56296.152344, 89070.445313, 0.000, 0.000, 0.000,0.0,0.0,0.0,0.0,0.0, 12:55:02.761
41630.660156, 40478.695313, 187500.015625, 94309.335938, 61303.835938, 83734.031250, 56342.578125, 89320.742188, 0.000, 0.000, 0.000,0.0,0.0,0.0,0.0,0.0, 12:55:02.761
40982.683594, 39845.492188, 187500.015625, 94711.242188, 60887.804688, 83177.968750, 56250.285156, 88968.187500, 0.000, 0.000, 0.000,0.0,0.0,0.0,0.0,0.0, 12:55:02.761
40858.851563, 39772.515625, 187500.015625, 94975.781250, 60684.066406, 82989.546875, 56205.226563, 88705.148438, 0.000, 0.000, 0.000,0.0,0.0,0.0,0.0,0.0, 12:55:02.761
41510.472656, 40413.898438, 187500.015625, 94611.960938, 61090.175781, 83526.429688, 56293.582031, 89030.546875, 0.000, 0.000, 0.000,0.0,0.0,0.0,0.0,0.0, 12:55:02.761
41748.117188, 40603.371094, 187500.015625, 94299.570313, 61365.394531, 83829.187500, 56355.988281, 89367.726563, 0.000, 0.000, 0.000,0.0,0.0,0.0,0.0,0.0, 12:55:02.761
41125.398438, 39989.281250, 187500.015625, 94622.554688, 61009.105469, 83324.640625, 56275.746094, 89092.820313, 0.000, 0.000, 0.000,0.0,0.0,0.0,0.0,0.0, 12:55:02.761
40770.316406, 39687.128906, 187500.015625, 94991.804688, 60660.976563, 82930.960938, 56193.421875, 88704.460938, 0.000, 0.000, 0.000,0.0,0.0,0.0,0.0,0.0, 12:55:02.762
41339.238281, 40260.609375, 187500.015625, 94728.585938, 60962.457031, 83378.421875, 56255.515625, 88927.773438, 0.292, 0.312, 0.894,0.0,0.0,0.0,0.0,0.0, 12:55:02.762
41789.000000, 40648.812500, 187500.015625, 94324.468750, 61363.269531, 83844.695313, 56349.906250, 89357.796875, 0.000, 0.000, 0.000,0.0,0.0,0.0,0.0,0.0, 12:55:02.762
41262.906250, 40118.160156, 187500.015625, 94542.109375, 61102.449219, 83434.296875, 56293.179688, 89175.835938, 0.000, 0.000, 0.000,0.0,0.0,0.0,0.0,0.0, 12:55:02.762
40757.421875, 39673.808594, 187500.015625, 94975.687500, 60677.093750, 82930.867188, 56194.832031, 88727.882813, 0.000, 0.000, 0.000,0.0,0.0,0.0,0.0,0.0, 12:55:02.762
41190.664063, 40123.882813, 187500.015625, 94820.898438, 60872.984375, 83248.781250, 56231.601563, 88830.320313, 0.000, 0.000, 0.000,0.0,0.0,0.0,0.0,0.0, 12:55:02.762
41729.902344, 40606.949219, 187500.015625, 94374.023438, 61307.792969, 83774.289063, 56324.070313, 89270.046875, 0.000, 0.000, 0.000,0.0,0.0,0.0,0.0,0.0, 12:55:02.762
41328.867188, 40192.503906, 187500.015625, 94488.625000, 61141.472656, 83498.757813, 56286.808594, 89190.500000, 0.000, 0.000, 0.000,0.0,0.0,0.0,0.0,0.0, 12:55:02.763
40782.769531, 39698.105469, 187500.015625, 94946.093750, 60714.062500, 82983.617188, 56196.777344, 88770.664063, 0.000, 0.000, 0.000,0.0,0.0,0.0,0.0,0.0, 12:55:02.763
41085.902344, 40022.988281, 187500.015625, 94902.062500, 60814.535156, 83170.656250, 56218.011719, 88785.171875, 0.000, 0.000, 0.000,0.0,0.0,0.0,0.0,0.0, 12:55:02.763
41729.902344, 40620.406250, 187500.015625, 94426.531250, 61294.089844, 83765.101563, 56316.648438, 89243.273438, 0.286, 0.316, 0.896,0.0,0.0,0.0,0.0,0.0, 12:55:02.763
41468.742188, 40328.828125, 187500.015625, 94418.726563, 61235.460938, 83616.710938, 56296.421875, 89273.179688, 0.000, 0.000, 0.000,0.0,0.0,0.0,0.0,0.0, 12:55:02.763
40841.753906, 39749.917969, 187500.015625, 94874.031250, 60781.074219, 83051.968750, 56190.429688, 88852.898438, 0.000, 0.000, 0.000,0.0,0.0,0.0,0.0,0.0, 12:55:02.763
40956.105469, 39893.214844, 187500.015625, 94956.914063, 60744.574219, 83061.937500, 56177.398438, 88736.843750, 0.000, 0.000, 0.000,0.0,0.0,0.0,0.0,0.0, 12:55:02.763
41630.859375, 40532.339844, 187500.015625, 94508.156250, 61201.957031, 83646.750000, 56274.136719, 89142.820313, 0.000, 0.000, 0.000,0.0,0.0,0.0,0.0,0.0, 12:55:02.764
41597.980469, 40458.867188, 187500.015625, 94369.218750, 61303.613281, 83718.476563, 56301.515625, 89329.390625, 0.000, 0.000, 0.000,0.0,0.0,0.0,0.0,0.0, 12:55:02.764
40915.984375, 39801.816406, 187500.015625, 94801.656250, 60844.664063, 83116.882813, 56200.152344, 88922.164063, 0.000, 0.000, 0.000,0.13579145,0.2755052,0.27140468,0.25399262,0.16073157, 12:55:03.215
40879.015625, 39810.378906, 187500.015625, 94995.601563, 60692.851563, 82991.781250, 56162.621094, 88699.562500, 0.000, 0.000, 0.000,0.11416996,0.24352278,0.24355985,0.23788963,0.14671206, 12:55:03.216
41594.382813, 40495.527344, 187500.015625, 94577.046875, 61148.246094, 83597.445313, 56262.625000, 89098.789063, 0.000, 0.000, 0.000,0.11416996,0.24352278,0.24355985,0.23788963,0.14671206, 12:55:03.217
41687.769531, 40540.429688, 187500.015625, 94334.101563, 61355.894531, 83780.593750, 56314.546875, 89369.289063, 0.000, 0.000, 0.000,0.11416996,0.24352278,0.24355985,0.23788963,0.14671206, 12:55:03.218
41045.601563, 39917.687500, 187500.015625, 94704.562500, 60952.019531, 83241.781250, 56226.304688, 89033.765625, 0.280, 0.318, 0.900,0.11416996,0.24352278,0.24355985,0.23788963,0.14671206, 12:55:03.218
40835.628906, 39756.355469, 187500.015625, 94997.976563, 60692.382813, 82970.054688, 56163.808594, 88723.679688, 0.000, 0.000, 0.000,0.11416996,0.24352278,0.24355985,0.23788963,0.14671206, 12:55:03.218
41470.730469, 40386.449219, 187500.015625, 94657.734375, 61065.320313, 83490.734375, 56246.398438, 89026.414063, 0.000, 0.000, 0.000,0.11416996,0.24352278,0.24355985,0.23788963,0.14671206, 12:55:03.218
41787.007813, 40646.871094, 187500.015625, 94306.585938, 61402.183594, 83853.882813, 56329.500000, 89407.312500, 0.000, 0.000, 0.000,0.11416996,0.24352278,0.24355985,0.23788963,0.14671206, 12:55:03.218
41190.843750, 40058.527344, 187500.015625, 94594.343750, 61068.917969, 83369.140625, 56254.800781, 89141.390625, 0.000, 0.000, 0.000,0.11416996,0.24352278,0.24355985,0.23788963,0.14671206, 12:55:03.219
40812.226563, 39736.214844, 187500.015625, 94979.687500, 60707.066406, 82957.804688, 56172.503906, 88752.671875, 0.000, 0.000, 0.000,0.11416996,0.24352278,0.24355985,0.23788963,0.14671206, 12:55:03.219
41360.941406, 40287.812500, 187500.015625, 94737.421875, 60994.710938, 83380.875000, 56239.625000, 88970.937500, 0.000, 0.000, 0.000,0.11416996,0.24352278,0.24355985,0.23788963,0.14671206, 12:55:03.219
41792.640625, 40667.613281, 187500.015625, 94325.382813, 61386.960938, 83837.726563, 56336.140625, 89386.656250, 0.000, 0.000, 0.000,0.11416996,0.24352278,0.24355985,0.23788963,0.14671206, 12:55:03.219
41320.214844, 40181.281250, 187500.015625, 94512.429688, 61158.863281, 83492.125000, 56294.585938, 89247.671875, 0.000, 0.000, 0.000,0.11416996,0.24352278,0.24355985,0.23788963,0.14671206, 12:55:03.220
40819.917969, 39738.761719, 187500.015625, 94944.414063, 60746.898438, 83006.281250, 56207.660156, 88833.023438, 0.294, 0.322, 0.898,0.11416996,0.24352278,0.24355985,0.23788963,0.14671206, 12:55:03.220
41197.324219, 40134.613281, 187500.015625, 94818.664063, 60906.132813, 83267.109375, 56243.156250, 88908.351563, 0.000, 0.000, 0.000,0.11416996,0.24352278,0.24355985,0.23788963,0.14671206, 12:55:03.220
41765.550781, 40661.777344, 187500.015625, 94361.281250, 61353.589844, 83815.281250, 56347.515625, 89349.976563, 0.000, 0.000, 0.000,0.11416996,0.24352278,0.24355985,0.23788963,0.14671206, 12:55:03.221
41428.265625, 40293.531250, 187500.015625, 94432.476563, 61234.992188, 83597.687500, 56325.253906, 89320.140625, 0.000, 0.000, 0.000,0.11416996,0.24352278,0.24355985,0.23788963,0.14671206, 12:55:03.221
40790.457031, 39700.699219, 187500.015625, 94908.656250, 60752.171875, 82993.390625, 56216.109375, 88842.171875, 0.000, 0.000, 0.000,0.11416996,0.24352278,0.24355985,0.23788963,0.14671206, 12:55:03.221
41064.488281, 40012.214844, 187500.015625, 94901.992188, 60816.234375, 83150.859375, 56228.359375, 88821.156250, 0.000, 0.000, 0.000,0.11416996,0.24352278,0.24355985,0.23788963,0.14671206, 12:55:03.221
41714.523438, 40621.566406, 187500.015625, 94433.789063, 61282.824219, 83729.273438, 56328.917969, 89255.898438, 0.000, 0.000, 0.000,0.11416996,0.24352278,0.24355985,0.23788963,0.14671206, 12:55:03.221
41550.593750, 40416.109375, 187500.015625, 94382.875000, 61285.886719, 83671.429688, 56333.257813, 89343.585938, 0.000, 0.000, 0.000,0.11416996,0.24352278,0.24355985,0.23788963,0.14671206, 12:55:03.221
40877.472656, 39778.035156, 187500.015625, 94840.328125, 60815.406250, 83081.585938, 56229.855469, 88912.601563, 0.000, 0.000, 0.000,0.11416996,0.24352278,0.24355985,0.23788963,0.14671206, 12:55:03.222
40961.984375, 39901.906250, 187500.015625, 94956.531250, 60742.675781, 83064.375000, 56211.148438, 88771.875000, 0.000, 0.000, 0.000,0.11416996,0.24352278,0.24355985,0.23788963,0.14671206, 12:55:03.222
41654.957031, 40559.339844, 187500.015625, 94509.851563, 61215.972656, 83662.664063, 56315.218750, 89188.148438, 0.296, 0.320, 0.904,0.11416996,0.24352278,0.24355985,0.23788963,0.14671206, 12:55:03.222
41637.968750, 40500.441406, 187500.015625, 94344.945313, 61329.945313, 83735.578125, 56349.976563, 89377.046875, 0.000, 0.000, 0.000,0.11416996,0.24352278,0.24355985,0.23788963,0.14671206, 12:55:03.222
40982.726563, 39864.984375, 187500.015625, 94762.140625, 60899.761719, 83161.359375, 56258.019531, 88995.726563, 0.000, 0.000, 0.000,0.11416996,0.24352278,0.24355985,0.23788963,0.14671206, 12:55:03.222
40903.085938, 39828.414063, 187500.015625, 94986.773438, 60718.265625, 82995.687500, 56211.191406, 88749.093750, 0.000, 0.000, 0.000,0.11416996,0.24352278,0.24355985,0.23788963,0.14671206, 12:55:03.222
41554.371094, 40464.390625, 187500.015625, 94597.695313, 61122.453125, 83546.234375, 56295.480469, 89090.382813, 0.000, 0.000, 0.000,0.11416996,0.24352278,0.24355985,0.23788963,0.14671206, 12:55:03.222
41718.054688, 40581.914063, 187500.015625, 94326.148438, 61355.089844, 83782.226563, 56352.566406, 89375.125000, 0.000, 0.000, 0.000,0.11416996,0.24352278,0.24355985,0.23788963,0.14671206, 12:55:03.223
41112.656250, 39985.660156, 187500.015625, 94666.343750, 60990.464844, 83280.945313, 56271.902344, 89084.710938, 0.000, 0.000, 0.000,0.11416996,0.24352278,0.24355985,0.23788963,0.14671206, 12:55:03.223
40826.039063, 39743.769531, 187500.015625, 94995.757813, 60690.281250, 82940.031250, 56203.437500, 88735.125000, 0.000, 0.000, 0.000,0.11416996,0.24352278,0.24355985,0.23788963,0.14671206, 12:55:03.224
41416.617188, 40331.308594, 187500.015625, 94695.640625, 61022.539063, 83411.453125, 56274.070313, 88979.812500, 0.000, 0.000, 0.000,0.11416996,0.24352278,0.24355985,0.23788963,0.14671206, 12:55:03.224
41783.097656, 40641.816406, 187500.015625, 94322.992188, 61381.171875, 83815.414063, 56358.335938, 89373.671875, 0.000, 0.000, 0.000,0.11416996,0.24352278,0.24355985,0.23788963,0.14671206, 12:55:03.224
41207.941406, 40066.976563, 187500.015625, 94586.390625, 61063.644531, 83356.960938, 56284.843750, 89137.031250, 0.286, 0.316, 0.906,0.11416996,0.24352278,0.24355985,0.23788963,0.14671206, 12:55:03.224
40807.847656, 39715.898438, 187500.015625, 94982.953125, 60699.667969, 82935.046875, 56201.335938, 88741.320313, 0.000, 0.000, 0.000,0.11416996,0.24352278,0.24355985,0.23788963,0.14671206, 12:55:03.225
41277.097656, 40195.566406, 187500.015625, 94784.710938, 60932.171875, 83283.109375, 56248.074219, 88886.804688, 0.000, 0.000, 0.000,0.11416996,0.24352278,0.24355985,0.23788963,0.14671206, 12:55:03.225
41771.878906, 40631.335938, 187500.015625, 94355.070313, 61341.812500, 83765.570313, 56335.156250, 89304.960938, 0.000, 0.000, 0.000,0.11416996,0.24352278,0.24355985,0.23788963,0.14671206, 12:55:03.225
41380.656250, 40223.101563, 187500.015625, 94492.328125, 61160.917969, 83494.312500, 56296.062500, 89219.914063, 0.000, 0.000, 0.000,0.11416996,0.24352278,0.24355985,0.23788963,0.14671206, 12:55:03.225
40845.039063, 39736.125000, 187500.015625, 94926.648438, 60740.148438, 82987.937500, 56203.972656, 88814.343750, 0.000, 0.000, 0.000,0.11416996,0.24352278,0.24355985,0.23788963,0.14671206, 12:55:03.225
41179.781250, 40096.144531, 187500.015625, 94837.421875, 60868.269531, 83200.296875, 56231.199219, 88850.570313, 0.000, 0.000, 0.000,0.11416996,0.24352278,0.24355985,0.23788963,0.14671206, 12:55:03.225
41805.046875, 40671.054688, 187500.015625, 94365.085938, 61344.671875, 83789.359375, 56339.312500, 89309.789063, 0.000, 0.000, 0.000,0.11416996,0.24352278,0.24355985,0.23788963,0.14671206, 12:55:03.226
41517.738281, 40357.996094, 187500.015625, 94390.562500, 61264.832031, 83625.515625, 56326.593750, 89322.734375, 0.000, 0.000, 0.000,0.11416996,0.24352278,0.24355985,0.23788963,0.14671206, 12:55:03.226
40910.933594, 39797.414063, 187500.015625, 94842.648438, 60810.199219, 83057.937500, 56222.125000, 88888.031250, 0.292, 0.318, 0.908,0.11416996,0.24352278,0.24355985,0.23788963,0.14671206, 12:55:03.226
41120.367188, 40033.785156, 187500.015625, 94864.507813, 60832.101563, 83146.343750, 56223.062500, 88821.046875, 0.000, 0.000, 0.000,0.11416996,0.24352278,0.24355985,0.23788963,0.14671206, 12:55:03.226
41793.492188, 40665.644531, 187500.015625, 94393.250000, 61304.707031, 83742.953125, 56331.468750, 89256.796875, 0.000, 0.000, 0.000,0.11416996,0.24352278,0.24355985,0.23788963,0.14671206, 12:55:03.227
41646.328125, 40482.046875, 187500.015625, 94304.890625, 61335.531250, 83704.062500, 56342.531250, 89365.960938, 0.000, 0.000, 0.000,0.11416996,0.24352278,0.24355985,0.23788963,0.14671206, 12:55:03.227
40958.921875, 39830.738281, 187500.015625, 94752.953125, 60860.468750, 83095.156250, 56234.574219, 88930.500000, 0.000, 0.000, 0.000,0.11416996,0.24352278,0.24355985,0.23788963,0.14671206, 12:55:03.227
40998.171875, 39908.613281, 187500.015625, 94896.562500, 60758.675781, 83046.585938, 56211.082031, 88765.437500, 0.000, 0.000, 0.000,0.11416996,0.24352278,0.24355985,0.23788963,0.14671206, 12:55:03.227
41641.343750, 40524.761719, 187500.015625, 94474.382813, 61182.957031, 83600.976563, 56295.570313, 89128.718750, 0.000, 0.000, 0.000,0.11416996,0.24352278,0.24355985,0.23788963,0.14671206, 12:55:03.227
41725.164063, 40563.250000, 187500.015625, 94261.460938, 61358.867188, 83768.750000, 56343.917969, 89375.078125, 0.000, 0.000, 0.000,0.11416996,0.24352278,0.24355985,0.23788963,0.14671206, 12:55:03.227
41058.500000, 39923.367188, 187500.015625, 94654.335938, 60942.500000, 83199.468750, 56251.695313, 89014.726563, 0.000, 0.000, 0.000,0.11416996,0.24352278,0.24355985,0.23788963,0.14671206, 12:55:03.227
40914.308594, 39824.304688, 187500.015625, 94909.835938, 60728.101563, 83000.273438, 56203.371094, 88746.992188, 0.000, 0.000, 0.000,0.11416996,0.24352278,0.24355985,0.23788963,0.14671206, 12:55:03.228
41561.679688, 40453.726563, 187500.015625, 94540.632813, 61119.257813, 83537.828125, 56287.257813, 89076.257813, 0.292, 0.316, 0.898,0.11416996,0.24352278,0.24355985,0.23788963,0.14671206, 12:55:03.228
41779.253906, 40617.945313, 187500.015625, 94238.531250, 61376.101563, 83801.648438, 56341.593750, 89383.570313, 0.000, 0.000, 0.000,0.11416996,0.24352278,0.24355985,0.23788963,0.14671206, 12:55:03.228
41189.257813, 40029.246094, 187500.015625, 94554.242188, 61023.410156, 83307.117188, 56259.070313, 89103.078125, 0.000, 0.000, 0.000,0.11416996,0.24352278,0.24355985,0.23788963,0.14671206, 12:55:03.228
40896.785156, 39787.957031, 187500.015625, 94894.460938, 60714.554688, 82971.882813, 56193.335938, 88753.296875, 0.000, 0.000, 0.000,0.11416996,0.24352278,0.24355985,0.23788963,0.14671206, 12:55:03.228
41478.511719, 40363.046875, 187500.015625, 94607.242188, 61040.691406, 83428.265625, 56269.171875, 89000.640625, 0.000, 0.000, 0.000,0.11416996,0.24352278,0.24355985,0.23788963,0.14671206, 12:55:03.228
41852.722656, 40686.589844, 187500.015625, 94213.359375, 61397.625000, 83825.117188, 56348.433594, 89374.140625, 0.000, 0.000, 0.000,0.11416996,0.24352278,0.24355985,0.23788963,0.14671206, 12:55:03.228
41315.386719, 40152.335938, 187500.015625, 94435.398438, 61124.105469, 83422.046875, 56287.433594, 89182.023438, 0.000, 0.000, 0.000,0.11416996,0.24352278,0.24355985,0.23788963,0.14671206, 12:55:03.229
40858.339844, 39743.410156, 187500.015625, 94852.062500, 60730.449219, 82951.812500, 56198.964844, 88763.289063, 0.000, 0.000, 0.000,0.11416996,0.24352278,0.24355985,0.23788963,0.14671206, 12:55:03.229
41302.402344, 40194.671875, 187500.015625, 94683.546875, 60933.066406, 83260.359375, 56241.769531, 88876.703125, 0.000, 0.000, 0.000,0.11416996,0.24352278,0.24355985,0.23788963,0.14671206, 12:55:03.229
41805.070313, 40653.730469, 187500.015625, 94242.460938, 61347.960938, 83774.265625, 56334.351563, 89298.726563, 0.286, 0.320, 0.900,0.11416996,0.24352278,0.24355985,0.23788963,0.14671206, 12:55:03.229
41432.308594, 40266.375000, 187500.015625, 94347.109375, 61197.085938, 83531.640625, 56304.871094, 89245.976563, 0.000, 0.000, 0.000,0.11416996,0.24352278,0.24355985,0.23788963,0.14671206, 12:55:03.229
40908.296875, 39785.320313, 187500.015625, 94781.539063, 60777.832031, 83029.039063, 56215.910156, 88850.882813, 0.000, 0.000, 0.000,0.11416996,0.24352278,0.24355985,0.23788963,0.14671206, 12:55:03.230
41215.027344, 40108.328125, 187500.015625, 94715.984375, 60882.820313, 83220.031250, 56241.031250, 88870.601563, 0.000, 0.000, 0.000,0.11416996,0.24352278,0.24355985,0.23788963,0.14671206, 12:55:03.230
41846.957031, 40697.539063, 187500.015625, 94237.343750, 61357.457031, 83800.664063, 56345.906250, 89317.367188, 0.000, 0.000, 0.000,0.11416996,0.24352278,0.24355985,0.23788963,0.14671206, 12:55:03.230
41586.000000, 40408.398438, 187500.015625, 94225.023438, 61307.613281, 83659.695313, 56336.496094, 89349.640625, 0.000, 0.000, 0.000,0.11416996,0.24352278,0.24355985,0.23788963,0.14671206, 12:55:03.230
40948.773438, 39816.835938, 187500.015625, 94674.875000, 60835.433594, 83082.703125, 56227.980469, 88913.898438, 0.000, 0.000, 0.000,0.11416996,0.24352278,0.24355985,0.23788963,0.14671206, 12:55:03.231
41094.753906, 40005.105469, 187500.015625, 94733.304688, 60824.054688, 83130.382813, 56219.796875, 88821.132813, 0.000, 0.000, 0.000,0.11416996,0.24352278,0.24355985,0.23788963,0.14671206, 12:55:03.231
41788.394531, 40665.019531, 187500.015625, 94262.468750, 61301.980469, 83736.648438, 56320.984375, 89248.765625, 0.000, 0.000, 0.000,0.11416996,0.24352278,0.24355985,0.23788963,0.14671206, 12:55:03.231
41708.867188, 40537.972656, 187500.015625, 94127.773438, 61373.863281, 83758.039063, 56341.703125, 89400.203125, 0.000, 0.000, 0.000,0.11416996,0.24352278,0.24355985,0.23788963,0.14671206, 12:55:03.231
41045.980469, 39910.089844, 187500.015625, 94552.906250, 60925.535156, 83175.015625, 56243.042969, 88993.757813, 0.286, 0.316, 0.898,0.11416996,0.24352278,0.24355985,0.23788963,0.14671206, 12:55:03.231
41019.718750, 39925.980469, 187500.015625, 94728.789063, 60796.093750, 83060.171875, 56211.863281, 88784.078125, 0.000, 0.000, 0.000,0.11416996,0.24352278,0.24355985,0.23788963,0.14671206, 12:55:03.231
41677.441406, 40566.671875, 187500.015625, 94312.085938, 61217.089844, 83615.570313, 56300.152344, 89148.703125, 0.000, 0.000, 0.000,0.11416996,0.24352278,0.24355985,0.23788963,0.14671206, 12:55:03.231
41792.308594, 40628.296875, 187500.015625, 94066.734375, 61412.644531, 83820.515625, 56351.203125, 89422.953125, 0.000, 0.000, 0.000,0.11416996,0.24352278,0.24355985,0.23788963,0.14671206, 12:55:03.231
41149.156250, 40004.011719, 187500.015625, 94429.476563, 61010.894531, 83283.468750, 56262.980469, 89088.281250, 0.000, 0.000, 0.000,0.11416996,0.24352278,0.24355985,0.23788963,0.14671206, 12:55:03.232
40937.687500, 39838.832031, 187500.015625, 94708.585938, 60755.683594, 83014.531250, 56206.566406, 88789.085938, 0.000, 0.000, 0.000,0.11416996,0.24352278,0.24355985,0.23788963,0.14671206, 12:55:03.232
41563.828125, 40455.941406, 187500.015625, 94361.062500, 61121.156250, 83511.343750, 56285.960938, 89072.570313, 0.000, 0.000, 0.000,0.11416996,0.24352278,0.24355985,0.23788963,0.14671206, 12:55:03.232
41849.484375, 40694.746094, 187500.015625, 94013.984375, 61435.644531, 83847.960938, 56359.160156, 89419.937500, 0.000, 0.000, 0.000,0.11416996,0.24352278,0.24355985,0.23788963,0.14671206, 12:55:03.232
41257.542969, 40112.238281, 187500.015625, 94296.015625, 61099.652344, 83379.312500, 56280.953125, 89161.593750, 0.000, 0.000, 0.000,0.11416996,0.24352278,0.24355985,0.23788963,0.14671206, 12:55:03.233
40884.667969, 39788.652344, 187500.015625, 94664.750000, 60744.753906, 82974.476563, 56197.828125, 88773.460938, 0.286, 0.312, 0.896,0.11416996,0.24352278,0.24355985,0.23788963,0.14671206, 12:55:03.234
41414.921875, 40319.238281, 187500.015625, 94418.101563, 61019.320313, 83373.320313, 56255.695313, 88962.421875, 0.000, 0.000, 0.000,0.11416996,0.24352278,0.24355985,0.23788963,0.14671206, 12:55:03.234
41907.867188, 40757.667969, 187500.015625, 93985.953125, 61436.718750, 83877.578125, 56353.730469, 89408.117188, 0.000, 0.000, 0.000,0.11416996,0.24352278,0.24355985,0.23788963,0.14671206, 12:55:03.234
41384.410156, 40230.925781, 187500.015625, 94168.921875, 61188.031250, 83490.375000, 56295.281250, 89245.976563, 0.000, 0.000, 0.000,0.11416996,0.24352278,0.24355985,0.23788963,0.14671206, 12:55:03.234
40904.273438, 39798.488281, 187500.015625, 94594.296875, 60778.882813, 83002.398438, 56203.773438, 88816.460938, 0.000, 0.000, 0.000,0.11416996,0.24352278,0.24355985,0.23788963,0.14671206, 12:55:03.235
41357.429688, 40259.828125, 187500.015625, 94441.750000, 60984.765625, 83326.382813, 56252.121094, 88930.992188, 0.000, 0.000, 0.000,0.11416996,0.24352278,0.24355985,0.23788963,0.14671206, 12:55:03.235
41919.601563, 40770.453125, 187500.015625, 93968.789063, 61438.105469, 83869.617188, 56358.222656, 89379.906250, 0.000, 0.000, 0.000,0.11416996,0.24352278,0.24355985,0.23788963,0.14671206, 12:55:03.235
41500.750000, 40344.851563, 187500.015625, 94049.875000, 61273.773438, 83592.992188, 56321.789063, 89301.812500, 0.000, 0.000, 0.000,0.11416996,0.24352278,0.24355985,0.23788963,0.14671206, 12:55:03.235
40936.324219, 39827.007813, 187500.015625, 94495.953125, 60825.398438, 83062.562500, 56220.156250, 88874.648438, 0.000, 0.000, 0.000,0.11416996,0.24352278,0.24355985,0.23788963,0.14671206, 12:55:03.236
41242.789063, 40153.902344, 187500.015625, 94456.570313, 60926.695313, 83245.023438, 56241.167969, 88889.195313, 0.000, 0.000, 0.000,0.11416996,0.24352278,0.24355985,0.23788963,0.14671206, 12:55:03.237
41848.765625, 40717.859375, 187500.015625, 93984.742188, 61379.476563, 83791.125000, 56341.058594, 89303.757813, 0.278, 0.312, 0.902,0.11416996,0.24352278,0.24355985,0.23788963,0.14671206, 12:55:03.237
41657.882813, 40497.203125, 187500.015625, 93932.843750, 61353.121094, 83712.132813, 56335.914063, 89365.804688, 0.000, 0.000, 0.000,0.11416996,0.24352278,0.24355985,0.23788963,0.14671206, 12:55:03.237
40985.476563, 39870.863281, 187500.015625, 94378.093750, 60888.363281, 83121.593750, 56231.867188, 88931.710938, 0.000, 0.000, 0.000,0.11416996,0.24352278,0.24355985,0.23788963,0.14671206, 12:55:03.238
41099.492188, 40030.609375, 187500.015625, 94467.921875, 60843.031250, 83138.585938, 56220.582031, 88809.554688, 0.000, 0.000, 0.000,0.11416996,0.24352278,0.24355985,0.23788963,0.14671206, 12:55:03.238
41793.199219, 40675.589844, 187500.015625, 94005.648438, 61308.753906, 83728.359375, 56317.386719, 89224.046875, 0.000, 0.000, 0.000,0.11416996,0.24352278,0.24355985,0.23788963,0.14671206, 12:55:03.238
41780.460938, 40617.097656, 187500.015625, 93831.968750, 61420.894531, 83805.898438, 56348.031250, 89412.789063, 0.000, 0.000, 0.000,0.11416996,0.24352278,0.24355985,0.23788963,0.14671206, 12:55:03.238
41120.078125, 39988.207031, 187500.015625, 94233.226563, 60989.792969, 83245.671875, 56256.210938, 89037.945313, 0.000, 0.000, 0.000,0.11416996,0.24352278,0.24355985,0.23788963,0.14671206, 12:55:03.238
41026.066406, 39943.281250, 187500.015625, 94441.343750, 60819.542969, 83078.882813, 56221.230469, 88796.101563, 0.000, 0.000, 0.000,0.11416996,0.24352278,0.24355985,0.23788963,0.14671206, 12:55:03.238
41677.152344, 40581.914063, 187500.015625, 94042.882813, 61231.753906, 83622.812500, 56309.496094, 89136.046875, 0.000, 0.000, 0.000,0.11416996,0.24352278,0.24355985,0.23788963,0.14671206, 12:55:03.238
41826.238281, 40679.078125, 187500.015625, 93766.976563, 61449.906250, 83845.656250, 56357.753906, 89415.960938, 0.000, 0.000, 0.000,0.11416996,0.24352278,0.24355985,0.23788963,0.14671206, 12:55:03.239
41165.003906, 40033.582031, 187500.015625, 94121.382813, 61039.839844, 83299.851563, 56266.714844, 89082.179688, 0.288, 0.304, 0.904,0.11416996,0.24352278,0.24355985,0.23788963,0.14671206, 12:55:03.239
40964.578125, 39882.550781, 187500.015625, 94423.531250, 60782.929688, 83042.585938, 56211.996094, 88787.585938, 0.000, 0.000, 0.000,0.11416996,0.24352278,0.24355985,0.23788963,0.14671206, 12:55:03.239
41596.550781, 40497.382813, 187500.015625, 94089.554688, 61147.574219, 83537.515625, 56292.242188, 89075.585938, 0.000, 0.000, 0.000,0.11416996,0.24352278,0.24355985,0.23788963,0.14671206, 12:55:03.239
41897.046875, 40744.636719, 187500.015625, 93722.179688, 61460.703125, 83874.960938, 56359.429688, 89420.382813, 0.000, 0.000, 0.000,0.11416996,0.24352278,0.24355985,0.23788963,0.14671206, 12:55:03.240
41307.789063, 40164.519531, 187500.015625, 93983.492188, 61133.718750, 83410.382813, 56275.789063, 89165.039063, 0.000, 0.000, 0.000,0.11416996,0.24352278,0.24355985,0.23788963,0.14671206, 12:55:03.240
40937.351563, 39853.113281, 187500.015625, 94363.539063, 60781.296875, 83020.117188, 56195.121094, 88787.671875, 0.000, 0.000, 0.000,0.11416996,0.24352278,0.24355985,0.23788963,0.14671206, 12:55:03.240
41479.003906, 40394.785156, 187500.015625, 94130.320313, 61058.460938, 83430.523438, 56261.015625, 88990.609375, 0.000, 0.000, 0.000,0.11416996,0.24352278,0.24355985,0.23788963,0.14671206, 12:55:03.241
41944.925781, 40798.636719, 187500.015625, 93691.445313, 61467.808594, 83892.039063, 56352.792969, 89409.906250, 0.000, 0.000, 0.000,0.11416996,0.24352278,0.24355985,0.23788963,0.14671206, 12:55:03.241
41455.421875, 40297.980469, 187500.015625, 93854.031250, 61232.109375, 83530.703125, 56302.386719, 89251.632813, 0.000, 0.000, 0.000,0.11416996,0.24352278,0.24355985,0.23788963,0.14671206, 12:55:03.241
40965.851563, 39861.675781, 187500.015625, 94281.468750, 60827.855469, 83064.507813, 56214.902344, 88844.250000, 0.286, 0.310, 0.900,0.11416996,0.24352278,0.24355985,0.23788963,0.14671206, 12:55:03.241
41327.187500, 40240.648438, 187500.015625, 94171.296875, 60983.132813, 83307.007813, 56249.636719, 88915.906250, 0.000, 0.000, 0.000,0.11416996,0.24352278,0.24355985,0.23788963,0.14671206, 12:55:03.241
41887.210938, 40756.414063, 187500.015625, 93707.273438, 61412.132813, 83832.406250, 56342.421875, 89334.265625, 0.000, 0.000, 0.000,0.11416996,0.24352278,0.24355985,0.23788963,0.14671206, 12:55:03.242
41609.000000, 40466.199219, 187500.015625, 93727.703125, 61327.640625, 83683.273438, 56324.089844, 89347.789063, 0.000, 0.000, 0.000,0.11416996,0.24352278,0.24355985,0.23788963,0.14671206, 12:55:03.242
40997.097656, 39895.851563, 187500.015625, 94171.648438, 60885.324219, 83119.585938, 56229.523438, 88921.359375, 0.000, 0.000, 0.000,0.11416996,0.24352278,0.24355985,0.23788963,0.14671206, 12:55:03.242
41212.011719, 40134.320313, 187500.015625, 94182.335938, 60911.363281, 83210.421875, 56236.183594, 88860.812500, 0.000, 0.000, 0.000,0.11416996,0.24352278,0.24355985,0.23788963,0.14671206, 12:55:03.242
41855.183594, 40745.441406, 187500.015625, 93707.179688, 61378.691406, 83785.601563, 56340.789063, 89288.976563, 0.000, 0.000, 0.000,0.11416996,0.24352278,0.24355985,0.23788963,0.14671206, 12:55:03.243
41719.597656, 40575.320313, 187500.015625, 93613.929688, 61409.316406, 83756.835938, 56349.460938, 89401.875000, 0.000, 0.000, 0.000,0.11416996,0.24352278,0.24355985,0.23788963,0.14671206, 12:55:03.243
41042.429688, 39927.859375, 187500.015625, 94054.953125, 60932.753906, 83156.554688, 56240.382813, 88968.921875, 0.000, 0.000, 0.000,0.11416996,0.24352278,0.24355985,0.23788963,0.14671206, 12:55:03.243
41087.445313, 40013.218750, 187500.015625, 94187.390625, 60842.808594, 83104.476563, 56217.921875, 88795.273438, 0.000, 0.000, 0.000,0.11416996,0.24352278,0.24355985,0.23788963,0.14671206, 12:55:03.243
41752.945313, 40656.570313, 187500.015625, 93746.406250, 61286.738281, 83677.976563, 56304.535156, 89176.484375, 0.290, 0.324, 0.898,0.11416996,0.24352278,0.24355985,0.23788963,0.14671206, 12:55:03.244
41807.507813, 40670.359375, 187500.015625, 93536.367188, 61448.765625, 83830.843750, 56343.960938, 89408.000000, 0.000, 0.000, 0.000,0.11416996,0.24352278,0.24355985,0.23788963,0.14671206, 12:55:03.244
41156.554688, 40039.953125, 187500.015625, 93917.312500, 61039.796875, 83281.570313, 56257.058594, 89060.500000, 0.000, 0.000, 0.000,0.053659145,0.0974618,0.081569746,0.13704726,0.076357424, 12:55:03.696
41036.437500, 39966.167969, 187500.015625, 94155.578125, 60837.132813, 83078.460938, 56214.882813, 88795.250000, 0.000, 0.000, 0.000,0.053659145,0.0974618,0.081569746,0.13704726,0.076357424, 12:55:03.696
41697.222656, 40609.074219, 187500.015625, 93766.484375, 61242.281250, 83623.390625, 56304.757813, 89134.976563, 0.000, 0.000, 0.000,0.053659145,0.0974618,0.081569746,0.13704726,0.076357424, 12:55:03.697
41886.453125, 40748.167969, 187500.015625, 93458.250000, 61487.656250, 83874.179688, 56366.023438, 89436.726563, 0.000, 0.000, 0.000,0.053659145,0.0974618,0.081569746,0.13704726,0.076357424, 12:55:03.697
41248.554688, 40114.988281, 187500.015625, 93784.187500, 61095.250000, 83346.921875, 56280.437500, 89123.218750, 0.000, 0.000, 0.000,0.053659145,0.0974618,0.081569746,0.13704726,0.076357424, 12:55:03.697
40963.906250, 39881.546875, 187500.015625, 94118.546875, 60783.687500, 83019.468750, 56213.003906, 88777.304688, 0.000, 0.000, 0.000,0.05233121,0.093711756,0.078605115,0.13033526,0.0732449, 12:55:03.698
41548.335938, 40460.367188, 187500.015625, 93823.429688, 61110.023438, 83479.539063, 56286.183594, 89023.710938, 0.000, 0.000, 0.000,0.05233121,0.093711756,0.078605115,0.13033526,0.0732449, 12:55:03.698
41951.875000, 40811.312500, 187500.015625, 93421.773438, 61489.109375, 83916.734375, 56376.843750, 89436.789063, 0.296, 0.324, 0.902,0.05233121,0.093711756,0.078605115,0.13033526,0.0732449, 12:55:03.699
41406.449219, 40269.929688, 187500.015625, 93640.531250, 61211.234375, 83503.117188, 56312.691406, 89235.914063, 0.000, 0.000, 0.000,0.05233121,0.093711756,0.078605115,0.13033526,0.0732449, 12:55:03.699
40939.074219, 39855.664063, 187500.015625, 94048.851563, 60812.121094, 83026.757813, 56217.093750, 88803.429688, 0.000, 0.000, 0.000,0.05233121,0.093711756,0.078605115,0.13033526,0.0732449, 12:55:03.699
41422.519531, 40343.421875, 187500.015625, 93857.765625, 61037.695313, 83379.468750, 56263.382813, 88939.132813, 0.000, 0.000, 0.000,0.05233121,0.093711756,0.078605115,0.13033526,0.0732449, 12:55:03.700
41964.304688, 40833.214844, 187500.015625, 93398.351563, 61481.085938, 83909.296875, 56364.414063, 89392.539063, 0.000, 0.000, 0.000,0.05233121,0.093711756,0.078605115,0.13033526,0.0732449, 12:55:03.700
41562.195313, 40414.968750, 187500.015625, 93497.835938, 61317.851563, 83634.210938, 56329.636719, 89322.906250, 0.000, 0.000, 0.000,0.05233121,0.093711756,0.078605115,0.13033526,0.0732449, 12:55:03.700
40959.906250, 39870.480469, 187500.015625, 93947.328125, 60858.523438, 83060.890625, 56226.035156, 88859.960938, 0.000, 0.000, 0.000,0.05233121,0.093711756,0.078605115,0.13033526,0.0732449, 12:55:03.701
41303.921875, 40225.359375, 187500.015625, 93876.742188, 60963.957031, 83266.500000, 56248.117188, 88876.164063, 0.000, 0.000, 0.000,0.05233121,0.093711756,0.078605115,0.13033526,0.0732449, 12:55:03.701
41948.234375, 40825.460938, 187500.015625, 93392.179688, 61450.242188, 83867.007813, 56356.992188, 89344.210938, 0.000, 0.000, 0.000,0.05233121,0.093711756,0.078605115,0.13033526,0.0732449, 12:55:03.701
41688.929688, 40534.351563, 187500.015625, 93380.914063, 61401.156250, 83725.164063, 56348.386719, 89383.210938, 0.000, 0.000, 0.000,0.05233121,0.093711756,0.078605115,0.13033526,0.0732449, 12:55:03.702
41031.007813, 39924.617188, 187500.015625, 93834.632813, 60932.015625, 83129.351563, 56240.941406, 88937.875000, 0.280, 0.318, 0.904,0.05233121,0.093711756,0.078605115,0.13033526,0.0732449, 12:55:03.702
41194.464844, 40119.167969, 187500.015625, 93886.757813, 60912.792969, 83186.125000, 56231.445313, 88843.554688, 0.000, 0.000, 0.000,0.05233121,0.093711756,0.078605115,0.13033526,0.0732449, 12:55:03.703
41875.992188, 40753.843750, 187500.015625, 93416.968750, 61383.183594, 83778.093750, 56332.539063, 89265.289063, 0.000, 0.000, 0.000,0.05233121,0.093711756,0.078605115,0.13033526,0.0732449, 12:55:03.703
41762.957031, 40609.453125, 187500.015625, 93297.789063, 61435.085938, 83765.390625, 56341.125000, 89388.359375, 0.000, 0.000, 0.000,0.05233121,0.093711756,0.078605115,0.13033526,0.0732449, 12:55:03.704
41124.214844, 40009.554688, 187500.015625, 93713.578125, 60998.714844, 83216.968750, 56241.121094, 89010.250000, 0.000, 0.000, 0.000,0.05233121,0.093711756,0.078605115,0.13033526,0.0732449, 12:55:03.704
41121.976563, 40044.000000, 187500.015625, 93875.218750, 60879.578125, 83118.179688, 56213.785156, 88823.078125, 0.000, 0.000, 0.000,0.05233121,0.093711756,0.078605115,0.13033526,0.0732449, 12:55:03.705
41806.433594, 40699.417969, 187500.015625, 93443.968750, 61317.136719, 83695.679688, 56308.175781, 89202.031250, 0.000, 0.000, 0.000,0.05233121,0.093711756,0.078605115,0.13033526,0.0732449, 12:55:03.705
41892.554688, 40738.757813, 187500.015625, 93204.312500, 61510.992188, 83877.804688, 56360.078125, 89454.625000, 0.000, 0.000, 0.000,0.05233121,0.093711756,0.078605115,0.13033526,0.0732449, 12:55:03.705
41254.726563, 40124.976563, 187500.015625, 93570.593750, 61113.667969, 83347.531250, 56280.035156, 89125.320313, 0.000, 0.000, 0.000,0.05233121,0.093711756,0.078605115,0.13033526,0.0732449, 12:55:03.706
41077.496094, 39998.980469, 187500.015625, 93837.406250, 60878.035156, 83100.359375, 56231.042969, 88840.070313, 0.000, 0.000, 0.000,0.05233121,0.093711756,0.078605115,0.13033526,0.0732449, 12:55:03.706
41694.875000, 40599.148438, 187500.015625, 93487.640625, 61234.589844, 83589.062500, 56307.687500, 89127.062500, 0.284, 0.316, 0.902,0.05233121,0.093711756,0.078605115,0.13033526,0.0732449, 12:55:03.706
41961.128906, 40809.769531, 187500.015625, 93150.867188, 61523.039063, 83904.039063, 56373.734375, 89459.007813, 0.000, 0.000, 0.000,0.05233121,0.093711756,0.078605115,0.13033526,0.0732449, 12:55:03.707
41379.648438, 40241.476563, 187500.015625, 93434.960938, 61192.882813, 83444.890625, 56300.824219, 89204.046875, 0.000, 0.000, 0.000,0.05233121,0.093711756,0.078605115,0.13033526,0.0732449, 12:55:03.707
41037.734375, 39950.878906, 187500.015625, 93795.429688, 60863.910156, 83073.226563, 56227.242188, 88838.953125, 0.000, 0.000, 0.000,0.05233121,0.093711756,0.078605115,0.13033526,0.0732449, 12:55:03.707
41561.191406, 40472.792969, 187500.015625, 93541.085938, 61140.066406, 83477.796875, 56286.562500, 89031.625000, 0.000, 0.000, 0.000,0.05233121,0.093711756,0.078605115,0.13033526,0.0732449, 12:55:03.708
41982.519531, 40848.839844, 187500.015625, 93132.007813, 61516.335938, 83921.789063, 56375.097656, 89430.531250, 0.000, 0.000, 0.000,0.05233121,0.093711756,0.078605115,0.13033526,0.0732449, 12:55:03.708
41508.820313, 40372.792969, 187500.015625, 93321.656250, 61281.148438, 83573.773438, 56331.914063, 89287.835938, 0.000, 0.000, 0.000,0.05233121,0.093711756,0.078605115,0.13033526,0.0732449, 12:55:03.708
41031.453125, 39944.890625, 187500.015625, 93739.125000, 60884.117188, 83096.898438, 56252.722656, 88879.429688, 0.000, 0.000, 0.000,0.05233121,0.093711756,0.078605115,0.13033526,0.0732449, 12:55:03.709
41464.117188, 40380.929688, 187500.015625, 93581.921875, 61078.417969, 83396.570313, 56298.363281, 88982.937500, 0.000, 0.000, 0.000,0.05233121,0.093711756,0.078605115,0.13033526,0.0732449, 12:55:03.709
41985.382813, 40854.046875, 187500.015625, 93126.460938, 61497.113281, 83895.304688, 56390.921875, 89399.507813, 0.294, 0.312, 0.898,0.05233121,0.093711756,0.078605115,0.13033526,0.0732449, 12:55:03.709
41604.171875, 40462.535156, 187500.015625, 93210.726563, 61338.863281, 83637.007813, 56354.199219, 89334.960938, 0.000, 0.000, 0.000,0.05233121,0.093711756,0.078605115,0.13033526,0.0732449, 12:55:03.710
41023.988281, 39927.878906, 187500.015625, 93663.062500, 60889.101563, 83100.359375, 56256.656250, 88903.812500, 0.000, 0.000, 0.000,0.05233121,0.093711756,0.078605115,0.13033526,0.0732449, 12:55:03.711
41326.296875, 40256.316406, 187500.015625, 93624.460938, 60988.230469, 83289.640625, 56284.371094, 88916.289063, 0.000, 0.000, 0.000,0.05233121,0.093711756,0.078605115,0.13033526,0.0732449, 12:55:03.712
41948.656250, 40829.191406, 187500.015625, 93153.664063, 61454.488281, 83854.710938, 56391.707031, 89353.914063, 0.000, 0.000, 0.000,0.05233121,0.093711756,0.078605115,0.13033526,0.0732449, 12:55:03.712
41732.269531, 40589.402344, 187500.015625, 93119.601563, 61432.070313, 83757.992188, 56387.457031, 89411.687500, 0.000, 0.000, 0.000,0.05233121,0.093711756,0.078605115,0.13033526,0.0732449, 12:55:03.712
41066.968750, 39969.632813, 187500.015625, 93575.640625, 60960.066406, 83168.539063, 56280.976563, 88979.585938, 0.000, 0.000, 0.000,0.05233121,0.093711756,0.078605115,0.13033526,0.0732449, 12:55:03.713
41184.562500, 40115.613281, 187500.015625, 93667.867188, 60912.457031, 83177.703125, 56270.222656, 88856.429688, 0.000, 0.000, 0.000,0.05233121,0.093711756,0.078605115,0.13033526,0.0732449, 12:55:03.713
41829.992188, 40728.542969, 187500.015625, 93223.914063, 61357.035156, 83736.898438, 56367.253906, 89243.117188, 0.000, 0.000, 0.000,0.05233121,0.093711756,0.078605115,0.13033526,0.0732449, 12:55:03.713
41810.300781, 40674.050781, 187500.015625, 93065.750000, 61460.632813, 83810.429688, 56390.609375, 89424.164063, 0.000, 0.000, 0.000,0.05233121,0.093711756,0.078605115,0.13033526,0.0732449, 12:55:03.714
41144.285156, 40031.324219, 187500.015625, 93482.859375, 61019.945313, 83230.898438, 56289.000000, 89041.750000, 0.300, 0.320, 0.900,0.05233121,0.093711756,0.078605115,0.13033526,0.0732449, 12:55:03.714
41046.898438, 39978.863281, 187500.015625, 93699.742188, 60830.761719, 83054.812500, 56240.339844, 88780.296875, 0.000, 0.000, 0.000,0.05233121,0.093711756,0.078605115,0.13033526,0.0732449, 12:55:03.715
41735.511719, 40647.695313, 187500.015625, 93296.085938, 61260.472656, 83636.695313, 56330.683594, 89137.460938, 0.000, 0.000, 0.000,0.05233121,0.093711756,0.078605115,0.13033526,0.0732449, 12:55:03.715
41908.781250, 40772.308594, 187500.015625, 93024.718750, 61502.968750, 83886.382813, 56390.273438, 89442.828125, 0.000, 0.000, 0.000,0.05233121,0.093711756,0.078605115,0.13033526,0.0732449, 12:55:03.716
41249.562500, 40134.144531, 187500.015625, 93380.757813, 61108.972656, 83345.046875, 56306.367188, 89121.031250, 0.000, 0.000, 0.000,0.05233121,0.093711756,0.078605115,0.13033526,0.0732449, 12:55:03.716
40995.488281, 39932.441406, 187500.015625, 93692.382813, 60824.949219, 83037.156250, 56245.300781, 88791.031250, 0.000, 0.000, 0.000,0.05233121,0.093711756,0.078605115,0.13033526,0.0732449, 12:55:03.716
41615.347656, 40546.152344, 187500.015625, 93364.125000, 61181.101563, 83531.171875, 56321.519531, 89067.875000, 0.000, 0.000, 0.000,0.05233121,0.093711756,0.078605115,0.13033526,0.0732449, 12:55:03.717
41922.058594, 40797.519531, 187500.015625, 93002.500000, 61509.406250, 83887.343750, 56394.031250, 89425.351563, 0.000, 0.000, 0.000,0.05233121,0.093711756,0.078605115,0.13033526,0.0732449, 12:55:03.717
41340.445313, 40225.136719, 187500.015625, 93276.039063, 61185.039063, 83428.242188, 56318.371094, 89174.070313, 0.000, 0.000, 0.000,0.05233121,0.093711756,0.078605115,0.13033526,0.0732449, 12:55:03.718
40956.933594, 39884.562500, 187500.015625, 93660.710938, 60820.191406, 83012.210938, 56237.343750, 88788.703125, 0.284, 0.320, 0.904,0.05233121,0.093711756,0.078605115,0.13033526,0.0732449, 12:55:03.718
41459.535156, 40390.046875, 187500.015625, 93439.093750, 61067.890625, 83386.781250, 56287.523438, 88955.734375, 0.000, 0.000, 0.000,0.05233121,0.093711756,0.078605115,0.13033526,0.0732449, 12:55:03.719
41966.718750, 40847.253906, 187500.015625, 93007.414063, 61488.730469, 83891.523438, 56383.660156, 89397.007813, 0.000, 0.000, 0.000,0.05233121,0.093711756,0.078605115,0.13033526,0.0732449, 12:55:03.719
41500.394531, 40377.910156, 187500.015625, 93170.312500, 61275.875000, 83559.109375, 56334.128906, 89269.085938, 0.000, 0.000, 0.000,0.05233121,0.093711756,0.078605115,0.13033526,0.0732449, 12:55:03.720
40986.304688, 39911.652344, 187500.015625, 93604.539063, 60858.074219, 83062.296875, 56238.058594, 88846.257813, 0.000, 0.000, 0.000,0.05233121,0.093711756,0.078605115,0.13033526,0.0732449, 12:55:03.720
41396.792969, 40336.714844, 187500.015625, 93482.812500, 61032.308594, 83348.890625, 56277.152344, 88937.835938, 0.000, 0.000, 0.000,0.05233121,0.093711756,0.078605115,0.13033526,0.0732449, 12:55:03.720
41965.152344, 40853.042969, 187500.015625, 93015.843750, 61484.863281, 83887.304688, 56378.453125, 89381.093750, 0.000, 0.000, 0.000,0.05233121,0.093711756,0.078605115,0.13033526,0.0732449, 12:55:03.721
41625.070313, 40493.894531, 187500.015625, 93071.835938, 61369.996094, 83677.039063, 56358.757813, 89352.484375, 0.000, 0.000, 0.000,0.05233121,0.093711756,0.078605115,0.13033526,0.0732449, 12:55:03.721
41031.675781, 39945.113281, 187500.015625, 93530.289063, 60918.269531, 83130.335938, 56265.105469, 88928.578125, 0.000, 0.000, 0.000,0.05233121,0.093711756,0.078605115,0.13033526,0.0732449, 12:55:03.721
41249.472656, 40182.445313, 187500.015625, 93545.289063, 60952.222656, 83226.539063, 56277.578125, 88878.671875, 0.000, 0.000, 0.000,0.05233121,0.093711756,0.078605115,0.13033526,0.0732449, 12:55:03.721
41926.527344, 40817.503906, 187500.015625, 93075.523438, 61429.855469, 83833.257813, 56388.578125, 89327.828125, 0.288, 0.322, 0.898,0.05233121,0.093711756,0.078605115,0.13033526,0.0732449, 12:55:03.722
