%OpenBCI Raw EEG Data
%
%Sample Rate = 250.0 Hz
%First Column = SampleIndex
%5 Columns before Timestamp are Frequency Power factors DELTA THETA ALPHA BETA GAMMA
%Last Column = Timestamp 
%Other Columns = EEG data in microvolts followed by Accel Data (in G) interleaved with Aux Data
0.000000, 0.000000, 0.000000, 0.000000, 0.000000, 0.000000, 0.000000, 0.000000, 1, 256, 1,0.0,0.0,0.0,0.0,0.0, 13:59:27.893
79643.640625, 121570.085938, 141853.593750, 144887.531250, 94412.851563, 96997.000000, 130845.789063, 136646.765625, 1, 256, 1,0.0,0.0,0.0,0.0,0.0, 13:59:27.908
79594.335938, 121520.570313, 141885.203125, 145009.171875, 94412.468750, 97043.671875, 130887.117188, 136604.062500, 1, 256, 1,0.0,0.0,0.0,0.0,0.0, 13:59:28.386
79616.929688, 121559.843750, 141830.890625, 144897.843750, 94391.125000, 96975.765625, 130847.687500, 136616.218750, 1, 256, 1,0.0,0.0,0.0,0.0,0.0, 13:59:28.387
79661.812500, 121604.687500, 141797.656250, 144768.437500, 94387.617188, 96917.070313, 130802.781250, 136654.812500, 1, 256, 1,0.0,0.0,0.0,0.0,0.0, 13:59:28.387
79649.117188, 121573.523438, 141844.593750, 144865.000000, 94409.851563, 96978.515625, 130838.414063, 136647.562500, 1, 256, 1,0.0,0.0,0.0,0.0,0.0, 13:59:28.389
79606.984375, 121524.265625, 141890.203125, 145014.000000, 94421.742188, 97047.226563, 130893.757813, 136609.546875, 1, 256, 1,0.0,0.0,0.0,0.0,0.0, 13:59:28.389
79615.773438, 121541.156250, 141853.859375, 144937.406250, 94401.070313, 96997.539063, 130865.414063, 136611.781250, 1, 256, 1,0.0,0.0,0.0,0.0,0.0, 13:59:28.390
79663.156250, 121596.703125, 141809.390625, 144779.859375, 94390.296875, 96924.070313, 130809.039063, 136652.609375, 1, 256, 1,0.0,0.0,0.0,0.0,0.0, 13:59:28.391
79658.687500, 121585.726563, 141843.625000, 144835.515625, 94412.734375, 96966.625000, 130833.312500, 136659.718750, 1, 256, 1,0.0,0.0,0.0,0.0,0.0, 13:59:28.392
79602.226563, 121522.828125, 141896.328125, 144995.828125, 94423.554688, 97044.742188, 130890.406250, 136616.625000, 1, 256, 1,0.0,0.0,0.0,0.0,0.0, 13:59:28.392
79590.109375, 121516.687500, 141867.046875, 144958.640625, 94399.195313, 97008.445313, 130871.718750, 136596.203125, 1, 256, 1,0.0,0.0,0.0,0.0,0.0, 13:59:28.393
79636.804688, 121570.437500, 141808.765625, 144791.687500, 94379.765625, 96923.109375, 130807.320313, 136632.203125, 1, 256, 1,0.0,0.0,0.0,0.0,0.0, 13:59:28.394
79660.992188, 121588.476563, 141833.406250, 144812.593750, 94398.562500, 96953.414063, 130816.796875, 136660.687500, 1, 256, 1,0.0,0.0,0.0,0.0,0.0, 13:59:28.397
79614.812500, 121535.796875, 141888.671875, 144980.187500, 94414.476563, 97040.367188, 130879.875000, 136626.953125, 1, 256, 1,0.0,0.0,0.0,0.0,0.0, 13:59:28.400
79596.257813, 121519.523438, 141876.000000, 144984.500000, 94399.546875, 97030.062500, 130882.109375, 136603.703125, 1, 256, 1,0.0,0.0,0.0,0.0,0.0, 13:59:28.401
79645.210938, 121569.546875, 141816.921875, 144819.312500, 94381.265625, 96941.101563, 130821.781250, 136630.828125, 1, 256, 1,0.0,0.0,0.0,0.0,0.0, 13:59:28.403
79669.796875, 121592.703125, 141819.562500, 144785.984375, 94392.484375, 96934.507813, 130807.609375, 136652.703125, 1, 256, 1,0.0,0.0,0.0,0.0,0.0, 13:59:28.406
79630.906250, 121549.320313, 141879.968750, 144947.546875, 94417.609375, 97023.015625, 130867.070313, 136624.406250, 1, 256, 1,0.0,0.0,0.0,0.0,0.0, 13:59:28.406
79605.984375, 121526.945313, 141893.984375, 145006.250000, 94416.539063, 97037.367188, 130890.781250, 136595.968750, 1, 256, 1,0.0,0.0,0.0,0.0,0.0, 13:59:28.407
79639.085938, 121572.046875, 141829.078125, 144847.500000, 94389.875000, 96950.062500, 130832.781250, 136622.546875, 1, 256, 1,0.0,0.0,0.0,0.0,0.0, 13:59:28.408
79680.523438, 121613.062500, 141816.250000, 144773.890625, 94396.578125, 96926.570313, 130808.484375, 136663.328125, 1, 256, 1,0.0,0.0,0.0,0.0,0.0, 13:59:28.409
79645.679688, 121564.609375, 141885.046875, 144927.750000, 94428.765625, 97013.945313, 130869.257813, 136641.156250, 1, 256, 1,0.0,0.0,0.0,0.0,0.0, 13:59:28.409
79605.375000, 121523.546875, 141901.656250, 145013.890625, 94424.179688, 97043.406250, 130900.062500, 136601.937500, 1, 256, 1,0.0,0.0,0.0,0.0,0.0, 13:59:28.410
79630.414063, 121561.210938, 141844.031250, 144876.828125, 94400.687500, 96966.734375, 130851.265625, 136618.265625, 1, 256, 1,0.0,0.0,0.0,0.0,0.0, 13:59:28.410
79666.578125, 121598.914063, 141819.953125, 144770.234375, 94399.210938, 96920.671875, 130810.093750, 136654.421875, 1, 256, 1,0.0,0.0,0.0,0.0,0.0, 13:59:28.411
79636.960938, 121559.601563, 141875.218750, 144890.531250, 94420.851563, 96992.843750, 130859.984375, 136640.875000, 1, 256, 1,0.0,0.0,0.0,0.0,0.0, 13:59:28.412
79592.281250, 121514.312500, 141909.484375, 145012.718750, 94423.648438, 97046.710938, 130906.898438, 136601.500000, 1, 256, 1,0.0,0.0,0.0,0.0,0.0, 13:59:28.412
79620.398438, 121537.429688, 141867.093750, 144913.328125, 94401.046875, 96982.875000, 130864.765625, 136604.203125, 1, 256, 1,5.876346E-6,7.784028E-6,9.5680625E-6,3.0100706E-5,3.8230388E-5, 13:59:28.413
79675.562500, 121595.968750, 141819.562500, 144766.390625, 94390.117188, 96918.656250, 130810.609375, 136652.328125, 1, 256, 1,5.876346E-6,7.784028E-6,9.5680625E-6,3.0100706E-5,3.8230388E-5, 13:59:28.414
79659.695313, 121576.632813, 141866.250000, 144857.250000, 94412.023438, 96980.773438, 130844.578125, 136652.343750, 1, 256, 1,5.876346E-6,7.784028E-6,9.5680625E-6,3.0100706E-5,3.8230388E-5, 13:59:28.415
79615.031250, 121529.109375, 141911.531250, 145012.906250, 94422.953125, 97055.671875, 130901.375000, 136617.812500, 1, 256, 1,5.876346E-6,7.784028E-6,9.5680625E-6,3.0100706E-5,3.8230388E-5, 13:59:28.416
79610.632813, 121532.664063, 141879.578125, 144954.859375, 94401.070313, 97008.734375, 130876.476563, 136606.390625, 1, 256, 1,5.876346E-6,7.784028E-6,9.5680625E-6,3.0100706E-5,3.8230388E-5, 13:59:28.417
79656.718750, 121580.390625, 141823.406250, 144794.546875, 94384.750000, 96932.718750, 130816.929688, 136649.156250, 1, 256, 1,5.876346E-6,7.784028E-6,9.5680625E-6,3.0100706E-5,3.8230388E-5, 13:59:28.418
79651.867188, 121573.281250, 141850.734375, 144841.000000, 94405.765625, 96967.765625, 130835.281250, 136653.375000, 1, 256, 1,5.876346E-6,7.784028E-6,9.5680625E-6,3.0100706E-5,3.8230388E-5, 13:59:28.419
79603.343750, 121515.343750, 141900.921875, 145003.562500, 94416.984375, 97041.859375, 130891.226563, 136607.000000, 1, 256, 1,5.876346E-6,7.784028E-6,9.5680625E-6,3.0100706E-5,3.8230388E-5, 13:59:28.420
79600.414063, 121517.843750, 141877.140625, 144975.953125, 94398.812500, 97017.835938, 130879.671875, 136596.109375, 1, 256, 1,5.876346E-6,7.784028E-6,9.5680625E-6,3.0100706E-5,3.8230388E-5, 13:59:28.420
79651.195313, 121574.953125, 141826.078125, 144802.843750, 94384.351563, 96931.937500, 130818.742188, 136631.015625, 1, 256, 1,5.876346E-6,7.784028E-6,9.5680625E-6,3.0100706E-5,3.8230388E-5, 13:59:28.421
79667.289063, 121586.687500, 141849.625000, 144808.437500, 94406.031250, 96953.125000, 130827.414063, 136656.593750, 1, 256, 1,5.876346E-6,7.784028E-6,9.5680625E-6,3.0100706E-5,3.8230388E-5, 13:59:28.422
79621.023438, 121531.640625, 141910.125000, 144979.640625, 94425.859375, 97043.851563, 130891.382813, 136622.890625, 1, 256, 1,5.876346E-6,7.784028E-6,9.5680625E-6,3.0100706E-5,3.8230388E-5, 13:59:28.423
79603.523438, 121518.335938, 141900.796875, 144998.625000, 94412.515625, 97039.781250, 130898.335938, 136601.265625, 1, 256, 1,5.876346E-6,7.784028E-6,9.5680625E-6,3.0100706E-5,3.8230388E-5, 13:59:28.423
79640.578125, 121564.226563, 141836.312500, 144829.953125, 94389.515625, 96946.687500, 130831.773438, 136623.890625, 1, 256, 1,5.876346E-6,7.784028E-6,9.5680625E-6,3.0100706E-5,3.8230388E-5, 13:59:28.424
79667.179688, 121588.437500, 141833.296875, 144784.625000, 94397.695313, 96934.796875, 130815.257813, 136651.937500, 1, 256, 1,5.876346E-6,7.784028E-6,9.5680625E-6,3.0100706E-5,3.8230388E-5, 13:59:28.425
79635.039063, 121540.351563, 141901.140625, 144953.359375, 94425.882813, 97026.351563, 130881.796875, 136627.968750, 1, 256, 1,5.876346E-6,7.784028E-6,9.5680625E-6,3.0100706E-5,3.8230388E-5, 13:59:28.426
79603.992188, 121509.375000, 141909.671875, 145016.968750, 94414.656250, 97042.843750, 130900.726563, 136593.937500, 1, 256, 1,5.876346E-6,7.784028E-6,9.5680625E-6,3.0100706E-5,3.8230388E-5, 13:59:28.426
79638.906250, 121557.523438, 141847.000000, 144861.765625, 94391.546875, 96960.632813, 130844.718750, 136622.375000, 1, 256, 1,5.876346E-6,7.784028E-6,9.5680625E-6,3.0100706E-5,3.8230388E-5, 13:59:28.427
79663.601563, 121584.414063, 141830.390625, 144781.562500, 94393.312500, 96928.601563, 130810.539063, 136650.484375, 1, 256, 1,5.876346E-6,7.784028E-6,9.5680625E-6,3.0100706E-5,3.8230388E-5, 13:59:28.428
79636.804688, 121546.343750, 141883.437500, 144921.156250, 94415.125000, 97009.789063, 130863.000000, 136631.062500, 1, 256, 1,5.876346E-6,7.784028E-6,9.5680625E-6,3.0100706E-5,3.8230388E-5, 13:59:28.435
79601.843750, 121507.117188, 141910.265625, 145023.187500, 94415.445313, 97053.148438, 130900.078125, 136598.656250, 1, 256, 1,5.876346E-6,7.784028E-6,9.5680625E-6,3.0100706E-5,3.8230388E-5, 13:59:28.436
79627.906250, 121544.695313, 141853.640625, 144893.281250, 94392.109375, 96979.812500, 130854.750000, 136613.812500, 1, 256, 1,5.876346E-6,7.784028E-6,9.5680625E-6,3.0100706E-5,3.8230388E-5, 13:59:28.437
79679.335938, 121597.867188, 141815.718750, 144765.140625, 94387.281250, 96917.671875, 130807.765625, 136642.765625, 1, 256, 1,5.876346E-6,7.784028E-6,9.5680625E-6,3.0100706E-5,3.8230388E-5, 13:59:28.437
79652.156250, 121554.343750, 141872.375000, 144884.656250, 94414.750000, 96989.710938, 130853.320313, 136630.359375, 1, 256, 1,5.876346E-6,7.784028E-6,9.5680625E-6,3.0100706E-5,3.8230388E-5, 13:59:28.438
79609.984375, 121513.265625, 141910.296875, 145019.765625, 94417.656250, 97048.585938, 130900.593750, 136592.375000, 1, 256, 1,5.876346E-6,7.784028E-6,9.5680625E-6,3.0100706E-5,3.8230388E-5, 13:59:28.439
79632.242188, 121541.585938, 141869.015625, 144927.562500, 94401.453125, 96992.867188, 130873.234375, 136603.593750, 1, 256, 1,5.876346E-6,7.784028E-6,9.5680625E-6,3.0100706E-5,3.8230388E-5, 13:59:28.440
79676.453125, 121587.117188, 141820.359375, 144776.625000, 94391.164063, 96924.023438, 130816.085938, 136646.796875, 1, 256, 1,5.876346E-6,7.784028E-6,9.5680625E-6,3.0100706E-5,3.8230388E-5, 13:59:28.441
79660.164063, 121564.898438, 141861.984375, 144858.093750, 94411.664063, 96975.320313, 130843.218750, 136645.078125, 1, 256, 1,5.876346E-6,7.784028E-6,9.5680625E-6,3.0100706E-5,3.8230388E-5, 13:59:28.441
79624.000000, 121517.781250, 141912.109375, 145021.046875, 94427.085938, 97052.945313, 130904.257813, 136612.046875, 1, 256, 1,3.7385624E-5,5.247847E-5,6.528542E-5,1.8157858E-4,1.9746806E-4, 13:59:28.451
79626.992188, 121523.945313, 141881.109375, 144973.546875, 94411.734375, 97016.804688, 130888.953125, 136610.546875, 1, 256, 1,3.7385624E-5,5.247847E-5,6.528542E-5,1.8157858E-4,1.9746806E-4, 13:59:28.453
79672.859375, 121579.804688, 141823.890625, 144803.453125, 94397.828125, 96935.984375, 130828.375000, 136651.453125, 1, 256, 1,3.7385624E-5,5.247847E-5,6.528542E-5,1.8157858E-4,1.9746806E-4, 13:59:28.454
79667.757813, 121567.335938, 141854.468750, 144838.468750, 94412.109375, 96962.531250, 130837.406250, 136652.078125, 1, 256, 1,3.7385624E-5,5.247847E-5,6.528542E-5,1.8157858E-4,1.9746806E-4, 13:59:28.454
79620.937500, 121514.000000, 141908.734375, 145002.828125, 94426.593750, 97042.867188, 130895.859375, 136613.546875, 1, 256, 1,3.7385624E-5,5.247847E-5,6.528542E-5,1.8157858E-4,1.9746806E-4, 13:59:28.458
79605.398438, 121506.445313, 141893.765625, 144991.484375, 94409.515625, 97019.421875, 130888.812500, 136589.656250, 1, 256, 1,3.7385624E-5,5.247847E-5,6.528542E-5,1.8157858E-4,1.9746806E-4, 13:59:28.461
79656.562500, 121569.500000, 141825.234375, 144809.968750, 94385.734375, 96933.367188, 130824.796875, 136630.312500, 1, 256, 1,3.7385624E-5,5.247847E-5,6.528542E-5,1.8157858E-4,1.9746806E-4, 13:59:28.462
79676.453125, 121580.812500, 141838.468750, 144795.718750, 94399.750000, 96945.796875, 130823.906250, 136654.937500, 1, 256, 1,3.7385624E-5,5.247847E-5,6.528542E-5,1.8157858E-4,1.9746806E-4, 13:59:28.462
79632.132813, 121523.929688, 141896.109375, 144961.390625, 94420.914063, 97032.539063, 130884.992188, 136620.765625, 1, 256, 1,3.7385624E-5,5.247847E-5,6.528542E-5,1.8157858E-4,1.9746806E-4, 13:59:28.463
79607.835938, 121504.164063, 141891.968750, 144990.640625, 94405.875000, 97033.929688, 130889.976563, 136590.484375, 1, 256, 1,3.7385624E-5,5.247847E-5,6.528542E-5,1.8157858E-4,1.9746806E-4, 13:59:28.463
79653.210938, 121562.953125, 141832.562500, 144823.562500, 94387.234375, 96949.640625, 130835.796875, 136626.984375, 1, 256, 1,3.7385624E-5,5.247847E-5,6.528542E-5,1.8157858E-4,1.9746806E-4, 13:59:28.464
79681.750000, 121591.406250, 141833.859375, 144774.046875, 94397.718750, 96938.101563, 130819.593750, 136661.984375, 1, 256, 1,3.7385624E-5,5.247847E-5,6.528542E-5,1.8157858E-4,1.9746806E-4, 13:59:28.464
79647.507813, 121546.726563, 141892.156250, 144932.796875, 94419.304688, 97024.312500, 130872.945313, 136635.687500, 1, 256, 1,3.7385624E-5,5.247847E-5,6.528542E-5,1.8157858E-4,1.9746806E-4, 13:59:28.464
79615.164063, 121513.710938, 141905.765625, 145007.546875, 94416.203125, 97044.992188, 130897.820313, 136602.375000, 1, 256, 1,3.7385624E-5,5.247847E-5,6.528542E-5,1.8157858E-4,1.9746806E-4, 13:59:28.464
79644.359375, 121551.664063, 141849.031250, 144862.343750, 94394.007813, 96961.039063, 130845.695313, 136617.343750, 1, 256, 1,3.7385624E-5,5.247847E-5,6.528542E-5,1.8157858E-4,1.9746806E-4, 13:59:28.465
79686.734375, 121593.085938, 141830.359375, 144768.484375, 94399.281250, 96926.859375, 130817.554688, 136659.000000, 1, 256, 1,3.7385624E-5,5.247847E-5,6.528542E-5,1.8157858E-4,1.9746806E-4, 13:59:28.465
79661.773438, 121557.789063, 141887.968750, 144907.828125, 94427.984375, 97007.664063, 130875.093750, 136645.656250, 1, 256, 1,3.7385624E-5,5.247847E-5,6.528542E-5,1.8157858E-4,1.9746806E-4, 13:59:28.465
79621.179688, 121515.679688, 141913.093750, 145015.234375, 94424.539063, 97048.882813, 130909.398438, 136603.593750, 1, 256, 1,3.7385624E-5,5.247847E-5,6.528542E-5,1.8157858E-4,1.9746806E-4, 13:59:28.465
79636.515625, 121537.335938, 141864.750000, 144896.406250, 94399.976563, 96972.210938, 130863.554688, 136607.750000, 1, 256, 1,3.7385624E-5,5.247847E-5,6.528542E-5,1.8157858E-4,1.9746806E-4, 13:59:28.466
79677.507813, 121583.875000, 141822.937500, 144760.281250, 94392.664063, 96909.937500, 130819.656250, 136650.000000, 1, 256, 1,3.7385624E-5,5.247847E-5,6.528542E-5,1.8157858E-4,1.9746806E-4, 13:59:28.466
79654.015625, 121555.914063, 141871.906250, 144865.140625, 94412.625000, 96980.125000, 130861.835938, 136649.984375, 1, 256, 1,3.7385624E-5,5.247847E-5,6.528542E-5,1.8157858E-4,1.9746806E-4, 13:59:28.466
79604.218750, 121504.500000, 141912.156250, 145008.718750, 94414.390625, 97043.093750, 130905.000000, 136605.671875, 1, 256, 1,3.7385624E-5,5.247847E-5,6.528542E-5,1.8157858E-4,1.9746806E-4, 13:59:28.466
79622.210938, 121522.343750, 141863.875000, 144918.609375, 94389.601563, 96983.429688, 130867.890625, 136601.625000, 1, 256, 1,3.7385624E-5,5.247847E-5,6.528542E-5,1.8157858E-4,1.9746806E-4, 13:59:28.467
79682.226563, 121585.171875, 141811.703125, 144763.390625, 94379.992188, 96912.421875, 130812.257813, 136646.718750, 1, 256, 1,3.7385624E-5,5.247847E-5,6.528542E-5,1.8157858E-4,1.9746806E-4, 13:59:28.467
79684.281250, 121583.671875, 141845.968750, 144833.953125, 94401.984375, 96960.765625, 130844.226563, 136656.062500, 1, 256, 1,3.7385624E-5,5.247847E-5,6.528542E-5,1.8157858E-4,1.9746806E-4, 13:59:28.467
79637.406250, 121529.023438, 141900.875000, 144999.531250, 94418.390625, 97038.281250, 130905.671875, 136618.578125, 1, 256, 1,3.7385624E-5,5.247847E-5,6.528542E-5,1.8157858E-4,1.9746806E-4, 13:59:28.467
79630.906250, 121529.515625, 141875.250000, 144954.359375, 94403.125000, 96998.679688, 130892.171875, 136607.687500, 1, 256, 1,3.7385624E-5,5.247847E-5,6.528542E-5,1.8157858E-4,1.9746806E-4, 13:59:28.468
79676.968750, 121584.343750, 141815.375000, 144782.593750, 94384.531250, 96911.664063, 130827.039063, 136642.671875, 1, 256, 1,3.7385624E-5,5.247847E-5,6.528542E-5,1.8157858E-4,1.9746806E-4, 13:59:28.468
79680.617188, 121585.593750, 141839.140625, 144808.468750, 94403.593750, 96940.320313, 130835.351563, 136655.906250, 1, 256, 1,3.7385624E-5,5.247847E-5,6.528542E-5,1.8157858E-4,1.9746806E-4, 13:59:28.468
79641.046875, 121542.882813, 141892.015625, 144974.921875, 94425.257813, 97032.140625, 130904.906250, 136633.234375, 1, 256, 1,3.7385624E-5,5.247847E-5,6.528542E-5,1.8157858E-4,1.9746806E-4, 13:59:28.468
79630.320313, 121528.843750, 141881.531250, 144982.437500, 94413.117188, 97020.406250, 130904.398438, 136610.921875, 1, 256, 1,3.7385624E-5,5.247847E-5,6.528542E-5,1.8157858E-4,1.9746806E-4, 13:59:28.469
79670.421875, 121578.953125, 141818.609375, 144808.625000, 94388.640625, 96930.257813, 130838.859375, 136643.546875, 1, 256, 1,3.7385624E-5,5.247847E-5,6.528542E-5,1.8157858E-4,1.9746806E-4, 13:59:28.469
79689.937500, 121596.703125, 141823.406250, 144785.250000, 94400.554688, 96932.093750, 130832.507813, 136669.328125, 1, 256, 1,3.7385624E-5,5.247847E-5,6.528542E-5,1.8157858E-4,1.9746806E-4, 13:59:28.469
79649.835938, 121545.203125, 141882.359375, 144955.281250, 94422.015625, 97017.812500, 130890.875000, 136635.031250, 1, 256, 1,3.7385624E-5,5.247847E-5,6.528542E-5,1.8157858E-4,1.9746806E-4, 13:59:28.470
79619.500000, 121514.695313, 141879.500000, 144997.171875, 94407.554688, 97017.406250, 130897.289063, 136597.703125, 1, 256, 1,3.7385624E-5,5.247847E-5,6.528542E-5,1.8157858E-4,1.9746806E-4, 13:59:28.470
79662.640625, 121566.750000, 141821.015625, 144833.062500, 94386.968750, 96929.703125, 130841.875000, 136624.359375, 1, 256, 1,3.7385624E-5,5.247847E-5,6.528542E-5,1.8157858E-4,1.9746806E-4, 13:59:28.470
79701.914063, 121605.781250, 141814.578125, 144767.343750, 94397.429688, 96914.164063, 130823.078125, 136665.843750, 1, 256, 1,3.7385624E-5,5.247847E-5,6.528542E-5,1.8157858E-4,1.9746806E-4, 13:59:28.470
79670.468750, 121567.937500, 141873.250000, 144925.328125, 94423.085938, 97007.820313, 130880.101563, 136649.484375, 1, 256, 1,3.7385624E-5,5.247847E-5,6.528542E-5,1.8157858E-4,1.9746806E-4, 13:59:28.471
79630.234375, 121528.640625, 141893.578125, 145018.921875, 94422.523438, 97043.914063, 130912.062500, 136619.875000, 1, 256, 1,3.7385624E-5,5.247847E-5,6.528542E-5,1.8157858E-4,1.9746806E-4, 13:59:28.471
79651.625000, 121563.914063, 141841.078125, 144881.406250, 94404.914063, 96968.656250, 130867.046875, 136642.937500, 1, 256, 1,3.7385624E-5,5.247847E-5,6.528542E-5,1.8157858E-4,1.9746806E-4, 13:59:28.471
79687.921875, 121608.148438, 141813.609375, 144771.734375, 94398.546875, 96919.578125, 130827.054688, 136669.796875, 1, 256, 1,3.7385624E-5,5.247847E-5,6.528542E-5,1.8157858E-4,1.9746806E-4, 13:59:28.471
79662.710938, 121577.835938, 141857.359375, 144893.296875, 94416.226563, 96993.960938, 130867.828125, 136653.890625, 1, 256, 1,3.7385624E-5,5.247847E-5,6.528542E-5,1.8157858E-4,1.9746806E-4, 13:59:28.472
79607.906250, 121523.750000, 141878.609375, 145006.953125, 94411.710938, 97037.953125, 130898.742188, 136611.015625, 1, 256, 1,3.7385624E-5,5.247847E-5,6.528542E-5,1.8157858E-4,1.9746806E-4, 13:59:28.472
79625.539063, 121553.523438, 141834.687500, 144893.656250, 94394.921875, 96974.335938, 130867.539063, 136629.796875, 1, 256, 1,3.7385624E-5,5.247847E-5,6.528542E-5,1.8157858E-4,1.9746806E-4, 13:59:28.472
79672.835938, 121606.671875, 141804.046875, 144760.484375, 94388.664063, 96914.296875, 130823.796875, 136670.187500, 1, 256, 1,3.7385624E-5,5.247847E-5,6.528542E-5,1.8157858E-4,1.9746806E-4, 13:59:28.472
79645.070313, 121572.007813, 141852.015625, 144860.515625, 94406.101563, 96971.562500, 130856.296875, 136655.765625, 1, 256, 1,3.7385624E-5,5.247847E-5,6.528542E-5,1.8157858E-4,1.9746806E-4, 13:59:28.473
79580.164063, 121502.023438, 141882.546875, 144998.734375, 94398.320313, 97022.507813, 130889.218750, 136600.312500, 1, 256, 1,3.7385624E-5,5.247847E-5,6.528542E-5,1.8157858E-4,1.9746806E-4, 13:59:28.473
79597.132813, 121532.867188, 141837.484375, 144913.312500, 94379.429688, 96970.289063, 130861.101563, 136608.421875, 1, 256, 1,3.7385624E-5,5.247847E-5,6.528542E-5,1.8157858E-4,1.9746806E-4, 13:59:28.473
79654.281250, 121595.765625, 141801.718750, 144764.421875, 94383.632813, 96906.234375, 130816.328125, 136658.203125, 1, 256, 1,3.7385624E-5,5.247847E-5,6.528542E-5,1.8157858E-4,1.9746806E-4, 13:59:28.473
79639.796875, 121574.460938, 141836.390625, 144825.906250, 94403.750000, 96949.257813, 130837.273438, 136659.203125, 1, 256, 1,3.7385624E-5,5.247847E-5,6.528542E-5,1.8157858E-4,1.9746806E-4, 13:59:28.474
79584.703125, 121514.382813, 141875.687500, 144982.218750, 94409.562500, 97026.664063, 130889.976563, 136621.765625, 1, 256, 1,3.7385624E-5,5.247847E-5,6.528542E-5,1.8157858E-4,1.9746806E-4, 13:59:28.474
79563.359375, 121504.992188, 141838.375000, 144937.796875, 94384.242188, 96990.164063, 130867.718750, 136601.656250, 1, 256, 1,2.1770695E-4,3.262013E-4,3.8982675E-4,9.917917E-4,9.451865E-4, 13:59:28.475
79610.335938, 121562.390625, 141776.312500, 144759.093750, 94362.710938, 96900.437500, 130804.843750, 136633.109375, 1, 256, 1,2.1770695E-4,3.262013E-4,3.8982675E-4,9.917917E-4,9.451865E-4, 13:59:28.485
79623.796875, 121570.015625, 141797.515625, 144771.468750, 94383.117188, 96925.789063, 130815.257813, 136658.781250, 1, 256, 1,2.1770695E-4,3.262013E-4,3.8982675E-4,9.917917E-4,9.451865E-4, 13:59:28.486
79571.734375, 121512.507813, 141848.234375, 144941.312500, 94396.890625, 97011.843750, 130868.812500, 136623.453125, 1, 256, 1,2.1770695E-4,3.262013E-4,3.8982675E-4,9.917917E-4,9.451865E-4, 13:59:28.486
79550.390625, 121498.085938, 141831.250000, 144948.859375, 94382.156250, 97002.859375, 130873.843750, 136606.078125, 1, 256, 1,2.1770695E-4,3.262013E-4,3.8982675E-4,9.917917E-4,9.451865E-4, 13:59:28.486
79595.367188, 121550.234375, 141777.890625, 144785.625000, 94372.390625, 96923.890625, 130825.289063, 136650.203125, 1, 256, 1,2.1770695E-4,3.262013E-4,3.8982675E-4,9.917917E-4,9.451865E-4, 13:59:28.487
79605.492188, 121553.007813, 141784.750000, 144758.515625, 94379.656250, 96912.734375, 130811.210938, 136660.703125, 1, 256, 1,2.1770695E-4,3.262013E-4,3.8982675E-4,9.917917E-4,9.451865E-4, 13:59:28.487
79559.804688, 121495.070313, 141837.453125, 144924.953125, 94396.976563, 96997.828125, 130867.156250, 136628.437500, 1, 256, 1,2.1770695E-4,3.262013E-4,3.8982675E-4,9.917917E-4,9.451865E-4, 13:59:28.488
79529.132813, 121469.296875, 141832.203125, 144975.406250, 94382.718750, 97005.875000, 130875.562500, 136593.250000, 1, 256, 1,2.1770695E-4,3.262013E-4,3.8982675E-4,9.917917E-4,9.451865E-4, 13:59:28.488
79570.375000, 121522.382813, 141778.546875, 144819.390625, 94362.265625, 96922.367188, 130818.789063, 136619.156250, 1, 256, 1,2.1770695E-4,3.262013E-4,3.8982675E-4,9.917917E-4,9.451865E-4, 13:59:28.488
79611.007813, 121560.359375, 141774.812500, 144744.687500, 94374.914063, 96899.617188, 130800.031250, 136662.046875, 1, 256, 1,2.1770695E-4,3.262013E-4,3.8982675E-4,9.917917E-4,9.451865E-4, 13:59:28.489
79580.453125, 121517.265625, 141831.640625, 144893.750000, 94396.578125, 96984.906250, 130853.789063, 136640.093750, 1, 256, 1,2.1770695E-4,3.262013E-4,3.8982675E-4,9.917917E-4,9.451865E-4, 13:59:28.489
79545.585938, 121479.242188, 141850.250000, 144982.390625, 94391.773438, 97020.671875, 130883.671875, 136605.625000, 1, 256, 1,2.1770695E-4,3.262013E-4,3.8982675E-4,9.917917E-4,9.451865E-4, 13:59:28.489
79574.867188, 121521.492188, 141795.421875, 144844.484375, 94372.679688, 96943.937500, 130843.062500, 136624.546875, 1, 256, 1,2.1770695E-4,3.262013E-4,3.8982675E-4,9.917917E-4,9.451865E-4, 13:59:28.490
79622.523438, 121573.210938, 141772.234375, 144733.687500, 94380.062500, 96903.500000, 130818.429688, 136674.703125, 1, 256, 1,2.1770695E-4,3.262013E-4,3.8982675E-4,9.917917E-4,9.451865E-4, 13:59:28.490
79586.960938, 121521.937500, 141828.828125, 144866.515625, 94403.148438, 96976.148438, 130856.312500, 136648.281250, 1, 256, 1,0.0,0.0,0.0,0.0,0.0, 13:59:28.866
79538.476563, 121475.468750, 141847.046875, 144990.421875, 94397.671875, 97022.125000, 130884.703125, 136602.921875, 1, 256, 1,0.0,0.0,0.0,0.0,0.0, 13:59:28.866
79557.812500, 121502.421875, 141804.578125, 144886.937500, 94380.257813, 96959.625000, 130855.734375, 136611.468750, 1, 256, 1,0.0,0.0,0.0,0.0,0.0, 13:59:28.866
79608.554688, 121557.546875, 141771.921875, 144741.937500, 94378.828125, 96899.968750, 130813.625000, 136662.890625, 1, 256, 1,0.0,0.0,0.0,0.0,0.0, 13:59:28.866
79598.695313, 121540.757813, 141816.828125, 144830.843750, 94402.007813, 96963.875000, 130845.343750, 136667.593750, 1, 256, 1,0.0,0.0,0.0,0.0,0.0, 13:59:28.867
79550.460938, 121491.453125, 141858.968750, 144981.953125, 94404.445313, 97034.867188, 130892.906250, 136628.703125, 1, 256, 1,0.0,0.0,0.0,0.0,0.0, 13:59:28.868
79555.156250, 121503.898438, 141827.468750, 144912.093750, 94387.570313, 96989.984375, 130869.640625, 136625.968750, 1, 256, 1,0.0,0.0,0.0,0.0,0.0, 13:59:28.869
79596.640625, 121549.093750, 141787.656250, 144751.640625, 94380.843750, 96912.625000, 130817.539063, 136659.453125, 1, 256, 1,0.0,0.0,0.0,0.0,0.0, 13:59:28.869
79606.023438, 121551.109375, 141821.187500, 144800.390625, 94404.960938, 96953.171875, 130840.984375, 136671.562500, 1, 256, 1,0.0,0.0,0.0,0.0,0.0, 13:59:28.870
79565.210938, 121502.648438, 141869.171875, 144965.765625, 94412.625000, 97027.156250, 130886.828125, 136627.937500, 1, 256, 1,0.0,0.0,0.0,0.0,0.0, 13:59:28.870
79566.328125, 121509.171875, 141840.031250, 144938.781250, 94394.609375, 97001.539063, 130874.687500, 136624.312500, 1, 256, 1,0.0,0.0,0.0,0.0,0.0, 13:59:28.870
79617.781250, 121569.570313, 141794.343750, 144774.687500, 94390.851563, 96920.312500, 130831.062500, 136667.484375, 1, 256, 1,0.0,0.0,0.0,0.0,0.0, 13:59:28.871
79619.835938, 121564.359375, 141817.281250, 144781.546875, 94407.976563, 96932.273438, 130832.062500, 136678.546875, 1, 256, 1,0.0,0.0,0.0,0.0,0.0, 13:59:28.871
79567.914063, 121504.992188, 141867.390625, 144948.203125, 94418.835938, 97014.367188, 130881.414063, 136639.609375, 1, 256, 1,0.0,0.0,0.0,0.0,0.0, 13:59:28.871
79545.226563, 121483.226563, 141851.140625, 144964.734375, 94403.640625, 97007.039063, 130884.281250, 136619.578125, 1, 256, 1,0.0,0.0,0.0,0.0,0.0, 13:59:28.872
79589.953125, 121535.617188, 141794.703125, 144796.859375, 94393.875000, 96929.320313, 130839.531250, 136663.015625, 1, 256, 1,0.0,0.0,0.0,0.0,0.0, 13:59:28.872
79609.218750, 121551.328125, 141806.859375, 144762.281250, 94404.421875, 96918.835938, 130826.296875, 136676.796875, 1, 256, 1,0.0,0.0,0.0,0.0,0.0, 13:59:28.872
79565.703125, 121499.984375, 141855.656250, 144919.546875, 94410.992188, 96997.382813, 130861.617188, 136639.546875, 1, 256, 1,0.0,0.0,0.0,0.0,0.0, 13:59:28.873
79540.046875, 121478.171875, 141855.984375, 144979.906250, 94394.367188, 97010.164063, 130871.625000, 136607.578125, 1, 256, 1,0.0,0.0,0.0,0.0,0.0, 13:59:28.873
79590.242188, 121540.242188, 141808.218750, 144832.343750, 94383.078125, 96927.304688, 130828.976563, 136637.375000, 1, 256, 1,0.0,0.0,0.0,0.0,0.0, 13:59:28.873
79631.710938, 121583.335938, 141796.125000, 144748.968750, 94397.515625, 96896.125000, 130808.906250, 136681.828125, 1, 256, 1,0.0,0.0,0.0,0.0,0.0, 13:59:28.874
79592.859375, 121533.562500, 141856.343750, 144898.906250, 94422.390625, 96977.578125, 130858.398438, 136661.468750, 1, 256, 1,0.0,0.0,0.0,0.0,0.0, 13:59:28.874
79550.992188, 121494.000000, 141870.296875, 144999.265625, 94408.531250, 97012.937500, 130881.242188, 136618.968750, 1, 256, 1,0.0,0.0,0.0,0.0,0.0, 13:59:28.874
79573.234375, 121525.984375, 141813.000000, 144863.812500, 94385.023438, 96937.343750, 130837.695313, 136632.093750, 1, 256, 1,0.0,0.0,0.0,0.0,0.0, 13:59:28.875
79616.507813, 121571.046875, 141790.984375, 144743.500000, 94391.054688, 96887.078125, 130807.726563, 136676.171875, 1, 256, 1,0.0,0.0,0.0,0.0,0.0, 13:59:28.876
79597.937500, 121540.421875, 141844.234375, 144860.593750, 94415.398438, 96955.648438, 130851.171875, 136663.875000, 1, 256, 1,0.0,0.0,0.0,0.0,0.0, 13:59:28.878
79555.375000, 121493.593750, 141880.484375, 144993.328125, 94416.695313, 97008.468750, 130892.101563, 136624.187500, 1, 256, 1,0.0,0.0,0.0,0.0,0.0, 13:59:28.878
79579.000000, 121528.015625, 141844.593750, 144898.328125, 94400.328125, 96953.390625, 130862.015625, 136636.484375, 1, 256, 1,0.0,0.0,0.0,0.0,0.0, 13:59:28.879
79631.351563, 121587.406250, 141811.750000, 144749.046875, 94396.132813, 96889.156250, 130814.117188, 136679.609375, 1, 256, 1,0.0,0.0,0.0,0.0,0.0, 13:59:28.880
79625.156250, 121571.601563, 141857.750000, 144831.156250, 94419.328125, 96942.062500, 130844.070313, 136681.218750, 1, 256, 1,0.0,0.0,0.0,0.0,0.0, 13:59:28.881
79572.476563, 121512.437500, 141898.593750, 144993.578125, 94421.968750, 97011.351563, 130888.500000, 136636.796875, 1, 256, 1,0.0,0.0,0.0,0.0,0.0, 13:59:28.882
79579.070313, 121522.500000, 141863.593750, 144933.093750, 94400.820313, 96965.929688, 130863.179688, 136624.781250, 1, 256, 1,0.0,0.0,0.0,0.0,0.0, 13:59:28.885
79640.492188, 121592.992188, 141814.343750, 144762.500000, 94399.976563, 96890.273438, 130821.203125, 136675.328125, 1, 256, 1,0.0,0.0,0.0,0.0,0.0, 13:59:28.890
79652.609375, 121597.039063, 141847.562500, 144806.312500, 94423.398438, 96931.578125, 130842.679688, 136694.796875, 1, 256, 1,0.0,0.0,0.0,0.0,0.0, 13:59:28.890
79602.156250, 121541.789063, 141894.171875, 144978.859375, 94426.546875, 97010.609375, 130884.437500, 136650.734375, 1, 256, 1,0.0,0.0,0.0,0.0,0.0, 13:59:28.891
79600.859375, 121552.226563, 141865.781250, 144961.984375, 94405.585938, 96983.789063, 130871.960938, 136631.203125, 1, 256, 1,0.0,0.0,0.0,0.0,0.0, 13:59:28.891
79655.156250, 121616.437500, 141811.515625, 144790.843750, 94390.609375, 96900.085938, 130816.421875, 136662.609375, 1, 256, 1,0.0,0.0,0.0,0.0,0.0, 13:59:28.891
79684.390625, 121645.539063, 141828.000000, 144780.093750, 94412.781250, 96909.289063, 130824.265625, 136688.328125, 1, 256, 1,0.0,0.0,0.0,0.0,0.0, 13:59:28.891
79654.414063, 121610.960938, 141881.687500, 144950.203125, 94429.257813, 96991.054688, 130877.148438, 136655.046875, 1, 256, 1,0.0,0.0,0.0,0.0,0.0, 13:59:28.892
79635.125000, 121591.695313, 141879.453125, 144990.390625, 94413.515625, 96988.062500, 130883.765625, 136625.171875, 1, 256, 1,0.0,0.0,0.0,0.0,0.0, 13:59:28.892
79692.664063, 121658.867188, 141827.000000, 144822.921875, 94399.617188, 96908.710938, 130838.437500, 136664.906250, 1, 256, 1,0.0,0.0,0.0,0.0,0.0, 13:59:28.893
79743.734375, 121707.187500, 141833.859375, 144771.375000, 94420.445313, 96905.023438, 130834.835938, 136705.921875, 1, 256, 1,0.0,0.0,0.0,0.0,0.0, 13:59:28.893
79708.109375, 121664.921875, 141890.656250, 144936.937500, 94438.445313, 96995.929688, 130880.234375, 136679.218750, 1, 256, 1,0.0,0.0,0.0,0.0,0.0, 13:59:28.896
79673.546875, 121631.125000, 141896.062500, 145016.500000, 94424.046875, 97015.531250, 130894.429688, 136634.875000, 1, 256, 1,0.0,0.0,0.0,0.0,0.0, 13:59:28.897
79716.062500, 121681.906250, 141844.093750, 144868.453125, 94406.437500, 96938.101563, 130849.140625, 136654.812500, 1, 256, 1,0.0,0.0,0.0,0.0,0.0, 13:59:28.898
79762.960938, 121727.414063, 141830.062500, 144773.515625, 94411.437500, 96902.046875, 130823.257813, 136691.125000, 1, 256, 1,0.0,0.0,0.0,0.0,0.0, 13:59:28.898
79743.109375, 121693.421875, 141887.375000, 144919.750000, 94438.085938, 96985.359375, 130874.507813, 136681.046875, 1, 256, 1,0.0,0.0,0.0,0.0,0.0, 13:59:28.900
79699.906250, 121644.468750, 141910.859375, 145034.921875, 94429.546875, 97024.718750, 130902.273438, 136634.953125, 1, 256, 1,0.0,0.0,0.0,0.0,0.0, 13:59:28.901
79731.773438, 121684.859375, 141856.578125, 144906.625000, 94409.875000, 96957.414063, 130863.226563, 136657.062500, 1, 256, 1,0.0,0.0,0.0,0.0,0.0, 13:59:28.902
79782.000000, 121737.343750, 141835.468750, 144777.500000, 94414.640625, 96909.671875, 130826.187500, 136702.500000, 1, 256, 1,0.0,0.0,0.0,0.0,0.0, 13:59:28.903
79759.601563, 121709.851563, 141874.656250, 144881.906250, 94431.335938, 96976.304688, 130859.218750, 136695.593750, 1, 256, 1,0.0,0.0,0.0,0.0,0.0, 13:59:28.903
79706.046875, 121658.257813, 141900.921875, 145020.750000, 94427.804688, 97037.750000, 130899.164063, 136659.328125, 1, 256, 1,0.0,0.0,0.0,0.0,0.0, 13:59:28.904
79712.781250, 121680.101563, 141862.500000, 144937.609375, 94410.343750, 96987.523438, 130875.312500, 136664.578125, 1, 256, 1,0.0,0.0,0.0,0.0,0.0, 13:59:28.904
79746.867188, 121716.843750, 141821.953125, 144781.250000, 94399.726563, 96914.078125, 130822.523438, 136696.609375, 1, 256, 1,0.0,0.0,0.0,0.0,0.0, 13:59:28.904
79735.757813, 121688.640625, 141857.062500, 144849.562500, 94417.429688, 96958.757813, 130847.625000, 136695.796875, 1, 256, 1,0.0,0.0,0.0,0.0,0.0, 13:59:28.905
79686.023438, 121628.890625, 141899.031250, 145012.328125, 94422.859375, 97030.039063, 130895.632813, 136654.828125, 1, 256, 1,0.0,0.0,0.0,0.0,0.0, 13:59:28.905
79673.507813, 121630.187500, 141865.562500, 144960.984375, 94404.039063, 96990.203125, 130867.828125, 136644.125000, 1, 256, 1,0.0,0.0,0.0,0.0,0.0, 13:59:28.906
79714.609375, 121674.195313, 141813.671875, 144781.437500, 94396.890625, 96907.796875, 130815.859375, 136682.515625, 1, 256, 1,0.0,0.0,0.0,0.0,0.0, 13:59:28.906
79716.195313, 121672.679688, 141841.296875, 144804.515625, 94413.835938, 96931.445313, 130828.687500, 136689.984375, 1, 256, 1,0.0,0.0,0.0,0.0,0.0, 13:59:28.907
79666.398438, 121618.046875, 141893.609375, 144981.328125, 94428.429688, 97012.757813, 130882.578125, 136651.140625, 1, 256, 1,0.0,0.0,0.0,0.0,0.0, 13:59:28.907
79649.789063, 121603.007813, 141866.671875, 144973.656250, 94410.726563, 96992.242188, 130876.414063, 136630.750000, 1, 256, 1,0.0,0.0,0.0,0.0,0.0, 13:59:28.907
79677.867188, 121641.789063, 141806.187500, 144795.578125, 94391.796875, 96905.132813, 130814.429688, 136660.187500, 1, 256, 1,0.0,0.0,0.0,0.0,0.0, 13:59:28.908
79706.343750, 121670.132813, 141826.218750, 144784.828125, 94414.750000, 96924.960938, 130822.226563, 136681.359375, 1, 256, 1,0.0,0.0,0.0,0.0,0.0, 13:59:28.908
79657.210938, 121608.703125, 141885.937500, 144957.578125, 94427.554688, 97006.656250, 130870.976563, 136651.203125, 1, 256, 1,0.0,0.0,0.0,0.0,0.0, 13:59:28.909
79625.156250, 121575.898438, 141885.203125, 145000.812500, 94414.390625, 97013.539063, 130885.265625, 136641.031250, 1, 256, 1,0.0,0.0,0.0,0.0,0.0, 13:59:28.909
79651.687500, 121608.843750, 141835.500000, 144840.328125, 94398.210938, 96932.781250, 130829.718750, 136666.578125, 1, 256, 1,0.0,0.0,0.0,0.0,0.0, 13:59:28.909
79680.992188, 121638.234375, 141824.187500, 144768.750000, 94406.593750, 96921.945313, 130815.773438, 136708.656250, 1, 256, 1,0.0,0.0,0.0,0.0,0.0, 13:59:28.910
79644.515625, 121591.500000, 141868.593750, 144922.484375, 94421.390625, 97009.359375, 130865.617188, 136689.421875, 1, 256, 1,0.0,0.0,0.0,0.0,0.0, 13:59:28.910
79601.960938, 121547.796875, 141884.421875, 145013.437500, 94412.515625, 97030.218750, 130882.937500, 136639.156250, 1, 256, 1,0.0,0.0,0.0,0.0,0.0, 13:59:28.910
79625.671875, 121584.117188, 141818.609375, 144856.578125, 94390.093750, 96943.781250, 130831.546875, 136652.656250, 1, 256, 1,0.0,0.0,0.0,0.0,0.0, 13:59:28.911
79662.375000, 121623.125000, 141794.609375, 144747.656250, 94392.351563, 96901.648438, 130798.757813, 136690.234375, 1, 256, 1,0.0,0.0,0.0,0.0,0.0, 13:59:28.911
79631.570313, 121578.062500, 141853.828125, 144893.593750, 94411.640625, 96973.781250, 130840.085938, 136655.359375, 1, 256, 1,0.0,0.0,0.0,0.0,0.0, 13:59:28.911
79586.109375, 121531.835938, 141880.828125, 145015.593750, 94414.257813, 97028.781250, 130877.882813, 136628.031250, 1, 256, 1,0.0,0.0,0.0,0.0,0.0, 13:59:28.912
79592.750000, 121553.789063, 141837.062500, 144895.687500, 94394.476563, 96959.250000, 130842.460938, 136642.281250, 1, 256, 1,0.0,0.0,0.0,0.0,0.0, 13:59:28.912
79644.781250, 121608.843750, 141801.453125, 144749.125000, 94394.429688, 96902.007813, 130804.437500, 136687.781250, 1, 256, 1,0.0,0.0,0.0,0.0,0.0, 13:59:28.913
79640.265625, 121585.726563, 141837.500000, 144844.171875, 94417.054688, 96968.500000, 130843.773438, 136692.953125, 1, 256, 1,0.0,0.0,0.0,0.0,0.0, 13:59:28.913
79591.343750, 121534.390625, 141875.078125, 144997.531250, 94421.679688, 97023.421875, 130887.296875, 136636.125000, 1, 256, 1,0.0,0.0,0.0,0.0,0.0, 13:59:28.913
79586.914063, 121540.195313, 141838.281250, 144919.750000, 94398.078125, 96969.039063, 130856.742188, 136627.296875, 1, 256, 1,0.0,0.0,0.0,0.0,0.0, 13:59:28.914
79634.343750, 121594.421875, 141793.562500, 144753.328125, 94391.257813, 96893.687500, 130803.476563, 136661.562500, 1, 256, 1,0.0,0.0,0.0,0.0,0.0, 13:59:28.914
79636.335938, 121586.351563, 141829.390625, 144813.421875, 94412.156250, 96941.453125, 130830.609375, 136674.718750, 1, 256, 1,0.0,0.0,0.0,0.0,0.0, 13:59:28.914
79591.273438, 121534.164063, 141880.843750, 144988.671875, 94422.210938, 97024.585938, 130886.984375, 136644.171875, 1, 256, 1,0.0,0.0,0.0,0.0,0.0, 13:59:28.915
79584.140625, 121535.546875, 141848.531250, 144951.921875, 94398.500000, 96991.546875, 130869.367188, 136631.984375, 1, 256, 1,0.0,0.0,0.0,0.0,0.0, 13:59:28.915
79642.328125, 121603.632813, 141801.046875, 144782.281250, 94387.593750, 96910.882813, 130819.304688, 136668.265625, 1, 256, 1,0.0,0.0,0.0,0.0,0.0, 13:59:28.916
79645.343750, 121605.312500, 141824.734375, 144801.140625, 94403.148438, 96929.164063, 130819.437500, 136676.781250, 1, 256, 1,0.0,0.0,0.0,0.0,0.0, 13:59:28.917
79583.070313, 121532.843750, 141878.390625, 144984.609375, 94409.875000, 97007.953125, 130864.203125, 136625.968750, 1, 256, 1,0.0,0.0,0.0,0.0,0.0, 13:59:28.917
79574.085938, 121529.023438, 141855.031250, 144987.203125, 94392.710938, 96999.820313, 130863.695313, 136616.468750, 1, 256, 1,0.0,0.0,0.0,0.0,0.0, 13:59:28.918
79623.234375, 121580.812500, 141805.625000, 144816.437500, 94388.593750, 96918.656250, 130818.070313, 136649.703125, 1, 256, 1,0.0,0.0,0.0,0.0,0.0, 13:59:28.919
79644.781250, 121596.679688, 141813.812500, 144785.703125, 94403.078125, 96917.875000, 130809.578125, 136674.609375, 1, 256, 1,0.0,0.0,0.0,0.0,0.0, 13:59:28.924
79591.187500, 121534.406250, 141861.203125, 144951.109375, 94413.343750, 96999.976563, 130856.023438, 136639.984375, 1, 256, 1,0.0,0.0,0.0,0.0,0.0, 13:59:28.925
79557.500000, 121502.085938, 141859.796875, 145005.015625, 94406.859375, 97011.125000, 130872.523438, 136611.437500, 1, 256, 1,0.0,0.0,0.0,0.0,0.0, 13:59:28.927
79596.484375, 121550.328125, 141801.000000, 144841.468750, 94398.367188, 96940.695313, 130838.140625, 136655.343750, 1, 256, 1,0.0,0.0,0.0,0.0,0.0, 13:59:28.928
79637.382813, 121588.945313, 141798.500000, 144767.687500, 94410.437500, 96925.367188, 130824.218750, 136694.843750, 1, 256, 1,0.0,0.0,0.0,0.0,0.0, 13:59:28.929
79593.976563, 121533.921875, 141853.750000, 144919.625000, 94423.171875, 97001.765625, 130863.695313, 136661.281250, 1, 256, 1,0.0,0.0,0.0,0.0,0.0, 13:59:28.930
79553.742188, 121495.492188, 141863.343750, 145006.984375, 94412.984375, 97026.195313, 130884.460938, 136621.390625, 1, 256, 1,0.0,0.0,0.0,0.0,0.0, 13:59:28.930
79587.812500, 121541.320313, 141817.500000, 144869.765625, 94398.656250, 96950.976563, 130844.914063, 136638.718750, 1, 256, 1,0.0,0.0,0.0,0.0,0.0, 13:59:28.930
79637.671875, 121589.195313, 141807.312500, 144763.453125, 94408.890625, 96910.609375, 130820.757813, 136684.125000, 1, 256, 1,0.0,0.0,0.0,0.0,0.0, 13:59:28.931
79609.578125, 121549.093750, 141857.828125, 144895.562500, 94426.976563, 96984.375000, 130863.445313, 136674.765625, 1, 256, 1,0.0,0.0,0.0,0.0,0.0, 13:59:28.931
79565.968750, 121504.882813, 141879.406250, 145027.718750, 94416.601563, 97028.453125, 130895.210938, 136625.500000, 1, 256, 1,0.0,0.0,0.0,0.0,0.0, 13:59:28.932
79583.539063, 121532.445313, 141834.359375, 144921.593750, 94390.718750, 96955.804688, 130860.718750, 136622.000000, 1, 256, 1,0.0,0.0,0.0,0.0,0.0, 13:59:28.932
79639.265625, 121590.554688, 141806.375000, 144780.796875, 94395.281250, 96907.281250, 130822.679688, 136675.750000, 1, 256, 1,0.0,0.0,0.0,0.0,0.0, 13:59:28.932
79627.054688, 121567.804688, 141845.484375, 144870.078125, 94412.539063, 96961.906250, 130850.507813, 136667.796875, 1, 256, 1,0.0,0.0,0.0,0.0,0.0, 13:59:28.933
79575.382813, 121508.101563, 141888.515625, 145027.750000, 94414.796875, 97020.335938, 130889.820313, 136608.984375, 1, 256, 1,0.0,0.0,0.0,0.0,0.0, 13:59:28.934
79576.718750, 121514.828125, 141851.812500, 144955.421875, 94403.218750, 96979.234375, 130875.804688, 136617.640625, 1, 256, 1,0.0,0.0,0.0,0.0,0.0, 13:59:28.934
79623.617188, 121568.921875, 141802.234375, 144786.125000, 94400.820313, 96907.664063, 130835.570313, 136663.828125, 1, 256, 1,0.0,0.0,0.0,0.0,0.0, 13:59:28.935
79616.062500, 121556.382813, 141834.484375, 144839.562500, 94410.726563, 96947.289063, 130837.476563, 136668.531250, 1, 256, 1,0.0,0.0,0.0,0.0,0.0, 13:59:28.936
79557.882813, 121487.226563, 141883.734375, 145013.828125, 94414.343750, 97020.960938, 130876.476563, 136621.187500, 1, 256, 1,0.0,0.0,0.0,0.0,0.0, 13:59:28.936
79559.492188, 121490.914063, 141865.640625, 144987.421875, 94403.703125, 96997.898438, 130873.843750, 136613.281250, 1, 256, 1,0.0,0.0,0.0,0.0,0.0, 13:59:28.937
79610.585938, 121554.546875, 141812.921875, 144805.859375, 94391.343750, 96922.546875, 130826.187500, 136658.500000, 1, 256, 1,0.0,0.0,0.0,0.0,0.0, 13:59:28.937
79622.210938, 121558.664063, 141835.578125, 144810.953125, 94407.437500, 96941.390625, 130834.500000, 136674.906250, 1, 256, 1,0.0,0.0,0.0,0.0,0.0, 13:59:28.938
79570.796875, 121501.867188, 141887.140625, 144986.546875, 94415.757813, 97022.640625, 130880.320313, 136637.421875, 1, 256, 1,0.0,0.0,0.0,0.0,0.0, 13:59:28.939
79546.484375, 121484.226563, 141875.562500, 145005.750000, 94400.109375, 97014.054688, 130879.718750, 136612.468750, 1, 256, 1,0.0,0.0,0.0,0.0,0.0, 13:59:28.939
79590.804688, 121530.859375, 141812.421875, 144827.406250, 94385.710938, 96926.906250, 130830.210938, 136645.640625, 1, 256, 1,0.0,0.0,0.0,0.0,0.0, 13:59:28.944
79616.171875, 121551.710938, 141822.312500, 144790.906250, 94405.406250, 96927.304688, 130826.429688, 136678.468750, 1, 256, 1,0.0,0.0,0.0,0.0,0.0, 13:59:28.945
79577.015625, 121508.234375, 141876.953125, 144959.171875, 94418.437500, 97008.265625, 130873.460938, 136643.859375, 1, 256, 1,0.0,0.0,0.0,0.0,0.0, 13:59:28.946
79543.437500, 121472.296875, 141874.656250, 145020.734375, 94406.679688, 97018.546875, 130886.468750, 136606.078125, 1, 256, 1,0.0,0.0,0.0,0.0,0.0, 13:59:28.946
79573.820313, 121517.289063, 141811.000000, 144857.500000, 94386.382813, 96935.960938, 130838.476563, 136628.203125, 1, 256, 1,0.0,0.0,0.0,0.0,0.0, 13:59:28.947
79621.960938, 121565.367188, 141803.859375, 144772.921875, 94400.960938, 96914.906250, 130823.328125, 136675.250000, 1, 256, 1,0.0,0.0,0.0,0.0,0.0, 13:59:28.947
79590.648438, 121522.117188, 141858.890625, 144923.296875, 94422.750000, 96996.867188, 130872.609375, 136656.812500, 1, 256, 1,0.0,0.0,0.0,0.0,0.0, 13:59:28.948
79550.703125, 121477.679688, 141878.000000, 145030.312500, 94417.117188, 97038.109375, 130900.531250, 136623.875000, 1, 256, 1,0.0,0.0,0.0,0.0,0.0, 13:59:28.948
79568.500000, 121502.554688, 141828.156250, 144894.109375, 94391.992188, 96959.984375, 130852.000000, 136629.484375, 1, 256, 1,0.0,0.0,0.0,0.0,0.0, 13:59:28.948
79612.351563, 121544.062500, 141799.843750, 144765.515625, 94388.796875, 96903.570313, 130813.062500, 136661.265625, 1, 256, 1,0.0,0.0,0.0,0.0,0.0, 13:59:29.348
79602.539063, 121522.562500, 141852.953125, 144887.890625, 94415.375000, 96976.148438, 130860.273438, 136653.593750, 1, 256, 1,0.0,0.0,0.0,0.0,0.0, 13:59:29.348
79548.898438, 121468.117188, 141877.375000, 145021.171875, 94399.640625, 97026.507813, 130881.351563, 136606.968750, 1, 256, 1,0.0,0.0,0.0,0.0,0.0, 13:59:29.348
79567.781250, 121499.812500, 141835.062500, 144922.250000, 94381.445313, 96966.468750, 130849.031250, 136606.390625, 1, 256, 1,0.0,0.0,0.0,0.0,0.0, 13:59:29.349
79619.078125, 121553.835938, 141801.968750, 144769.062500, 94387.992188, 96900.554688, 130813.710938, 136652.328125, 1, 256, 1,0.0,0.0,0.0,0.0,0.0, 13:59:29.349
79604.531250, 121531.640625, 141845.687500, 144853.359375, 94406.632813, 96946.914063, 130841.429688, 136640.656250, 1, 256, 1,0.0,0.0,0.0,0.0,0.0, 13:59:29.349
79552.960938, 121473.078125, 141885.984375, 145014.406250, 94408.421875, 97010.078125, 130890.445313, 136592.578125, 1, 256, 1,0.0,0.0,0.0,0.0,0.0, 13:59:29.350
79559.195313, 121485.835938, 141845.500000, 144951.031250, 94388.328125, 96975.921875, 130869.570313, 136596.843750, 1, 256, 1,0.0,0.0,0.0,0.0,0.0, 13:59:29.350
79608.664063, 121542.859375, 141797.515625, 144781.140625, 94375.812500, 96902.140625, 130806.335938, 136633.953125, 1, 256, 1,0.0,0.0,0.0,0.0,0.0, 13:59:29.351
79613.242188, 121538.367188, 141827.265625, 144823.734375, 94397.179688, 96938.554688, 130825.804688, 136651.187500, 1, 256, 1,0.0,0.0,0.0,0.0,0.0, 13:59:29.351
79560.875000, 121478.085938, 141876.265625, 145004.609375, 94405.609375, 97022.437500, 130875.429688, 136617.187500, 1, 256, 1,0.0,0.0,0.0,0.0,0.0, 13:59:29.351
79562.015625, 121482.039063, 141853.031250, 144988.546875, 94395.257813, 97008.937500, 130873.906250, 136617.406250, 1, 256, 1,0.0,0.0,0.0,0.0,0.0, 13:59:29.351
79609.914063, 121539.882813, 141800.562500, 144807.609375, 94383.453125, 96927.820313, 130821.671875, 136652.453125, 1, 256, 1,0.0,0.0,0.0,0.0,0.0, 13:59:29.352
79623.640625, 121546.437500, 141821.796875, 144806.218750, 94398.742188, 96937.117188, 130819.703125, 136663.765625, 1, 256, 1,0.0,0.0,0.0,0.0,0.0, 13:59:29.352
79571.734375, 121485.015625, 141876.484375, 144987.140625, 94408.601563, 97021.789063, 130868.812500, 136621.453125, 1, 256, 1,0.0,0.0,0.0,0.0,0.0, 13:59:29.352
79532.507813, 121449.671875, 141858.265625, 145006.953125, 94378.585938, 97005.562500, 130858.976563, 136581.093750, 1, 256, 1,0.0,0.0,0.0,0.0,0.0, 13:59:29.352
79589.820313, 121520.640625, 141803.000000, 144829.218750, 94368.367188, 96926.054688, 130815.414063, 136627.640625, 1, 256, 1,0.0,0.0,0.0,0.0,0.0, 13:59:29.352
79617.851563, 121546.414063, 141810.125000, 144780.515625, 94383.679688, 96916.023438, 130805.507813, 136655.984375, 1, 256, 1,0.0,0.0,0.0,0.0,0.0, 13:59:29.353
79573.593750, 121492.546875, 141866.500000, 144947.640625, 94398.210938, 96995.750000, 130851.531250, 136620.468750, 1, 256, 1,0.0,0.0,0.0,0.0,0.0, 13:59:29.353
79535.101563, 121457.406250, 141872.484375, 145020.375000, 94385.515625, 97012.890625, 130866.757813, 136585.093750, 1, 256, 1,0.0,0.0,0.0,0.0,0.0, 13:59:29.353
79561.523438, 121496.750000, 141810.734375, 144862.140625, 94365.421875, 96927.531250, 130819.859375, 136604.218750, 1, 256, 1,0.0,0.0,0.0,0.0,0.0, 13:59:29.353
79605.375000, 121541.804688, 141792.265625, 144758.546875, 94374.046875, 96897.804688, 130801.796875, 136652.406250, 1, 256, 1,0.0,0.0,0.0,0.0,0.0, 13:59:29.354
79577.953125, 121504.882813, 141857.234375, 144910.562500, 94400.000000, 96982.898438, 130851.757813, 136633.546875, 1, 256, 1,0.0,0.0,0.0,0.0,0.0, 13:59:29.354
79532.000000, 121457.140625, 141880.062500, 145026.031250, 94389.914063, 97020.671875, 130875.781250, 136588.015625, 1, 256, 1,0.0,0.0,0.0,0.0,0.0, 13:59:29.354
79551.914063, 121489.148438, 141821.718750, 144892.390625, 94367.273438, 96950.375000, 130831.039063, 136601.750000, 1, 256, 1,0.0,0.0,0.0,0.0,0.0, 13:59:29.355
79601.976563, 121542.187500, 141786.656250, 144755.015625, 94366.515625, 96895.500000, 130791.515625, 136642.156250, 1, 256, 1,0.0,0.0,0.0,0.0,0.0, 13:59:29.355
79591.031250, 121524.531250, 141835.140625, 144870.843750, 94386.492188, 96961.882813, 130828.445313, 136636.234375, 1, 256, 1,0.0,0.0,0.0,0.0,0.0, 13:59:29.355
79546.054688, 121470.375000, 141882.859375, 145028.062500, 94392.507813, 97023.484375, 130872.585938, 136596.953125, 1, 256, 1,0.0,0.0,0.0,0.0,0.0, 13:59:29.356
79554.195313, 121491.203125, 141839.296875, 144936.703125, 94381.781250, 96970.937500, 130854.773438, 136608.734375, 1, 256, 1,0.0,0.0,0.0,0.0,0.0, 13:59:29.356
79609.890625, 121550.437500, 141799.062500, 144777.828125, 94377.960938, 96912.375000, 130804.078125, 136659.453125, 1, 256, 1,0.0,0.0,0.0,0.0,0.0, 13:59:29.357
79602.625000, 121534.609375, 141838.796875, 144853.890625, 94402.742188, 96965.734375, 130835.015625, 136666.421875, 1, 256, 1,0.0,0.0,0.0,0.0,0.0, 13:59:29.357
79536.601563, 121465.703125, 141882.671875, 145022.718750, 94400.960938, 97028.429688, 130875.132813, 136609.078125, 1, 256, 1,0.0,0.0,0.0,0.0,0.0, 13:59:29.358
79534.835938, 121476.718750, 141838.468750, 144961.765625, 94376.750000, 96987.078125, 130851.328125, 136604.140625, 1, 256, 1,0.0,0.0,0.0,0.0,0.0, 13:59:29.359
79584.765625, 121534.726563, 141783.281250, 144785.593750, 94370.718750, 96911.484375, 130802.937500, 136648.234375, 1, 256, 1,0.0,0.0,0.0,0.0,0.0, 13:59:29.359
79592.750000, 121532.976563, 141813.250000, 144817.375000, 94393.648438, 96944.273438, 130821.828125, 136663.187500, 1, 256, 1,0.0,0.0,0.0,0.0,0.0, 13:59:29.360
79534.789063, 121462.257813, 141862.000000, 144994.000000, 94394.164063, 97017.273438, 130863.671875, 136609.859375, 1, 256, 1,0.0,0.0,0.0,0.0,0.0, 13:59:29.360
79519.882813, 121450.054688, 141838.562500, 144984.875000, 94376.546875, 96996.062500, 130856.851563, 136591.296875, 1, 256, 1,0.0,0.0,0.0,0.0,0.0, 13:59:29.361
79568.273438, 121511.367188, 141783.656250, 144803.921875, 94367.835938, 96915.843750, 130808.375000, 136633.062500, 1, 256, 1,0.0,0.0,0.0,0.0,0.0, 13:59:29.363
79586.218750, 121526.226563, 141795.796875, 144783.171875, 94383.546875, 96921.898438, 130807.523438, 136655.703125, 1, 256, 1,0.0,0.0,0.0,0.0,0.0, 13:59:29.364
79548.578125, 121473.882813, 141859.500000, 144968.765625, 94401.156250, 97008.359375, 130858.507813, 136622.859375, 1, 256, 1,0.0,0.0,0.0,0.0,0.0, 13:59:29.364
79528.265625, 121454.953125, 141856.140625, 145013.015625, 94384.867188, 97015.867188, 130865.726563, 136602.593750, 1, 256, 1,0.0,0.0,0.0,0.0,0.0, 13:59:29.365
79575.718750, 121513.445313, 141800.531250, 144840.796875, 94375.500000, 96943.781250, 130826.968750, 136648.328125, 1, 256, 1,0.0,0.0,0.0,0.0,0.0, 13:59:29.366
79603.789063, 121543.062500, 141804.468750, 144774.296875, 94393.421875, 96934.906250, 130821.226563, 136689.718750, 1, 256, 1,0.0,0.0,0.0,0.0,0.0, 13:59:29.366
79551.445313, 121488.250000, 141858.500000, 144934.390625, 94402.093750, 97008.890625, 130860.539063, 136648.234375, 1, 256, 1,0.0,0.0,0.0,0.0,0.0, 13:59:29.367
79519.257813, 121457.140625, 141869.000000, 145020.796875, 94386.320313, 97026.820313, 130873.843750, 136607.062500, 1, 256, 1,0.0,0.0,0.0,0.0,0.0, 13:59:29.367
79571.914063, 121521.648438, 141818.218750, 144876.734375, 94376.750000, 96954.804688, 130836.468750, 136639.937500, 1, 256, 1,0.0,0.0,0.0,0.0,0.0, 13:59:29.367
79606.117188, 121557.882813, 141800.953125, 144768.937500, 94382.921875, 96910.523438, 130802.851563, 136668.031250, 1, 256, 1,0.0,0.0,0.0,0.0,0.0, 13:59:29.368
79578.664063, 121519.882813, 141854.578125, 144908.296875, 94399.953125, 96980.460938, 130846.414063, 136644.250000, 1, 256, 1,0.0,0.0,0.0,0.0,0.0, 13:59:29.368
79535.171875, 121478.796875, 141870.296875, 145026.703125, 94390.359375, 97021.117188, 130872.718750, 136603.218750, 1, 256, 1,0.0,0.0,0.0,0.0,0.0, 13:59:29.369
79555.242188, 121515.031250, 141814.593750, 144901.296875, 94366.445313, 96953.835938, 130825.070313, 136613.125000, 1, 256, 1,0.0,0.0,0.0,0.0,0.0, 13:59:29.369
79601.289063, 121568.500000, 141777.609375, 144754.390625, 94363.718750, 96898.031250, 130780.164063, 136654.250000, 1, 256, 1,0.0,0.0,0.0,0.0,0.0, 13:59:29.369
79578.820313, 121538.257813, 141826.500000, 144863.734375, 94384.195313, 96958.421875, 130813.601563, 136643.390625, 1, 256, 1,0.0,0.0,0.0,0.0,0.0, 13:59:29.369
79526.226563, 121487.406250, 141857.359375, 145009.890625, 94381.601563, 97016.265625, 130857.992188, 136602.062500, 1, 256, 1,0.0,0.0,0.0,0.0,0.0, 13:59:29.370
79531.351563, 121503.718750, 141817.359375, 144926.156250, 94360.812500, 96963.140625, 130827.859375, 136601.187500, 1, 256, 1,0.0,0.0,0.0,0.0,0.0, 13:59:29.370
79587.226563, 121565.007813, 141765.625000, 144753.796875, 94350.328125, 96891.609375, 130771.601563, 136647.859375, 1, 256, 1,0.0,0.0,0.0,0.0,0.0, 13:59:29.370
79586.671875, 121553.945313, 141803.687500, 144822.640625, 94377.820313, 96941.101563, 130804.437500, 136659.500000, 1, 256, 1,0.0,0.0,0.0,0.0,0.0, 13:59:29.370
79529.695313, 121489.570313, 141854.140625, 145001.703125, 94382.875000, 97016.492188, 130856.093750, 136617.406250, 1, 256, 1,0.0,0.0,0.0,0.0,0.0, 13:59:29.370
79520.265625, 121489.414063, 141814.125000, 144955.328125, 94361.039063, 96980.570313, 130837.585938, 136609.093750, 1, 256, 1,0.0,0.0,0.0,0.0,0.0, 13:59:29.371
79569.078125, 121548.539063, 141763.390625, 144775.343750, 94358.195313, 96901.312500, 130790.531250, 136649.984375, 1, 256, 1,0.0,0.0,0.0,0.0,0.0, 13:59:29.371
79583.789063, 121557.390625, 141790.671875, 144795.625000, 94381.179688, 96929.164063, 130809.492188, 136674.296875, 1, 256, 1,0.0,0.0,0.0,0.0,0.0, 13:59:29.371
79535.078125, 121497.640625, 141846.828125, 144980.390625, 94388.328125, 97010.773438, 130856.921875, 136634.562500, 1, 256, 1,0.0,0.0,0.0,0.0,0.0, 13:59:29.371
79517.265625, 121484.250000, 141838.281250, 144990.750000, 94367.851563, 96995.679688, 130842.703125, 136605.906250, 1, 256, 1,0.0,0.0,0.0,0.0,0.0, 13:59:29.371
79567.781250, 121546.414063, 141781.484375, 144809.234375, 94359.250000, 96911.531250, 130795.609375, 136644.921875, 1, 256, 1,0.0,0.0,0.0,0.0,0.0, 13:59:29.372
79588.945313, 121565.140625, 141792.468750, 144776.765625, 94375.343750, 96912.601563, 130794.179688, 136674.781250, 1, 256, 1,0.0,0.0,0.0,0.0,0.0, 13:59:29.372
79542.617188, 121502.718750, 141859.046875, 144959.187500, 94390.835938, 96996.710938, 130846.976563, 136640.906250, 1, 256, 1,0.0,0.0,0.0,0.0,0.0, 13:59:29.373
79512.171875, 121473.835938, 141851.500000, 145008.015625, 94374.804688, 96997.492188, 130855.781250, 136606.375000, 1, 256, 1,0.0,0.0,0.0,0.0,0.0, 13:59:29.373
79550.750000, 121522.812500, 141786.593750, 144834.937500, 94362.757813, 96915.101563, 130810.718750, 136635.421875, 1, 256, 1,0.0,0.0,0.0,0.0,0.0, 13:59:29.374
79589.375000, 121564.140625, 141780.937500, 144756.437500, 94377.687500, 96899.101563, 130799.250000, 136675.484375, 1, 256, 1,0.0,0.0,0.0,0.0,0.0, 13:59:29.374
79555.578125, 121519.476563, 141841.750000, 144919.296875, 94392.398438, 96983.453125, 130844.250000, 136650.265625, 1, 256, 1,0.0,0.0,0.0,0.0,0.0, 13:59:29.374
79518.812500, 121480.968750, 141860.015625, 145020.125000, 94385.398438, 97014.992188, 130868.273438, 136619.468750, 1, 256, 1,0.0,0.0,0.0,0.0,0.0, 13:59:29.375
79542.476563, 121515.367188, 141803.390625, 144875.859375, 94370.335938, 96938.171875, 130828.976563, 136638.640625, 1, 256, 1,0.0,0.0,0.0,0.0,0.0, 13:59:29.375
79582.687500, 121558.929688, 141775.343750, 144753.734375, 94374.937500, 96895.414063, 130800.773438, 136681.843750, 1, 256, 1,0.0,0.0,0.0,0.0,0.0, 13:59:29.376
79560.093750, 121526.007813, 141828.140625, 144886.328125, 94395.859375, 96970.000000, 130842.835938, 136671.750000, 1, 256, 1,0.0,0.0,0.0,0.0,0.0, 13:59:29.376
79520.171875, 121479.804688, 141861.578125, 145027.500000, 94393.421875, 97019.890625, 130878.421875, 136633.218750, 1, 256, 1,0.0,0.0,0.0,0.0,0.0, 13:59:29.376
79530.390625, 121501.328125, 141818.328125, 144915.984375, 94373.867188, 96958.156250, 130844.046875, 136640.187500, 1, 256, 1,0.0,0.0,0.0,0.0,0.0, 13:59:29.377
79578.843750, 121558.234375, 141775.015625, 144759.187500, 94369.640625, 96898.187500, 130799.054688, 136686.921875, 1, 256, 1,0.0,0.0,0.0,0.0,0.0, 13:59:29.377
79572.812500, 121536.976563, 141822.859375, 144859.593750, 94395.148438, 96960.593750, 130836.648438, 136691.218750, 1, 256, 1,0.0,0.0,0.0,0.0,0.0, 13:59:29.377
79523.460938, 121484.789063, 141864.187500, 145022.687500, 94395.617188, 97020.742188, 130876.500000, 136644.640625, 1, 256, 1,0.0,0.0,0.0,0.0,0.0, 13:59:29.378
79532.757813, 121502.335938, 141825.546875, 144948.937500, 94380.820313, 96973.015625, 130855.601563, 136647.046875, 1, 256, 1,0.0,0.0,0.0,0.0,0.0, 13:59:29.379
79578.820313, 121555.914063, 141780.546875, 144776.531250, 94375.968750, 96899.570313, 130805.195313, 136685.703125, 1, 256, 1,0.0,0.0,0.0,0.0,0.0, 13:59:29.379
79576.343750, 121545.609375, 141817.718750, 144832.906250, 94396.578125, 96935.421875, 130823.906250, 136689.046875, 1, 256, 1,0.0,0.0,0.0,0.0,0.0, 13:59:29.380
79528.328125, 121488.031250, 141863.250000, 145008.640625, 94399.703125, 97008.960938, 130869.617188, 136648.703125, 1, 256, 1,0.0,0.0,0.0,0.0,0.0, 13:59:29.385
79525.984375, 121491.960938, 141832.656250, 144979.578125, 94381.468750, 96979.343750, 130855.421875, 136636.125000, 1, 256, 1,0.0,0.0,0.0,0.0,0.0, 13:59:29.385
79574.937500, 121550.164063, 141782.265625, 144801.843750, 94376.015625, 96905.289063, 130809.085938, 136679.859375, 1, 256, 1,0.0,0.0,0.0,0.0,0.0, 13:59:29.386
79586.937500, 121559.664063, 141799.703125, 144806.859375, 94387.500000, 96924.289063, 130809.601563, 136699.843750, 1, 256, 1,0.0,0.0,0.0,0.0,0.0, 13:59:29.386
79538.320313, 121497.062500, 141855.812500, 144990.859375, 94397.023438, 97005.945313, 130857.921875, 136662.218750, 1, 256, 1,0.0,0.0,0.0,0.0,0.0, 13:59:29.386
79519.703125, 121481.148438, 141838.406250, 145001.218750, 94373.132813, 96993.539063, 130849.406250, 136634.406250, 1, 256, 1,0.0,0.0,0.0,0.0,0.0, 13:59:29.387
79572.476563, 121549.164063, 141783.140625, 144819.859375, 94366.398438, 96914.765625, 130808.906250, 136676.078125, 1, 256, 1,0.0,0.0,0.0,0.0,0.0, 13:59:29.387
79596.101563, 121570.265625, 141791.062500, 144780.562500, 94382.609375, 96911.953125, 130804.687500, 136704.156250, 1, 256, 1,0.0,0.0,0.0,0.0,0.0, 13:59:29.387
79550.679688, 121514.898438, 141848.765625, 144958.031250, 94400.554688, 96992.867188, 130861.632813, 136674.453125, 1, 256, 1,0.0,0.0,0.0,0.0,0.0, 13:59:29.387
79518.429688, 121485.257813, 141850.375000, 145022.828125, 94379.210938, 97002.859375, 130856.312500, 136636.343750, 1, 256, 1,0.0,0.0,0.0,0.0,0.0, 13:59:29.387
79554.507813, 121533.695313, 141782.875000, 144847.593750, 94355.000000, 96918.812500, 130796.570313, 136660.125000, 1, 256, 1,0.0,0.0,0.0,0.0,0.0, 13:59:29.388
79588.882813, 121565.523438, 141775.187500, 144759.687500, 94369.640625, 96889.984375, 130780.609375, 136693.984375, 1, 256, 1,0.0,0.0,0.0,0.0,0.0, 13:59:29.388
79551.195313, 121519.234375, 141832.343750, 144916.921875, 94381.218750, 96964.390625, 130819.281250, 136665.781250, 1, 256, 1,0.0,0.0,0.0,0.0,0.0, 13:59:29.388
79514.960938, 121481.414063, 141843.859375, 145020.328125, 94372.328125, 96993.000000, 130849.523438, 136629.953125, 1, 256, 1,0.0,0.0,0.0,0.0,0.0, 13:59:29.388
79546.148438, 121518.609375, 141801.718750, 144888.875000, 94369.195313, 96920.398438, 130821.601563, 136647.406250, 1, 256, 1,0.0,0.0,0.0,0.0,0.0, 13:59:29.388
79599.523438, 121572.523438, 141783.906250, 144763.890625, 94376.148438, 96880.414063, 130784.570313, 136692.515625, 1, 256, 1,0.0,0.0,0.0,0.0,0.0, 13:59:29.388
79572.296875, 121532.289063, 141837.078125, 144890.578125, 94392.171875, 96955.960938, 130820.218750, 136684.281250, 1, 256, 1,0.0,0.0,0.0,0.0,0.0, 13:59:29.389
79521.601563, 121476.968750, 141867.984375, 145030.984375, 94388.148438, 97006.140625, 130858.726563, 136640.250000, 1, 256, 1,0.0,0.0,0.0,0.0,0.0, 13:59:29.389
79542.812500, 121511.812500, 141819.046875, 144925.265625, 94370.265625, 96950.843750, 130830.078125, 136659.828125, 1, 256, 1,0.0,0.0,0.0,0.0,0.0, 13:59:29.389
79598.382813, 121573.523438, 141777.359375, 144764.375000, 94377.039063, 96894.320313, 130798.109375, 136716.312500, 1, 256, 1,0.0,0.0,0.0,0.0,0.0, 13:59:29.389
79592.125000, 121548.937500, 141823.515625, 144856.796875, 94401.179688, 96947.578125, 130827.351563, 136712.718750, 1, 256, 1,0.0,0.0,0.0,0.0,0.0, 13:59:29.390
79543.664063, 121494.085938, 141867.203125, 145032.421875, 94402.656250, 97012.312500, 130871.937500, 136664.578125, 1, 256, 1,0.0,0.0,0.0,0.0,0.0, 13:59:29.391
79535.078125, 121497.460938, 141831.421875, 144970.375000, 94374.406250, 96963.875000, 130844.382813, 136650.312500, 1, 256, 1,0.0,0.0,0.0,0.0,0.0, 13:59:29.391
79587.046875, 121564.203125, 141778.703125, 144789.000000, 94367.585938, 96890.671875, 130790.671875, 136700.343750, 1, 256, 1,0.0,0.0,0.0,0.0,0.0, 13:59:29.392
79590.625000, 121563.109375, 141814.187500, 144835.000000, 94389.960938, 96925.320313, 130815.460938, 136713.093750, 1, 256, 1,0.0,0.0,0.0,0.0,0.0, 13:59:29.393
79553.296875, 121514.695313, 141860.296875, 145015.406250, 94391.304688, 96997.359375, 130859.421875, 136667.140625, 1, 256, 1,0.0,0.0,0.0,0.0,0.0, 13:59:29.393
79546.968750, 121513.039063, 141841.421875, 145001.734375, 94375.210938, 96972.484375, 130855.578125, 136650.000000, 1, 256, 1,0.0,0.0,0.0,0.0,0.0, 13:59:29.394
79604.617188, 121586.601563, 141787.187500, 144816.906250, 94371.585938, 96896.867188, 130811.101563, 136699.328125, 1, 256, 1,0.0,0.0,0.0,0.0,0.0, 13:59:29.394
79629.562500, 121607.609375, 141812.406250, 144818.203125, 94393.203125, 96915.218750, 130816.398438, 136720.468750, 1, 256, 1,0.0,0.0,0.0,0.0,0.0, 13:59:29.394
79588.367188, 121553.500000, 141870.562500, 145000.093750, 94404.984375, 97000.484375, 130866.109375, 136684.437500, 1, 256, 1,0.0,0.0,0.0,0.0,0.0, 13:59:29.394
79571.382813, 121543.062500, 141860.031250, 145026.359375, 94387.906250, 96997.781250, 130866.773438, 136660.375000, 1, 256, 1,0.0,0.0,0.0,0.0,0.0, 13:59:29.395
79621.515625, 121605.375000, 141799.812500, 144847.390625, 94373.132813, 96922.750000, 130809.984375, 136699.125000, 1, 256, 1,0.0,0.0,0.0,0.0,0.0, 13:59:29.395
79631.304688, 121613.375000, 141807.078125, 144797.531250, 94387.968750, 96913.273438, 130797.843750, 136721.062500, 1, 256, 1,0.0,0.0,0.0,0.0,0.0, 13:59:29.395
79583.359375, 121558.507813, 141865.515625, 144968.328125, 94396.820313, 96987.164063, 130841.226563, 136685.031250, 1, 256, 1,0.0,0.0,0.0,0.0,0.0, 13:59:29.397
79557.429688, 121528.710938, 141872.187500, 145038.765625, 94386.320313, 97007.218750, 130860.765625, 136660.859375, 1, 256, 1,0.0,0.0,0.0,0.0,0.0, 13:59:29.398
79597.796875, 121579.203125, 141812.812500, 144873.140625, 94376.234375, 96938.078125, 130822.226563, 136695.781250, 1, 256, 1,0.0,0.0,0.0,0.0,0.0, 13:59:29.399
79632.242188, 121616.218750, 141800.828125, 144779.484375, 94388.304688, 96907.281250, 130800.507813, 136730.515625, 1, 256, 1,0.0,0.0,0.0,0.0,0.0, 13:59:29.407
79605.312500, 121575.312500, 141859.203125, 144932.343750, 94408.218750, 96981.554688, 130845.296875, 136711.359375, 1, 256, 1,0.0,0.0,0.0,0.0,0.0, 13:59:29.409
79563.085938, 121526.695313, 141878.515625, 145046.406250, 94397.179688, 97015.195313, 130869.773438, 136669.843750, 1, 256, 1,0.0,0.0,0.0,0.0,0.0, 13:59:29.410
79581.531250, 121553.992188, 141828.000000, 144912.671875, 94378.562500, 96944.406250, 130830.703125, 136680.671875, 1, 256, 1,0.0,0.0,0.0,0.0,0.0, 13:59:29.410
79622.585938, 121598.718750, 141796.156250, 144770.812500, 94384.640625, 96890.539063, 130800.390625, 136727.531250, 1, 256, 1,0.0,0.0,0.0,0.0,0.0, 13:59:29.831
79611.929688, 121578.734375, 141846.156250, 144890.000000, 94409.070313, 96958.578125, 130838.945313, 136726.750000, 1, 256, 1,0.0,0.0,0.0,0.0,0.0, 13:59:29.832
79573.078125, 121535.531250, 141888.109375, 145046.500000, 94410.257813, 97017.562500, 130877.101563, 136690.125000, 1, 256, 1,0.0,0.0,0.0,0.0,0.0, 13:59:29.832
79585.796875, 121557.117188, 141846.671875, 144950.156250, 94395.773438, 96960.789063, 130855.242188, 136694.187500, 1, 256, 1,0.0,0.0,0.0,0.0,0.0, 13:59:29.832
79629.179688, 121599.898438, 141805.703125, 144784.453125, 94397.023438, 96893.375000, 130821.562500, 136733.171875, 1, 256, 1,0.0,0.0,0.0,0.0,0.0, 13:59:29.832
79620.953125, 121584.726563, 141839.203125, 144860.125000, 94409.789063, 96939.828125, 130838.750000, 136735.000000, 1, 256, 1,0.0,0.0,0.0,0.0,0.0, 13:59:29.832
79568.992188, 121531.257813, 141880.125000, 145034.906250, 94403.375000, 97006.273438, 130868.835938, 136688.937500, 1, 256, 1,0.0,0.0,0.0,0.0,0.0, 13:59:29.833
79565.031250, 121535.953125, 141850.796875, 144985.296875, 94384.750000, 96966.695313, 130855.375000, 136679.750000, 1, 256, 1,0.0,0.0,0.0,0.0,0.0, 13:59:29.833
79626.054688, 121606.468750, 141797.875000, 144804.453125, 94386.164063, 96893.625000, 130812.554688, 136730.250000, 1, 256, 1,0.0,0.0,0.0,0.0,0.0, 13:59:29.833
79633.656250, 121608.281250, 141822.812500, 144835.984375, 94404.960938, 96921.539063, 130822.679688, 136743.468750, 1, 256, 1,0.0,0.0,0.0,0.0,0.0, 13:59:29.833
79588.140625, 121550.500000, 141868.859375, 145017.109375, 94407.570313, 96997.875000, 130867.914063, 136705.906250, 1, 256, 1,0.0,0.0,0.0,0.0,0.0, 13:59:29.833
79576.500000, 121540.242188, 141853.796875, 145019.093750, 94392.953125, 96984.351563, 130862.750000, 136689.718750, 1, 256, 1,0.0,0.0,0.0,0.0,0.0, 13:59:29.834
79613.804688, 121591.164063, 141801.156250, 144836.437500, 94390.296875, 96900.085938, 130820.640625, 136724.546875, 1, 256, 1,0.0,0.0,0.0,0.0,0.0, 13:59:29.834
79628.351563, 121601.820313, 141811.671875, 144810.671875, 94398.921875, 96901.359375, 130809.828125, 136745.640625, 1, 256, 1,0.0,0.0,0.0,0.0,0.0, 13:59:29.834
79589.218750, 121550.210938, 141868.015625, 144990.734375, 94411.750000, 96983.992188, 130867.492188, 136718.625000, 1, 256, 1,0.0,0.0,0.0,0.0,0.0, 13:59:29.834
79573.078125, 121536.312500, 141862.468750, 145037.015625, 94392.929688, 96988.710938, 130871.562500, 136696.046875, 1, 256, 1,0.0,0.0,0.0,0.0,0.0, 13:59:29.835
79607.210938, 121584.054688, 141807.593750, 144866.703125, 94380.414063, 96908.710938, 130825.562500, 136724.906250, 1, 256, 1,0.0,0.0,0.0,0.0,0.0, 13:59:29.835
79639.640625, 121617.000000, 141804.140625, 144798.593750, 94397.445313, 96896.890625, 130817.734375, 136761.015625, 1, 256, 1,0.0,0.0,0.0,0.0,0.0, 13:59:29.835
79594.914063, 121558.531250, 141863.406250, 144968.015625, 94406.882813, 96974.562500, 130854.507813, 136723.875000, 1, 256, 1,0.0,0.0,0.0,0.0,0.0, 13:59:29.836
79550.703125, 121515.187500, 141868.343750, 145049.937500, 94388.929688, 96992.328125, 130867.445313, 136678.812500, 1, 256, 1,0.0,0.0,0.0,0.0,0.0, 13:59:29.836
79579.453125, 121559.375000, 141803.859375, 144881.609375, 94369.304688, 96916.492188, 130823.148438, 136701.187500, 1, 256, 1,0.0,0.0,0.0,0.0,0.0, 13:59:29.837
79621.515625, 121605.015625, 141785.140625, 144770.281250, 94382.000000, 96887.609375, 130805.289063, 136738.875000, 1, 256, 1,0.0,0.0,0.0,0.0,0.0, 13:59:29.838
79602.335938, 121567.984375, 141847.390625, 144923.609375, 94405.117188, 96964.906250, 130853.585938, 136731.671875, 1, 256, 1,0.0,0.0,0.0,0.0,0.0, 13:59:29.838
79561.523438, 121521.062500, 141876.828125, 145053.625000, 94397.156250, 97002.789063, 130879.070313, 136693.140625, 1, 256, 1,0.0,0.0,0.0,0.0,0.0, 13:59:29.839
79581.148438, 121556.179688, 141826.375000, 144930.468750, 94383.343750, 96938.195313, 130844.359375, 136706.031250, 1, 256, 1,0.0,0.0,0.0,0.0,0.0, 13:59:29.840
79632.085938, 121612.281250, 141797.421875, 144786.921875, 94398.632813, 96888.664063, 130827.414063, 136760.062500, 1, 256, 1,0.0,0.0,0.0,0.0,0.0, 13:59:29.840
79611.703125, 121579.828125, 141848.328125, 144902.734375, 94404.398438, 96946.976563, 130846.257813, 136742.093750, 1, 256, 1,0.0,0.0,0.0,0.0,0.0, 13:59:29.841
79562.640625, 121520.929688, 141889.140625, 145064.250000, 94394.453125, 97000.062500, 130876.765625, 136690.906250, 1, 256, 1,0.0,0.0,0.0,0.0,0.0, 13:59:29.842
79586.359375, 121547.796875, 141848.281250, 144977.453125, 94381.937500, 96949.773438, 130850.843750, 136697.140625, 1, 256, 1,0.0,0.0,0.0,0.0,0.0, 13:59:29.842
79645.367188, 121616.460938, 141805.296875, 144803.140625, 94384.953125, 96886.289063, 130809.039063, 136748.109375, 1, 256, 1,0.0,0.0,0.0,0.0,0.0, 13:59:29.843
79632.757813, 121593.531250, 141849.578125, 144875.125000, 94405.960938, 96936.156250, 130835.750000, 136750.500000, 1, 256, 1,0.0,0.0,0.0,0.0,0.0, 13:59:29.844
79572.054688, 121518.539063, 141893.031250, 145052.171875, 94400.039063, 97004.132813, 130877.218750, 136701.953125, 1, 256, 1,0.0,0.0,0.0,0.0,0.0, 13:59:29.845
79572.742188, 121530.992188, 141856.218750, 145006.000000, 94382.562500, 96973.867188, 130866.843750, 136701.281250, 1, 256, 1,0.0,0.0,0.0,0.0,0.0, 13:59:29.845
79612.351563, 121589.484375, 141804.562500, 144817.734375, 94376.414063, 96891.054688, 130818.695313, 136730.156250, 1, 256, 1,0.0,0.0,0.0,0.0,0.0, 13:59:29.846
79628.468750, 121593.976563, 141841.703125, 144846.937500, 94404.578125, 96917.632813, 130836.156250, 136747.281250, 1, 256, 1,0.0,0.0,0.0,0.0,0.0, 13:59:29.846
79584.320313, 121538.632813, 141892.421875, 145031.171875, 94408.242188, 96995.125000, 130876.429688, 136710.546875, 1, 256, 1,0.0,0.0,0.0,0.0,0.0, 13:59:29.846
79555.242188, 121522.117188, 141871.046875, 145032.625000, 94380.843750, 96978.093750, 130861.007813, 136679.031250, 1, 256, 1,0.0,0.0,0.0,0.0,0.0, 13:59:29.847
79599.187500, 121576.093750, 141805.265625, 144837.250000, 94365.085938, 96901.445313, 130810.070313, 136715.531250, 1, 256, 1,0.0,0.0,0.0,0.0,0.0, 13:59:29.847
79632.335938, 121599.382813, 141822.640625, 144812.656250, 94389.468750, 96918.656250, 130816.687500, 136751.796875, 1, 256, 1,0.0,0.0,0.0,0.0,0.0, 13:59:29.848
79597.843750, 121548.695313, 141892.828125, 145006.796875, 94412.671875, 97007.929688, 130877.039063, 136725.859375, 1, 256, 1,0.0,0.0,0.0,0.0,0.0, 13:59:29.848
79573.929688, 121529.070313, 141893.000000, 145061.250000, 94402.343750, 97014.906250, 130888.656250, 136700.468750, 1, 256, 1,0.0,0.0,0.0,0.0,0.0, 13:59:29.848
79605.710938, 121573.007813, 141833.703125, 144886.500000, 94394.382813, 96932.382813, 130844.695313, 136724.281250, 1, 256, 1,0.0,0.0,0.0,0.0,0.0, 13:59:29.848
79626.570313, 121590.335938, 141823.281250, 144804.781250, 94403.507813, 96905.335938, 130826.406250, 136749.781250, 1, 256, 1,0.0,0.0,0.0,0.0,0.0, 13:59:29.849
79589.328125, 121542.945313, 141881.921875, 144972.921875, 94411.796875, 96984.867188, 130867.718750, 136722.218750, 1, 256, 1,0.0,0.0,0.0,0.0,0.0, 13:59:29.849
79553.765625, 121507.250000, 141896.531250, 145076.859375, 94397.359375, 97017.046875, 130881.242188, 136688.109375, 1, 256, 1,0.0,0.0,0.0,0.0,0.0, 13:59:29.849
79589.578125, 121553.992188, 141838.718750, 144925.437500, 94384.710938, 96948.406250, 130844.109375, 136714.843750, 1, 256, 1,0.0,0.0,0.0,0.0,0.0, 13:59:29.849
79636.023438, 121601.265625, 141822.640625, 144806.468750, 94400.664063, 96913.789063, 130823.187500, 136756.890625, 1, 256, 1,0.0,0.0,0.0,0.0,0.0, 13:59:29.850
79610.742188, 121565.234375, 141870.875000, 144939.281250, 94414.773438, 96979.054688, 130854.351563, 136731.812500, 1, 256, 1,0.0,0.0,0.0,0.0,0.0, 13:59:29.850
79569.320313, 121516.726563, 141893.984375, 145076.265625, 94401.648438, 97023.484375, 130876.343750, 136688.406250, 1, 256, 1,0.0,0.0,0.0,0.0,0.0, 13:59:29.850
79596.796875, 121546.632813, 141845.937500, 144962.531250, 94384.976563, 96966.625000, 130850.414063, 136703.843750, 1, 256, 1,0.0,0.0,0.0,0.0,0.0, 13:59:29.851
79651.828125, 121608.437500, 141807.578125, 144803.890625, 94393.023438, 96914.992188, 130821.312500, 136758.937500, 1, 256, 1,0.0,0.0,0.0,0.0,0.0, 13:59:29.851
79618.453125, 121575.203125, 141846.437500, 144900.968750, 94408.218750, 96967.585938, 130841.812500, 136746.734375, 1, 256, 1,0.0,0.0,0.0,0.0,0.0, 13:59:29.851
79556.203125, 121510.070313, 141887.453125, 145069.203125, 94400.484375, 97023.195313, 130868.898438, 136690.250000, 1, 256, 1,0.0,0.0,0.0,0.0,0.0, 13:59:29.852
79574.304688, 121525.851563, 141846.984375, 144988.609375, 94383.054688, 96973.617188, 130847.687500, 136688.328125, 1, 256, 1,0.0,0.0,0.0,0.0,0.0, 13:59:29.853
79636.625000, 121592.632813, 141799.125000, 144809.281250, 94391.460938, 96910.703125, 130817.132813, 136745.796875, 1, 256, 1,0.0,0.0,0.0,0.0,0.0, 13:59:29.853
79629.335938, 121579.312500, 141832.671875, 144870.531250, 94408.828125, 96951.406250, 130835.218750, 136748.593750, 1, 256, 1,0.0,0.0,0.0,0.0,0.0, 13:59:29.854
79575.093750, 121513.843750, 141876.937500, 145053.140625, 94397.937500, 97020.781250, 130862.867188, 136701.546875, 1, 256, 1,0.0,0.0,0.0,0.0,0.0, 13:59:29.854
79569.281250, 121517.398438, 141852.250000, 145028.375000, 94379.320313, 96993.085938, 130852.093750, 136690.015625, 1, 256, 1,0.0,0.0,0.0,0.0,0.0, 13:59:29.854
79621.585938, 121585.304688, 141789.421875, 144836.140625, 94375.523438, 96911.390625, 130812.257813, 136729.265625, 1, 256, 1,0.0,0.0,0.0,0.0,0.0, 13:59:29.855
79628.648438, 121587.648438, 141810.687500, 144842.968750, 94394.765625, 96929.609375, 130819.148438, 136745.046875, 1, 256, 1,0.0,0.0,0.0,0.0,0.0, 13:59:29.855
79584.750000, 121531.101563, 141870.343750, 145032.656250, 94403.414063, 97010.210938, 130860.382813, 136706.265625, 1, 256, 1,0.0,0.0,0.0,0.0,0.0, 13:59:29.855
79565.476563, 121521.828125, 141863.921875, 145056.828125, 94387.390625, 97004.289063, 130858.085938, 136685.359375, 1, 256, 1,0.0,0.0,0.0,0.0,0.0, 13:59:29.856
79601.171875, 121568.718750, 141811.062500, 144875.109375, 94379.992188, 96926.054688, 130818.226563, 136720.656250, 1, 256, 1,0.0,0.0,0.0,0.0,0.0, 13:59:29.856
79629.789063, 121591.671875, 141817.875000, 144833.875000, 94399.437500, 96920.085938, 130821.000000, 136749.000000, 1, 256, 1,0.0,0.0,0.0,0.0,0.0, 13:59:29.856
79597.843750, 121545.296875, 141871.250000, 145011.984375, 94406.968750, 97001.445313, 130861.929688, 136718.890625, 1, 256, 1,0.0,0.0,0.0,0.0,0.0, 13:59:29.857
79560.562500, 121507.742188, 141876.953125, 145081.187500, 94384.281250, 97010.945313, 130859.984375, 136672.640625, 1, 256, 1,0.0,0.0,0.0,0.0,0.0, 13:59:29.857
79603.765625, 121563.289063, 141816.734375, 144909.187500, 94374.250000, 96937.609375, 130822.093750, 136707.000000, 1, 256, 1,0.0,0.0,0.0,0.0,0.0, 13:59:29.857
79650.234375, 121605.289063, 141797.812500, 144813.687500, 94385.289063, 96919.304688, 130805.015625, 136752.578125, 1, 256, 1,0.0,0.0,0.0,0.0,0.0, 13:59:29.857
79613.492188, 121550.726563, 141858.375000, 144977.562500, 94405.539063, 96997.226563, 130854.570313, 136725.375000, 1, 256, 1,0.0,0.0,0.0,0.0,0.0, 13:59:29.859
79575.289063, 121508.507813, 141874.390625, 145086.203125, 94399.015625, 97030.437500, 130882.218750, 136692.171875, 1, 256, 1,0.0,0.0,0.0,0.0,0.0, 13:59:29.860
79598.804688, 121548.492188, 141816.765625, 144940.703125, 94381.601563, 96960.007813, 130841.007813, 136708.875000, 1, 256, 1,0.0,0.0,0.0,0.0,0.0, 13:59:29.864
79641.851563, 121598.937500, 141793.359375, 144807.265625, 94383.789063, 96915.234375, 130805.843750, 136747.875000, 1, 256, 1,0.0,0.0,0.0,0.0,0.0, 13:59:29.865
79620.218750, 121569.304688, 141846.781250, 144935.953125, 94401.492188, 96986.093750, 130841.273438, 136738.046875, 1, 256, 1,0.0,0.0,0.0,0.0,0.0, 13:59:29.865
79564.539063, 121505.304688, 141884.640625, 145087.453125, 94396.757813, 97032.476563, 130877.976563, 136687.062500, 1, 256, 1,0.0,0.0,0.0,0.0,0.0, 13:59:29.865
79581.976563, 121532.015625, 141830.359375, 144974.390625, 94380.257813, 96976.593750, 130851.109375, 136700.734375, 1, 256, 1,0.0,0.0,0.0,0.0,0.0, 13:59:29.866
79638.125000, 121591.203125, 141791.546875, 144812.718750, 94389.109375, 96919.593750, 130817.515625, 136748.500000, 1, 256, 1,0.0,0.0,0.0,0.0,0.0, 13:59:29.866
79640.578125, 121579.382813, 141843.828125, 144910.046875, 94417.273438, 96980.148438, 130857.187500, 136756.125000, 1, 256, 1,0.0,0.0,0.0,0.0,0.0, 13:59:29.866
79575.312500, 121509.976563, 141886.953125, 145082.062500, 94404.218750, 97035.554688, 130884.945313, 136692.609375, 1, 256, 1,0.0,0.0,0.0,0.0,0.0, 13:59:29.866
79570.398438, 121519.906250, 141836.968750, 145003.453125, 94373.781250, 96982.671875, 130853.656250, 136683.796875, 1, 256, 1,0.0,0.0,0.0,0.0,0.0, 13:59:29.867
79629.609375, 121584.726563, 141791.656250, 144822.781250, 94379.500000, 96915.015625, 130817.445313, 136737.890625, 1, 256, 1,0.0,0.0,0.0,0.0,0.0, 13:59:29.867
79630.007813, 121576.539063, 141834.046875, 144876.937500, 94405.492188, 96958.710938, 130842.992188, 136755.125000, 1, 256, 1,0.0,0.0,0.0,0.0,0.0, 13:59:29.867
79591.226563, 121525.914063, 141889.296875, 145069.328125, 94414.054688, 97041.812500, 130891.406250, 136721.171875, 1, 256, 1,0.0,0.0,0.0,0.0,0.0, 13:59:29.868
79596.031250, 121536.218750, 141867.718750, 145053.546875, 94399.281250, 97015.328125, 130883.023438, 136701.750000, 1, 256, 1,0.0,0.0,0.0,0.0,0.0, 13:59:29.868
79625.429688, 121579.132813, 141815.015625, 144870.296875, 94391.992188, 96934.640625, 130837.250000, 136736.234375, 1, 256, 1,0.0,0.0,0.0,0.0,0.0, 13:59:29.868
79638.320313, 121585.375000, 141830.484375, 144860.625000, 94410.656250, 96953.234375, 130846.187500, 136765.921875, 1, 256, 1,0.0,0.0,0.0,0.0,0.0, 13:59:29.869
79596.390625, 121523.101563, 141894.765625, 145055.062500, 94423.312500, 97032.203125, 130895.406250, 136719.671875, 1, 256, 1,0.0,0.0,0.0,0.0,0.0, 13:59:29.869
79576.007813, 121511.726563, 141880.703125, 145081.640625, 94405.804688, 97020.335938, 130894.000000, 136687.109375, 1, 256, 1,0.0,0.0,0.0,0.0,0.0, 13:59:29.869
79619.015625, 121563.757813, 141820.625000, 144894.625000, 94391.437500, 96936.117188, 130841.093750, 136716.500000, 1, 256, 1,0.0,0.0,0.0,0.0,0.0, 13:59:29.870
79668.898438, 121596.882813, 141830.281250, 144838.890625, 94414.476563, 96937.367188, 130841.835938, 136758.671875, 1, 256, 1,0.0,0.0,0.0,0.0,0.0, 13:59:29.871
79639.820313, 121553.609375, 141891.187500, 145014.734375, 94429.906250, 97016.312500, 130891.343750, 136722.953125, 1, 256, 1,0.0,0.0,0.0,0.0,0.0, 13:59:29.871
79603.765625, 121513.062500, 141894.765625, 145088.453125, 94414.656250, 97033.570313, 130904.929688, 136693.093750, 1, 256, 1,0.0,0.0,0.0,0.0,0.0, 13:59:29.871
79643.820313, 121564.000000, 141840.656250, 144924.390625, 94406.210938, 96961.953125, 130864.742188, 136723.937500, 1, 256, 1,0.0,0.0,0.0,0.0,0.0, 13:59:29.872
79682.226563, 121602.960938, 141825.484375, 144817.953125, 94415.039063, 96933.546875, 130837.789063, 136761.921875, 1, 256, 1,0.0,0.0,0.0,0.0,0.0, 13:59:29.872
79661.703125, 121566.257813, 141892.578125, 144978.015625, 94435.335938, 97010.125000, 130882.960938, 136740.609375, 1, 256, 1,0.0,0.0,0.0,0.0,0.0, 13:59:29.872
79653.101563, 121539.726563, 141933.812500, 145110.781250, 94443.804688, 97060.523438, 130924.132813, 136717.390625, 1, 256, 1,0.0,0.0,0.0,0.0,0.0, 13:59:29.873
79666.351563, 121560.117188, 141880.281250, 144971.671875, 94423.171875, 96989.890625, 130882.554688, 136726.562500, 1, 256, 1,0.0,0.0,0.0,0.0,0.0, 13:59:29.873
79704.460938, 121602.671875, 141846.671875, 144825.593750, 94424.921875, 96936.562500, 130845.835938, 136765.765625, 1, 256, 1,0.0,0.0,0.0,0.0,0.0, 13:59:29.873
79689.625000, 121575.250000, 141896.093750, 144945.156250, 94445.750000, 97001.250000, 130883.117188, 136757.109375, 1, 256, 1,0.0,0.0,0.0,0.0,0.0, 13:59:29.873
79643.015625, 121514.828125, 141934.890625, 145106.406250, 94444.656250, 97055.789063, 130920.421875, 136712.671875, 1, 256, 1,0.0,0.0,0.0,0.0,0.0, 13:59:29.874
79664.296875, 121539.710938, 141894.968750, 145014.250000, 94437.500000, 97007.062500, 130904.867188, 136726.671875, 1, 256, 1,0.0,0.0,0.0,0.0,0.0, 13:59:29.874
79708.710938, 121592.140625, 141850.015625, 144838.609375, 94437.859375, 96944.187500, 130859.445313, 136773.921875, 1, 256, 1,0.0,0.0,0.0,0.0,0.0, 13:59:29.874
79698.515625, 121579.156250, 141891.796875, 144919.109375, 94456.929688, 96995.656250, 130885.820313, 136772.484375, 1, 256, 1,0.0,0.0,0.0,0.0,0.0, 13:59:29.874
79650.593750, 121527.031250, 141937.281250, 145095.421875, 94454.687500, 97060.859375, 130925.468750, 136726.234375, 1, 256, 1,0.0,0.0,0.0,0.0,0.0, 13:59:29.875
79639.687500, 121522.898438, 141903.109375, 145037.843750, 94430.460938, 97016.562500, 130900.570313, 136712.515625, 1, 256, 1,0.0,0.0,0.0,0.0,0.0, 13:59:29.875
79696.976563, 121583.453125, 141847.500000, 144849.296875, 94425.859375, 96945.101563, 130856.140625, 136754.656250, 1, 256, 1,0.0,0.0,0.0,0.0,0.0, 13:59:29.875
79709.984375, 121584.343750, 141887.593750, 144890.187500, 94451.695313, 96978.492188, 130882.335938, 136760.578125, 1, 256, 1,0.0,0.0,0.0,0.0,0.0, 13:59:29.876
79656.828125, 121521.085938, 141943.500000, 145078.000000, 94453.867188, 97049.953125, 130923.054688, 136727.343750, 1, 256, 1,0.0,0.0,0.0,0.0,0.0, 13:59:29.876
79630.007813, 121506.875000, 141909.437500, 145062.078125, 94427.375000, 97027.492188, 130906.984375, 136705.093750, 1, 256, 1,0.0,0.0,0.0,0.0,0.0, 13:59:29.876
79673.796875, 121562.617188, 141848.453125, 144870.406250, 94423.312500, 96951.421875, 130865.281250, 136745.734375, 1, 256, 1,0.0,0.0,0.0,0.0,0.0, 13:59:29.877
79706.273438, 121586.156250, 141862.984375, 144853.609375, 94437.320313, 96968.125000, 130855.960938, 136764.484375, 1, 256, 1,0.0,0.0,0.0,0.0,0.69150406, 13:59:29.878
79663.937500, 121530.117188, 141936.515625, 145053.296875, 94455.656250, 97056.593750, 130911.414063, 136710.312500, 1, 256, 1,0.0,0.0,0.0,0.0,0.69150406, 13:59:29.883
79642.367188, 121515.992188, 141934.625000, 145097.031250, 94445.304688, 97055.789063, 130925.273438, 136709.328125, 1, 256, 1,0.0,0.0,0.0,0.0,0.69150406, 13:59:29.884
79679.093750, 121563.601563, 141878.703125, 144918.953125, 94437.929688, 96974.312500, 130881.148438, 136750.500000, 1, 256, 1,0.0,0.0,0.0,0.0,0.69150406, 13:59:29.886
79713.179688, 121592.617188, 141872.687500, 144847.031250, 94449.171875, 96961.351563, 130870.148438, 136790.796875, 1, 256, 1,0.0,0.0,0.0,0.0,0.69150406, 13:59:29.887
79679.179688, 121553.476563, 141935.421875, 145022.296875, 94463.742188, 97048.390625, 130919.507813, 136759.640625, 1, 256, 1,0.0,0.0,0.0,0.0,0.69150406, 13:59:29.887
79634.835938, 121505.843750, 141950.375000, 145112.968750, 94449.593750, 97066.421875, 130932.867188, 136711.734375, 1, 256, 1,0.0,0.0,0.0,0.0,0.69150406, 13:59:29.887
79660.742188, 121545.335938, 141880.468750, 144945.203125, 94428.585938, 96985.492188, 130886.335938, 136731.265625, 1, 256, 1,0.0,0.0,0.0,0.0,0.69150406, 13:59:29.888
79708.757813, 121591.117188, 141862.609375, 144833.515625, 94443.539063, 96955.406250, 130869.664063, 136778.953125, 1, 256, 1,0.0,0.0,0.0,0.0,0.69150406, 13:59:29.888
79682.265625, 121553.765625, 141928.593750, 144987.171875, 94468.437500, 97034.664063, 130919.148438, 136762.875000, 1, 256, 1,0.0,0.0,0.0,0.0,0.69150406, 13:59:29.889
79632.828125, 121510.156250, 141949.484375, 145107.546875, 94453.257813, 97072.148438, 130940.132813, 136707.750000, 1, 256, 1,0.0,0.0,0.0,0.0,0.69150406, 13:59:29.889
79645.875000, 121537.984375, 141901.296875, 144983.562500, 94433.968750, 97004.445313, 130901.398438, 136696.609375, 1, 256, 1,0.03870761,0.12040836,0.063403435,0.09349511,0.043301735, 13:59:30.309
79688.976563, 121580.164063, 141858.109375, 144826.609375, 94431.109375, 96943.242188, 130859.218750, 136765.453125, 1, 256, 1,0.03870761,0.12040836,0.063403435,0.09349511,0.043301735, 13:59:30.309
79687.476563, 121562.726563, 141909.796875, 144940.375000, 94459.453125, 97016.312500, 130899.453125, 136742.625000, 1, 256, 1,0.03870761,0.12040836,0.063403435,0.09349511,0.043301735, 13:59:30.310
79643.265625, 121513.039063, 141960.375000, 145107.140625, 94463.210938, 97075.570313, 130941.812500, 136728.906250, 1, 256, 1,0.03870761,0.12040836,0.063403435,0.09349511,0.043301735, 13:59:30.311
79637.695313, 121519.476563, 141911.875000, 145010.984375, 94433.078125, 97019.242188, 130904.906250, 136716.140625, 1, 256, 1,0.03870761,0.12040836,0.063403435,0.09349511,0.043301735, 13:59:30.311
79688.679688, 121576.812500, 141863.046875, 144836.296875, 94430.664063, 96954.976563, 130860.382813, 136753.937500, 1, 256, 1,0.03870761,0.12040836,0.063403435,0.09349511,0.043301735, 13:59:30.311
79684.101563, 121560.179688, 141900.203125, 144907.609375, 94449.546875, 97002.968750, 130883.875000, 136743.593750, 1, 256, 1,0.03870761,0.12040836,0.063403435,0.09349511,0.043301735, 13:59:30.312
79630.945313, 121503.835938, 141950.000000, 145089.500000, 94450.984375, 97070.539063, 130922.859375, 136715.640625, 1, 256, 1,0.03870761,0.12040836,0.063403435,0.09349511,0.043301735, 13:59:30.312
79634.414063, 121510.898438, 141917.718750, 145049.609375, 94434.796875, 97036.671875, 130906.429688, 136697.593750, 1, 256, 1,0.03870761,0.12040836,0.063403435,0.09349511,0.043301735, 13:59:30.312
79701.062500, 121587.140625, 141859.859375, 144861.203125, 94439.070313, 96964.320313, 130870.937500, 136748.890625, 1, 256, 1,0.03870761,0.12040836,0.063403435,0.09349511,0.043301735, 13:59:30.312
79701.914063, 121583.000000, 141892.265625, 144886.890625, 94452.906250, 96990.718750, 130873.304688, 136757.156250, 1, 256, 1,0.03870761,0.12040836,0.063403435,0.09349511,0.043301735, 13:59:30.312
79652.023438, 121525.625000, 141949.218750, 145073.562500, 94451.539063, 97068.125000, 130910.742188, 136726.109375, 1, 256, 1,0.03870761,0.12040836,0.063403435,0.09349511,0.043301735, 13:59:30.313
79631.906250, 121507.453125, 141935.859375, 145081.593750, 94438.109375, 97055.070313, 130910.585938, 136696.968750, 1, 256, 1,0.03870761,0.12040836,0.063403435,0.09349511,0.043301735, 13:59:30.313
79691.859375, 121579.226563, 141877.734375, 144898.125000, 94430.882813, 96973.976563, 130867.468750, 136727.218750, 1, 256, 1,0.03870761,0.12040836,0.063403435,0.09349511,0.043301735, 13:59:30.313
79721.789063, 121606.312500, 141885.343750, 144866.296875, 94445.523438, 96974.695313, 130861.460938, 136750.531250, 1, 256, 1,0.03870761,0.12040836,0.063403435,0.09349511,0.043301735, 13:59:30.313
79669.640625, 121537.296875, 141955.000000, 145058.968750, 94463.054688, 97064.328125, 130917.601563, 136734.062500, 1, 256, 1,0.03870761,0.12040836,0.063403435,0.09349511,0.043301735, 13:59:30.313
79643.265625, 121512.953125, 141940.328125, 145103.343750, 94445.078125, 97068.281250, 130924.804688, 136700.718750, 1, 256, 1,0.03870761,0.12040836,0.063403435,0.09349511,0.043301735, 13:59:30.314
79685.015625, 121566.531250, 141877.171875, 144933.109375, 94436.765625, 96993.445313, 130880.500000, 136720.312500, 1, 256, 1,0.03870761,0.12040836,0.063403435,0.09349511,0.043301735, 13:59:30.314
79721.203125, 121595.203125, 141860.796875, 144851.859375, 94440.453125, 96962.359375, 130856.296875, 136752.859375, 1, 256, 1,0.03870761,0.12040836,0.063403435,0.09349511,0.043301735, 13:59:30.314
79695.390625, 121551.953125, 141931.156250, 145023.906250, 94465.640625, 97051.406250, 130915.187500, 136752.531250, 1, 256, 1,0.03870761,0.12040836,0.063403435,0.09349511,0.043301735, 13:59:30.314
79644.445313, 121503.382813, 141950.812500, 145126.609375, 94457.773438, 97091.328125, 130939.890625, 136710.656250, 1, 256, 1,0.03870761,0.12040836,0.063403435,0.09349511,0.043301735, 13:59:30.314
79664.539063, 121539.414063, 141883.765625, 144963.031250, 94427.335938, 97002.812500, 130881.554688, 136710.593750, 1, 256, 1,0.03870761,0.12040836,0.063403435,0.09349511,0.043301735, 13:59:30.315
79719.414063, 121585.484375, 141862.312500, 144835.703125, 94433.140625, 96958.218750, 130845.898438, 136738.218750, 1, 256, 1,0.03870761,0.12040836,0.063403435,0.09349511,0.043301735, 13:59:30.315
79696.437500, 121543.890625, 141920.718750, 144972.890625, 94454.734375, 97032.140625, 130890.156250, 136714.578125, 1, 256, 1,0.03870761,0.12040836,0.063403435,0.09349511,0.043301735, 13:59:30.315
79655.468750, 121496.210938, 141954.000000, 145110.625000, 94451.562500, 97073.171875, 130928.781250, 136699.687500, 1, 256, 1,0.03870761,0.12040836,0.063403435,0.09349511,0.043301735, 13:59:30.315
79689.015625, 121536.375000, 141906.031250, 144996.812500, 94439.226563, 97013.429688, 130895.585938, 136706.281250, 1, 256, 1,0.03870761,0.12040836,0.063403435,0.09349511,0.043301735, 13:59:30.315
79747.867188, 121596.992188, 141869.171875, 144843.140625, 94438.976563, 96956.187500, 130849.031250, 136746.937500, 1, 256, 1,0.03870761,0.12040836,0.063403435,0.09349511,0.043301735, 13:59:30.315
79725.226563, 121565.789063, 141920.203125, 144950.140625, 94459.117188, 97015.929688, 130876.320313, 136729.265625, 1, 256, 1,0.03870761,0.12040836,0.063403435,0.09349511,0.043301735, 13:59:30.316
79665.460938, 121497.867188, 141958.343750, 145108.906250, 94452.921875, 97071.429688, 130913.960938, 136692.265625, 1, 256, 1,0.03870761,0.12040836,0.063403435,0.09349511,0.043301735, 13:59:30.316
79679.046875, 121525.000000, 141919.062500, 145028.187500, 94439.914063, 97027.820313, 130901.398438, 136684.359375, 1, 256, 1,0.03870761,0.12040836,0.063403435,0.09349511,0.043301735, 13:59:30.316
79736.539063, 121591.070313, 141874.781250, 144853.609375, 94448.343750, 96962.000000, 130866.351563, 136753.640625, 1, 256, 1,0.03870761,0.12040836,0.063403435,0.09349511,0.043301735, 13:59:30.316
79724.085938, 121559.914063, 141908.000000, 144912.546875, 94457.375000, 97001.828125, 130873.101563, 136747.671875, 1, 256, 1,0.03870761,0.12040836,0.063403435,0.09349511,0.043301735, 13:59:30.316
79670.664063, 121496.031250, 141952.171875, 145088.671875, 94460.859375, 97066.781250, 130918.210938, 136692.609375, 1, 256, 1,0.03870761,0.12040836,0.063403435,0.09349511,0.043301735, 13:59:30.317
79665.835938, 121498.757813, 141919.468750, 145052.609375, 94441.773438, 97033.281250, 130902.179688, 136666.296875, 1, 256, 1,0.03870761,0.12040836,0.063403435,0.09349511,0.043301735, 13:59:30.317
79717.609375, 121569.234375, 141861.156250, 144865.625000, 94432.023438, 96954.445313, 130852.226563, 136708.375000, 1, 256, 1,0.03870761,0.12040836,0.063403435,0.09349511,0.043301735, 13:59:30.317
79735.578125, 121578.507813, 141887.656250, 144878.015625, 94456.390625, 96976.835938, 130864.296875, 136756.390625, 1, 256, 1,0.03870761,0.12040836,0.063403435,0.09349511,0.043301735, 13:59:30.317
79691.429688, 121519.882813, 141945.984375, 145066.890625, 94471.117188, 97065.085938, 130915.257813, 136715.609375, 1, 256, 1,0.03870761,0.12040836,0.063403435,0.09349511,0.043301735, 13:59:30.318
79662.375000, 121493.554688, 141926.062500, 145078.437500, 94442.171875, 97049.796875, 130905.578125, 136680.437500, 1, 256, 1,0.03870761,0.12040836,0.063403435,0.09349511,0.043301735, 13:59:30.318
79696.953125, 121540.687500, 141861.015625, 144890.187500, 94420.093750, 96962.335938, 130852.921875, 136707.375000, 1, 256, 1,0.03870761,0.12040836,0.063403435,0.09349511,0.043301735, 13:59:30.318
79733.476563, 121574.039063, 141873.203125, 144851.078125, 94437.210938, 96959.296875, 130847.890625, 136728.343750, 1, 256, 1,0.03870761,0.12040836,0.063403435,0.09349511,0.043301735, 13:59:30.319
79687.875000, 121514.765625, 141928.906250, 145027.656250, 94447.492188, 97040.812500, 130891.343750, 136675.500000, 1, 256, 1,0.03870761,0.12040836,0.063403435,0.09349511,0.043301735, 13:59:30.319
79646.507813, 121475.289063, 141919.640625, 145084.906250, 94429.476563, 97041.523438, 130902.453125, 136668.796875, 1, 256, 1,0.03870761,0.12040836,0.063403435,0.09349511,0.043301735, 13:59:30.320
79691.765625, 121538.007813, 141858.968750, 144914.328125, 94422.570313, 96970.046875, 130866.148438, 136701.390625, 1, 256, 1,0.0318496,0.1005205,0.054859575,0.07812094,0.03823581, 13:59:30.320
79740.765625, 121585.796875, 141849.546875, 144824.906250, 94440.164063, 96955.312500, 130849.140625, 136748.640625, 1, 256, 1,0.0318496,0.1005205,0.054859575,0.07812094,0.03823581, 13:59:30.321
79711.328125, 121533.046875, 141917.687500, 144993.421875, 94465.953125, 97037.343750, 130906.273438, 136723.046875, 1, 256, 1,0.0318496,0.1005205,0.054859575,0.07812094,0.03823581, 13:59:30.321
79672.656250, 121496.812500, 141940.437500, 145103.140625, 94450.351563, 97061.328125, 130914.164063, 136658.265625, 1, 256, 1,0.0318496,0.1005205,0.054859575,0.07812094,0.03823581, 13:59:30.322
79694.718750, 121534.789063, 141890.359375, 144961.984375, 94437.929688, 96990.046875, 130872.898438, 136670.265625, 1, 256, 1,0.0318496,0.1005205,0.054859575,0.07812094,0.03823581, 13:59:30.322
79737.585938, 121578.265625, 141869.328125, 144838.984375, 94446.265625, 96941.679688, 130851.218750, 136745.312500, 1, 256, 1,0.0318496,0.1005205,0.054859575,0.07812094,0.03823581, 13:59:30.323
79705.757813, 121527.101563, 141917.953125, 144961.546875, 94457.664063, 97010.476563, 130887.585938, 136715.531250, 1, 256, 1,0.0318496,0.1005205,0.054859575,0.07812094,0.03823581, 13:59:30.323
79660.789063, 121473.882813, 141952.640625, 145102.296875, 94452.859375, 97065.015625, 130923.015625, 136671.687500, 1, 256, 1,0.0318496,0.1005205,0.054859575,0.07812094,0.03823581, 13:59:30.324
79677.976563, 121505.398438, 141904.156250, 144995.250000, 94434.148438, 97006.343750, 130891.070313, 136668.843750, 1, 256, 1,0.0318496,0.1005205,0.054859575,0.07812094,0.03823581, 13:59:30.325
79727.843750, 121564.476563, 141855.125000, 144831.812500, 94430.726563, 96946.617188, 130842.570313, 136710.078125, 1, 256, 1,0.0318496,0.1005205,0.054859575,0.07812094,0.03823581, 13:59:30.326
79716.804688, 121550.546875, 141891.546875, 144923.718750, 94450.843750, 97003.304688, 130872.078125, 136726.750000, 1, 256, 1,0.0318496,0.1005205,0.054859575,0.07812094,0.03823581, 13:59:30.327
79666.734375, 121489.726563, 141937.125000, 145096.046875, 94446.648438, 97066.718750, 130910.742188, 136681.937500, 1, 256, 1,0.0318496,0.1005205,0.054859575,0.07812094,0.03823581, 13:59:30.328
79652.695313, 121483.382813, 141898.171875, 145025.437500, 94427.492188, 97017.632813, 130890.289063, 136667.031250, 1, 256, 1,0.0318496,0.1005205,0.054859575,0.07812094,0.03823581, 13:59:30.329
79713.625000, 121557.390625, 141843.875000, 144842.453125, 94423.867188, 96951.226563, 130847.265625, 136709.125000, 1, 256, 1,0.0318496,0.1005205,0.054859575,0.07812094,0.03823581, 13:59:30.330
79726.812500, 121557.406250, 141881.359375, 144894.421875, 94432.812500, 96985.218750, 130853.453125, 136698.765625, 1, 256, 1,0.0318496,0.1005205,0.054859575,0.07812094,0.03823581, 13:59:30.330
79666.398438, 121491.382813, 141926.359375, 145070.218750, 94429.437500, 97046.914063, 130891.875000, 136675.250000, 1, 256, 1,0.0318496,0.1005205,0.054859575,0.07812094,0.03823581, 13:59:30.330
79687.632813, 121517.960938, 141921.406250, 145063.953125, 94441.437500, 97041.304688, 130909.851563, 136684.250000, 1, 256, 1,0.0318496,0.1005205,0.054859575,0.07812094,0.03823581, 13:59:30.331
79771.070313, 121608.750000, 141891.640625, 144898.937500, 94462.875000, 96994.812500, 130888.164063, 136742.421875, 1, 256, 1,0.0318496,0.1005205,0.054859575,0.07812094,0.03823581, 13:59:30.331
79766.468750, 121589.437500, 141912.375000, 144897.843750, 94474.984375, 96999.882813, 130890.226563, 136743.031250, 1, 256, 1,0.0318496,0.1005205,0.054859575,0.07812094,0.03823581, 13:59:30.331
79700.101563, 121516.750000, 141953.281250, 145067.437500, 94473.023438, 97064.500000, 130929.671875, 136689.390625, 1, 256, 1,0.0318496,0.1005205,0.054859575,0.07812094,0.03823581, 13:59:30.332
79690.265625, 121505.398438, 141955.546875, 145104.875000, 94475.703125, 97084.796875, 130945.585938, 136705.859375, 1, 256, 1,0.0318496,0.1005205,0.054859575,0.07812094,0.03823581, 13:59:30.332
79733.500000, 121558.367188, 141893.203125, 144921.906250, 94462.515625, 96999.054688, 130898.625000, 136730.109375, 1, 256, 1,0.0318496,0.1005205,0.054859575,0.07812094,0.03823581, 13:59:30.332
79754.304688, 121586.156250, 141881.828125, 144862.859375, 94462.984375, 96984.640625, 130876.765625, 136725.859375, 1, 256, 1,0.0318496,0.1005205,0.054859575,0.07812094,0.03823581, 13:59:30.332
79701.421875, 121523.617188, 141920.203125, 145022.531250, 94459.164063, 97048.945313, 130908.062500, 136714.187500, 1, 256, 1,0.0318496,0.1005205,0.054859575,0.07812094,0.03823581, 13:59:30.333
79672.945313, 121492.945313, 141934.531250, 145102.000000, 94465.421875, 97087.617188, 130938.726563, 136696.156250, 1, 256, 1,0.0318496,0.1005205,0.054859575,0.07812094,0.03823581, 13:59:30.333
79682.421875, 121519.007813, 141860.953125, 144920.296875, 94432.007813, 96995.796875, 130878.890625, 136699.312500, 1, 256, 1,0.0318496,0.1005205,0.054859575,0.07812094,0.03823581, 13:59:30.333
79700.195313, 121534.679688, 141824.671875, 144798.109375, 94410.007813, 96936.140625, 130825.179688, 136705.078125, 1, 256, 1,0.0318496,0.1005205,0.054859575,0.07812094,0.03823581, 13:59:30.333
79663.960938, 121503.679688, 141874.406250, 144942.859375, 94419.351563, 97008.335938, 130861.164063, 136683.640625, 1, 256, 1,0.0318496,0.1005205,0.054859575,0.07812094,0.03823581, 13:59:30.334
79629.296875, 121465.632813, 141916.562500, 145071.671875, 94419.937500, 97047.156250, 130889.484375, 136645.156250, 1, 256, 1,0.0318496,0.1005205,0.054859575,0.07812094,0.03823581, 13:59:30.334
79664.945313, 121496.835938, 141871.703125, 144938.515625, 94418.390625, 96983.945313, 130870.843750, 136671.125000, 1, 256, 1,0.0318496,0.1005205,0.054859575,0.07812094,0.03823581, 13:59:30.334
79717.742188, 121548.023438, 141850.062500, 144806.078125, 94430.726563, 96943.734375, 130843.710938, 136726.718750, 1, 256, 1,0.0318496,0.1005205,0.054859575,0.07812094,0.03823581, 13:59:30.334
79693.507813, 121515.750000, 141904.265625, 144931.484375, 94446.445313, 97007.593750, 130872.742188, 136702.578125, 1, 256, 1,0.0318496,0.1005205,0.054859575,0.07812094,0.03823581, 13:59:30.334
79628.039063, 121447.390625, 141933.593750, 145079.203125, 94431.445313, 97054.335938, 130905.335938, 136651.562500, 1, 256, 1,0.0318496,0.1005205,0.054859575,0.07812094,0.03823581, 13:59:30.334
79643.460938, 121475.312500, 141880.937500, 144975.171875, 94405.515625, 96997.515625, 130874.468750, 136657.359375, 1, 256, 1,0.0318496,0.1005205,0.054859575,0.07812094,0.03823581, 13:59:30.335
79703.140625, 121538.546875, 141838.156250, 144812.390625, 94406.140625, 96931.625000, 130826.656250, 136694.484375, 1, 256, 1,0.0318496,0.1005205,0.054859575,0.07812094,0.03823581, 13:59:30.335
79694.609375, 121525.421875, 141869.468750, 144889.796875, 94416.828125, 96974.562500, 130842.546875, 136684.171875, 1, 256, 1,0.0318496,0.1005205,0.054859575,0.07812094,0.03823581, 13:59:30.335
79631.328125, 121458.976563, 141913.390625, 145062.843750, 94416.539063, 97044.187500, 130889.281250, 136641.843750, 1, 256, 1,0.0318496,0.1005205,0.054859575,0.07812094,0.03823581, 13:59:30.335
79624.195313, 121463.195313, 141875.875000, 145003.515625, 94394.968750, 97004.398438, 130871.070313, 136631.656250, 1, 256, 1,0.0318496,0.1005205,0.054859575,0.07812094,0.03823581, 13:59:30.337
79678.757813, 121525.695313, 141819.984375, 144817.484375, 94387.617188, 96927.710938, 130819.882813, 136674.984375, 1, 256, 1,0.0318496,0.1005205,0.054859575,0.07812094,0.03823581, 13:59:30.338
79688.882813, 121529.265625, 141855.203125, 144854.921875, 94405.960938, 96961.570313, 130829.804688, 136688.156250, 1, 256, 1,0.0318496,0.1005205,0.054859575,0.07812094,0.03823581, 13:59:30.338
79654.437500, 121479.492188, 141913.140625, 145041.015625, 94422.929688, 97048.343750, 130883.585938, 136660.171875, 1, 256, 1,0.0318496,0.1005205,0.054859575,0.07812094,0.03823581, 13:59:30.339
79649.898438, 121481.773438, 141893.937500, 145033.796875, 94415.265625, 97037.101563, 130892.281250, 136659.171875, 1, 256, 1,0.0318496,0.1005205,0.054859575,0.07812094,0.03823581, 13:59:30.339
79691.164063, 121539.171875, 141844.296875, 144856.359375, 94417.343750, 96966.382813, 130863.000000, 136709.234375, 1, 256, 1,0.0318496,0.1005205,0.054859575,0.07812094,0.03823581, 13:59:30.339
79700.664063, 121541.093750, 141852.375000, 144835.859375, 94416.515625, 96956.742188, 130836.312500, 136703.203125, 1, 256, 1,0.0318496,0.1005205,0.054859575,0.07812094,0.03823581, 13:59:30.340
79646.843750, 121475.265625, 141897.578125, 145009.531250, 94413.359375, 97027.375000, 130865.703125, 136656.390625, 1, 256, 1,0.0318496,0.1005205,0.054859575,0.07812094,0.03823581, 13:59:30.340
79638.703125, 121464.898438, 141902.640625, 145060.328125, 94417.539063, 97041.187500, 130893.601563, 136647.140625, 1, 256, 1,0.0318496,0.1005205,0.054859575,0.07812094,0.03823581, 13:59:30.341
79672.250000, 121515.031250, 141838.046875, 144879.515625, 94398.609375, 96955.000000, 130840.757813, 136667.859375, 1, 256, 1,0.0318496,0.1005205,0.054859575,0.07812094,0.03823581, 13:59:30.341
79693.687500, 121542.437500, 141838.109375, 144816.859375, 94413.406250, 96949.234375, 130834.945313, 136710.500000, 1, 256, 1,0.0318496,0.1005205,0.054859575,0.07812094,0.03823581, 13:59:30.341
79652.203125, 121492.429688, 141896.781250, 144985.250000, 94432.812500, 97032.718750, 130889.125000, 136688.937500, 1, 256, 1,0.0318496,0.1005205,0.054859575,0.07812094,0.03823581, 13:59:30.342
79621.804688, 121457.562500, 141899.187500, 145064.468750, 94401.937500, 97040.812500, 130880.789063, 136629.078125, 1, 256, 1,0.0318496,0.1005205,0.054859575,0.07812094,0.03823581, 13:59:30.342
79650.617188, 121494.289063, 141844.765625, 144907.562500, 94383.945313, 96963.203125, 130836.375000, 136650.671875, 1, 256, 1,0.0318496,0.1005205,0.054859575,0.07812094,0.03823581, 13:59:30.343
79686.335938, 121536.375000, 141820.468750, 144795.375000, 94390.539063, 96929.164063, 130811.476563, 136695.031250, 1, 256, 1,0.0318496,0.1005205,0.054859575,0.07812094,0.03823581, 13:59:30.343
79662.437500, 121505.289063, 141871.078125, 144940.750000, 94415.757813, 97009.117188, 130865.187500, 136685.453125, 1, 256, 1,0.0318496,0.1005205,0.054859575,0.07812094,0.03823581, 13:59:30.344
79617.734375, 121450.835938, 141902.703125, 145068.562500, 94417.476563, 97053.593750, 130899.726563, 136646.625000, 1, 256, 1,0.0318496,0.1005205,0.054859575,0.07812094,0.03823581, 13:59:30.345
79640.359375, 121478.328125, 141853.578125, 144936.437500, 94401.648438, 96991.390625, 130865.234375, 136663.203125, 1, 256, 1,0.0318496,0.1005205,0.054859575,0.07812094,0.03823581, 13:59:30.346
79678.312500, 121526.320313, 141810.765625, 144777.734375, 94390.140625, 96930.617188, 130816.687500, 136697.875000, 1, 256, 1,0.0318496,0.1005205,0.054859575,0.07812094,0.03823581, 13:59:30.346
79663.023438, 121504.054688, 141863.968750, 144892.703125, 94414.929688, 96995.703125, 130859.289063, 136691.656250, 1, 256, 1,0.0318496,0.1005205,0.054859575,0.07812094,0.03823581, 13:59:30.347
79619.015625, 121450.320313, 141908.296875, 145055.953125, 94422.195313, 97061.484375, 130913.250000, 136663.609375, 1, 256, 1,0.0318496,0.1005205,0.054859575,0.07812094,0.03823581, 13:59:30.347
79634.281250, 121467.687500, 141873.531250, 144972.843750, 94411.593750, 97010.546875, 130881.101563, 136669.218750, 1, 256, 1,0.0318496,0.1005205,0.054859575,0.07812094,0.03823581, 13:59:30.347
79673.390625, 121522.609375, 141819.218750, 144795.109375, 94400.109375, 96937.101563, 130822.367188, 136697.703125, 1, 256, 1,0.0318496,0.1005205,0.054859575,0.07812094,0.03823581, 13:59:30.347
79671.609375, 121512.125000, 141855.921875, 144863.843750, 94413.117188, 96977.218750, 130834.632813, 136691.796875, 1, 256, 1,0.0318496,0.1005205,0.054859575,0.07812094,0.03823581, 13:59:30.347
79628.664063, 121463.531250, 141911.734375, 145048.640625, 94425.992188, 97055.851563, 130898.671875, 136666.406250, 1, 256, 1,0.0318496,0.1005205,0.054859575,0.07812094,0.03823581, 13:59:30.348
79640.070313, 121480.851563, 141893.656250, 145018.421875, 94417.992188, 97024.851563, 130895.703125, 136668.656250, 1, 256, 1,0.0318496,0.1005205,0.054859575,0.07812094,0.03823581, 13:59:30.348
79688.078125, 121541.898438, 141844.078125, 144832.296875, 94413.851563, 96945.679688, 130851.648438, 136704.921875, 1, 256, 1,0.0318496,0.1005205,0.054859575,0.07812094,0.03823581, 13:59:30.348
79686.132813, 121534.429688, 141861.734375, 144845.265625, 94418.882813, 96968.210938, 130846.210938, 136705.968750, 1, 256, 1,0.0318496,0.1005205,0.054859575,0.07812094,0.03823581, 13:59:30.348
79641.632813, 121481.726563, 141914.234375, 145028.890625, 94419.937500, 97047.648438, 130878.554688, 136668.109375, 1, 256, 1,0.0318496,0.1005205,0.054859575,0.07812094,0.03823581, 13:59:30.348
79627.414063, 121473.523438, 141903.015625, 145037.937500, 94411.906250, 97029.570313, 130883.968750, 136643.453125, 1, 256, 1,0.0318496,0.1005205,0.054859575,0.07812094,0.03823581, 13:59:30.349
79655.335938, 121512.148438, 141839.921875, 144848.171875, 94397.960938, 96939.085938, 130836.179688, 136672.531250, 1, 256, 1,0.0318496,0.1005205,0.054859575,0.07812094,0.03823581, 13:59:30.349
79679.320313, 121530.656250, 141842.406250, 144815.734375, 94426.531250, 96958.015625, 130863.781250, 136729.171875, 1, 256, 1,0.0318496,0.1005205,0.054859575,0.07812094,0.03823581, 13:59:30.349
79644.648438, 121484.898438, 141902.390625, 145001.906250, 94435.757813, 97041.367188, 130894.648438, 136683.531250, 1, 256, 1,0.0318496,0.1005205,0.054859575,0.07812094,0.03823581, 13:59:30.349
79621.335938, 121459.195313, 141905.562500, 145056.781250, 94420.804688, 97055.093750, 130895.140625, 136664.625000, 1, 256, 1,0.0318496,0.1005205,0.054859575,0.07812094,0.03823581, 13:59:30.350
79653.078125, 121504.617188, 141847.000000, 144882.453125, 94409.273438, 96977.265625, 130859.804688, 136692.062500, 1, 256, 1,0.0318496,0.1005205,0.054859575,0.07812094,0.03823581, 13:59:30.350
79692.906250, 121546.234375, 141829.250000, 144796.546875, 94409.093750, 96944.164063, 130827.195313, 136712.656250, 1, 256, 1,0.0318496,0.1005205,0.054859575,0.07812094,0.03823581, 13:59:30.350
79664.968750, 121505.578125, 141899.734375, 144973.046875, 94439.156250, 97036.226563, 130887.250000, 136700.156250, 1, 256, 1,0.0318496,0.1005205,0.054859575,0.07812094,0.03823581, 13:59:30.350
79643.132813, 121484.765625, 141919.218750, 145071.265625, 94436.945313, 97063.359375, 130911.640625, 136659.703125, 1, 256, 1,0.0318496,0.1005205,0.054859575,0.07812094,0.03823581, 13:59:30.350
79665.015625, 121521.867188, 141858.093750, 144917.218750, 94409.656250, 96986.671875, 130854.593750, 136679.390625, 1, 256, 1,0.0318496,0.1005205,0.054859575,0.07812094,0.03823581, 13:59:30.351
79695.679688, 121555.171875, 141831.671875, 144796.046875, 94418.640625, 96946.460938, 130830.164063, 136723.343750, 1, 256, 1,0.0318496,0.1005205,0.054859575,0.07812094,0.03823581, 13:59:30.351
79671.937500, 121517.492188, 141882.140625, 144934.093750, 94430.593750, 97015.125000, 130863.000000, 136699.625000, 1, 256, 1,0.0318496,0.1005205,0.054859575,0.07812094,0.03823581, 13:59:30.351
79623.078125, 121463.039063, 141914.171875, 145068.187500, 94425.367188, 97057.257813, 130895.250000, 136652.968750, 1, 256, 1,0.01087963,0.02811321,0.018799048,0.029243171,0.020761352, 13:59:30.787
79651.289063, 121496.945313, 141871.531250, 144951.531250, 94416.781250, 96990.140625, 130876.007813, 136658.937500, 1, 256, 1,0.01087963,0.02811321,0.018799048,0.029243171,0.020761352, 13:59:30.788
79698.070313, 121553.007813, 141839.187500, 144802.734375, 94423.195313, 96934.171875, 130850.039063, 136713.296875, 1, 256, 1,0.01087963,0.02811321,0.018799048,0.029243171,0.020761352, 13:59:30.788
79686.156250, 121534.968750, 141885.453125, 144906.734375, 94436.382813, 97003.640625, 130869.640625, 136720.937500, 1, 256, 1,0.01087963,0.02811321,0.018799048,0.029243171,0.020761352, 13:59:30.788
79639.976563, 121480.367188, 141937.812500, 145081.015625, 94439.625000, 97075.031250, 130904.750000, 136682.609375, 1, 256, 1,0.01087963,0.02811321,0.018799048,0.029243171,0.020761352, 13:59:30.789
79647.132813, 121492.140625, 141908.359375, 145008.656250, 94421.054688, 97017.140625, 130881.328125, 136666.812500, 1, 256, 1,0.01087963,0.02811321,0.018799048,0.029243171,0.020761352, 13:59:30.789
79697.531250, 121550.773438, 141855.343750, 144830.359375, 94417.609375, 96943.781250, 130844.250000, 136712.265625, 1, 256, 1,0.01087963,0.02811321,0.018799048,0.029243171,0.020761352, 13:59:30.790
79675.406250, 121524.398438, 141879.140625, 144882.593750, 94423.468750, 96974.539063, 130849.234375, 136701.859375, 1, 256, 1,0.01087963,0.02811321,0.018799048,0.029243171,0.020761352, 13:59:30.790
79623.148438, 121464.765625, 141920.703125, 145057.296875, 94418.437500, 97047.718750, 130883.742188, 136658.718750, 1, 256, 1,0.01087963,0.02811321,0.018799048,0.029243171,0.020761352, 13:59:30.790
79654.242188, 121493.664063, 141913.703125, 145041.312500, 94428.296875, 97034.304688, 130899.320313, 136664.234375, 1, 256, 1,0.01087963,0.02811321,0.018799048,0.029243171,0.020761352, 13:59:30.791
79702.007813, 121554.437500, 141858.671875, 144854.671875, 94421.406250, 96956.765625, 130857.906250, 136711.171875, 1, 256, 1,0.01087963,0.02811321,0.018799048,0.029243171,0.020761352, 13:59:30.791
79688.546875, 121541.671875, 141867.953125, 144853.296875, 94419.039063, 96965.085938, 130845.968750, 136709.500000, 1, 256, 1,0.01087963,0.02811321,0.018799048,0.029243171,0.020761352, 13:59:30.791
79639.843750, 121478.304688, 141914.062500, 145027.562500, 94418.148438, 97046.109375, 130885.281250, 136670.265625, 1, 256, 1,0.01087963,0.02811321,0.018799048,0.029243171,0.020761352, 13:59:30.791
79640.914063, 121479.515625, 141912.000000, 145052.578125, 94415.304688, 97047.070313, 130898.671875, 136663.562500, 1, 256, 1,0.01087963,0.02811321,0.018799048,0.029243171,0.020761352, 13:59:30.792
79712.484375, 121556.851563, 141877.984375, 144893.406250, 94432.140625, 96985.867188, 130877.390625, 136723.421875, 1, 256, 1,0.01087963,0.02811321,0.018799048,0.029243171,0.020761352, 13:59:30.792
79723.617188, 121567.046875, 141883.890625, 144856.578125, 94451.515625, 96989.710938, 130870.195313, 136750.734375, 1, 256, 1,0.01087963,0.02811321,0.018799048,0.029243171,0.020761352, 13:59:30.792
79658.328125, 121494.671875, 141923.515625, 145017.156250, 94448.117188, 97046.781250, 130898.671875, 136685.421875, 1, 256, 1,0.01087963,0.02811321,0.018799048,0.029243171,0.020761352, 13:59:30.792
79638.031250, 121480.523438, 141928.437500, 145080.828125, 94437.414063, 97067.585938, 130905.828125, 136671.687500, 1, 256, 1,0.01087963,0.02811321,0.018799048,0.029243171,0.020761352, 13:59:30.792
79689.062500, 121538.187500, 141886.187500, 144925.437500, 94429.031250, 96999.101563, 130861.546875, 136706.593750, 1, 256, 1,0.01087963,0.02811321,0.018799048,0.029243171,0.020761352, 13:59:30.793
79711.390625, 121559.000000, 141864.218750, 144824.750000, 94429.882813, 96951.265625, 130833.273438, 136714.078125, 1, 256, 1,0.01087963,0.02811321,0.018799048,0.029243171,0.020761352, 13:59:30.795
79677.414063, 121515.656250, 141915.593750, 144979.125000, 94448.296875, 97028.960938, 130890.335938, 136695.015625, 1, 256, 1,0.01087963,0.02811321,0.018799048,0.029243171,0.020761352, 13:59:30.795
79639.953125, 121476.476563, 141934.406250, 145086.593750, 94443.265625, 97071.703125, 130923.750000, 136675.031250, 1, 256, 1,0.01087963,0.02811321,0.018799048,0.029243171,0.020761352, 13:59:30.796
79671.585938, 121520.750000, 141870.359375, 144939.375000, 94422.796875, 97004.312500, 130876.007813, 136703.687500, 1, 256, 1,0.01087963,0.02811321,0.018799048,0.029243171,0.020761352, 13:59:30.796
79721.156250, 121569.367188, 141854.203125, 144823.000000, 94438.531250, 96964.546875, 130846.234375, 136739.468750, 1, 256, 1,0.01087963,0.02811321,0.018799048,0.029243171,0.020761352, 13:59:30.796
79695.273438, 121533.000000, 141917.046875, 144963.171875, 94462.539063, 97039.312500, 130890.515625, 136725.968750, 1, 256, 1,0.01087963,0.02811321,0.018799048,0.029243171,0.020761352, 13:59:30.796
79640.648438, 121478.242188, 141941.750000, 145096.406250, 94450.664063, 97081.375000, 130918.070313, 136670.296875, 1, 256, 1,0.01087963,0.02811321,0.018799048,0.029243171,0.020761352, 13:59:30.796
79650.078125, 121499.898438, 141884.109375, 144976.843750, 94426.195313, 97017.632813, 130881.460938, 136674.359375, 1, 256, 1,0.01087963,0.02811321,0.018799048,0.029243171,0.020761352, 13:59:30.797
79691.210938, 121545.968750, 141843.359375, 144817.109375, 94427.867188, 96956.140625, 130850.843750, 136719.484375, 1, 256, 1,0.01087963,0.02811321,0.018799048,0.029243171,0.020761352, 13:59:30.797
79686.828125, 121535.148438, 141906.281250, 144923.671875, 94458.289063, 97022.078125, 130885.351563, 136728.140625, 1, 256, 1,0.01087963,0.02811321,0.018799048,0.029243171,0.020761352, 13:59:30.798
79627.531250, 121471.578125, 141940.406250, 145078.656250, 94442.132813, 97075.859375, 130907.500000, 136670.718750, 1, 256, 1,0.01087963,0.02811321,0.018799048,0.029243171,0.020761352, 13:59:30.799
79643.976563, 121490.781250, 141894.843750, 145004.765625, 94429.500000, 97031.359375, 130897.468750, 136673.984375, 1, 256, 1,0.01087963,0.02811321,0.018799048,0.029243171,0.020761352, 13:59:30.799
79692.617188, 121552.265625, 141843.359375, 144829.984375, 94425.945313, 96956.992188, 130847.937500, 136711.250000, 1, 256, 1,0.01087963,0.02811321,0.018799048,0.029243171,0.020761352, 13:59:30.799
79703.500000, 121551.773438, 141880.390625, 144879.375000, 94439.046875, 96989.539063, 130854.062500, 136712.156250, 1, 256, 1,0.01087963,0.02811321,0.018799048,0.029243171,0.020761352, 13:59:30.800
79666.664063, 121504.328125, 141944.906250, 145070.906250, 94452.921875, 97079.367188, 130910.921875, 136688.562500, 1, 256, 1,0.01087963,0.02811321,0.018799048,0.029243171,0.020761352, 13:59:30.800
79645.234375, 121495.023438, 141915.625000, 145048.718750, 94431.625000, 97051.984375, 130904.414063, 136674.203125, 1, 256, 1,0.01087963,0.02811321,0.018799048,0.029243171,0.020761352, 13:59:30.800
79690.960938, 121548.718750, 141854.562500, 144867.734375, 94422.039063, 96972.679688, 130858.375000, 136716.390625, 1, 256, 1,0.01087963,0.02811321,0.018799048,0.029243171,0.020761352, 13:59:30.801
79710.679688, 121561.453125, 141875.406250, 144868.218750, 94440.320313, 96985.710938, 130861.617188, 136731.859375, 1, 256, 1,0.01087963,0.02811321,0.018799048,0.029243171,0.020761352, 13:59:30.801
79654.328125, 121503.203125, 141920.765625, 145040.781250, 94441.304688, 97059.562500, 130904.531250, 136686.015625, 1, 256, 1,0.01087963,0.02811321,0.018799048,0.029243171,0.020761352, 13:59:30.802
79637.140625, 121490.085938, 141914.953125, 145070.171875, 94427.492188, 97054.023438, 130910.742188, 136659.390625, 1, 256, 1,0.01087963,0.02811321,0.018799048,0.029243171,0.020761352, 13:59:30.802
79685.820313, 121552.023438, 141860.078125, 144893.531250, 94418.367188, 96976.664063, 130861.140625, 136697.593750, 1, 256, 1,0.01087963,0.02811321,0.018799048,0.029243171,0.020761352, 13:59:30.802
79717.492188, 121577.835938, 141866.828125, 144845.250000, 94434.796875, 96978.601563, 130857.750000, 136739.609375, 1, 256, 1,0.01087963,0.02811321,0.018799048,0.029243171,0.020761352, 13:59:30.803
79666.781250, 121513.687500, 141927.359375, 145017.156250, 94449.015625, 97064.148438, 130908.734375, 136709.171875, 1, 256, 1,0.01087963,0.02811321,0.018799048,0.029243171,0.020761352, 13:59:30.803
79644.046875, 121493.234375, 141934.828125, 145089.031250, 94441.210938, 97080.929688, 130925.765625, 136674.359375, 1, 256, 1,0.01087963,0.02811321,0.018799048,0.029243171,0.020761352, 13:59:30.804
79688.171875, 121546.929688, 141875.328125, 144927.234375, 94430.640625, 97004.820313, 130884.570313, 136705.875000, 1, 256, 1,0.01087963,0.02811321,0.018799048,0.029243171,0.020761352, 13:59:30.804
79713.289063, 121568.718750, 141863.078125, 144832.218750, 94439.156250, 96969.531250, 130859.648438, 136729.296875, 1, 256, 1,0.01087963,0.02811321,0.018799048,0.029243171,0.020761352, 13:59:30.805
79664.789063, 121511.726563, 141905.765625, 144973.609375, 94441.617188, 97036.164063, 130891.406250, 136697.343750, 1, 256, 1,0.01087963,0.02811321,0.018799048,0.029243171,0.020761352, 13:59:30.805
79630.906250, 121479.937500, 141921.375000, 145081.187500, 94438.195313, 97079.320313, 130925.718750, 136674.187500, 1, 256, 1,0.01087963,0.02811321,0.018799048,0.029243171,0.020761352, 13:59:30.806
79663.109375, 121518.429688, 141870.312500, 144949.031250, 94427.734375, 97015.890625, 130894.851563, 136697.203125, 1, 256, 1,0.01087963,0.02811321,0.018799048,0.029243171,0.020761352, 13:59:30.806
79716.976563, 121573.656250, 141843.359375, 144818.156250, 94429.921875, 96965.460938, 130856.382813, 136731.562500, 1, 256, 1,0.01087963,0.02811321,0.018799048,0.029243171,0.020761352, 13:59:30.806
79696.125000, 121547.687500, 141899.546875, 144942.265625, 94445.929688, 97026.125000, 130888.101563, 136710.656250, 1, 256, 1,0.01087963,0.02811321,0.018799048,0.029243171,0.020761352, 13:59:30.807
79657.500000, 121500.390625, 141940.703125, 145091.187500, 94445.210938, 97079.007813, 130925.585938, 136668.890625, 1, 256, 1,0.01087963,0.02811321,0.018799048,0.029243171,0.020761352, 13:59:30.807
79671.289063, 121523.906250, 141893.703125, 144987.734375, 94419.820313, 97021.031250, 130883.562500, 136671.968750, 1, 256, 1,0.01087963,0.02811321,0.018799048,0.029243171,0.020761352, 13:59:30.807
79715.054688, 121579.132813, 141848.546875, 144822.921875, 94418.882813, 96959.335938, 130843.351563, 136724.468750, 1, 256, 1,0.01087963,0.02811321,0.018799048,0.029243171,0.020761352, 13:59:30.808
79709.335938, 121567.734375, 141895.171875, 144908.453125, 94453.414063, 97024.312500, 130892.640625, 136745.937500, 1, 256, 1,0.01087963,0.02811321,0.018799048,0.029243171,0.020761352, 13:59:30.808
79662.601563, 121509.398438, 141952.015625, 145086.828125, 94458.312500, 97093.718750, 130933.765625, 136695.578125, 1, 256, 1,0.01087963,0.02811321,0.018799048,0.029243171,0.020761352, 13:59:30.809
79657.968750, 121513.039063, 141923.718750, 145034.000000, 94444.679688, 97051.468750, 130918.453125, 136686.812500, 1, 256, 1,0.01087963,0.02811321,0.018799048,0.029243171,0.020761352, 13:59:30.809
79709.828125, 121574.640625, 141870.859375, 144853.515625, 94439.406250, 96976.929688, 130877.437500, 136734.593750, 1, 256, 1,0.01087963,0.02811321,0.018799048,0.029243171,0.020761352, 13:59:30.809
79710.945313, 121571.781250, 141893.703125, 144886.656250, 94444.093750, 97002.273438, 130869.500000, 136733.953125, 1, 256, 1,0.01087963,0.02811321,0.018799048,0.029243171,0.020761352, 13:59:30.810
79657.164063, 121513.531250, 141942.671875, 145068.781250, 94442.242188, 97078.539063, 130908.531250, 136690.546875, 1, 256, 1,0.01087963,0.02811321,0.018799048,0.029243171,0.020761352, 13:59:30.810
79656.007813, 121510.382813, 141921.406250, 145059.578125, 94431.710938, 97059.343750, 130910.382813, 136676.234375, 1, 256, 1,0.01087963,0.02811321,0.018799048,0.029243171,0.020761352, 13:59:30.810
79712.710938, 121571.851563, 141872.343750, 144881.750000, 94438.914063, 96982.898438, 130873.640625, 136721.296875, 1, 256, 1,0.01087963,0.02811321,0.018799048,0.029243171,0.020761352, 13:59:30.810
79731.734375, 121588.101563, 141889.734375, 144873.390625, 94460.796875, 96998.054688, 130883.898438, 136750.359375, 1, 256, 1,0.01087963,0.02811321,0.018799048,0.029243171,0.020761352, 13:59:30.811
79672.546875, 121518.984375, 141941.218750, 145050.656250, 94463.718750, 97071.585938, 130923.171875, 136701.234375, 1, 256, 1,0.01087963,0.02811321,0.018799048,0.029243171,0.020761352, 13:59:30.811
79664.320313, 121513.843750, 141935.140625, 145087.093750, 94449.820313, 97078.632813, 130927.593750, 136688.375000, 1, 256, 1,0.01087963,0.02811321,0.018799048,0.029243171,0.020761352, 13:59:30.811
79704.773438, 121563.398438, 141885.468750, 144918.687500, 94443.289063, 97005.359375, 130888.414063, 136728.328125, 1, 256, 1,0.01087963,0.02811321,0.018799048,0.029243171,0.020761352, 13:59:30.811
79725.476563, 121580.007813, 141886.875000, 144861.968750, 94456.234375, 96987.343750, 130877.867188, 136751.859375, 1, 256, 1,0.01087963,0.02811321,0.018799048,0.029243171,0.020761352, 13:59:30.811
79679.585938, 121536.648438, 141936.171875, 145024.078125, 94466.132813, 97065.664063, 130924.828125, 136721.187500, 1, 256, 1,0.01087963,0.02811321,0.018799048,0.029243171,0.020761352, 13:59:30.811
79639.445313, 121504.281250, 141934.484375, 145097.484375, 94442.375000, 97081.710938, 130932.468750, 136680.593750, 1, 256, 1,0.01087963,0.02811321,0.018799048,0.029243171,0.020761352, 13:59:30.812
79672.343750, 121548.312500, 141876.109375, 144941.312500, 94424.585938, 97005.429688, 130883.851563, 136704.140625, 1, 256, 1,0.01087963,0.02811321,0.018799048,0.029243171,0.020761352, 13:59:30.812
79706.007813, 121583.468750, 141857.109375, 144833.312500, 94429.656250, 96969.617188, 130853.968750, 136740.140625, 1, 256, 1,0.01087963,0.02811321,0.018799048,0.029243171,0.020761352, 13:59:30.812
79666.976563, 121533.851563, 141914.421875, 144980.515625, 94444.921875, 97040.140625, 130887.609375, 136712.453125, 1, 256, 1,0.01087963,0.02811321,0.018799048,0.029243171,0.020761352, 13:59:30.812
79610.203125, 121482.328125, 141934.953125, 145098.093750, 94429.859375, 97075.234375, 130911.304688, 136663.953125, 1, 256, 1,0.01087963,0.02811321,0.018799048,0.029243171,0.020761352, 13:59:30.812
