%OpenBCI Raw EEG Data
%
%Sample Rate = 250.0 Hz
%First Column = SampleIndex
%Last Column = Timestamp 
%Other Columns = EEG data in microvolts followed by Accel Data (in G) interleaved with Aux Data
0, 0.00, 0.00, 0.00, 0.00, 0.00, 0.00, 0.00, 0.00, 0.000, 0.000, 0.000, 11:53:35.271
1, -41274.15, -36686.48, -100482.91, -94503.17, -66481.73, -57520.00, -81205.02, -81223.71, 0.000, 0.000, 0.000, 11:53:35.752
2, -41234.30, -36645.32, -100410.34, -94621.66, -66447.27, -57470.45, -81155.20, -81182.00, 0.000, 0.000, 0.000, 11:53:35.753
3, -41311.61, -36719.51, -100380.48, -94402.21, -66387.61, -57460.43, -81195.48, -81141.70, 0.000, 0.000, 0.000, 11:53:35.754
4, -41343.11, -36753.29, -100451.80, -94281.35, -66424.11, -57509.00, -81241.34, -81176.62, 0.000, 0.000, 0.000, 11:53:35.754
5, -41287.43, -36696.54, -100478.02, -94464.21, -66471.31, -57522.82, -81206.16, -81213.27, 0.000, 0.000, 0.000, 11:53:35.755
6, -41242.25, -36644.52, -100423.30, -94630.51, -66454.70, -57483.10, -81156.84, -81188.15, 0.000, 0.000, 0.000, 11:53:35.755
7, -41308.95, -36707.35, -100380.70, -94453.66, -66399.07, -57463.63, -81191.57, -81142.84, 0.000, 0.000, 0.000, 11:53:35.756
8, -41358.88, -36756.59, -100446.57, -94286.96, -66429.54, -57510.39, -81247.41, -81173.76, 0.000, 0.000, 0.000, 11:53:35.756
9, -41304.28, -36699.89, -100481.21, -94434.71, -66483.07, -57533.77, -81218.84, -81213.97, 0.000, 0.000, 0.000, 11:53:35.756
10, -41236.11, -36626.66, -100428.17, -94642.80, -66471.02, -57495.01, -81150.38, -81191.63, 0.000, 0.000, 0.000, 11:53:35.757
11, -41297.62, -36683.41, -100372.38, -94510.91, -66403.77, -57471.32, -81170.73, -81145.91, 0.000, 0.000, 0.000, 11:53:35.758
12, -41365.12, -36750.04, -100425.13, -94292.44, -66411.32, -57514.59, -81240.95, -81166.18, 0.000, 0.000, 0.000, 11:53:35.758
13, -41328.42, -36710.97, -100479.96, -94390.90, -66471.54, -57552.90, -81234.06, -81218.08, 0.000, 0.000, 0.000, 11:53:35.758
14, -41246.77, -36626.06, -100441.92, -94620.07, -66472.95, -57523.26, -81164.48, -81208.65, 0.000, 0.000, 0.000, 11:53:35.758
15, -41280.03, -36653.66, -100370.86, -94552.73, -66402.85, -57490.23, -81161.26, -81159.02, 0.000, 0.000, 0.000, 11:53:35.759
16, -41381.10, -36750.22, -100419.92, -94299.93, -66394.91, -57537.77, -81244.30, -81175.81, 0.000, 0.000, 0.000, 11:53:35.759
17, -41353.25, -36720.76, -100481.98, -94349.57, -66464.19, -57569.64, -81244.95, -81213.07, 0.000, 0.000, 0.000, 11:53:35.759
18, -41265.72, -36628.85, -100451.02, -94590.55, -66483.88, -57542.30, -81179.88, -81211.02, 0.000, 0.000, 0.000, 11:53:35.760
19, -41279.25, -36635.89, -100380.59, -94589.38, -66425.49, -57501.83, -81163.18, -81163.56, 0.000, 0.000, 0.000, 11:53:35.760
20, -41368.45, -36724.00, -100391.85, -94332.88, -66384.81, -57523.66, -81220.11, -81147.54, 0.000, 0.000, 0.000, 11:53:35.760
21, -41363.55, -36719.15, -100461.32, -94317.85, -66440.89, -57573.40, -81239.45, -81197.60, 0.000, 0.000, 0.000, 11:53:35.760
22, -41278.69, -36636.65, -100452.65, -94543.83, -66475.43, -57561.35, -81180.21, -81211.17, 0.000, 0.000, 0.000, 11:53:35.761
23, -41268.02, -36619.02, -100381.16, -94608.09, -66424.94, -57513.96, -81141.66, -81165.28, 0.000, 0.000, 0.000, 11:53:35.761
24, -41361.25, -36702.61, -100367.51, -94356.45, -66371.65, -57518.43, -81198.88, -81136.34, 0.000, 0.000, 0.000, 11:53:35.761
25, -41397.06, -36732.09, -100458.99, -94282.72, -66425.36, -57582.61, -81247.67, -81191.19, 0.000, 0.000, 0.000, 11:53:35.762
26, -41322.18, -36652.43, -100469.12, -94501.95, -66471.94, -57587.99, -81196.93, -81223.46, 0.000, 0.000, 0.000, 11:53:35.762
27, -41279.51, -36607.77, -100392.30, -94632.30, -66436.36, -57538.44, -81140.16, -81184.70, 0.000, 0.000, 0.000, 11:53:35.762
28, -41364.27, -36689.85, -100369.77, -94417.14, -66375.20, -57535.38, -81184.30, -81146.53, 0.000, 0.000, 0.000, 11:53:35.762
29, -41406.52, -36733.97, -100444.98, -94284.70, -66411.30, -57584.06, -81239.45, -81181.40, 0.000, 0.000, 0.000, 11:53:35.763
30, -41348.25, -36678.12, -100469.45, -94450.55, -66460.70, -57599.26, -81206.39, -81215.55, 0.000, 0.000, 0.000, 11:53:35.763
31, -41294.78, -36619.82, -100409.91, -94620.07, -66442.39, -57556.66, -81148.20, -81188.10, 0.000, 0.000, 0.000, 11:53:35.763
32, -41355.78, -36682.54, -100355.57, -94448.50, -66368.01, -57529.72, -81168.05, -81134.95, 0.000, 0.000, 0.000, 11:53:35.764
33, -41415.79, -36744.95, -100420.22, -94260.52, -66387.41, -57567.96, -81222.59, -81155.54, 0.000, 0.000, 0.000, 11:53:35.764
34, -41371.09, -36696.80, -100470.84, -94408.78, -66457.86, -57596.89, -81208.09, -81201.45, 0.000, 0.000, 0.000, 11:53:35.764
35, -41307.74, -36628.61, -100424.75, -94627.67, -66456.52, -57569.24, -81145.95, -81191.19, 0.000, 0.000, 0.000, 11:53:35.764
36, -41347.13, -36666.88, -100361.43, -94514.80, -66392.86, -57534.44, -81151.78, -81136.00, 0.000, 0.000, 0.000, 11:53:35.765
37, -41426.48, -36742.45, -100409.66, -94276.13, -66388.12, -57570.00, -81220.02, -81143.45, 0.000, 0.000, 0.000, 11:53:35.765
38, -41410.11, -36726.30, -100475.96, -94356.03, -66444.27, -57619.75, -81229.45, -81200.63, 0.000, 0.000, 0.000, 11:53:35.765
39, -41328.96, -36641.57, -100441.23, -94594.23, -66458.13, -57596.35, -81162.84, -81201.85, 0.000, 0.000, 0.000, 11:53:35.765
40, -41343.77, -36654.38, -100363.48, -94554.63, -66397.20, -57548.97, -81147.60, -81147.24, 0.000, 0.000, 0.000, 11:53:35.766
41, -41429.32, -36739.34, -100388.81, -94300.58, -66375.60, -57577.15, -81218.64, -81145.14, 0.000, 0.000, 0.000, 11:53:35.766
42, -41423.55, -36734.49, -100464.92, -94326.73, -66443.95, -57628.74, -81242.30, -81203.13, 0.000, 0.000, 0.000, 11:53:35.766
43, -41342.32, -36650.64, -100448.06, -94568.93, -66465.21, -57609.18, -81170.80, -81212.02, 0.000, 0.000, 0.000, 11:53:35.766
44, -41331.64, -36638.24, -100363.55, -94600.05, -66404.66, -57556.93, -81132.78, -81157.55, 0.000, 0.000, 0.000, 11:53:35.767
45, -41436.58, -36742.71, -100378.20, -94326.34, -66365.99, -57584.89, -81208.96, -81142.95, 0.000, 0.000, 0.000, 11:53:35.767
46, -41431.71, -36743.11, -100456.58, -94293.20, -66429.92, -57634.64, -81242.64, -81195.10, 0.000, 0.000, 0.000, 11:53:35.767
47, -41345.90, -36657.39, -100446.44, -94522.15, -66459.24, -57624.96, -81179.99, -81209.67, 0.000, 0.000, 0.000, 11:53:35.767
48, -41324.80, -36631.33, -100375.53, -94611.60, -66414.34, -57581.24, -81137.10, -81167.01, 0.000, 0.000, 0.000, 11:53:35.768
49, -41421.18, -36725.97, -100370.88, -94374.13, -66368.56, -57594.79, -81200.78, -81145.08, 0.000, 0.000, 0.000, 11:53:35.768
50, -41450.32, -36755.45, -100450.50, -94280.41, -66419.93, -57647.98, -81244.52, -81189.69, 0.000, 0.000, 0.000, 11:53:35.769
51, -41375.52, -36678.96, -100460.47, -94483.39, -66461.81, -57651.56, -81196.55, -81213.43, 0.000, 0.000, 0.000, 11:53:35.769
52, -41323.55, -36631.60, -100396.14, -94631.38, -66430.77, -57608.22, -81141.48, -81179.27, 0.000, 0.000, 0.000, 11:53:35.769
53, -41409.38, -36717.30, -100365.38, -94423.53, -66372.66, -57603.26, -81181.00, -81140.05, 0.000, 0.000, 0.000, 11:53:35.769
54, -41471.49, -36767.75, -100445.85, -94270.47, -66409.53, -57654.76, -81240.63, -81176.80, 0.000, 0.000, 0.000, 11:53:35.770
55, -41410.63, -36705.14, -100470.91, -94434.51, -66454.26, -57667.70, -81207.70, -81207.04, 0.000, 0.000, 0.000, 11:53:35.770
56, -41346.57, -36641.88, -100416.37, -94629.33, -66440.02, -57626.42, -81146.69, -81181.24, 0.000, 0.000, 0.000, 11:53:35.770
57, -41404.97, -36701.83, -100365.74, -94486.66, -66377.84, -57601.56, -81167.56, -81133.97, 0.000, 0.000, 0.000, 11:53:35.770
58, -41486.20, -36781.36, -100429.98, -94279.30, -66389.95, -57651.20, -81244.48, -81159.83, 0.000, 0.000, 0.000, 11:53:35.771
59, -41443.42, -36738.80, -100485.59, -94394.27, -66449.48, -57687.77, -81227.84, -81208.83, 0.000, 0.000, 0.000, 11:53:35.771
60, -41357.86, -36651.85, -100431.91, -94615.18, -66447.76, -57645.84, -81151.07, -81188.08, 0.000, 0.000, 0.000, 11:53:35.771
61, -41409.02, -36697.32, -100373.43, -94524.79, -66388.73, -57621.21, -81165.71, -81146.71, 0.000, 0.000, 0.000, 11:53:35.771
62, -41495.36, -36779.95, -100420.70, -94293.70, -66386.71, -57663.21, -81234.13, -81156.59, 0.000, 0.000, 0.000, 11:53:35.772
63, -41463.40, -36748.26, -100477.80, -94353.95, -66446.44, -57700.11, -81236.27, -81198.92, 0.000, 0.000, 0.000, 11:53:35.772
64, -41387.11, -36669.64, -100455.02, -94596.54, -66468.74, -57673.62, -81176.68, -81202.79, 0.000, 0.000, 0.000, 11:53:35.772
65, -41409.33, -36685.69, -100391.70, -94587.30, -66414.14, -57638.64, -81158.55, -81160.57, 0.000, 0.000, 0.000, 11:53:35.779
66, -41511.19, -36784.91, -100428.13, -94329.05, -66392.93, -57674.05, -81236.70, -81163.14, 0.000, 0.000, 0.000, 11:53:35.779
67, -41505.09, -36778.72, -100498.13, -94341.26, -66453.95, -57714.93, -81258.36, -81214.28, 0.000, 0.000, 0.000, 11:53:35.779
68, -41430.05, -36708.00, -100494.36, -94579.64, -66485.46, -57707.82, -81206.39, -81232.14, 0.000, 0.000, 0.000, 11:53:35.779
69, -41406.92, -36683.73, -100409.45, -94630.38, -66425.34, -57652.61, -81162.20, -81175.54, 0.000, 0.000, 0.000, 11:53:35.780
70, -41494.71, -36766.72, -100406.20, -94372.28, -66377.02, -57656.21, -81217.67, -81147.42, 0.000, 0.000, 0.000, 11:53:35.780
71, -41510.56, -36779.32, -100481.50, -94321.77, -66432.11, -57708.09, -81253.48, -81195.97, 0.000, 0.000, 0.000, 11:53:35.780
72, -41443.62, -36708.09, -100491.59, -94542.11, -66472.88, -57714.30, -81201.74, -81225.14, 0.000, 0.000, 0.000, 11:53:35.781
73, -41409.20, -36670.50, -100421.51, -94652.64, -66433.90, -57667.12, -81153.41, -81185.02, 0.000, 0.000, 0.000, 11:53:35.781
74, -41492.64, -36745.06, -100397.41, -94421.72, -66375.88, -57661.26, -81204.78, -81150.55, 0.000, 0.000, 0.000, 11:53:35.781
75, -41536.96, -36784.58, -100491.27, -94308.45, -66430.08, -57726.26, -81272.70, -81206.21, 0.000, 0.000, 0.000, 11:53:35.781
76, -41455.49, -36711.42, -100508.70, -94503.59, -66479.07, -57734.13, -81228.31, -81238.62, 0.000, 0.000, 0.000, 11:53:35.782
77, -41397.20, -36652.79, -100423.68, -94655.30, -66441.36, -57676.28, -81156.99, -81195.81, 0.000, 0.000, 0.000, 11:53:35.782
78, -41446.17, -36703.57, -100361.61, -94460.57, -66364.48, -57644.50, -81174.18, -81140.14, 0.000, 0.000, 0.000, 11:53:35.782
79, -41499.28, -36759.72, -100425.58, -94283.55, -66389.04, -57691.82, -81238.10, -81164.70, 0.000, 0.000, 0.000, 11:53:35.782
80, -41444.40, -36706.64, -100470.91, -94431.80, -66448.00, -57717.72, -81217.72, -81206.45, 0.000, 0.000, 0.000, 11:53:35.782
81, -41370.42, -36633.82, -100407.59, -94630.69, -66428.33, -57670.98, -81141.01, -81179.55, 0.000, 0.000, 0.000, 11:53:35.783
82, -41425.47, -36690.05, -100349.85, -94488.33, -66361.08, -57644.16, -81160.97, -81132.00, 0.000, 0.000, 0.000, 11:53:35.783
83, -41497.22, -36763.12, -100417.20, -94280.28, -66375.29, -57695.46, -81231.42, -81158.76, 0.000, 0.000, 0.000, 11:53:35.783
84, -41446.12, -36717.68, -100469.37, -94391.84, -66433.96, -57729.28, -81217.12, -81206.63, 0.000, 0.000, 0.000, 11:53:35.783
85, -41367.24, -36633.37, -100421.06, -94616.88, -66433.59, -57689.58, -81146.04, -81192.02, 0.000, 0.000, 0.000, 11:53:35.783
86, -41398.31, -36661.09, -100352.83, -94546.52, -66371.05, -57649.15, -81148.41, -81140.07, 0.000, 0.000, 0.000, 11:53:35.783
87, -41477.37, -36734.44, -100388.37, -94296.46, -66359.78, -57683.79, -81224.72, -81145.08, 0.000, 0.000, 0.000, 11:53:35.784
88, -41471.22, -36724.32, -100457.54, -94332.77, -66421.76, -57734.75, -81236.12, -81199.91, 0.000, 0.000, 0.000, 11:53:35.784
89, -41382.96, -36634.08, -100433.25, -94574.61, -66440.27, -57708.74, -81162.49, -81202.52, 0.000, 0.000, 0.000, 11:53:35.784
90, -41377.30, -36627.36, -100349.72, -94576.62, -66378.20, -57655.79, -81138.20, -81149.97, 0.000, 0.000, 0.000, 11:53:35.784
91, -41466.42, -36714.82, -100363.45, -94320.23, -66347.66, -57673.78, -81204.58, -81141.39, 0.000, 0.000, 0.000, 11:53:35.784
92, -41473.86, -36717.14, -100441.05, -94307.57, -66415.52, -57723.98, -81234.98, -81191.95, 0.000, 0.000, 0.000, 11:53:35.784
93, -41394.13, -36638.29, -100436.02, -94544.14, -66448.94, -57714.77, -81178.09, -81203.15, 0.000, 0.000, 0.000, 11:53:35.784
94, -41372.45, -36613.83, -100361.85, -94618.73, -66395.79, -57665.80, -81133.84, -81157.75, 0.000, 0.000, 0.000, 11:53:35.785
95, -41465.90, -36700.07, -100351.82, -94368.93, -66341.05, -57670.54, -81191.08, -81130.02, 0.000, 0.000, 0.000, 11:53:35.786
96, -41504.06, -36736.36, -100442.43, -94287.05, -66396.39, -57731.89, -81252.59, -81185.58, 0.000, 0.000, 0.000, 11:53:35.786
97, -41419.61, -36654.94, -100451.48, -94501.92, -66438.23, -57727.36, -81189.52, -81206.12, 0.000, 0.000, 0.000, 11:53:35.787
98, -41375.07, -36604.27, -100375.87, -94629.46, -66400.50, -57674.56, -81132.43, -81163.74, 0.000, 0.000, 0.000, 11:53:35.787
99, -41459.69, -36685.63, -100345.16, -94403.46, -66340.29, -57671.07, -81178.41, -81128.54, 0.000, 0.000, 0.000, 11:53:35.787
100, -41504.93, -36730.84, -100428.09, -94264.48, -66383.16, -57725.37, -81239.24, -81169.17, 0.000, 0.000, 0.000, 11:53:35.788
101, -41439.89, -36664.26, -100450.99, -94439.67, -66430.19, -57741.66, -81206.73, -81203.73, 0.000, 0.000, 0.000, 11:53:35.788
102, -41367.64, -36592.66, -100389.05, -94618.41, -66406.78, -57694.39, -81140.18, -81173.89, 0.000, 0.000, 0.000, 11:53:35.788
103, -41435.15, -36651.99, -100336.51, -94450.96, -66340.00, -57670.38, -81163.90, -81126.75, 0.000, 0.000, 0.000, 11:53:35.788
104, -41510.45, -36723.25, -100411.68, -94267.00, -66365.32, -57725.08, -81241.59, -81161.28, 0.000, 0.000, 0.000, 11:53:35.789
105, -41462.46, -36670.16, -100456.78, -94401.45, -66422.34, -57751.43, -81226.37, -81203.80, 0.000, 0.000, 0.000, 11:53:35.789
106, -41398.94, -36605.70, -100416.80, -94609.25, -66422.05, -57722.24, -81170.45, -81195.30, 0.000, 0.000, 0.000, 11:53:35.789
107, -41440.20, -36648.52, -100361.43, -94505.90, -66359.84, -57692.00, -81176.70, -81150.66, 0.000, 0.000, 0.000, 11:53:35.790
108, -41515.10, -36721.41, -100409.09, -94281.53, -66356.56, -57728.30, -81238.44, -81163.25, 0.000, 0.000, 0.000, 11:53:35.790
109, -41485.06, -36689.56, -100467.53, -94365.69, -66418.54, -57762.76, -81235.34, -81211.35, 0.000, 0.000, 0.000, 11:53:35.790
110, -41404.55, -36611.51, -100430.67, -94595.73, -66429.20, -57736.03, -81164.91, -81205.88, 0.000, 0.000, 0.000, 11:53:35.790
111, -41419.32, -36629.88, -100363.27, -94551.50, -66365.84, -57700.18, -81153.68, -81151.65, 0.000, 0.000, 0.000, 11:53:35.791
112, -41505.87, -36714.21, -100391.90, -94299.26, -66347.10, -57727.98, -81226.98, -81151.94, 0.000, 0.000, 0.000, 11:53:35.791
113, -41497.64, -36703.87, -100464.85, -94324.63, -66412.02, -57774.65, -81245.80, -81203.05, 0.000, 0.000, 0.000, 11:53:35.791
114, -41410.54, -36616.22, -100441.67, -94565.58, -66435.84, -57755.72, -81177.24, -81208.55, 0.000, 0.000, 0.000, 11:53:35.791
115, -41413.58, -36617.63, -100371.49, -94588.42, -66382.31, -57715.49, -81155.11, -81168.79, 0.000, 0.000, 0.000, 11:53:35.792
116, -41508.17, -36711.49, -100390.71, -94334.55, -66352.11, -57735.80, -81222.26, -81156.48, 0.000, 0.000, 0.000, 11:53:35.792
117, -41525.94, -36727.43, -100471.89, -94304.71, -66413.89, -57792.80, -81256.92, -81209.05, 0.000, 0.000, 0.000, 11:53:35.792
118, -41443.62, -36642.38, -100471.96, -94534.95, -66449.03, -57785.09, -81199.84, -81226.10, 0.000, 0.000, 0.000, 11:53:35.793
119, -41406.83, -36605.61, -100394.24, -94626.20, -66403.16, -57730.96, -81151.83, -81178.45, 0.000, 0.000, 0.000, 11:53:35.793
120, -41490.94, -36689.38, -100375.78, -94382.23, -66351.48, -57731.67, -81207.93, -81150.62, 0.000, 0.000, 0.000, 11:53:35.793
121, -41523.46, -36718.71, -100451.91, -94281.87, -66392.52, -57784.84, -81250.47, -81193.09, 0.000, 0.000, 0.000, 11:53:36.232
122, -41459.94, -36654.16, -100474.58, -94478.16, -66435.40, -57793.25, -81205.16, -81218.52, 0.000, 0.000, 0.000, 11:53:36.232
123, -41418.34, -36615.15, -100420.13, -94625.08, -66417.89, -57755.34, -81161.69, -81190.49, 0.000, 0.000, 0.000, 11:53:36.233
124, -41487.90, -36684.55, -100385.39, -94427.78, -66364.09, -57742.18, -81203.08, -81154.55, 0.000, 0.000, 0.000, 11:53:36.233
125, -41543.93, -36738.13, -100457.37, -94280.08, -66398.00, -57793.27, -81266.11, -81192.02, 0.000, 0.000, 0.000, 11:53:36.233
126, -41481.35, -36676.62, -100488.03, -94447.56, -66449.16, -57809.93, -81233.41, -81226.66, 0.000, 0.000, 0.000, 11:53:36.233
127, -41403.61, -36599.75, -100423.01, -94637.30, -66426.81, -57759.05, -81164.34, -81194.66, 0.000, 0.000, 0.000, 11:53:36.233
128, -41467.91, -36661.62, -100375.47, -94491.82, -66371.54, -57735.34, -81190.67, -81152.68, 0.000, 0.000, 0.000, 11:53:36.234
129, -41541.70, -36729.66, -100440.94, -94288.10, -66387.00, -57783.30, -81254.47, -81178.56, 0.000, 0.000, 0.000, 11:53:36.234
130, -41487.52, -36675.34, -100478.24, -94409.98, -66438.70, -57803.42, -81229.41, -81214.77, 0.000, 0.000, 0.000, 11:53:36.234
131, -41415.68, -36605.72, -100430.48, -94624.79, -66430.52, -57767.21, -81161.48, -81200.58, 0.000, 0.000, 0.000, 11:53:36.235
132, -41455.15, -36645.44, -100368.38, -94531.63, -66367.78, -57734.98, -81164.73, -81155.31, 0.000, 0.000, 0.000, 11:53:36.235
133, -41545.32, -36731.11, -100412.39, -94284.55, -66360.92, -57770.59, -81241.34, -81165.41, 0.000, 0.000, 0.000, 11:53:36.235
134, -41517.52, -36700.65, -100470.06, -94346.13, -66416.22, -57804.56, -81244.03, -81210.19, 0.000, 0.000, 0.000, 11:53:36.235
135, -41439.64, -36623.60, -100440.96, -94577.91, -66428.29, -57782.07, -81179.68, -81210.39, 0.000, 0.000, 0.000, 11:53:36.235
136, -41450.32, -36633.86, -100370.41, -94556.91, -66368.74, -57742.42, -81159.59, -81159.54, 0.000, 0.000, 0.000, 11:53:36.236
137, -41541.41, -36720.32, -100396.03, -94304.48, -66350.99, -57771.30, -81235.67, -81159.54, 0.000, 0.000, 0.000, 11:53:36.236
138, -41541.16, -36720.03, -100472.02, -94316.87, -66418.05, -57821.99, -81263.38, -81217.54, 0.000, 0.000, 0.000, 11:53:36.236
139, -41455.71, -36631.02, -100453.38, -94557.02, -66439.44, -57792.82, -81186.38, -81215.89, 0.000, 0.000, 0.000, 11:53:36.236
140, -41448.22, -36614.95, -100380.30, -94614.17, -66390.63, -57740.95, -81148.27, -81166.91, 0.000, 0.000, 0.000, 11:53:36.236
141, -41542.30, -36703.22, -100381.50, -94354.60, -66345.36, -57749.80, -81214.99, -81149.99, 0.000, 0.000, 0.000, 11:53:36.236
142, -41556.14, -36716.96, -100453.77, -94292.44, -66388.86, -57796.76, -81243.83, -81197.73, 0.000, 0.000, 0.000, 11:53:36.236
143, -41488.14, -36647.05, -100462.44, -94505.79, -66427.75, -57797.16, -81196.91, -81216.54, 0.000, 0.000, 0.000, 11:53:36.237
144, -41461.75, -36616.11, -100400.84, -94619.27, -66399.48, -57752.05, -81157.04, -81174.20, 0.000, 0.000, 0.000, 11:53:36.237
145, -41549.39, -36703.78, -100379.87, -94383.63, -66350.15, -57751.81, -81214.70, -81143.80, 0.000, 0.000, 0.000, 11:53:36.237
146, -41598.70, -36747.81, -100466.53, -94263.65, -66403.39, -57808.14, -81273.35, -81190.92, 0.000, 0.000, 0.000, 11:53:36.237
147, -41515.73, -36666.18, -100479.42, -94466.23, -66452.52, -57813.46, -81221.34, -81221.01, 0.000, 0.000, 0.000, 11:53:36.237
148, -41454.24, -36604.47, -100406.85, -94632.08, -66421.20, -57763.28, -81155.07, -81184.53, 0.000, 0.000, 0.000, 11:53:36.237
149, -41533.52, -36684.49, -100366.84, -94434.71, -66356.78, -57757.22, -81197.45, -81145.37, 0.000, 0.000, 0.000, 11:53:36.238
150, -41595.68, -36742.94, -100438.81, -94257.70, -66389.46, -57814.71, -81269.91, -81184.41, 0.000, 0.000, 0.000, 11:53:36.238
151, -41542.04, -36686.86, -100477.08, -94412.91, -66447.02, -57837.24, -81240.99, -81227.00, 0.000, 0.000, 0.000, 11:53:36.238
152, -41473.97, -36613.70, -100416.73, -94621.05, -66430.97, -57797.92, -81169.27, -81207.17, 0.000, 0.000, 0.000, 11:53:36.238
153, -41525.54, -36660.46, -100359.24, -94489.20, -66366.93, -57772.30, -81187.44, -81164.23, 0.000, 0.000, 0.000, 11:53:36.238
154, -41605.49, -36740.05, -100419.95, -94266.45, -66374.45, -57819.27, -81263.61, -81184.91, 0.000, 0.000, 0.000, 11:53:36.238
155, -41563.38, -36700.02, -100480.05, -94375.34, -66441.36, -57853.02, -81258.27, -81233.70, 0.000, 0.000, 0.000, 11:53:36.239
156, -41487.79, -36616.87, -100435.23, -94609.50, -66441.27, -57812.58, -81180.52, -81219.55, 0.000, 0.000, 0.000, 11:53:36.239
157, -41517.80, -36642.80, -100367.69, -94544.55, -66381.41, -57768.89, -81176.59, -81166.09, 0.000, 0.000, 0.000, 11:53:36.239
158, -41598.25, -36727.40, -100404.28, -94294.74, -66365.27, -57799.60, -81244.32, -81163.54, 0.000, 0.000, 0.000, 11:53:36.239
159, -41579.79, -36710.48, -100467.87, -94336.90, -66421.67, -57838.85, -81247.74, -81209.27, 0.000, 0.000, 0.000, 11:53:36.240
160, -41506.00, -36634.20, -100446.95, -94576.15, -66439.89, -57821.10, -81185.20, -81215.69, 0.000, 0.000, 0.000, 11:53:36.240
161, -41502.94, -36629.66, -100370.64, -94580.51, -66384.63, -57772.44, -81158.42, -81162.55, 0.000, 0.000, 0.000, 11:53:36.240
162, -41595.25, -36718.44, -100382.69, -94319.98, -66349.74, -57790.46, -81225.72, -81150.11, 0.000, 0.000, 0.000, 11:53:36.240
163, -41602.72, -36722.15, -100460.29, -94305.63, -66405.27, -57837.86, -81250.24, -81197.89, 0.000, 0.000, 0.000, 11:53:36.240
164, -41526.95, -36647.27, -100453.14, -94533.95, -66442.15, -57833.53, -81198.77, -81218.08, 0.000, 0.000, 0.000, 11:53:36.241
165, -41513.45, -36632.96, -100394.04, -94609.63, -66414.83, -57796.22, -81166.94, -81186.88, 0.000, 0.000, 0.000, 11:53:36.241
166, -41599.07, -36718.17, -100382.55, -94360.14, -66369.79, -57801.48, -81221.19, -81161.48, 0.000, 0.000, 0.000, 11:53:36.241
167, -41619.08, -36735.34, -100460.16, -94284.35, -66414.92, -57850.31, -81259.61, -81206.03, 0.000, 0.000, 0.000, 11:53:36.241
168, -41552.09, -36665.42, -100467.84, -94498.61, -66450.82, -57850.43, -81211.69, -81229.61, 0.000, 0.000, 0.000, 11:53:36.241
169, -41515.75, -36626.11, -100400.28, -94628.95, -66417.76, -57801.81, -81155.88, -81189.71, 0.000, 0.000, 0.000, 11:53:36.241
170, -41598.07, -36704.18, -100372.07, -94415.35, -66362.48, -57790.57, -81199.05, -81154.09, 0.000, 0.000, 0.000, 11:53:36.241
171, -41667.38, -36770.05, -100463.13, -94274.00, -66407.86, -57856.17, -81277.53, -81205.34, 0.000, 0.000, 0.000, 11:53:36.242
172, -41596.44, -36694.70, -100494.31, -94465.38, -66462.51, -57867.19, -81238.28, -81236.88, 0.000, 0.000, 0.000, 11:53:36.242
173, -41530.25, -36624.76, -100425.98, -94647.70, -66432.24, -57819.82, -81170.85, -81202.30, 0.000, 0.000, 0.000, 11:53:36.242
174, -41598.94, -36688.31, -100382.33, -94473.87, -66370.53, -57802.95, -81205.54, -81159.56, 0.000, 0.000, 0.000, 11:53:36.242
175, -41663.52, -36747.77, -100453.61, -94283.39, -66395.88, -57853.15, -81274.90, -81195.81, 0.000, 0.000, 0.000, 11:53:36.242
176, -41602.65, -36687.59, -100491.70, -94424.05, -66441.45, -57871.10, -81244.61, -81234.77, 0.000, 0.000, 0.000, 11:53:36.242
177, -41534.39, -36620.89, -100444.98, -94638.98, -66432.49, -57837.13, -81180.91, -81224.31, 0.000, 0.000, 0.000, 11:53:36.243
178, -41589.91, -36659.68, -100378.82, -94530.53, -66371.96, -57799.75, -81189.16, -81166.16, 0.000, 0.000, 0.000, 11:53:36.243
179, -41670.11, -36734.11, -100426.48, -94300.04, -66374.15, -57833.04, -81252.99, -81166.80, 0.000, 0.000, 0.000, 11:53:36.243
180, -41638.21, -36701.34, -100479.78, -94379.39, -66426.59, -57868.11, -81236.45, -81211.84, 0.000, 0.000, 0.000, 11:53:36.243
181, -41556.29, -36613.54, -100443.98, -94607.42, -66435.77, -57833.30, -81158.58, -81205.23, 0.000, 0.000, 0.000, 11:53:36.243
182, -41581.11, -36636.77, -100369.70, -94561.63, -66367.40, -57792.04, -81152.01, -81152.14, 0.000, 0.000, 0.000, 11:53:36.243
183, -41685.76, -36737.68, -100415.08, -94305.12, -66361.92, -57834.15, -81245.46, -81158.89, 0.000, 0.000, 0.000, 11:53:36.243
184, -41662.93, -36710.88, -100481.08, -94345.88, -66426.27, -57873.43, -81252.43, -81205.83, 0.000, 0.000, 0.000, 11:53:36.244
185, -41576.16, -36621.90, -100455.35, -94588.16, -66438.01, -57848.30, -81173.73, -81204.29, 0.000, 0.000, 0.000, 11:53:36.244
186, -41572.14, -36618.19, -100378.15, -94608.60, -66380.81, -57800.40, -81149.77, -81157.04, 0.000, 0.000, 0.000, 11:53:36.244
187, -41664.32, -36706.12, -100387.58, -94346.40, -66341.83, -57817.39, -81217.54, -81144.02, 0.000, 0.000, 0.000, 11:53:36.244
188, -41686.16, -36721.39, -100471.76, -94311.62, -66397.35, -57874.45, -81253.64, -81199.68, 0.000, 0.000, 0.000, 11:53:36.244
189, -41616.69, -36645.39, -100482.53, -94549.24, -66443.30, -57877.98, -81207.39, -81228.72, 0.000, 0.000, 0.000, 11:53:36.245
190, -41589.93, -36615.13, -100411.56, -94644.86, -66402.05, -57830.69, -81163.12, -81187.16, 0.000, 0.000, 0.000, 11:53:36.245
191, -41684.88, -36704.60, -100395.27, -94391.86, -66348.20, -57836.10, -81222.33, -81162.40, 0.000, 0.000, 0.000, 11:53:36.245
192, -41707.37, -36726.69, -100468.41, -94290.77, -66392.75, -57884.00, -81264.97, -81201.91, 0.000, 0.000, 0.000, 11:53:36.245
193, -41638.73, -36656.57, -100482.24, -94496.63, -66436.98, -57888.20, -81217.88, -81227.00, 0.000, 0.000, 0.000, 11:53:36.246
194, -41603.17, -36620.25, -100426.02, -94637.87, -66415.55, -57849.44, -81176.19, -81198.86, 0.000, 0.000, 0.000, 11:53:36.246
195, -41674.40, -36684.98, -100393.70, -94437.28, -66364.92, -57836.68, -81211.73, -81163.38, 0.000, 0.000, 0.000, 11:53:36.247
196, -41708.84, -36714.06, -100449.20, -94292.53, -66390.53, -57874.79, -81247.16, -81188.95, 0.000, 0.000, 0.000, 11:53:36.247
197, -41657.70, -36657.78, -100474.09, -94453.41, -66435.98, -57892.43, -81217.23, -81222.19, 0.000, 0.000, 0.000, 11:53:36.247
198, -41597.49, -36597.72, -100423.91, -94644.26, -66416.28, -57849.62, -81154.11, -81190.67, 0.000, 0.000, 0.000, 11:53:36.247
199, -41670.29, -36662.54, -100380.38, -94489.38, -66357.59, -57830.91, -81184.20, -81147.13, 0.000, 0.000, 0.000, 11:53:36.247
200, -41743.63, -36728.36, -100446.95, -94282.76, -66382.02, -57888.65, -81256.27, -81178.98, 0.000, 0.000, 0.000, 11:53:36.247
201, -41692.46, -36677.58, -100492.99, -94406.86, -66431.30, -57915.78, -81237.45, -81222.26, 0.000, 0.000, 0.000, 11:53:36.248
202, -41624.02, -36608.51, -100451.44, -94635.77, -66434.81, -57882.14, -81174.94, -81210.91, 0.000, 0.000, 0.000, 11:53:36.248
203, -41654.13, -36640.83, -100386.64, -94550.11, -66373.93, -57846.56, -81175.70, -81160.66, 0.000, 0.000, 0.000, 11:53:36.248
204, -41731.53, -36718.15, -100426.41, -94311.39, -66365.70, -57876.78, -81240.97, -81165.24, 0.000, 0.000, 0.000, 11:53:36.248
205, -41709.27, -36699.84, -100489.10, -94373.29, -66424.58, -57915.20, -81245.57, -81216.60, 0.000, 0.000, 0.000, 11:53:36.248
206, -41628.40, -36612.04, -100463.63, -94617.44, -66439.91, -57893.39, -81178.23, -81222.26, 0.000, 0.000, 0.000, 11:53:36.248
207, -41634.95, -36612.25, -100380.83, -94603.60, -66375.16, -57842.71, -81153.23, -81164.28, 0.000, 0.000, 0.000, 11:53:36.248
208, -41732.27, -36706.70, -100398.18, -94340.38, -66346.68, -57866.56, -81228.98, -81156.30, 0.000, 0.000, 0.000, 11:53:36.249
209, -41734.19, -36704.04, -100478.91, -94343.52, -66406.65, -57916.41, -81250.91, -81210.57, 0.000, 0.000, 0.000, 11:53:36.249
210, -41650.21, -36616.31, -100467.34, -94581.20, -66430.25, -57902.28, -81186.98, -81219.42, 0.000, 0.000, 0.000, 11:53:36.249
211, -41635.13, -36599.86, -100394.45, -94626.76, -66385.26, -57858.02, -81154.27, -81173.62, 0.000, 0.000, 0.000, 11:53:36.249
212, -41718.03, -36680.20, -100387.25, -94371.70, -66346.03, -57863.10, -81209.95, -81147.80, 0.000, 0.000, 0.000, 11:53:36.249
213, -41747.18, -36705.34, -100470.40, -94309.77, -66399.43, -57923.96, -81256.21, -81201.00, 0.000, 0.000, 0.000, 11:53:36.249
214, -41678.34, -36628.16, -100484.59, -94532.92, -66440.55, -57929.66, -81213.09, -81231.11, 0.000, 0.000, 0.000, 11:53:36.249
215, -41643.29, -36587.59, -100417.51, -94652.41, -66406.52, -57876.82, -81164.30, -81190.63, 0.000, 0.000, 0.000, 11:53:36.250
216, -41731.00, -36670.29, -100393.73, -94417.68, -66349.68, -57871.48, -81215.30, -81154.09, 0.000, 0.000, 0.000, 11:53:36.250
217, -41766.85, -36697.45, -100470.46, -94303.33, -66391.63, -57921.21, -81261.13, -81191.48, 0.000, 0.000, 0.000, 11:53:36.250
218, -41708.15, -36627.33, -100493.41, -94494.37, -66439.66, -57935.38, -81224.88, -81226.39, 0.000, 0.000, 0.000, 11:53:36.250
219, -41654.06, -36563.79, -100433.13, -94663.05, -66414.88, -57887.71, -81165.26, -81198.54, 0.000, 0.000, 0.000, 11:53:36.250
220, -41721.27, -36628.74, -100385.68, -94473.47, -66351.02, -57870.92, -81198.19, -81154.76, 0.000, 0.000, 0.000, 11:53:36.250
221, -41781.71, -36679.70, -100460.49, -94299.62, -66382.31, -57926.73, -81268.17, -81191.13, 0.000, 0.000, 0.000, 11:53:36.251
222, -41740.56, -36630.55, -100501.98, -94449.88, -66439.20, -57950.70, -81243.13, -81229.77, 0.000, 0.000, 0.000, 11:53:36.251
223, -41687.25, -36569.24, -100449.81, -94655.12, -66430.73, -57915.02, -81176.30, -81208.89, 0.000, 0.000, 0.000, 11:53:36.251
224, -41735.27, -36612.47, -100392.12, -94525.16, -66362.84, -57887.42, -81186.43, -81164.41, 0.000, 0.000, 0.000, 11:53:36.251
225, -41792.26, -36667.70, -100433.70, -94300.58, -66361.16, -57928.66, -81250.76, -81180.66, 0.000, 0.000, 0.000, 11:53:36.251
226, -41757.39, -36630.13, -100491.02, -94402.50, -66427.15, -57970.61, -81249.80, -81232.30, 0.000, 0.000, 0.000, 11:53:36.251
227, -41678.20, -36548.30, -100448.87, -94633.75, -66430.74, -57936.37, -81178.90, -81215.66, 0.000, 0.000, 0.000, 11:53:36.251
228, -41707.28, -36573.89, -100378.51, -94564.95, -66369.13, -57900.79, -81180.08, -81168.03, 0.000, 0.000, 0.000, 11:53:36.252
229, -41798.70, -36661.04, -100423.68, -94313.70, -66362.41, -57939.72, -81259.18, -81177.89, 0.000, 0.000, 0.000, 11:53:36.252
230, -41771.83, -36631.54, -100480.19, -94359.70, -66417.91, -57970.27, -81253.55, -81220.54, 0.000, 0.000, 0.000, 11:53:36.252
231, -41698.09, -36550.02, -100458.66, -94595.44, -66435.55, -57946.18, -81187.44, -81220.23, 0.000, 0.000, 0.000, 11:53:36.253
232, -41694.16, -36546.49, -100386.91, -94602.44, -66382.27, -57900.89, -81161.82, -81169.95, 0.000, 0.000, 0.000, 11:53:36.253
233, -41782.14, -36632.52, -100395.41, -94341.70, -66348.80, -57918.89, -81229.57, -81158.06, 0.000, 0.000, 0.000, 11:53:36.253
234, -41792.82, -36641.01, -100475.55, -94325.12, -66407.41, -57970.05, -81260.13, -81207.22, 0.000, 0.000, 0.000, 11:53:36.254
235, -41707.77, -36556.14, -100472.41, -94562.92, -66441.16, -57957.58, -81200.55, -81220.05, 0.000, 0.000, 0.000, 11:53:36.254
236, -41682.54, -36526.41, -100396.21, -94637.66, -66393.77, -57903.62, -81156.16, -81172.75, 0.000, 0.000, 0.000, 11:53:36.254
237, -41782.72, -36621.19, -100390.63, -94381.27, -66346.77, -57913.17, -81229.03, -81153.41, 0.000, 0.000, 0.000, 11:53:36.254
238, -41819.89, -36650.36, -100471.34, -94300.46, -66396.41, -57967.73, -81268.41, -81202.37, 0.000, 0.000, 0.000, 11:53:36.255
239, -41739.00, -36567.70, -100481.34, -94522.41, -66440.54, -57965.92, -81213.41, -81227.82, 0.000, 0.000, 0.000, 11:53:36.255
240, -41700.44, -36525.57, -100411.99, -94653.35, -66402.49, -57920.72, -81159.36, -81190.85, 0.000, 0.000, 0.000, 11:53:36.255
241, -41791.10, -36610.88, -100384.52, -94429.08, -66343.15, -57913.28, -81208.49, -81155.38, 0.000, 0.000, 0.000, 11:53:36.712
242, -41837.97, -36656.50, -100460.00, -94285.73, -66379.88, -57966.70, -81266.73, -81192.91, 0.000, 0.000, 0.000, 11:53:36.712
243, -41765.04, -36585.27, -100489.69, -94467.68, -66436.73, -57983.39, -81232.07, -81228.94, 0.000, 0.000, 0.000, 11:53:36.712
244, -41697.56, -36519.42, -100427.79, -94658.31, -66420.73, -57940.79, -81168.79, -81203.37, 0.000, 0.000, 0.000, 11:53:36.712
245, -41761.02, -36579.21, -100378.38, -94490.25, -66360.45, -57923.71, -81202.14, -81163.56, 0.000, 0.000, 0.000, 11:53:36.713
246, -41825.84, -36641.14, -100443.28, -94294.97, -66382.76, -57973.98, -81271.34, -81193.78, 0.000, 0.000, 0.000, 11:53:36.713
247, -41789.07, -36603.59, -100499.30, -94426.08, -66448.05, -58011.25, -81265.91, -81248.63, 0.000, 0.000, 0.000, 11:53:36.713
248, -41715.53, -36526.64, -100460.47, -94645.87, -66449.43, -57975.39, -81201.36, -81237.84, 0.000, 0.000, 0.000, 11:53:36.713
249, -41755.43, -36567.54, -100394.66, -94538.16, -66381.66, -57940.41, -81205.23, -81186.07, 0.000, 0.000, 0.000, 11:53:36.713
250, -41832.05, -36643.96, -100446.41, -94310.45, -66384.84, -57978.21, -81273.17, -81199.21, 0.000, 0.000, 0.000, 11:53:36.713
251, -41796.57, -36606.21, -100502.20, -94398.37, -66444.16, -58009.57, -81264.68, -81243.41, 0.000, 0.000, 0.000, 11:53:36.713
252, -41722.79, -36526.28, -100474.82, -94635.98, -66452.78, -57986.46, -81197.80, -81241.68, 0.000, 0.000, 0.000, 11:53:36.714
253, -41745.84, -36544.23, -100404.28, -94592.04, -66392.59, -57943.68, -81186.59, -81191.59, 0.000, 0.000, 0.000, 11:53:36.714
254, -41826.95, -36624.47, -100428.53, -94334.17, -66371.60, -57963.39, -81252.32, -81182.96, 0.000, 0.000, 0.000, 11:53:36.714
255, -41826.57, -36622.86, -100500.84, -94353.66, -66434.26, -58011.13, -81278.02, -81232.20, 0.000, 0.000, 0.000, 11:53:36.715
0, -41743.45, -36536.47, -100488.30, -94599.64, -66463.65, -57992.70, -81216.98, -81240.77, 0.000, 0.000, 0.000, 11:53:36.715
1, -41738.55, -36528.74, -100412.26, -94628.34, -66406.85, -57943.21, -81183.68, -81189.73, 0.000, 0.000, 0.000, 11:53:36.715
2, -41828.81, -36622.08, -100417.31, -94369.30, -66368.34, -57956.04, -81240.34, -81168.57, 0.000, 0.000, 0.000, 11:53:36.716
3, -41841.04, -36634.31, -100489.77, -94333.97, -66424.04, -58003.13, -81272.39, -81216.18, 0.000, 0.000, 0.000, 11:53:36.716
4, -41772.01, -36557.75, -100490.29, -94562.16, -66459.16, -57999.51, -81221.05, -81236.81, 0.000, 0.000, 0.000, 11:53:36.716
5, -41750.51, -36531.24, -100421.63, -94657.42, -66415.66, -57953.11, -81182.85, -81196.76, 0.000, 0.000, 0.000, 11:53:36.716
6, -41842.78, -36622.57, -100413.40, -94413.70, -66364.16, -57956.93, -81241.52, -81171.84, 0.000, 0.000, 0.000, 11:53:36.717
7, -41868.93, -36646.82, -100485.02, -94319.09, -66406.67, -58008.30, -81281.18, -81215.77, 0.000, 0.000, 0.000, 11:53:36.717
8, -41796.04, -36575.99, -100504.88, -94522.46, -66449.45, -58014.49, -81235.49, -81246.17, 0.000, 0.000, 0.000, 11:53:36.717
9, -41734.86, -36510.16, -100433.56, -94674.68, -66414.85, -57958.47, -81167.23, -81204.55, 0.000, 0.000, 0.000, 11:53:36.717
10, -41808.64, -36576.41, -100390.45, -94465.27, -66350.19, -57943.57, -81205.59, -81160.59, 0.000, 0.000, 0.000, 11:53:36.718
11, -41862.27, -36624.52, -100464.07, -94312.91, -66386.47, -57993.34, -81265.20, -81194.85, 0.000, 0.000, 0.000, 11:53:36.718
12, -41808.71, -36568.19, -100499.84, -94479.16, -66433.09, -58010.13, -81229.41, -81228.45, 0.000, 0.000, 0.000, 11:53:36.718
13, -41754.33, -36512.85, -100452.27, -94669.73, -66418.07, -57976.00, -81175.99, -81210.12, 0.000, 0.000, 0.000, 11:53:36.718
14, -41809.79, -36559.50, -100396.19, -94515.00, -66354.93, -57948.88, -81197.00, -81163.70, 0.000, 0.000, 0.000, 11:53:36.718
15, -41886.52, -36626.39, -100454.62, -94305.09, -66364.80, -57989.39, -81262.94, -81184.93, 0.000, 0.000, 0.000, 11:53:36.719
16, -41847.31, -36585.74, -100508.33, -94426.13, -66424.91, -58021.68, -81252.09, -81237.16, 0.000, 0.000, 0.000, 11:53:36.719
17, -41764.99, -36503.23, -100466.04, -94661.63, -66430.81, -57985.47, -81179.23, -81226.13, 0.000, 0.000, 0.000, 11:53:36.719
18, -41797.31, -36531.42, -100388.52, -94575.68, -66363.76, -57939.39, -81175.52, -81162.84, 0.000, 0.000, 0.000, 11:53:36.719
19, -41892.91, -36623.64, -100435.10, -94321.27, -66359.84, -57978.21, -81255.31, -81170.47, 0.000, 0.000, 0.000, 11:53:36.720
20, -41869.33, -36600.53, -100507.41, -94390.32, -66429.43, -58029.69, -81267.16, -81232.70, 0.000, 0.000, 0.000, 11:53:36.720
21, -41780.75, -36511.08, -100480.27, -94636.63, -66440.71, -58002.93, -81196.80, -81234.20, 0.000, 0.000, 0.000, 11:53:36.720
22, -41788.20, -36515.69, -100396.86, -94609.70, -66373.59, -57950.02, -81170.63, -81175.43, 0.000, 0.000, 0.000, 11:53:36.720
23, -41877.80, -36597.79, -100415.59, -94340.48, -66349.95, -57971.24, -81243.09, -81164.77, 0.000, 0.000, 0.000, 11:53:36.721
24, -41878.38, -36591.23, -100497.55, -94357.06, -66419.30, -58018.38, -81267.68, -81221.79, 0.000, 0.000, 0.000, 11:53:36.721
25, -41804.93, -36511.86, -100490.09, -94596.76, -66449.09, -58010.11, -81210.75, -81238.24, 0.000, 0.000, 0.000, 11:53:36.721
26, -41795.66, -36502.27, -100415.59, -94642.78, -66395.50, -57965.52, -81177.60, -81191.39, 0.000, 0.000, 0.000, 11:53:36.721
27, -41890.57, -36595.44, -100417.06, -94390.81, -66354.95, -57977.67, -81237.37, -81173.76, 0.000, 0.000, 0.000, 11:53:36.722
28, -41914.19, -36612.40, -100500.28, -94341.44, -66415.52, -58035.45, -81280.28, -81230.35, 0.000, 0.000, 0.000, 11:53:36.722
29, -41845.79, -36540.12, -100508.41, -94560.20, -66458.02, -58036.04, -81231.80, -81254.84, 0.000, 0.000, 0.000, 11:53:36.722
30, -41807.33, -36495.50, -100438.97, -94676.11, -66423.05, -57982.88, -81181.78, -81211.95, 0.000, 0.000, 0.000, 11:53:36.722
31, -41878.68, -36560.34, -100402.20, -94450.63, -66357.34, -57970.86, -81220.36, -81170.63, 0.000, 0.000, 0.000, 11:53:36.722
32, -41928.65, -36608.94, -100484.86, -94332.88, -66398.52, -58029.17, -81275.99, -81213.43, 0.000, 0.000, 0.000, 11:53:36.722
33, -41871.61, -36548.95, -100512.08, -94515.20, -66451.20, -58048.28, -81243.52, -81249.21, 0.000, 0.000, 0.000, 11:53:36.722
34, -41819.29, -36489.24, -100455.53, -94685.23, -66433.00, -58004.68, -81190.95, -81225.01, 0.000, 0.000, 0.000, 11:53:36.723
35, -41891.35, -36557.15, -100418.80, -94496.47, -66370.06, -57991.98, -81232.47, -81186.48, 0.000, 0.000, 0.000, 11:53:36.723
36, -41943.38, -36610.52, -100476.59, -94318.91, -66385.23, -58032.08, -81281.42, -81206.77, 0.000, 0.000, 0.000, 11:53:36.723
37, -41884.39, -36552.72, -100508.28, -94465.76, -66436.80, -58052.82, -81250.29, -81242.76, 0.000, 0.000, 0.000, 11:53:36.723
38, -41806.37, -36476.68, -100453.88, -94673.88, -66427.26, -58015.87, -81181.66, -81222.02, 0.000, 0.000, 0.000, 11:53:36.724
39, -41843.38, -36511.11, -100388.09, -94541.75, -66355.98, -57983.48, -81193.73, -81171.68, 0.000, 0.000, 0.000, 11:53:36.724
40, -41905.12, -36565.73, -100436.09, -94315.28, -66360.38, -58019.56, -81255.85, -81182.00, 0.000, 0.000, 0.000, 11:53:36.724
41, -41862.56, -36515.84, -100486.29, -94420.85, -66421.85, -58047.97, -81242.87, -81227.71, 0.000, 0.000, 0.000, 11:53:36.724
42, -41781.91, -36433.05, -100441.72, -94648.05, -66419.44, -58017.01, -81172.48, -81216.20, 0.000, 0.000, 0.000, 11:53:36.724
43, -41788.21, -36439.09, -100363.46, -94573.94, -66347.33, -57981.72, -81166.00, -81160.43, 0.000, 0.000, 0.000, 11:53:36.725
44, -41859.81, -36509.72, -100398.63, -94326.46, -66333.13, -58013.66, -81239.65, -81166.16, 0.000, 0.000, 0.000, 11:53:36.725
45, -41839.20, -36485.54, -100466.20, -94363.23, -66394.02, -58058.52, -81253.38, -81217.48, 0.000, 0.000, 0.000, 11:53:36.725
46, -41750.35, -36394.05, -100441.38, -94603.20, -66416.02, -58040.86, -81188.28, -81222.08, 0.000, 0.000, 0.000, 11:53:36.725
47, -41752.27, -36391.90, -100370.02, -94611.94, -66359.51, -58000.25, -81166.87, -81174.76, 0.000, 0.000, 0.000, 11:53:36.725
48, -41846.58, -36478.09, -100389.23, -94350.89, -66329.67, -58029.33, -81240.23, -81166.49, 0.000, 0.000, 0.000, 11:53:36.726
49, -41843.45, -36470.60, -100457.84, -94324.18, -66381.77, -58072.29, -81256.57, -81208.29, 0.000, 0.000, 0.000, 11:53:36.726
50, -41743.98, -36368.84, -100441.12, -94569.52, -66412.77, -58055.48, -81184.38, -81217.32, 0.000, 0.000, 0.000, 11:53:36.726
51, -41724.71, -36348.67, -100360.91, -94629.26, -66363.04, -58012.43, -81148.41, -81171.74, 0.000, 0.000, 0.000, 11:53:36.726
52, -41822.55, -36440.20, -100360.42, -94380.04, -66319.50, -58028.61, -81219.73, -81153.50, 0.000, 0.000, 0.000, 11:53:36.727
53, -41847.67, -36458.60, -100436.04, -94292.93, -66364.80, -58081.36, -81265.02, -81199.34, 0.000, 0.000, 0.000, 11:53:36.727
54, -41764.93, -36370.18, -100442.08, -94513.84, -66405.40, -58083.44, -81209.95, -81223.38, 0.000, 0.000, 0.000, 11:53:36.727
55, -41730.41, -36332.60, -100374.87, -94647.27, -66375.94, -58046.36, -81164.30, -81191.75, 0.000, 0.000, 0.000, 11:53:36.727
56, -41811.44, -36407.91, -100349.41, -94435.06, -66321.47, -58040.64, -81205.88, -81154.94, 0.000, 0.000, 0.000, 11:53:36.727
57, -41851.83, -36443.94, -100411.01, -94291.59, -66348.23, -58083.29, -81252.27, -81183.08, 0.000, 0.000, 0.000, 11:53:36.728
58, -41774.98, -36363.61, -100427.14, -94467.43, -66392.41, -58091.49, -81209.47, -81210.59, 0.000, 0.000, 0.000, 11:53:36.728
59, -41734.35, -36311.44, -100374.59, -94649.29, -66379.80, -58058.23, -81158.94, -81188.88, 0.000, 0.000, 0.000, 11:53:36.728
60, -41809.32, -36379.43, -100339.57, -94481.65, -66319.19, -58047.50, -81192.51, -81148.77, 0.000, 0.000, 0.000, 11:53:36.728
61, -41876.59, -36444.65, -100406.40, -94290.20, -66340.22, -58093.57, -81257.48, -81174.13, 0.000, 0.000, 0.000, 11:53:36.728
62, -41834.73, -36399.99, -100462.35, -94432.36, -66408.13, -58131.12, -81246.78, -81227.51, 0.000, 0.000, 0.000, 11:53:36.728
63, -41755.56, -36321.16, -100410.34, -94651.72, -66404.37, -58093.28, -81172.59, -81208.94, 0.000, 0.000, 0.000, 11:53:36.728
64, -41808.13, -36369.66, -100344.60, -94537.91, -66336.53, -58061.83, -81177.78, -81154.58, 0.000, 0.000, 0.000, 11:53:36.729
65, -41903.37, -36459.67, -100404.86, -94304.17, -66343.53, -58113.46, -81258.73, -81175.14, 0.000, 0.000, 0.000, 11:53:36.729
66, -41876.93, -36432.87, -100476.34, -94381.80, -66409.51, -58159.37, -81262.38, -81228.67, 0.000, 0.000, 0.000, 11:53:36.729
67, -41785.49, -36334.91, -100432.35, -94626.87, -66415.70, -58124.66, -81175.59, -81217.77, 0.000, 0.000, 0.000, 11:53:36.729
68, -41812.80, -36354.91, -100358.70, -94576.98, -66348.45, -58084.52, -81164.01, -81161.73, 0.000, 0.000, 0.000, 11:53:36.729
69, -41911.04, -36449.82, -100394.11, -94325.63, -66332.63, -58119.94, -81240.81, -81166.98, 0.000, 0.000, 0.000, 11:53:36.729
70, -41898.28, -36432.87, -100472.38, -94352.25, -66396.91, -58171.08, -81259.74, -81222.19, 0.000, 0.000, 0.000, 11:53:36.729
71, -41795.23, -36325.38, -100442.84, -94605.84, -66410.80, -58145.00, -81178.96, -81217.95, 0.000, 0.000, 0.000, 11:53:36.730
72, -41804.09, -36327.53, -100364.85, -94616.95, -66347.87, -58107.79, -81155.41, -81172.26, 0.000, 0.000, 0.000, 11:53:36.730
73, -41907.93, -36423.98, -100386.24, -94366.76, -66321.96, -58134.36, -81230.10, -81163.70, 0.000, 0.000, 0.000, 11:53:36.730
74, -41918.73, -36431.11, -100462.02, -94326.46, -66370.42, -58181.28, -81255.54, -81203.51, 0.000, 0.000, 0.000, 11:53:36.730
75, -41835.51, -36343.27, -100454.46, -94563.66, -66402.31, -58170.01, -81190.38, -81214.52, 0.000, 0.000, 0.000, 11:53:36.730
76, -41812.56, -36312.62, -100379.91, -94652.66, -66362.59, -58127.63, -81144.48, -81169.42, 0.000, 0.000, 0.000, 11:53:36.730
77, -41906.26, -36400.86, -100371.45, -94415.27, -66311.61, -58138.38, -81204.13, -81143.42, 0.000, 0.000, 0.000, 11:53:36.730
78, -41938.18, -36428.54, -100446.95, -94309.85, -66350.80, -58199.07, -81252.66, -81191.95, 0.000, 0.000, 0.000, 11:53:36.731
79, -41872.10, -36361.93, -100466.66, -94512.13, -66397.48, -58215.03, -81214.73, -81224.02, 0.000, 0.000, 0.000, 11:53:36.731
80, -41836.81, -36318.50, -100403.45, -94662.41, -66375.65, -58171.71, -81159.23, -81189.58, 0.000, 0.000, 0.000, 11:53:36.731
81, -41915.20, -36385.42, -100361.88, -94466.94, -66318.59, -58159.59, -81192.06, -81154.09, 0.000, 0.000, 0.000, 11:53:36.732
82, -41963.84, -36430.01, -100425.63, -94307.75, -66341.59, -58206.29, -81243.38, -81181.29, 0.000, 0.000, 0.000, 11:53:36.732
83, -41919.13, -36381.75, -100464.96, -94470.47, -66397.76, -58234.88, -81220.29, -81224.59, 0.000, 0.000, 0.000, 11:53:36.732
84, -41866.13, -36320.96, -100417.69, -94657.40, -66382.42, -58203.07, -81165.62, -81207.30, 0.000, 0.000, 0.000, 11:53:36.732
85, -41922.30, -36365.93, -100373.08, -94517.63, -66321.34, -58176.92, -81185.27, -81158.71, 0.000, 0.000, 0.000, 11:53:36.732
86, -41998.86, -36437.19, -100429.60, -94313.34, -66333.67, -58219.61, -81253.17, -81176.55, 0.000, 0.000, 0.000, 11:53:36.732
87, -41956.66, -36386.56, -100476.56, -94429.68, -66391.85, -58255.13, -81236.90, -81221.54, 0.000, 0.000, 0.000, 11:53:36.733
88, -41874.38, -36296.68, -100427.41, -94659.43, -66390.87, -58215.65, -81161.95, -81202.07, 0.000, 0.000, 0.000, 11:53:36.733
89, -41920.34, -36338.39, -100374.44, -94572.33, -66331.39, -58187.04, -81172.84, -81153.64, 0.000, 0.000, 0.000, 11:53:36.733
90, -41994.66, -36411.17, -100411.32, -94333.19, -66322.30, -58223.70, -81240.36, -81158.11, 0.000, 0.000, 0.000, 11:53:36.733
91, -41981.16, -36392.26, -100469.19, -94390.90, -66379.70, -58270.50, -81245.10, -81209.74, 0.000, 0.000, 0.000, 11:53:36.734
92, -41910.01, -36312.06, -100452.76, -94642.78, -66407.45, -58261.07, -81184.59, -81222.88, 0.000, 0.000, 0.000, 11:53:36.734
93, -41913.92, -36313.29, -100371.13, -94625.03, -66344.36, -58215.74, -81154.91, -81165.02, 0.000, 0.000, 0.000, 11:53:36.734
94, -42028.92, -36423.30, -100403.90, -94365.89, -66321.13, -58261.61, -81240.63, -81169.30, 0.000, 0.000, 0.000, 11:53:36.734
95, -42037.98, -36427.57, -100489.91, -94361.93, -66388.84, -58327.66, -81269.27, -81230.75, 0.000, 0.000, 0.000, 11:53:36.734
96, -41954.58, -36343.15, -100482.42, -94610.33, -66420.87, -58317.49, -81208.38, -81248.63, 0.000, 0.000, 0.000, 11:53:36.735
97, -41940.19, -36322.46, -100407.38, -94654.67, -66367.67, -58265.09, -81169.95, -81191.16, 0.000, 0.000, 0.000, 11:53:36.735
98, -42029.39, -36403.21, -100402.78, -94405.20, -66327.13, -58275.93, -81225.95, -81158.78, 0.000, 0.000, 0.000, 11:53:36.735
99, -42057.64, -36423.44, -100481.68, -94345.80, -66385.17, -58336.04, -81267.70, -81211.46, 0.000, 0.000, 0.000, 11:53:36.735
100, -41981.11, -36341.45, -100482.02, -94578.99, -66421.80, -58333.36, -81211.91, -81235.09, 0.000, 0.000, 0.000, 11:53:36.735
101, -41952.64, -36310.05, -100407.74, -94671.21, -66376.14, -58288.81, -81166.31, -81196.82, 0.000, 0.000, 0.000, 11:53:36.735
102, -42033.17, -36386.38, -100385.05, -94442.78, -66318.95, -58288.77, -81211.98, -81162.20, 0.000, 0.000, 0.000, 11:53:36.735
103, -42070.83, -36419.98, -100448.20, -94302.81, -66349.01, -58332.60, -81255.85, -81179.56, 0.000, 0.000, 0.000, 11:53:36.736
104, -42000.25, -36351.63, -100475.71, -94503.28, -66403.43, -58342.41, -81207.93, -81210.39, 0.000, 0.000, 0.000, 11:53:36.736
105, -41962.45, -36310.23, -100418.16, -94671.50, -66381.10, -58311.83, -81158.11, -81191.99, 0.000, 0.000, 0.000, 11:53:37.193
106, -42039.79, -36378.96, -100388.79, -94489.34, -66321.83, -58308.01, -81200.98, -81160.50, 0.000, 0.000, 0.000, 11:53:37.193
107, -42103.29, -36441.30, -100453.20, -94307.41, -66342.91, -58365.97, -81269.40, -81194.30, 0.000, 0.000, 0.000, 11:53:37.193
108, -42048.19, -36386.20, -100495.59, -94461.80, -66401.73, -58401.22, -81244.27, -81243.07, 0.000, 0.000, 0.000, 11:53:37.193
109, -41986.23, -36318.07, -100446.68, -94672.40, -66391.52, -58366.82, -81171.23, -81224.20, 0.000, 0.000, 0.000, 11:53:37.193
110, -42043.23, -36367.67, -100390.38, -94549.13, -66327.81, -58336.98, -81185.35, -81174.47, 0.000, 0.000, 0.000, 11:53:37.193
111, -42110.48, -36439.69, -100437.98, -94333.70, -66326.99, -58378.66, -81250.29, -81186.92, 0.000, 0.000, 0.000, 11:53:37.194
112, -42079.32, -36411.13, -100496.99, -94422.52, -66388.48, -58426.05, -81252.48, -81238.02, 0.000, 0.000, 0.000, 11:53:37.194
113, -42011.80, -36335.20, -100464.41, -94654.27, -66403.30, -58400.50, -81186.98, -81229.57, 0.000, 0.000, 0.000, 11:53:37.194
114, -42052.19, -36370.13, -100399.83, -94590.92, -66346.73, -58365.57, -81183.43, -81174.31, 0.000, 0.000, 0.000, 11:53:37.194
115, -42138.02, -36452.63, -100430.27, -94349.39, -66330.99, -58398.96, -81251.31, -81173.77, 0.000, 0.000, 0.000, 11:53:37.194
116, -42133.02, -36443.45, -100501.27, -94382.16, -66390.78, -58454.66, -81273.94, -81230.44, 0.000, 0.000, 0.000, 11:53:37.194
117, -42050.27, -36351.89, -100482.87, -94629.59, -66417.16, -58438.90, -81205.38, -81240.90, 0.000, 0.000, 0.000, 11:53:37.195
118, -42064.02, -36360.18, -100411.74, -94625.55, -66359.73, -58395.03, -81181.40, -81183.27, 0.000, 0.000, 0.000, 11:53:37.195
119, -42167.88, -36458.40, -100439.21, -94387.66, -66347.77, -58427.75, -81257.35, -81178.96, 0.000, 0.000, 0.000, 11:53:37.195
120, -42160.17, -36450.75, -100504.10, -94363.20, -66400.59, -58482.98, -81283.37, -81227.17, 0.000, 0.000, 0.000, 11:53:37.195
121, -42077.14, -36365.21, -100493.30, -94592.98, -66420.30, -58478.18, -81210.14, -81240.52, 0.000, 0.000, 0.000, 11:53:37.195
122, -42072.08, -36355.87, -100428.98, -94658.49, -66374.71, -58442.01, -81174.76, -81204.47, 0.000, 0.000, 0.000, 11:53:37.195
123, -42159.95, -36445.17, -100431.34, -94421.07, -66330.72, -58451.91, -81240.92, -81183.08, 0.000, 0.000, 0.000, 11:53:37.195
124, -42189.86, -36473.35, -100508.55, -94339.60, -66381.21, -58501.40, -81283.62, -81225.61, 0.000, 0.000, 0.000, 11:53:37.195
125, -42110.48, -36390.74, -100514.95, -94554.24, -66424.51, -58504.15, -81227.22, -81245.84, 0.000, 0.000, 0.000, 11:53:37.196
126, -42078.68, -36353.75, -100444.98, -94678.32, -66390.45, -58463.38, -81176.70, -81210.27, 0.000, 0.000, 0.000, 11:53:37.196
127, -42158.18, -36430.93, -100420.17, -94464.75, -66334.63, -58459.78, -81219.45, -81175.99, 0.000, 0.000, 0.000, 11:53:37.196
128, -42210.33, -36481.53, -100487.16, -94320.73, -66365.27, -58515.14, -81272.91, -81209.20, 0.000, 0.000, 0.000, 11:53:37.196
129, -42153.18, -36423.15, -100522.90, -94499.26, -66424.94, -58539.20, -81247.56, -81251.41, 0.000, 0.000, 0.000, 11:53:37.196
130, -42091.66, -36361.37, -100463.51, -94678.34, -66400.95, -58497.64, -81180.28, -81225.03, 0.000, 0.000, 0.000, 11:53:37.196
131, -42150.02, -36414.32, -100413.66, -94516.94, -66336.49, -58477.46, -81203.05, -81178.27, 0.000, 0.000, 0.000, 11:53:37.196
132, -42216.88, -36475.77, -100477.30, -94325.43, -66359.33, -58527.71, -81271.30, -81205.54, 0.000, 0.000, 0.000, 11:53:37.197
133, -42164.48, -36422.08, -100513.00, -94454.76, -66410.09, -58558.02, -81248.32, -81247.60, 0.000, 0.000, 0.000, 11:53:37.197
134, -42103.58, -36353.17, -100471.69, -94661.91, -66412.04, -58539.35, -81194.01, -81237.50, 0.000, 0.000, 0.000, 11:53:37.197
135, -42148.15, -36392.57, -100415.97, -94558.23, -66356.36, -58519.64, -81205.85, -81194.25, 0.000, 0.000, 0.000, 11:53:37.197
136, -42234.22, -36478.02, -100463.04, -94326.75, -66356.02, -58569.48, -81280.95, -81211.02, 0.000, 0.000, 0.000, 11:53:37.198
137, -42206.60, -36446.86, -100523.93, -94406.10, -66423.05, -58610.79, -81281.47, -81255.70, 0.000, 0.000, 0.000, 11:53:37.198
138, -42126.04, -36363.96, -100492.59, -94645.42, -66436.31, -58588.64, -81216.09, -81248.07, 0.000, 0.000, 0.000, 11:53:37.198
139, -42141.53, -36375.29, -100418.88, -94607.35, -66366.93, -58554.64, -81195.23, -81197.05, 0.000, 0.000, 0.000, 11:53:37.198
140, -42243.57, -36473.78, -100447.04, -94358.31, -66345.02, -58593.69, -81261.64, -81194.30, 0.000, 0.000, 0.000, 11:53:37.199
141, -42232.41, -36466.80, -100521.38, -94371.25, -66405.29, -58646.66, -81277.11, -81241.77, 0.000, 0.000, 0.000, 11:53:37.199
142, -42137.02, -36367.20, -100499.32, -94620.38, -66427.13, -58626.90, -81202.84, -81244.95, 0.000, 0.000, 0.000, 11:53:37.199
143, -42135.12, -36362.91, -100419.03, -94631.12, -66366.48, -58585.64, -81177.63, -81195.70, 0.000, 0.000, 0.000, 11:53:37.199
144, -42229.53, -36453.57, -100434.56, -94377.35, -66339.95, -58611.30, -81250.89, -81185.13, 0.000, 0.000, 0.000, 11:53:37.199
145, -42238.52, -36460.81, -100504.05, -94335.78, -66394.47, -58667.23, -81285.29, -81236.27, 0.000, 0.000, 0.000, 11:53:37.200
146, -42159.46, -36379.56, -100499.27, -94561.00, -66427.13, -58668.57, -81220.23, -81257.22, 0.000, 0.000, 0.000, 11:53:37.200
147, -42141.35, -36357.77, -100431.44, -94648.73, -66382.40, -58632.02, -81182.65, -81219.13, 0.000, 0.000, 0.000, 11:53:37.200
148, -42230.91, -36437.45, -100415.68, -94414.03, -66330.95, -58641.83, -81235.89, -81192.02, 0.000, 0.000, 0.000, 11:53:37.200
149, -42266.61, -36466.16, -100486.66, -94306.79, -66373.95, -58698.27, -81283.99, -81228.18, 0.000, 0.000, 0.000, 11:53:37.201
150, -42185.63, -36389.82, -100504.70, -94514.02, -66424.11, -58709.22, -81236.27, -81255.95, 0.000, 0.000, 0.000, 11:53:37.201
151, -42134.80, -36341.97, -100436.13, -94652.17, -66391.25, -58668.16, -81178.96, -81218.01, 0.000, 0.000, 0.000, 11:53:37.201
152, -42216.81, -36422.61, -100417.60, -94456.55, -66342.86, -58670.33, -81227.27, -81185.87, 0.000, 0.000, 0.000, 11:53:37.201
153, -42274.75, -36476.86, -100491.18, -94300.98, -66374.27, -58727.08, -81287.68, -81221.25, 0.000, 0.000, 0.000, 11:53:37.201
154, -42223.54, -36419.77, -100531.02, -94468.13, -66435.57, -58757.59, -81265.06, -81265.77, 0.000, 0.000, 0.000, 11:53:37.202
155, -42171.04, -36366.53, -100478.51, -94654.63, -66425.96, -58729.56, -81210.14, -81248.63, 0.000, 0.000, 0.000, 11:53:37.202
156, -42223.76, -36420.22, -100426.95, -94512.98, -66359.63, -58704.15, -81221.88, -81199.02, 0.000, 0.000, 0.000, 11:53:37.202
157, -42278.32, -36480.68, -100470.24, -94308.89, -66363.31, -58743.11, -81272.64, -81209.74, 0.000, 0.000, 0.000, 11:53:37.202
158, -42235.61, -36440.32, -100512.93, -94417.25, -66412.88, -58776.79, -81259.07, -81246.17, 0.000, 0.000, 0.000, 11:53:37.202
159, -42166.21, -36368.88, -100480.61, -94647.27, -66417.52, -58750.98, -81197.00, -81239.54, 0.000, 0.000, 0.000, 11:53:37.203
160, -42213.19, -36412.53, -100429.11, -94576.30, -66361.57, -58731.80, -81205.34, -81202.16, 0.000, 0.000, 0.000, 11:53:37.203
161, -42290.48, -36491.19, -100475.36, -94353.20, -66364.31, -58775.59, -81275.52, -81209.67, 0.000, 0.000, 0.000, 11:53:37.203
162, -42252.48, -36456.70, -100530.19, -94424.13, -66422.79, -58816.87, -81271.27, -81247.67, 0.000, 0.000, 0.000, 11:53:37.203
163, -42156.19, -36364.36, -100484.09, -94668.04, -66422.95, -58789.09, -81188.15, -81240.67, 0.000, 0.000, 0.000, 11:53:37.203
164, -42169.22, -36374.20, -100410.27, -94645.20, -66360.47, -58749.82, -81168.48, -81190.14, 0.000, 0.000, 0.000, 11:53:37.204
165, -42263.06, -36459.79, -100437.00, -94397.80, -66343.15, -58778.54, -81241.73, -81182.54, 0.000, 0.000, 0.000, 11:53:37.204
166, -42270.93, -36468.34, -100516.13, -94403.04, -66404.84, -58837.05, -81271.59, -81238.17, 0.000, 0.000, 0.000, 11:53:37.204
167, -42188.58, -36387.99, -100498.55, -94643.41, -66428.24, -58826.53, -81203.84, -81243.70, 0.000, 0.000, 0.000, 11:53:37.204
168, -42168.87, -36366.24, -100420.20, -94690.28, -66377.98, -58784.13, -81166.73, -81199.50, 0.000, 0.000, 0.000, 11:53:37.204
169, -42248.53, -36446.89, -100418.18, -94440.84, -66332.71, -58800.08, -81225.50, -81179.21, 0.000, 0.000, 0.000, 11:53:37.205
170, -42271.24, -36464.95, -100494.55, -94378.52, -66386.66, -58859.25, -81265.30, -81221.68, 0.000, 0.000, 0.000, 11:53:37.205
171, -42192.31, -36382.36, -100494.42, -94599.76, -66427.10, -58859.25, -81206.08, -81242.20, 0.000, 0.000, 0.000, 11:53:37.205
172, -42168.75, -36358.31, -100422.09, -94703.69, -66387.20, -58814.81, -81157.64, -81200.89, 0.000, 0.000, 0.000, 11:53:37.206
173, -42260.13, -36446.98, -100412.77, -94477.80, -66340.34, -58821.65, -81220.36, -81173.17, 0.000, 0.000, 0.000, 11:53:37.206
174, -42309.14, -36491.70, -100494.52, -94356.50, -66376.01, -58880.17, -81272.88, -81218.03, 0.000, 0.000, 0.000, 11:53:37.206
175, -42232.95, -36420.64, -100515.30, -94546.40, -66418.92, -58896.26, -81224.65, -81248.12, 0.000, 0.000, 0.000, 11:53:37.206
176, -42186.41, -36369.77, -100450.55, -94697.23, -66391.67, -58856.75, -81165.59, -81213.63, 0.000, 0.000, 0.000, 11:53:37.206
177, -42262.39, -36447.85, -100413.45, -94506.13, -66335.55, -58852.72, -81206.59, -81176.88, 0.000, 0.000, 0.000, 11:53:37.206
178, -42318.98, -36504.55, -100480.41, -94332.38, -66360.31, -58908.94, -81273.17, -81209.96, 0.000, 0.000, 0.000, 11:53:37.206
179, -42252.82, -36442.75, -100514.83, -94484.82, -66421.76, -58939.38, -81245.99, -81252.61, 0.000, 0.000, 0.000, 11:53:37.206
180, -42180.73, -36379.74, -100457.66, -94687.48, -66417.29, -58902.77, -81179.16, -81229.08, 0.000, 0.000, 0.000, 11:53:37.207
181, -42244.21, -36442.55, -100416.68, -94559.01, -66363.31, -58889.60, -81206.84, -81189.05, 0.000, 0.000, 0.000, 11:53:37.207
182, -42312.50, -36505.85, -100461.84, -94342.62, -66364.54, -58931.04, -81265.44, -81197.49, 0.000, 0.000, 0.000, 11:53:37.207
183, -42299.09, -36487.68, -100526.21, -94433.79, -66436.84, -58984.33, -81280.55, -81254.20, 0.000, 0.000, 0.000, 11:53:37.207
184, -42218.73, -36413.88, -100494.31, -94668.73, -66453.43, -58963.88, -81211.93, -81254.35, 0.000, 0.000, 0.000, 11:53:37.207
185, -42241.93, -36440.85, -100426.90, -94614.39, -66383.65, -58931.76, -81191.41, -81196.33, 0.000, 0.000, 0.000, 11:53:37.207
186, -42322.80, -36517.32, -100456.18, -94376.57, -66358.57, -58961.89, -81249.08, -81167.07, 0.000, 0.000, 0.000, 11:53:37.207
187, -42297.64, -36492.29, -100515.41, -94412.11, -66409.87, -59004.16, -81255.23, -81244.88, 0.000, 0.000, 0.000, 11:53:37.208
188, -42200.94, -36400.33, -100488.05, -94659.41, -66428.33, -58989.61, -81184.62, -81247.63, 0.000, 0.000, 0.000, 11:53:37.208
189, -42205.12, -36407.77, -100410.63, -94660.95, -66372.03, -58949.86, -81169.28, -81197.16, 0.000, 0.000, 0.000, 11:53:37.208
190, -42303.58, -36505.02, -100430.70, -94419.24, -66352.29, -58982.30, -81241.46, -81187.23, 0.000, 0.000, 0.000, 11:53:37.208
191, -42325.44, -36518.48, -100513.53, -94408.09, -66416.80, -59040.07, -81272.62, -81241.80, 0.000, 0.000, 0.000, 11:53:37.208
192, -42234.25, -36431.38, -100505.76, -94634.02, -66450.05, -59032.79, -81213.36, -81255.67, 0.000, 0.000, 0.000, 11:53:37.208
193, -42187.78, -36395.23, -100415.92, -94700.63, -66392.63, -58975.90, -81158.89, -81197.58, 0.000, 0.000, 0.000, 11:53:37.208
194, -42277.99, -36486.05, -100407.09, -94454.89, -66344.42, -58985.83, -81221.30, -81171.79, 0.000, 0.000, 0.000, 11:53:37.208
195, -42311.25, -36522.44, -100494.13, -94379.03, -66402.88, -59048.93, -81270.63, -81225.01, 0.000, 0.000, 0.000, 11:53:37.209
196, -42234.45, -36448.59, -100498.52, -94590.84, -66443.33, -59057.69, -81217.90, -81251.45, 0.000, 0.000, 0.000, 11:53:37.209
197, -42191.91, -36409.74, -100431.73, -94715.73, -66410.65, -59018.57, -81166.22, -81215.46, 0.000, 0.000, 0.000, 11:53:37.209
198, -42266.48, -36484.82, -100402.11, -94504.20, -66349.92, -59009.03, -81205.43, -81171.59, 0.000, 0.000, 0.000, 11:53:37.209
199, -42302.87, -36525.41, -100473.91, -94367.52, -66383.38, -59061.33, -81256.63, -81202.56, 0.000, 0.000, 0.000, 11:53:37.209
200, -42246.56, -36468.01, -100499.19, -94536.03, -66434.95, -59084.93, -81224.52, -81238.38, 0.000, 0.000, 0.000, 11:53:37.209
201, -42200.47, -36416.15, -100445.30, -94706.46, -66422.41, -59051.79, -81170.63, -81220.02, 0.000, 0.000, 0.000, 11:53:37.209
202, -42266.63, -36483.70, -100396.79, -94529.23, -66357.95, -59032.39, -81198.25, -81172.68, 0.000, 0.000, 0.000, 11:53:37.210
203, -42328.82, -36548.30, -100461.99, -94335.67, -66378.22, -59086.88, -81262.18, -81198.54, 0.000, 0.000, 0.000, 11:53:37.210
204, -42285.68, -36510.50, -100506.11, -94461.35, -66427.57, -59124.81, -81238.64, -81248.97, 0.000, 0.000, 0.000, 11:53:37.210
205, -42218.44, -36443.82, -100471.18, -94670.34, -66426.27, -59100.71, -81181.20, -81241.01, 0.000, 0.000, 0.000, 11:53:37.210
206, -42269.70, -36486.74, -100411.68, -94567.03, -66365.37, -59076.02, -81188.22, -81182.65, 0.000, 0.000, 0.000, 11:53:37.210
207, -42345.31, -36560.32, -100464.88, -94346.64, -66378.11, -59124.32, -81267.41, -81202.14, 0.000, 0.000, 0.000, 11:53:37.210
208, -42311.05, -36536.43, -100520.51, -94432.18, -66435.51, -59166.07, -81262.49, -81252.14, 0.000, 0.000, 0.000, 11:53:37.211
209, -42229.17, -36458.49, -100484.63, -94661.13, -66440.49, -59141.53, -81191.75, -81243.76, 0.000, 0.000, 0.000, 11:53:37.211
210, -42251.86, -36475.09, -100419.34, -94618.53, -66384.34, -59106.88, -81184.93, -81199.86, 0.000, 0.000, 0.000, 11:53:37.211
211, -42339.63, -36565.82, -100442.08, -94364.37, -66363.83, -59138.94, -81257.22, -81198.79, 0.000, 0.000, 0.000, 11:53:37.212
212, -42321.66, -36554.45, -100506.96, -94384.06, -66426.43, -59186.90, -81267.61, -81238.89, 0.000, 0.000, 0.000, 11:53:37.212
213, -42228.16, -36461.48, -100475.89, -94615.00, -66447.84, -59168.08, -81196.33, -81238.69, 0.000, 0.000, 0.000, 11:53:37.212
214, -42229.30, -36457.80, -100403.41, -94637.28, -66396.86, -59131.20, -81174.16, -81197.72, 0.000, 0.000, 0.000, 11:53:37.212
215, -42317.82, -36544.90, -100416.04, -94382.41, -66352.27, -59149.71, -81234.80, -81181.65, 0.000, 0.000, 0.000, 11:53:37.212
216, -42319.32, -36558.27, -100487.38, -94352.34, -66402.29, -59199.62, -81266.63, -81226.93, 0.000, 0.000, 0.000, 11:53:37.212
217, -42245.18, -36486.79, -100490.20, -94570.36, -66439.42, -59201.88, -81220.52, -81248.68, 0.000, 0.000, 0.000, 11:53:37.212
218, -42220.07, -36453.95, -100420.06, -94655.27, -66397.09, -59158.38, -81170.88, -81202.74, 0.000, 0.000, 0.000, 11:53:37.212
219, -42312.68, -36542.13, -100407.34, -94418.05, -66346.70, -59168.95, -81228.83, -81177.15, 0.000, 0.000, 0.000, 11:53:37.213
220, -42353.25, -36584.24, -100491.54, -94327.20, -66397.02, -59243.57, -81286.27, -81235.98, 0.000, 0.000, 0.000, 11:53:37.213
221, -42276.51, -36510.68, -100508.41, -94528.02, -66440.98, -59257.63, -81240.48, -81268.21, 0.000, 0.000, 0.000, 11:53:37.213
222, -42212.88, -36449.82, -100434.34, -94680.09, -66407.50, -59202.53, -81172.80, -81226.59, 0.000, 0.000, 0.000, 11:53:37.213
223, -42291.55, -36537.39, -100398.24, -94473.35, -66342.48, -59190.41, -81213.30, -81180.33, 0.000, 0.000, 0.000, 11:53:37.213
224, -42353.85, -36594.36, -100487.43, -94328.70, -66391.74, -59253.85, -81282.77, -81225.92, 0.000, 0.000, 0.000, 11:53:37.213
225, -42291.45, -36528.47, -100513.84, -94500.96, -66447.73, -59271.88, -81246.91, -81261.59, 0.000, 0.000, 0.000, 11:53:37.672
226, -42225.13, -36466.98, -100459.17, -94688.11, -66430.88, -59235.41, -81180.35, -81230.35, 0.000, 0.000, 0.000, 11:53:37.673
227, -42281.54, -36522.64, -100402.52, -94532.43, -66355.20, -59210.42, -81195.64, -81179.48, 0.000, 0.000, 0.000, 11:53:37.673
228, -42341.94, -36585.63, -100461.16, -94340.05, -66367.52, -59256.11, -81262.49, -81202.79, 0.000, 0.000, 0.000, 11:53:37.673
229, -42298.26, -36544.86, -100505.82, -94459.01, -66425.02, -59290.95, -81255.38, -81249.98, 0.000, 0.000, 0.000, 11:53:37.673
230, -42234.98, -36480.97, -100471.42, -94673.52, -66434.23, -59269.70, -81199.99, -81250.06, 0.000, 0.000, 0.000, 11:53:37.673
231, -42276.89, -36521.68, -100414.98, -94586.03, -66369.39, -59245.06, -81206.34, -81207.22, 0.000, 0.000, 0.000, 11:53:37.673
232, -42358.10, -36591.59, -100456.58, -94356.50, -66356.94, -59279.44, -81266.73, -81208.18, 0.000, 0.000, 0.000, 11:53:37.673
233, -42341.15, -36569.04, -100512.05, -94426.77, -66417.76, -59317.53, -81264.64, -81249.51, 0.000, 0.000, 0.000, 11:53:37.674
234, -42267.10, -36500.15, -100489.38, -94651.34, -66436.58, -59304.34, -81205.43, -81253.39, 0.000, 0.000, 0.000, 11:53:37.674
235, -42276.31, -36506.39, -100419.12, -94631.72, -66379.23, -59264.17, -81185.47, -81204.24, 0.000, 0.000, 0.000, 11:53:37.674
236, -42360.89, -36600.91, -100438.32, -94380.98, -66353.52, -59291.33, -81250.96, -81196.82, 0.000, 0.000, 0.000, 11:53:37.674
237, -42365.99, -36608.16, -100514.77, -94389.71, -66414.07, -59349.16, -81270.65, -81250.13, 0.000, 0.000, 0.000, 11:53:37.674
238, -42276.98, -36517.63, -100504.15, -94628.09, -66442.75, -59325.82, -81205.27, -81254.94, 0.000, 0.000, 0.000, 11:53:37.674
239, -42268.31, -36504.84, -100422.05, -94674.81, -66387.12, -59279.26, -81167.83, -81204.51, 0.000, 0.000, 0.000, 11:53:37.674
240, -42375.80, -36607.48, -100428.89, -94413.68, -66345.61, -59303.80, -81242.73, -81187.28, 0.000, 0.000, 0.000, 11:53:37.674
241, -42392.34, -36622.97, -100512.75, -94366.02, -66408.57, -59364.76, -81287.91, -81242.27, 0.000, 0.000, 0.000, 11:53:37.675
242, -42293.79, -36523.60, -100505.22, -94586.74, -66441.36, -59360.46, -81219.69, -81260.79, 0.000, 0.000, 0.000, 11:53:37.675
243, -42250.76, -36484.77, -100425.16, -94690.62, -66390.18, -59311.45, -81157.69, -81216.24, 0.000, 0.000, 0.000, 11:53:37.675
244, -42345.76, -36581.29, -100410.23, -94450.80, -66337.47, -59310.24, -81213.14, -81173.38, 0.000, 0.000, 0.000, 11:53:37.675
245, -42376.71, -36612.96, -100480.56, -94345.41, -66383.77, -59363.48, -81262.49, -81203.48, 0.000, 0.000, 0.000, 11:53:37.675
246, -42320.16, -36552.86, -100502.29, -94527.06, -66436.29, -59385.48, -81236.98, -81242.87, 0.000, 0.000, 0.000, 11:53:37.675
247, -42267.53, -36506.41, -100450.73, -94691.42, -66427.15, -59346.65, -81183.43, -81224.31, 0.000, 0.000, 0.000, 11:53:37.675
248, -42341.09, -36576.04, -100405.89, -94492.73, -66358.59, -59329.51, -81203.70, -81179.99, 0.000, 0.000, 0.000, 11:53:37.676
249, -42382.30, -36615.33, -100470.84, -94332.54, -66383.88, -59373.54, -81255.12, -81211.08, 0.000, 0.000, 0.000, 11:53:37.676
250, -42324.95, -36561.20, -100494.87, -94481.29, -66429.25, -59394.30, -81231.29, -81247.72, 0.000, 0.000, 0.000, 11:53:37.676
251, -42259.19, -36502.07, -100447.51, -94681.96, -66428.31, -59363.32, -81168.39, -81227.55, 0.000, 0.000, 0.000, 11:53:37.676
252, -42304.09, -36553.62, -100392.05, -94548.75, -66356.16, -59334.87, -81182.78, -81181.17, 0.000, 0.000, 0.000, 11:53:37.676
253, -42381.63, -36626.39, -100455.46, -94338.71, -66362.64, -59384.22, -81266.02, -81209.67, 0.000, 0.000, 0.000, 11:53:37.676
254, -42346.05, -36592.29, -100511.61, -94445.37, -66430.09, -59421.46, -81259.72, -81254.04, 0.000, 0.000, 0.000, 11:53:37.676
255, -42265.00, -36515.04, -100474.80, -94674.99, -66434.50, -59392.70, -81188.17, -81246.51, 0.000, 0.000, 0.000, 11:53:37.676
0, -42293.70, -36543.09, -100408.68, -94607.91, -66366.82, -59356.31, -81182.85, -81196.66, 0.000, 0.000, 0.000, 11:53:37.677
1, -42388.76, -36631.02, -100452.80, -94365.35, -66360.90, -59389.75, -81259.77, -81203.52, 0.000, 0.000, 0.000, 11:53:37.677
2, -42361.16, -36603.91, -100514.12, -94417.84, -66416.02, -59427.83, -81262.31, -81252.52, 0.000, 0.000, 0.000, 11:53:37.677
3, -42281.90, -36542.51, -100484.88, -94648.81, -66422.61, -59407.20, -81197.16, -81249.84, 0.000, 0.000, 0.000, 11:53:37.677
4, -42282.19, -36551.52, -100410.60, -94648.52, -66369.44, -59366.86, -81175.38, -81202.41, 0.000, 0.000, 0.000, 11:53:37.677
5, -42367.98, -36638.80, -100429.58, -94400.91, -66347.35, -59390.59, -81242.48, -81195.41, 0.000, 0.000, 0.000, 11:53:37.677
6, -42363.62, -36637.23, -100505.82, -94401.47, -66408.41, -59442.20, -81266.89, -81246.33, 0.000, 0.000, 0.000, 11:53:37.677
7, -42290.82, -36557.68, -100505.06, -94623.11, -66439.42, -59435.63, -81218.13, -81256.88, 0.000, 0.000, 0.000, 11:53:37.677
8, -42270.03, -36542.11, -100434.66, -94692.52, -66393.33, -59391.46, -81187.26, -81215.91, 0.000, 0.000, 0.000, 11:53:37.678
9, -42365.32, -36647.70, -100431.28, -94438.38, -66348.29, -59410.42, -81256.16, -81196.27, 0.000, 0.000, 0.000, 11:53:37.678
10, -42370.08, -36659.25, -100508.55, -94385.98, -66406.23, -59463.66, -81291.64, -81243.09, 0.000, 0.000, 0.000, 11:53:37.678
11, -42288.74, -36569.55, -100507.39, -94594.70, -66438.08, -59458.34, -81225.55, -81259.14, 0.000, 0.000, 0.000, 11:53:37.678
12, -42236.95, -36518.21, -100431.01, -94723.18, -66398.41, -59404.30, -81168.95, -81222.03, 0.000, 0.000, 0.000, 11:53:37.678
13, -42324.95, -36608.56, -100401.13, -94489.45, -66334.63, -59401.88, -81222.48, -81186.49, 0.000, 0.000, 0.000, 11:53:37.678
14, -42372.85, -36653.75, -100481.05, -94360.91, -66380.92, -59459.64, -81276.88, -81229.92, 0.000, 0.000, 0.000, 11:53:37.679
15, -42297.32, -36586.72, -100503.32, -94538.71, -66431.41, -59471.15, -81233.97, -81263.81, 0.000, 0.000, 0.000, 11:53:37.679
16, -42237.69, -36525.57, -100446.52, -94711.47, -66408.84, -59428.19, -81166.91, -81232.43, 0.000, 0.000, 0.000, 11:53:37.679
17, -42301.30, -36586.07, -100390.63, -94538.47, -66336.89, -59399.89, -81188.59, -81171.50, 0.000, 0.000, 0.000, 11:53:37.679
18, -42374.17, -36658.45, -100464.05, -94350.09, -66362.93, -59454.70, -81269.51, -81205.31, 0.000, 0.000, 0.000, 11:53:37.679
19, -42314.06, -36602.23, -100501.71, -94488.66, -66417.76, -59478.77, -81244.81, -81248.34, 0.000, 0.000, 0.000, 11:53:37.679
20, -42238.34, -36537.57, -100455.82, -94696.02, -66410.16, -59443.30, -81173.35, -81234.44, 0.000, 0.000, 0.000, 11:53:37.679
21, -42289.19, -36589.71, -100397.44, -94573.98, -66344.76, -59419.59, -81189.22, -81196.30, 0.000, 0.000, 0.000, 11:53:37.679
22, -42368.11, -36668.55, -100461.39, -94350.76, -66356.67, -59468.85, -81273.47, -81217.90, 0.000, 0.000, 0.000, 11:53:37.680
23, -42333.55, -36634.80, -100513.87, -94439.63, -66416.66, -59499.45, -81264.84, -81253.98, 0.000, 0.000, 0.000, 11:53:37.680
24, -42239.50, -36547.43, -100477.59, -94671.34, -66424.94, -59468.65, -81186.70, -81241.84, 0.000, 0.000, 0.000, 11:53:37.680
25, -42254.45, -36567.90, -100402.27, -94619.63, -66355.66, -59427.12, -81176.95, -81188.66, 0.000, 0.000, 0.000, 11:53:37.680
26, -42342.23, -36670.36, -100445.18, -94370.70, -66346.34, -59459.57, -81256.52, -81195.66, 0.000, 0.000, 0.000, 11:53:37.680
27, -42319.05, -36650.63, -100502.20, -94402.34, -66401.35, -59496.23, -81258.65, -81236.32, 0.000, 0.000, 0.000, 11:53:37.680
28, -42233.26, -36570.45, -100485.15, -94633.26, -66427.30, -59480.49, -81206.26, -81245.84, 0.000, 0.000, 0.000, 11:53:37.680
29, -42224.48, -36568.88, -100411.74, -94664.09, -66382.29, -59440.82, -81172.68, -81206.99, 0.000, 0.000, 0.000, 11:53:37.680
30, -42320.81, -36665.46, -100422.05, -94400.96, -66344.40, -59463.24, -81243.31, -81192.59, 0.000, 0.000, 0.000, 11:53:37.680
31, -42322.29, -36672.75, -100503.43, -94372.26, -66403.70, -59515.52, -81281.94, -81244.66, 0.000, 0.000, 0.000, 11:53:37.681
32, -42218.09, -36572.93, -100486.29, -94597.59, -66431.41, -59494.91, -81216.23, -81253.55, 0.000, 0.000, 0.000, 11:53:37.681
33, -42193.07, -36544.92, -100408.28, -94681.00, -66381.35, -59447.77, -81173.28, -81209.79, 0.000, 0.000, 0.000, 11:53:37.681
34, -42282.79, -36636.56, -100401.28, -94425.88, -66323.46, -59456.24, -81216.34, -81181.45, 0.000, 0.000, 0.000, 11:53:37.681
35, -42303.91, -36649.53, -100479.47, -94344.30, -66376.34, -59509.30, -81264.99, -81226.08, 0.000, 0.000, 0.000, 11:53:37.681
36, -42243.90, -36591.39, -100493.40, -94539.20, -66422.52, -59522.63, -81236.63, -81259.56, 0.000, 0.000, 0.000, 11:53:37.681
37, -42187.22, -36539.54, -100438.07, -94687.26, -66400.80, -59483.53, -81189.85, -81231.34, 0.000, 0.000, 0.000, 11:53:37.681
38, -42260.78, -36617.34, -100398.94, -94476.15, -66333.74, -59471.46, -81234.20, -81188.26, 0.000, 0.000, 0.000, 11:53:37.681
39, -42318.78, -36684.93, -100478.35, -94343.27, -66371.40, -59524.04, -81288.91, -81227.82, 0.000, 0.000, 0.000, 11:53:37.682
40, -42275.82, -36648.95, -100509.13, -94502.81, -66412.80, -59544.93, -81243.07, -81261.22, 0.000, 0.000, 0.000, 11:53:37.682
41, -42213.26, -36589.52, -100452.31, -94692.18, -66394.29, -59499.31, -81178.56, -81230.38, 0.000, 0.000, 0.000, 11:53:37.682
42, -42283.49, -36651.59, -100400.16, -94535.52, -66326.43, -59470.37, -81195.03, -81180.21, 0.000, 0.000, 0.000, 11:53:37.682
43, -42385.23, -36754.69, -100483.02, -94344.05, -66350.08, -59528.01, -81272.35, -81212.67, 0.000, 0.000, 0.000, 11:53:37.682
44, -42350.23, -36739.14, -100529.70, -94479.63, -66410.20, -59555.28, -81254.51, -81256.75, 0.000, 0.000, 0.000, 11:53:37.682
45, -42266.36, -36665.40, -100479.31, -94700.70, -66404.57, -59513.80, -81184.08, -81238.59, 0.000, 0.000, 0.000, 11:53:37.682
46, -42310.78, -36711.87, -100414.54, -94601.34, -66342.63, -59479.75, -81191.28, -81188.75, 0.000, 0.000, 0.000, 11:53:37.682
47, -42404.36, -36800.11, -100474.40, -94368.88, -66349.70, -59530.67, -81270.07, -81211.44, 0.000, 0.000, 0.000, 11:53:37.683
48, -42368.73, -36766.70, -100530.63, -94450.53, -66408.41, -59566.59, -81266.85, -81260.97, 0.000, 0.000, 0.000, 11:53:37.683
49, -42280.02, -36680.17, -100491.85, -94683.04, -66410.41, -59534.83, -81198.79, -81253.26, 0.000, 0.000, 0.000, 11:53:37.683
50, -42307.05, -36701.94, -100427.28, -94657.53, -66358.68, -59495.76, -81192.02, -81206.52, 0.000, 0.000, 0.000, 11:53:37.683
51, -42396.36, -36793.34, -100462.95, -94401.49, -66344.47, -59526.80, -81267.48, -81208.84, 0.000, 0.000, 0.000, 11:53:37.683
52, -42388.34, -36785.70, -100532.04, -94418.26, -66412.10, -59574.50, -81295.20, -81263.16, 0.000, 0.000, 0.000, 11:53:37.683
53, -42304.81, -36701.14, -100520.20, -94651.23, -66442.95, -59560.40, -81239.76, -81277.63, 0.000, 0.000, 0.000, 11:53:37.683
54, -42275.80, -36675.37, -100442.77, -94703.65, -66391.02, -59508.37, -81197.20, -81230.69, 0.000, 0.000, 0.000, 11:53:37.683
55, -42366.25, -36767.81, -100447.91, -94444.52, -66350.13, -59526.18, -81261.48, -81212.09, 0.000, 0.000, 0.000, 11:53:37.684
56, -42384.88, -36783.80, -100530.55, -94400.27, -66410.41, -59585.82, -81304.45, -81267.48, 0.000, 0.000, 0.000, 11:53:37.684
57, -42303.31, -36706.95, -100529.41, -94614.08, -66440.80, -59583.09, -81251.18, -81286.63, 0.000, 0.000, 0.000, 11:53:37.684
58, -42260.69, -36670.32, -100454.97, -94722.66, -66402.90, -59534.09, -81200.06, -81241.88, 0.000, 0.000, 0.000, 11:53:37.684
59, -42356.26, -36766.67, -100435.80, -94475.59, -66349.38, -59541.67, -81263.07, -81214.26, 0.000, 0.000, 0.000, 11:53:37.684
60, -42387.67, -36797.43, -100516.33, -94371.12, -66401.91, -59594.29, -81311.93, -81258.40, 0.000, 0.000, 0.000, 11:53:37.684
61, -42318.18, -36731.65, -100537.43, -94560.80, -66445.81, -59604.50, -81274.16, -81289.09, 0.000, 0.000, 0.000, 11:53:37.684
62, -42260.00, -36673.71, -100475.63, -94724.56, -66414.67, -59553.58, -81211.44, -81252.81, 0.000, 0.000, 0.000, 11:53:37.684
63, -42338.72, -36747.43, -100433.34, -94526.84, -66353.92, -59532.89, -81240.12, -81204.31, 0.000, 0.000, 0.000, 11:53:37.685
64, -42390.95, -36797.88, -100508.55, -94371.45, -66384.61, -59582.30, -81294.09, -81234.64, 0.000, 0.000, 0.000, 11:53:37.685
65, -42338.34, -36748.68, -100539.06, -94523.31, -66430.43, -59601.68, -81270.80, -81271.88, 0.000, 0.000, 0.000, 11:53:37.685
66, -42274.19, -36686.16, -100500.62, -94721.75, -66428.87, -59568.20, -81214.73, -81254.66, 0.000, 0.000, 0.000, 11:53:37.685
67, -42319.27, -36735.79, -100446.26, -94590.34, -66369.52, -59538.74, -81234.22, -81208.71, 0.000, 0.000, 0.000, 11:53:37.685
68, -42390.13, -36802.68, -100506.49, -94390.01, -66384.27, -59582.15, -81305.56, -81232.59, 0.000, 0.000, 0.000, 11:53:37.685
69, -42350.50, -36758.54, -100551.40, -94505.95, -66443.38, -59611.03, -81293.67, -81277.18, 0.000, 0.000, 0.000, 11:53:37.685
70, -42269.14, -36677.98, -100508.17, -94722.11, -66439.69, -59576.76, -81224.05, -81261.82, 0.000, 0.000, 0.000, 11:53:37.685
71, -42296.23, -36704.49, -100441.07, -94651.12, -66379.54, -59545.07, -81226.70, -81215.22, 0.000, 0.000, 0.000, 11:53:37.686
72, -42383.20, -36791.46, -100481.19, -94404.51, -66370.93, -59580.56, -81289.24, -81218.77, 0.000, 0.000, 0.000, 11:53:37.686
73, -42364.85, -36781.70, -100543.93, -94447.70, -66426.19, -59625.46, -81300.89, -81270.54, 0.000, 0.000, 0.000, 11:53:37.686
74, -42276.91, -36692.49, -100518.38, -94682.01, -66438.39, -59597.17, -81230.84, -81268.34, 0.000, 0.000, 0.000, 11:53:37.686
75, -42275.11, -36688.98, -100438.59, -94683.41, -66373.93, -59541.22, -81193.20, -81206.39, 0.000, 0.000, 0.000, 11:53:37.686
76, -42375.44, -36784.80, -100463.96, -94418.62, -66342.63, -59571.64, -81264.93, -81200.02, 0.000, 0.000, 0.000, 11:53:37.686
77, -42378.93, -36784.18, -100544.38, -94421.43, -66409.13, -59629.18, -81297.00, -81257.22, 0.000, 0.000, 0.000, 11:53:37.686
78, -42289.54, -36692.98, -100533.88, -94651.66, -66436.49, -59615.50, -81229.68, -81266.18, 0.000, 0.000, 0.000, 11:53:37.686
79, -42256.57, -36660.52, -100451.17, -94716.54, -66387.95, -59565.86, -81185.89, -81216.31, 0.000, 0.000, 0.000, 11:53:37.687
80, -42348.48, -36751.45, -100447.88, -94454.83, -66347.09, -59585.68, -81254.13, -81203.10, 0.000, 0.000, 0.000, 11:53:37.687
81, -42372.54, -36770.50, -100529.02, -94391.34, -66411.48, -59649.96, -81300.40, -81259.32, 0.000, 0.000, 0.000, 11:53:37.687
82, -42289.10, -36688.80, -100531.75, -94602.44, -66449.19, -59648.71, -81252.25, -81282.48, 0.000, 0.000, 0.000, 11:53:37.687
83, -42245.89, -36650.54, -100467.53, -94726.78, -66410.36, -59601.08, -81202.25, -81245.05, 0.000, 0.000, 0.000, 11:53:37.687
84, -42327.56, -36725.19, -100436.76, -94496.63, -66344.58, -59587.43, -81249.28, -81201.94, 0.000, 0.000, 0.000, 11:53:37.687
85, -42370.34, -36766.59, -100520.80, -94372.88, -66389.13, -59639.53, -81304.96, -81242.76, 0.000, 0.000, 0.000, 11:53:37.687
86, -42302.55, -36699.53, -100546.66, -94562.34, -66436.87, -59644.09, -81263.85, -81270.88, 0.000, 0.000, 0.000, 11:53:37.687
87, -42245.96, -36643.31, -100488.32, -94741.98, -66414.67, -59596.05, -81198.90, -81240.19, 0.000, 0.000, 0.000, 11:53:37.687
88, -42312.45, -36710.26, -100444.78, -94555.23, -66349.81, -59581.30, -81234.66, -81202.39, 0.000, 0.000, 0.000, 11:53:37.688
89, -42372.07, -36767.66, -100521.20, -94371.68, -66383.54, -59637.27, -81305.12, -81241.08, 0.000, 0.000, 0.000, 11:53:37.688
90, -42306.17, -36706.17, -100555.48, -94518.51, -66442.77, -59656.29, -81277.02, -81282.72, 0.000, 0.000, 0.000, 11:53:38.152
91, -42235.00, -36640.03, -100501.69, -94723.34, -66435.46, -59620.44, -81216.42, -81265.62, 0.000, 0.000, 0.000, 11:53:38.153
92, -42291.18, -36691.19, -100445.88, -94594.75, -66372.48, -59594.55, -81232.18, -81217.79, 0.000, 0.000, 0.000, 11:53:38.153
93, -42372.89, -36768.51, -100506.72, -94370.67, -66382.20, -59640.98, -81307.80, -81242.15, 0.000, 0.000, 0.000, 11:53:38.153
94, -42319.03, -36719.87, -100553.66, -94479.48, -66439.35, -59668.52, -81292.15, -81284.84, 0.000, 0.000, 0.000, 11:53:38.153
95, -42229.24, -36631.02, -100507.25, -94713.99, -66433.41, -59630.47, -81214.21, -81268.10, 0.000, 0.000, 0.000, 11:53:38.153
96, -42269.65, -36658.65, -100436.91, -94653.20, -66369.88, -59590.84, -81207.06, -81215.38, 0.000, 0.000, 0.000, 11:53:38.153
97, -42359.91, -36743.27, -100477.97, -94398.32, -66361.39, -59622.47, -81279.05, -81215.58, 0.000, 0.000, 0.000, 11:53:38.153
98, -42337.31, -36726.29, -100536.53, -94439.89, -66415.21, -59655.78, -81286.85, -81257.10, 0.000, 0.000, 0.000, 11:53:38.153
99, -42253.25, -36644.54, -100522.36, -94678.84, -66434.45, -59633.13, -81221.68, -81263.77, 0.000, 0.000, 0.000, 11:53:38.154
100, -42247.01, -36642.71, -100443.82, -94696.88, -66380.27, -59591.34, -81194.84, -81221.52, 0.000, 0.000, 0.000, 11:53:38.154
101, -42338.83, -36735.63, -100453.25, -94428.36, -66346.93, -59617.87, -81272.46, -81214.63, 0.000, 0.000, 0.000, 11:53:38.154
102, -42350.88, -36740.95, -100535.39, -94409.56, -66411.19, -59676.45, -81308.47, -81270.74, 0.000, 0.000, 0.000, 11:53:38.154
103, -42269.23, -36659.54, -100530.86, -94636.99, -66439.75, -59665.88, -81247.85, -81286.70, 0.000, 0.000, 0.000, 11:53:38.154
104, -42249.89, -36638.57, -100463.13, -94721.44, -66401.30, -59623.88, -81209.41, -81249.05, 0.000, 0.000, 0.000, 11:53:38.154
105, -42338.07, -36725.17, -100457.43, -94477.60, -66362.91, -59632.44, -81270.70, -81224.60, 0.000, 0.000, 0.000, 11:53:38.154
106, -42352.24, -36737.73, -100528.24, -94404.09, -66412.26, -59680.32, -81308.40, -81268.33, 0.000, 0.000, 0.000, 11:53:38.154
107, -42285.74, -36668.19, -100541.25, -94598.86, -66451.60, -59683.85, -81268.75, -81297.74, 0.000, 0.000, 0.000, 11:53:38.154
108, -42249.13, -36628.00, -100478.66, -94739.38, -66422.25, -59630.47, -81206.79, -81256.44, 0.000, 0.000, 0.000, 11:53:38.155
109, -42328.91, -36706.05, -100444.02, -94526.80, -66360.34, -59612.12, -81249.52, -81216.11, 0.000, 0.000, 0.000, 11:53:38.155
110, -42373.74, -36746.91, -100523.63, -94394.12, -66400.91, -59661.63, -81311.64, -81252.97, 0.000, 0.000, 0.000, 11:53:38.155
111, -42323.83, -36697.56, -100552.34, -94561.96, -66452.88, -59680.18, -81286.16, -81281.58, 0.000, 0.000, 0.000, 11:53:38.155
112, -42253.40, -36628.74, -100494.89, -94748.33, -66432.98, -59638.34, -81216.87, -81256.91, 0.000, 0.000, 0.000, 11:53:38.155
113, -42322.07, -36698.14, -100448.78, -94581.36, -66376.16, -59625.18, -81255.20, -81224.38, 0.000, 0.000, 0.000, 11:53:38.155
114, -42381.07, -36753.00, -100516.71, -94390.56, -66398.36, -59670.46, -81316.85, -81249.02, 0.000, 0.000, 0.000, 11:53:38.155
115, -42335.45, -36706.10, -100555.17, -94509.59, -66447.22, -59701.66, -81300.87, -81292.42, 0.000, 0.000, 0.000, 11:53:38.155
116, -42256.91, -36627.42, -100512.84, -94732.44, -66439.44, -59666.46, -81224.56, -81279.03, 0.000, 0.000, 0.000, 11:53:38.155
117, -42297.81, -36671.14, -100445.96, -94634.49, -66369.26, -59637.40, -81233.99, -81226.77, 0.000, 0.000, 0.000, 11:53:38.156
118, -42375.31, -36748.99, -100501.20, -94404.20, -66375.98, -59679.63, -81309.77, -81245.64, 0.000, 0.000, 0.000, 11:53:38.156
119, -42351.05, -36722.44, -100554.05, -94480.13, -66430.92, -59711.66, -81303.40, -81288.55, 0.000, 0.000, 0.000, 11:53:38.156
120, -42273.27, -36642.04, -100528.46, -94710.80, -66439.89, -59684.39, -81237.79, -81285.71, 0.000, 0.000, 0.000, 11:53:38.156
121, -42284.16, -36654.94, -100451.40, -94679.48, -66379.56, -59643.71, -81222.23, -81236.67, 0.000, 0.000, 0.000, 11:53:38.156
122, -42373.70, -36742.73, -100480.68, -94419.95, -66362.35, -59678.06, -81297.45, -81238.58, 0.000, 0.000, 0.000, 11:53:38.156
123, -42359.30, -36729.44, -100545.09, -94439.38, -66419.16, -59724.35, -81316.11, -81289.45, 0.000, 0.000, 0.000, 11:53:38.156
124, -42279.08, -36648.52, -100534.48, -94676.80, -66444.02, -59711.92, -81258.83, -81298.74, 0.000, 0.000, 0.000, 11:53:38.157
125, -42280.76, -36644.23, -100468.25, -94720.14, -66397.09, -59669.75, -81231.16, -81251.70, 0.000, 0.000, 0.000, 11:53:38.157
126, -42386.39, -36743.81, -100476.99, -94451.23, -66359.47, -59689.88, -81302.32, -81236.88, 0.000, 0.000, 0.000, 11:53:38.157
127, -42388.00, -36742.76, -100547.82, -94414.19, -66416.40, -59736.71, -81324.85, -81282.79, 0.000, 0.000, 0.000, 11:53:38.157
128, -42301.66, -36659.27, -100540.83, -94627.76, -66436.49, -59725.16, -81261.64, -81293.09, 0.000, 0.000, 0.000, 11:53:38.157
129, -42267.01, -36620.58, -100471.00, -94734.67, -66398.54, -59680.16, -81221.07, -81255.05, 0.000, 0.000, 0.000, 11:53:38.157
130, -42358.70, -36706.28, -100448.05, -94487.70, -66342.01, -59684.99, -81278.00, -81228.29, 0.000, 0.000, 0.000, 11:53:38.157
131, -42398.66, -36741.26, -100534.79, -94382.83, -66394.18, -59746.34, -81335.11, -81278.80, 0.000, 0.000, 0.000, 11:53:38.157
132, -42326.47, -36667.07, -100554.33, -94586.43, -66445.01, -59750.86, -81291.15, -81305.95, 0.000, 0.000, 0.000, 11:53:38.157
133, -42259.37, -36604.31, -100484.30, -94750.07, -66411.81, -59698.42, -81221.77, -81268.08, 0.000, 0.000, 0.000, 11:53:38.158
134, -42336.24, -36678.77, -100438.63, -94540.70, -66341.74, -59683.11, -81255.96, -81220.23, 0.000, 0.000, 0.000, 11:53:38.158
135, -42391.11, -36730.75, -100521.54, -94384.82, -66386.51, -59741.14, -81326.04, -81259.59, 0.000, 0.000, 0.000, 11:53:38.158
136, -42329.89, -36670.25, -100547.95, -94544.95, -66437.56, -59757.97, -81295.88, -81295.55, 0.000, 0.000, 0.000, 11:53:38.158
137, -42269.85, -36606.28, -100496.05, -94741.64, -66417.18, -59720.89, -81219.20, -81269.87, 0.000, 0.000, 0.000, 11:53:38.158
138, -42349.22, -36679.26, -100452.63, -94585.65, -66356.59, -59713.93, -81253.33, -81231.55, 0.000, 0.000, 0.000, 11:53:38.158
139, -42411.74, -36738.04, -100520.59, -94390.16, -66381.91, -59762.01, -81320.61, -81257.15, 0.000, 0.000, 0.000, 11:53:38.158
140, -42364.09, -36685.05, -100560.36, -94509.50, -66431.46, -59789.71, -81294.48, -81296.00, 0.000, 0.000, 0.000, 11:53:38.158
141, -42284.05, -36601.58, -100518.01, -94738.52, -66429.61, -59757.03, -81227.42, -81278.92, 0.000, 0.000, 0.000, 11:53:38.158
142, -42324.32, -36639.98, -100454.52, -94652.82, -66366.38, -59729.80, -81235.00, -81230.02, 0.000, 0.000, 0.000, 11:53:38.159
143, -42406.69, -36718.64, -100498.38, -94401.80, -66359.76, -59771.51, -81309.81, -81242.89, 0.000, 0.000, 0.000, 11:53:38.159
144, -42380.02, -36691.28, -100561.30, -94459.54, -66422.09, -59812.21, -81309.92, -81295.05, 0.000, 0.000, 0.000, 11:53:38.159
145, -42295.22, -36603.35, -100529.02, -94693.59, -66435.17, -59784.59, -81238.89, -81291.39, 0.000, 0.000, 0.000, 11:53:38.159
146, -42305.50, -36612.78, -100457.12, -94685.61, -66379.85, -59742.66, -81224.98, -81239.55, 0.000, 0.000, 0.000, 11:53:38.159
147, -42393.64, -36698.48, -100477.50, -94424.45, -66350.68, -59765.07, -81293.94, -81231.40, 0.000, 0.000, 0.000, 11:53:38.159
148, -42389.10, -36689.88, -100548.13, -94426.93, -66408.86, -59814.54, -81315.98, -81279.92, 0.000, 0.000, 0.000, 11:53:38.159
149, -42306.38, -36608.80, -100536.20, -94657.65, -66431.75, -59805.38, -81253.77, -81289.85, 0.000, 0.000, 0.000, 11:53:38.159
150, -42290.26, -36592.42, -100468.88, -94720.25, -66387.07, -59764.85, -81221.74, -81246.51, 0.000, 0.000, 0.000, 11:53:38.159
151, -42386.86, -36686.79, -100468.38, -94463.59, -66351.35, -59785.59, -81291.62, -81233.14, 0.000, 0.000, 0.000, 11:53:38.160
152, -42409.71, -36707.84, -100545.02, -94405.18, -66405.22, -59849.74, -81325.63, -81280.98, 0.000, 0.000, 0.000, 11:53:38.160
153, -42333.98, -36626.24, -100552.70, -94618.41, -66435.51, -59861.64, -81271.97, -81305.83, 0.000, 0.000, 0.000, 11:53:38.160
154, -42293.30, -36578.79, -100479.76, -94741.51, -66398.16, -59819.59, -81218.97, -81261.15, 0.000, 0.000, 0.000, 11:53:38.160
155, -42384.58, -36659.39, -100457.27, -94499.95, -66349.07, -59827.48, -81278.31, -81231.29, 0.000, 0.000, 0.000, 11:53:38.160
156, -42424.14, -36690.66, -100538.41, -94377.42, -66398.11, -59891.86, -81338.38, -81278.43, 0.000, 0.000, 0.000, 11:53:38.160
157, -42353.54, -36612.65, -100561.32, -94566.83, -66444.63, -59910.96, -81296.00, -81312.63, 0.000, 0.000, 0.000, 11:53:38.160
158, -42288.20, -36542.89, -100495.02, -94744.70, -66413.13, -59865.19, -81222.59, -81276.73, 0.000, 0.000, 0.000, 11:53:38.160
159, -42371.73, -36612.20, -100456.78, -94557.02, -66353.92, -59858.33, -81269.91, -81238.69, 0.000, 0.000, 0.000, 11:53:38.160
160, -42441.38, -36662.36, -100539.06, -94378.49, -66390.67, -59920.75, -81345.05, -81278.30, 0.000, 0.000, 0.000, 11:53:38.161
161, -42384.56, -36594.43, -100579.59, -94524.12, -66440.54, -59940.98, -81309.54, -81314.30, 0.000, 0.000, 0.000, 11:53:38.161
162, -42304.95, -36513.41, -100521.83, -94736.05, -66421.83, -59897.62, -81227.66, -81287.68, 0.000, 0.000, 0.000, 11:53:38.161
163, -42349.31, -36558.55, -100454.55, -94609.14, -66354.34, -59872.72, -81239.76, -81235.87, 0.000, 0.000, 0.000, 11:53:38.161
164, -42425.64, -36627.42, -100506.09, -94385.65, -66359.04, -59914.34, -81304.31, -81247.34, 0.000, 0.000, 0.000, 11:53:38.161
165, -42394.24, -36594.97, -100561.14, -94478.77, -66417.80, -59948.65, -81302.32, -81289.85, 0.000, 0.000, 0.000, 11:53:38.161
166, -42309.82, -36510.16, -100526.43, -94714.98, -66426.34, -59920.60, -81233.75, -81281.13, 0.000, 0.000, 0.000, 11:53:38.161
167, -42346.29, -36545.37, -100462.05, -94656.33, -66368.97, -59897.02, -81238.66, -81238.69, 0.000, 0.000, 0.000, 11:53:38.161
168, -42437.76, -36632.65, -100502.41, -94402.45, -66361.19, -59940.05, -81314.33, -81249.39, 0.000, 0.000, 0.000, 11:53:38.161
169, -42418.74, -36618.79, -100566.80, -94445.52, -66423.41, -59984.41, -81324.49, -81298.92, 0.000, 0.000, 0.000, 11:53:38.161
170, -42327.21, -36530.33, -100545.52, -94689.30, -66436.38, -59963.27, -81255.83, -81299.80, 0.000, 0.000, 0.000, 11:53:38.162
171, -42324.73, -36530.66, -100468.09, -94702.98, -66378.45, -59924.55, -81231.29, -81249.66, 0.000, 0.000, 0.000, 11:53:38.162
172, -42410.60, -36620.47, -100483.36, -94441.23, -66347.24, -59945.41, -81293.23, -81235.16, 0.000, 0.000, 0.000, 11:53:38.162
173, -42419.50, -36629.08, -100552.70, -94421.12, -66402.31, -59999.64, -81326.95, -81284.80, 0.000, 0.000, 0.000, 11:53:38.162
174, -42354.57, -36557.26, -100558.75, -94643.83, -66439.17, -60005.58, -81276.69, -81305.36, 0.000, 0.000, 0.000, 11:53:38.162
175, -42316.41, -36515.69, -100479.52, -94739.36, -66397.33, -59951.69, -81221.70, -81254.98, 0.000, 0.000, 0.000, 11:53:38.162
176, -42404.41, -36607.55, -100461.74, -94482.30, -66342.81, -59962.84, -81279.10, -81227.71, 0.000, 0.000, 0.000, 11:53:38.162
177, -42420.30, -36622.86, -100532.89, -94399.26, -66390.02, -60018.14, -81319.09, -81272.48, 0.000, 0.000, 0.000, 11:53:38.162
178, -42356.49, -36555.52, -100541.90, -94597.14, -66427.91, -60028.29, -81271.21, -81294.37, 0.000, 0.000, 0.000, 11:53:38.162
179, -42312.70, -36514.14, -100480.97, -94737.87, -66398.13, -59991.88, -81215.55, -81260.19, 0.000, 0.000, 0.000, 11:53:38.163
180, -42395.80, -36597.63, -100448.22, -94514.03, -66334.86, -59993.22, -81263.19, -81224.11, 0.000, 0.000, 0.000, 11:53:38.163
181, -42443.10, -36644.54, -100531.03, -94379.32, -66375.47, -60055.54, -81323.04, -81265.22, 0.000, 0.000, 0.000, 11:53:38.163
182, -42381.97, -36581.47, -100556.34, -94552.93, -66418.56, -60070.91, -81288.28, -81298.21, 0.000, 0.000, 0.000, 11:53:38.163
183, -42328.95, -36529.59, -100507.56, -94732.12, -66398.25, -60033.18, -81234.87, -81272.98, 0.000, 0.000, 0.000, 11:53:38.163
184, -42390.84, -36596.49, -100460.38, -94565.78, -66337.23, -60022.28, -81265.40, -81234.71, 0.000, 0.000, 0.000, 11:53:38.163
185, -42453.98, -36659.74, -100528.64, -94376.30, -66366.95, -60076.64, -81338.62, -81267.38, 0.000, 0.000, 0.000, 11:53:38.163
186, -42395.69, -36601.50, -100571.94, -94506.23, -66421.20, -60090.00, -81308.09, -81297.27, 0.000, 0.000, 0.000, 11:53:38.163
187, -42321.42, -36520.47, -100521.58, -94727.23, -66414.83, -60050.80, -81231.20, -81274.88, 0.000, 0.000, 0.000, 11:53:38.163
188, -42369.05, -36570.09, -100456.27, -94615.20, -66351.17, -60026.90, -81246.06, -81226.17, 0.000, 0.000, 0.000, 11:53:38.163
189, -42446.99, -36651.00, -100505.94, -94378.80, -66354.77, -60082.09, -81316.80, -81248.09, 0.000, 0.000, 0.000, 11:53:38.164
190, -42422.56, -36628.38, -100567.27, -94459.56, -66418.19, -60131.09, -81326.41, -81307.53, 0.000, 0.000, 0.000, 11:53:38.164
191, -42335.14, -36542.69, -100536.04, -94700.34, -66424.24, -60105.40, -81253.98, -81298.03, 0.000, 0.000, 0.000, 11:53:38.164
192, -42351.10, -36560.32, -100458.03, -94662.63, -66356.65, -60072.30, -81241.62, -81243.05, 0.000, 0.000, 0.000, 11:53:38.164
193, -42430.56, -36644.25, -100482.87, -94407.02, -66332.47, -60104.44, -81306.30, -81235.24, 0.000, 0.000, 0.000, 11:53:38.164
194, -42432.46, -36649.17, -100555.22, -94423.96, -66392.86, -60159.85, -81322.51, -81281.31, 0.000, 0.000, 0.000, 11:53:38.164
195, -42357.87, -36572.88, -100548.09, -94659.21, -66420.38, -60148.12, -81263.72, -81296.13, 0.000, 0.000, 0.000, 11:53:38.164
196, -42347.23, -36560.77, -100471.24, -94709.30, -66375.31, -60105.11, -81232.61, -81252.30, 0.000, 0.000, 0.000, 11:53:38.164
197, -42448.31, -36663.95, -100479.94, -94437.55, -66331.21, -60132.36, -81299.02, -81232.49, 0.000, 0.000, 0.000, 11:53:38.164
198, -42466.17, -36683.17, -100569.48, -94400.89, -66392.86, -60199.37, -81340.21, -81288.62, 0.000, 0.000, 0.000, 11:53:38.164
199, -42376.71, -36598.32, -100566.33, -94630.16, -66430.63, -60197.96, -81283.77, -81303.17, 0.000, 0.000, 0.000, 11:53:38.164
200, -42345.80, -36571.75, -100498.00, -94731.02, -66389.33, -60162.00, -81242.76, -81266.67, 0.000, 0.000, 0.000, 11:53:38.165
201, -42422.92, -36646.38, -100478.02, -94493.02, -66336.98, -60165.33, -81290.19, -81238.69, 0.000, 0.000, 0.000, 11:53:38.165
202, -42448.73, -36672.26, -100543.17, -94394.66, -66380.45, -60211.62, -81327.91, -81269.94, 0.000, 0.000, 0.000, 11:53:38.165
203, -42396.61, -36617.03, -100564.12, -94581.16, -66423.59, -60222.46, -81291.82, -81298.34, 0.000, 0.000, 0.000, 11:53:38.165
204, -42357.80, -36573.64, -100509.73, -94744.66, -66409.45, -60177.58, -81240.07, -81271.77, 0.000, 0.000, 0.000, 11:53:38.165
205, -42443.52, -36658.11, -100478.09, -94544.21, -66350.95, -60168.35, -81277.02, -81238.02, 0.000, 0.000, 0.000, 11:53:38.165
206, -42491.13, -36703.04, -100553.01, -94390.95, -66386.18, -60220.94, -81339.72, -81277.22, 0.000, 0.000, 0.000, 11:53:38.165
207, -42433.42, -36648.05, -100576.43, -94544.39, -66429.72, -60240.83, -81308.96, -81307.22, 0.000, 0.000, 0.000, 11:53:38.165
208, -42365.65, -36583.23, -100524.87, -94743.59, -66416.51, -60216.40, -81234.73, -81279.01, 0.000, 0.000, 0.000, 11:53:38.165
209, -42420.46, -36638.89, -100467.00, -94594.13, -66347.04, -60210.90, -81253.38, -81231.35, 0.000, 0.000, 0.000, 11:53:38.165
210, -42482.82, -36698.86, -100523.50, -94389.40, -66360.56, -60267.63, -81318.13, -81250.80, 0.000, 0.000, 0.000, 11:53:38.631
211, -42445.40, -36661.82, -100569.63, -94498.61, -66414.38, -60308.09, -81306.86, -81288.51, 0.000, 0.000, 0.000, 11:53:38.631
212, -42370.90, -36589.18, -100528.35, -94724.77, -66414.90, -60285.09, -81244.27, -81280.93, 0.000, 0.000, 0.000, 11:53:38.631
213, -42418.38, -36633.86, -100466.38, -94644.26, -66356.43, -60267.59, -81252.09, -81240.77, 0.000, 0.000, 0.000, 11:53:38.632
214, -42493.95, -36712.52, -100510.29, -94413.88, -66355.42, -60307.17, -81314.70, -81246.82, 0.000, 0.000, 0.000, 11:53:38.632
215, -42453.54, -36681.56, -100561.45, -94477.94, -66408.95, -60340.28, -81310.97, -81288.46, 0.000, 0.000, 0.000, 11:53:38.632
216, -42385.81, -36605.52, -100532.84, -94700.34, -66413.00, -60344.81, -81246.17, -81283.57, 0.000, 0.000, 0.000, 11:53:38.632
217, -42396.18, -36615.98, -100461.66, -94693.59, -66355.94, -60389.81, -81233.91, -81238.91, 0.000, 0.000, 0.000, 11:53:38.632
218, -42501.10, -36718.02, -100486.66, -94422.88, -66331.13, -60498.46, -81316.05, -81235.00, 0.000, 0.000, 0.000, 11:53:38.632
219, -42498.09, -36713.90, -100566.13, -94429.21, -66396.46, -60613.86, -81338.87, -81292.09, 0.000, 0.000, 0.000, 11:53:38.632
220, -42414.80, -36633.88, -100549.68, -94660.80, -66422.09, -60650.76, -81275.79, -81304.65, 0.000, 0.000, 0.000, 11:53:38.632
221, -42402.55, -36620.80, -100481.82, -94716.56, -66376.77, -60704.03, -81244.12, -81259.74, 0.000, 0.000, 0.000, 11:53:38.632
222, -42492.65, -36709.50, -100482.84, -94468.13, -66332.13, -60818.74, -81301.98, -81233.19, 0.000, 0.000, 0.000, 11:53:38.632
223, -42517.96, -36736.50, -100565.41, -94411.17, -66389.91, -60954.84, -81346.73, -81281.73, 0.000, 0.000, 0.000, 11:53:38.632
224, -42441.89, -36662.87, -100571.80, -94624.61, -66428.94, -61018.50, -81302.70, -81307.58, 0.000, 0.000, 0.000, 11:53:38.633
225, -42406.22, -36627.15, -100502.49, -94744.19, -66393.73, -61015.95, -81250.35, -81271.72, 0.000, 0.000, 0.000, 11:53:38.633
226, -42490.51, -36711.64, -100476.23, -94509.25, -66328.77, -61055.33, -81296.33, -81236.54, 0.000, 0.000, 0.000, 11:53:38.633
227, -42527.05, -36748.43, -100551.89, -94389.45, -66370.17, -61140.22, -81346.27, -81279.26, 0.000, 0.000, 0.000, 11:53:38.633
228, -42463.33, -36685.52, -100572.92, -94570.95, -66415.63, -61167.91, -81302.01, -81308.73, 0.000, 0.000, 0.000, 11:53:38.633
229, -42411.67, -36636.63, -100517.06, -94739.79, -66398.42, -61163.73, -81248.92, -81281.69, 0.000, 0.000, 0.000, 11:53:38.633
230, -42475.82, -36697.96, -100464.02, -94552.03, -66328.55, -61182.67, -81275.86, -81236.49, 0.000, 0.000, 0.000, 11:53:38.633
231, -42535.32, -36749.86, -100535.44, -94379.90, -66350.52, -61262.73, -81335.94, -81264.91, 0.000, 0.000, 0.000, 11:53:38.633
232, -42487.74, -36698.03, -100575.38, -94522.62, -66404.77, -61301.89, -81317.19, -81306.52, 0.000, 0.000, 0.000, 11:53:38.633
233, -42418.74, -36631.16, -100528.22, -94734.87, -66400.52, -61258.11, -81249.46, -81290.84, 0.000, 0.000, 0.000, 11:53:38.633
234, -42478.82, -36691.41, -100472.01, -94608.25, -66335.15, -61207.37, -81270.20, -81247.18, 0.000, 0.000, 0.000, 11:53:38.633
235, -42542.79, -36751.16, -100525.13, -94393.13, -66338.70, -61212.06, -81328.97, -81259.36, 0.000, 0.000, 0.000, 11:53:38.634
236, -42511.92, -36717.14, -100569.32, -94489.18, -66387.83, -61259.31, -81315.46, -81298.12, 0.000, 0.000, 0.000, 11:53:38.634
237, -42442.07, -36647.09, -100542.63, -94715.58, -66392.99, -61275.94, -81254.38, -81295.95, 0.000, 0.000, 0.000, 11:53:38.634
238, -42464.22, -36675.28, -100471.89, -94657.80, -66328.40, -61250.57, -81245.34, -81243.02, 0.000, 0.000, 0.000, 11:53:38.634
239, -42554.57, -36762.79, -100510.70, -94406.61, -66316.66, -61287.16, -81317.97, -81247.90, 0.000, 0.000, 0.000, 11:53:38.634
240, -42540.00, -36743.61, -100571.29, -94449.23, -66378.87, -61323.93, -81325.63, -81292.76, 0.000, 0.000, 0.000, 11:53:38.634
241, -42459.89, -36661.09, -100550.75, -94683.04, -66400.30, -61294.89, -81261.30, -81293.98, 0.000, 0.000, 0.000, 11:53:38.634
242, -42468.22, -36666.94, -100483.11, -94694.39, -66345.45, -61239.82, -81243.38, -81247.52, 0.000, 0.000, 0.000, 11:53:38.634
243, -42563.78, -36765.06, -100499.43, -94430.46, -66312.88, -61244.47, -81315.04, -81233.95, 0.000, 0.000, 0.000, 11:53:38.634
244, -42574.06, -36779.28, -100576.84, -94408.71, -66372.25, -61283.70, -81342.09, -81287.50, 0.000, 0.000, 0.000, 11:53:38.634
245, -42484.68, -36694.03, -100572.41, -94641.69, -66409.13, -61248.83, -81279.61, -81300.45, 0.000, 0.000, 0.000, 11:53:38.635
246, -42458.66, -36665.67, -100487.23, -94721.80, -66361.45, -61158.37, -81229.79, -81249.21, 0.000, 0.000, 0.000, 11:53:38.635
247, -42562.39, -36768.86, -100480.97, -94462.36, -66311.88, -61129.20, -81297.20, -81225.77, 0.000, 0.000, 0.000, 11:53:38.635
248, -42584.05, -36792.31, -100560.90, -94389.88, -66363.94, -61149.21, -81336.34, -81269.42, 0.000, 0.000, 0.000, 11:53:38.635
249, -42516.05, -36727.04, -100576.05, -94595.84, -66407.05, -61144.74, -81293.29, -81302.61, 0.000, 0.000, 0.000, 11:53:38.635
250, -42473.81, -36689.11, -100515.03, -94738.20, -66382.66, -61098.20, -81242.15, -81275.45, 0.000, 0.000, 0.000, 11:53:38.635
251, -42562.35, -36773.13, -100481.05, -94516.61, -66319.75, -61105.00, -81290.63, -81237.21, 0.000, 0.000, 0.000, 11:53:38.635
252, -42616.37, -36827.05, -100563.27, -94374.11, -66356.29, -61181.86, -81358.52, -81280.69, 0.000, 0.000, 0.000, 11:53:38.635
253, -42546.97, -36766.23, -100590.98, -94548.34, -66410.95, -61200.48, -81321.50, -81319.13, 0.000, 0.000, 0.000, 11:53:38.635
254, -42471.82, -36697.41, -100528.40, -94741.27, -66391.14, -61142.05, -81244.27, -81289.31, 0.000, 0.000, 0.000, 11:53:38.635
255, -42538.74, -36767.30, -100466.59, -94573.60, -66315.81, -61102.11, -81267.38, -81238.87, 0.000, 0.000, 0.000, 11:53:38.635
0, -42619.66, -36847.72, -100541.85, -94378.00, -66338.39, -61138.95, -81342.48, -81271.90, 0.000, 0.000, 0.000, 11:53:38.636
1, -42569.84, -36798.55, -100585.26, -94505.56, -66394.20, -61146.44, -81319.31, -81313.38, 0.000, 0.000, 0.000, 11:53:38.636
2, -42507.47, -36736.48, -100545.95, -94712.25, -66395.25, -61123.88, -81261.59, -81299.05, 0.000, 0.000, 0.000, 11:53:38.636
3, -42549.25, -36773.45, -100481.52, -94614.73, -66332.20, -61122.00, -81266.52, -81247.83, 0.000, 0.000, 0.000, 11:53:38.636
4, -42629.38, -36853.13, -100528.20, -94384.75, -66328.93, -61194.92, -81337.41, -81261.69, 0.000, 0.000, 0.000, 11:53:38.636
5, -42595.92, -36825.37, -100579.63, -94465.45, -66385.77, -61261.61, -81332.48, -81311.53, 0.000, 0.000, 0.000, 11:53:38.636
6, -42513.62, -36749.66, -100549.56, -94699.66, -66394.23, -61259.91, -81265.20, -81305.90, 0.000, 0.000, 0.000, 11:53:38.636
7, -42527.57, -36763.86, -100477.10, -94669.13, -66328.13, -61234.99, -81248.48, -81251.43, 0.000, 0.000, 0.000, 11:53:38.636
8, -42620.44, -36856.71, -100506.52, -94417.12, -66306.29, -61279.63, -81321.19, -81246.22, 0.000, 0.000, 0.000, 11:53:38.636
9, -42625.65, -36865.22, -100582.63, -94437.15, -66373.64, -61348.56, -81346.31, -81302.27, 0.000, 0.000, 0.000, 11:53:38.636
10, -42547.77, -36789.09, -100574.62, -94669.49, -66403.43, -61347.22, -81285.80, -81318.23, 0.000, 0.000, 0.000, 11:53:38.637
11, -42531.88, -36775.37, -100489.59, -94703.89, -66348.88, -61300.42, -81244.68, -81261.95, 0.000, 0.000, 0.000, 11:53:38.637
12, -42621.20, -36870.88, -100494.58, -94439.47, -66305.64, -61326.86, -81310.55, -81242.46, 0.000, 0.000, 0.000, 11:53:38.637
13, -42623.30, -36874.88, -100569.23, -94402.68, -66360.00, -61382.27, -81339.31, -81289.20, 0.000, 0.000, 0.000, 11:53:38.637
14, -42551.71, -36805.14, -100569.75, -94624.45, -66395.09, -61381.09, -81292.15, -81310.05, 0.000, 0.000, 0.000, 11:53:38.637
15, -42527.59, -36781.85, -100502.98, -94726.94, -66357.09, -61341.03, -81243.83, -81270.72, 0.000, 0.000, 0.000, 11:53:38.637
16, -42614.88, -36870.59, -100484.09, -94483.10, -66297.35, -61350.26, -81294.70, -81239.78, 0.000, 0.000, 0.000, 11:53:38.637
17, -42658.44, -36918.09, -100572.20, -94386.70, -66351.24, -61416.20, -81349.88, -81289.27, 0.000, 0.000, 0.000, 11:53:38.637
18, -42594.96, -36855.14, -100591.56, -94580.11, -66400.91, -61429.74, -81311.58, -81319.47, 0.000, 0.000, 0.000, 11:53:38.637
19, -42541.00, -36799.26, -100525.54, -94740.93, -66375.36, -61388.19, -81253.77, -81287.97, 0.000, 0.000, 0.000, 11:53:38.637
20, -42616.33, -36879.75, -100481.17, -94534.40, -66306.18, -61378.87, -81287.93, -81242.60, 0.000, 0.000, 0.000, 11:53:38.637
21, -42670.55, -36935.45, -100555.38, -94378.27, -66337.18, -61439.00, -81342.04, -81275.99, 0.000, 0.000, 0.000, 11:53:38.637
22, -42621.60, -36888.42, -100592.79, -94531.88, -66392.52, -61471.56, -81322.23, -81319.69, 0.000, 0.000, 0.000, 11:53:38.638
23, -42548.04, -36818.20, -100540.47, -94736.77, -66382.87, -61433.01, -81255.12, -81295.57, 0.000, 0.000, 0.000, 11:53:38.638
24, -42599.14, -36873.58, -100474.80, -94586.77, -66310.25, -61408.44, -81269.71, -81242.33, 0.000, 0.000, 0.000, 11:53:38.638
25, -42673.70, -36954.12, -100541.95, -94377.55, -66326.59, -61461.39, -81341.30, -81267.09, 0.000, 0.000, 0.000, 11:53:38.638
26, -42634.70, -36915.11, -100582.60, -94490.68, -66381.95, -61493.56, -81322.77, -81309.63, 0.000, 0.000, 0.000, 11:53:38.638
27, -42579.71, -36855.59, -100547.40, -94708.38, -66382.91, -61472.68, -81265.04, -81302.39, 0.000, 0.000, 0.000, 11:53:38.638
28, -42614.38, -36893.07, -100482.80, -94629.05, -66316.30, -61444.81, -81264.84, -81251.59, 0.000, 0.000, 0.000, 11:53:38.638
29, -42703.66, -36984.40, -100529.67, -94385.63, -66308.26, -61487.30, -81336.66, -81257.24, 0.000, 0.000, 0.000, 11:53:38.638
30, -42681.50, -36965.22, -100592.10, -94452.37, -66374.66, -61531.27, -81341.52, -81308.63, 0.000, 0.000, 0.000, 11:53:38.638
31, -42605.20, -36893.99, -100566.82, -94687.53, -66392.95, -61515.89, -81281.98, -81315.30, 0.000, 0.000, 0.000, 11:53:38.638
32, -42604.52, -36897.81, -100494.98, -94684.89, -66334.99, -61475.23, -81258.06, -81264.97, 0.000, 0.000, 0.000, 11:53:38.638
33, -42689.77, -36986.75, -100509.55, -94427.55, -66301.44, -61500.58, -81321.48, -81251.90, 0.000, 0.000, 0.000, 11:53:38.639
34, -42684.59, -36979.84, -100580.90, -94438.40, -66364.05, -61553.86, -81344.66, -81303.59, 0.000, 0.000, 0.000, 11:53:38.639
35, -42604.48, -36900.43, -100571.38, -94670.50, -66393.40, -61549.44, -81285.09, -81315.91, 0.000, 0.000, 0.000, 11:53:38.639
36, -42588.52, -36893.48, -100489.75, -94730.13, -66338.81, -61497.47, -81238.10, -81264.32, 0.000, 0.000, 0.000, 11:53:38.639
37, -42685.44, -36995.31, -100478.93, -94463.59, -66287.56, -61503.82, -81298.41, -81235.98, 0.000, 0.000, 0.000, 11:53:38.639
38, -42695.99, -37009.50, -100559.20, -94404.98, -66343.98, -61549.17, -81337.68, -81282.05, 0.000, 0.000, 0.000, 11:53:38.639
39, -42621.85, -36938.89, -100569.77, -94622.24, -66385.51, -61522.79, -81291.77, -81306.10, 0.000, 0.000, 0.000, 11:53:38.639
40, -42597.42, -36910.30, -100502.88, -94739.32, -66347.71, -61464.32, -81245.03, -81273.04, 0.000, 0.000, 0.000, 11:53:38.639
41, -42688.28, -37001.32, -100482.09, -94510.86, -66288.84, -61478.29, -81294.43, -81241.05, 0.000, 0.000, 0.000, 11:53:38.639
42, -42724.46, -37038.76, -100563.22, -94402.08, -66332.76, -61548.59, -81337.73, -81279.88, 0.000, 0.000, 0.000, 11:53:38.639
43, -42657.90, -36975.73, -100581.39, -94587.08, -66376.54, -61568.39, -81297.00, -81310.48, 0.000, 0.000, 0.000, 11:53:38.640
44, -42604.97, -36924.72, -100525.20, -94755.99, -66357.43, -61534.77, -81243.23, -81282.74, 0.000, 0.000, 0.000, 11:53:38.640
45, -42684.21, -37010.02, -100485.91, -94559.39, -66294.40, -61513.30, -81284.53, -81244.92, 0.000, 0.000, 0.000, 11:53:38.640
46, -42738.70, -37070.10, -100560.80, -94388.15, -66326.34, -61524.58, -81344.12, -81275.59, 0.000, 0.000, 0.000, 11:53:38.640
47, -42682.00, -37015.47, -100590.73, -94530.17, -66375.73, -61528.96, -81316.00, -81311.95, 0.000, 0.000, 0.000, 11:53:38.640
48, -42610.45, -36942.20, -100538.50, -94737.73, -66365.81, -61485.82, -81246.66, -81293.72, 0.000, 0.000, 0.000, 11:53:38.640
49, -42656.76, -36993.16, -100470.57, -94610.86, -66293.62, -61452.45, -81256.95, -81241.91, 0.000, 0.000, 0.000, 11:53:38.640
50, -42738.61, -37076.07, -100526.95, -94394.63, -66303.52, -61500.89, -81327.02, -81260.70, 0.000, 0.000, 0.000, 11:53:38.640
51, -42705.00, -37050.77, -100575.83, -94489.23, -66365.92, -61539.38, -81321.74, -81306.28, 0.000, 0.000, 0.000, 11:53:38.640
52, -42622.43, -36973.83, -100536.65, -94719.70, -66369.91, -61514.97, -81254.27, -81300.18, 0.000, 0.000, 0.000, 11:53:38.640
53, -42655.78, -37009.86, -100469.30, -94658.92, -66306.70, -61490.07, -81253.98, -81255.56, 0.000, 0.000, 0.000, 11:53:38.641
54, -42748.69, -37097.43, -100507.63, -94414.81, -66294.83, -61523.27, -81322.30, -81258.65, 0.000, 0.000, 0.000, 11:53:38.641
55, -42732.38, -37083.31, -100568.83, -94452.45, -66354.70, -61554.00, -81330.75, -81307.55, 0.000, 0.000, 0.000, 11:53:38.641
56, -42653.86, -37011.78, -100553.34, -94683.64, -66374.71, -61518.82, -81267.70, -81309.14, 0.000, 0.000, 0.000, 11:53:38.641
57, -42662.89, -37026.96, -100485.70, -94692.36, -66322.63, -61474.47, -81250.96, -81264.28, 0.000, 0.000, 0.000, 11:53:38.641
58, -42757.68, -37126.07, -100503.41, -94430.38, -66294.63, -61499.17, -81320.49, -81252.55, 0.000, 0.000, 0.000, 11:53:38.641
59, -42757.81, -37126.40, -100573.05, -94421.05, -66351.53, -61550.15, -81341.62, -81300.27, 0.000, 0.000, 0.000, 11:53:38.641
60, -42686.33, -37057.74, -100560.88, -94642.52, -66373.05, -61546.58, -81283.28, -81313.77, 0.000, 0.000, 0.000, 11:53:38.641
61, -42661.86, -37038.31, -100492.92, -94730.96, -66330.88, -61506.81, -81238.58, -81267.66, 0.000, 0.000, 0.000, 11:53:38.642
62, -42745.95, -37126.58, -100472.74, -94484.66, -66272.45, -61504.33, -81285.98, -81231.73, 0.000, 0.000, 0.000, 11:53:38.642
63, -42775.70, -37162.16, -100558.13, -94405.98, -66321.38, -61555.29, -81333.39, -81282.09, 0.000, 0.000, 0.000, 11:53:38.642
64, -42704.57, -37091.54, -100572.27, -94611.38, -66362.87, -61570.56, -81294.21, -81316.78, 0.000, 0.000, 0.000, 11:53:38.642
65, -42663.98, -37055.82, -100511.08, -94748.46, -66333.41, -61547.85, -81243.38, -81280.98, 0.000, 0.000, 0.000, 11:53:38.642
66, -42753.57, -37146.45, -100482.09, -94532.37, -66273.03, -61559.25, -81286.74, -81242.35, 0.000, 0.000, 0.000, 11:53:38.642
67, -42801.38, -37193.01, -100556.13, -94396.09, -66309.13, -61620.56, -81340.70, -81279.88, 0.000, 0.000, 0.000, 11:53:38.642
68, -42747.91, -37137.89, -100584.95, -94568.20, -66360.92, -61642.11, -81312.13, -81314.13, 0.000, 0.000, 0.000, 11:53:38.642
69, -42679.25, -37070.64, -100525.38, -94755.57, -66343.82, -61598.54, -81238.73, -81286.41, 0.000, 0.000, 0.000, 11:53:38.642
70, -42737.00, -37129.29, -100463.60, -94585.94, -66271.94, -61542.82, -81252.97, -81231.91, 0.000, 0.000, 0.000, 11:53:38.642
71, -42810.27, -37201.73, -100534.92, -94394.21, -66294.40, -61570.05, -81325.34, -81256.66, 0.000, 0.000, 0.000, 11:53:38.642
72, -42768.30, -37164.63, -100584.79, -94523.13, -66354.70, -61614.91, -81317.19, -81306.57, 0.000, 0.000, 0.000, 11:53:38.643
73, -42700.30, -37100.54, -100546.26, -94738.18, -66357.39, -61595.71, -81256.63, -81297.72, 0.000, 0.000, 0.000, 11:53:38.643
74, -42747.64, -37149.22, -100478.04, -94630.11, -66287.74, -61560.79, -81257.57, -81243.25, 0.000, 0.000, 0.000, 11:53:39.112
75, -42837.09, -37238.95, -100536.71, -94391.95, -66291.00, -61594.21, -81337.17, -81255.56, 0.000, 0.000, 0.000, 11:53:39.112
76, -42793.69, -37198.40, -100586.71, -94483.97, -66352.91, -61611.42, -81324.14, -81297.80, 0.000, 0.000, 0.000, 11:53:39.112
77, -42722.03, -37128.91, -100555.84, -94712.70, -66361.55, -61594.66, -81261.69, -81297.47, 0.000, 0.000, 0.000, 11:53:39.112
78, -42739.02, -37150.21, -100483.07, -94675.21, -66299.02, -61573.67, -81246.15, -81245.41, 0.000, 0.000, 0.000, 11:53:39.112
79, -42833.41, -37247.28, -100519.34, -94417.43, -66283.65, -61643.89, -81322.51, -81247.88, 0.000, 0.000, 0.000, 11:53:39.112
80, -42815.03, -37233.60, -100584.50, -94442.82, -66346.81, -61725.03, -81330.20, -81294.45, 0.000, 0.000, 0.000, 11:53:39.112
81, -42732.11, -37155.21, -100560.02, -94675.77, -66365.44, -61735.09, -81263.07, -81298.21, 0.000, 0.000, 0.000, 11:53:39.112
82, -42732.45, -37162.10, -100485.52, -94708.85, -66312.75, -61710.50, -81236.61, -81253.82, 0.000, 0.000, 0.000, 11:53:39.112
83, -42826.97, -37260.76, -100495.36, -94444.12, -66271.83, -61747.03, -81303.66, -81235.71, 0.000, 0.000, 0.000, 11:53:39.113
84, -42835.35, -37271.58, -100569.66, -94405.85, -66329.89, -61816.86, -81339.47, -81286.19, 0.000, 0.000, 0.000, 11:53:39.113
85, -42760.72, -37198.87, -100577.28, -94622.35, -66371.34, -61838.54, -81300.40, -81314.08, 0.000, 0.000, 0.000, 11:53:39.113
86, -42745.54, -37181.54, -100510.88, -94719.88, -66335.39, -61806.62, -81254.84, -81275.86, 0.000, 0.000, 0.000, 11:53:39.113
87, -42837.99, -37275.80, -100488.88, -94473.24, -66279.42, -61816.30, -81303.33, -81240.63, 0.000, 0.000, 0.000, 11:53:39.113
88, -42854.84, -37297.80, -100560.95, -94378.02, -66323.79, -61878.46, -81345.57, -81284.06, 0.000, 0.000, 0.000, 11:53:39.113
89, -42772.70, -37224.41, -100568.14, -94577.70, -66359.71, -61885.30, -81295.51, -81306.26, 0.000, 0.000, 0.000, 11:53:39.113
90, -42722.86, -37178.95, -100504.30, -94730.91, -66328.22, -61847.54, -81239.49, -81272.30, 0.000, 0.000, 0.000, 11:53:39.113
91, -42794.00, -37252.91, -100455.40, -94528.19, -66257.07, -61838.00, -81271.14, -81227.89, 0.000, 0.000, 0.000, 11:53:39.113
92, -42853.90, -37315.66, -100535.33, -94373.51, -66294.06, -61910.17, -81337.46, -81265.77, 0.000, 0.000, 0.000, 11:53:39.113
93, -42806.00, -37263.44, -100568.79, -94531.91, -66345.92, -61936.79, -81307.46, -81300.91, 0.000, 0.000, 0.000, 11:53:39.114
94, -42758.24, -37216.30, -100528.45, -94728.68, -66333.70, -61913.26, -81249.80, -81283.50, 0.000, 0.000, 0.000, 11:53:39.114
95, -42818.21, -37280.45, -100472.09, -94588.42, -66267.35, -61893.81, -81271.14, -81234.30, 0.000, 0.000, 0.000, 11:53:39.114
96, -42896.50, -37365.99, -100540.31, -94377.42, -66284.23, -61952.80, -81347.98, -81259.34, 0.000, 0.000, 0.000, 11:53:39.114
97, -42851.51, -37326.07, -100587.83, -94496.18, -66349.19, -61989.48, -81330.75, -81304.18, 0.000, 0.000, 0.000, 11:53:39.114
98, -42780.41, -37257.72, -100548.89, -94722.94, -66352.63, -61969.07, -81264.84, -81298.68, 0.000, 0.000, 0.000, 11:53:39.114
99, -42815.26, -37296.01, -100483.49, -94639.38, -66285.51, -61944.35, -81264.84, -81250.47, 0.000, 0.000, 0.000, 11:53:39.114
100, -42896.55, -37377.95, -100527.05, -94400.45, -66279.89, -61987.46, -81336.77, -81255.56, 0.000, 0.000, 0.000, 11:53:39.114
101, -42869.35, -37352.25, -100577.05, -94465.42, -66333.36, -62024.73, -81329.30, -81296.73, 0.000, 0.000, 0.000, 11:53:39.114
102, -42781.86, -37273.70, -100544.45, -94692.88, -66341.63, -62000.16, -81258.11, -81293.49, 0.000, 0.000, 0.000, 11:53:39.114
103, -42791.88, -37286.75, -100472.36, -94682.97, -66284.41, -61967.24, -81242.46, -81248.27, 0.000, 0.000, 0.000, 11:53:39.114
104, -42890.34, -37386.24, -100500.21, -94412.47, -66256.73, -62004.79, -81321.63, -81247.31, 0.000, 0.000, 0.000, 11:53:39.115
105, -42890.34, -37390.76, -100577.05, -94409.56, -66321.11, -62053.49, -81345.51, -81295.80, 0.000, 0.000, 0.000, 11:53:39.115
106, -42802.36, -37309.46, -100565.77, -94643.43, -66350.26, -62035.95, -81286.85, -81301.47, 0.000, 0.000, 0.000, 11:53:39.115
107, -42783.18, -37297.21, -100485.37, -94705.16, -66297.48, -61990.21, -81242.84, -81252.08, 0.000, 0.000, 0.000, 11:53:39.115
108, -42887.05, -37401.13, -100491.88, -94447.83, -66254.39, -62013.48, -81312.11, -81236.66, 0.000, 0.000, 0.000, 11:53:39.115
109, -42904.82, -37415.86, -100565.37, -94395.75, -66307.25, -62063.17, -81339.13, -81277.09, 0.000, 0.000, 0.000, 11:53:39.115
110, -42842.53, -37357.27, -100570.27, -94594.95, -66340.69, -62072.89, -81291.30, -81298.57, 0.000, 0.000, 0.000, 11:53:39.115
111, -42810.29, -37331.26, -100511.25, -94711.29, -66311.34, -62036.01, -81248.19, -81266.63, 0.000, 0.000, 0.000, 11:53:39.115
112, -42903.75, -37430.70, -100491.14, -94476.66, -66253.48, -62034.70, -81298.61, -81229.23, 0.000, 0.000, 0.000, 11:53:39.115
113, -42938.88, -37471.00, -100568.12, -94368.30, -66295.74, -62082.77, -81341.86, -81267.70, 0.000, 0.000, 0.000, 11:53:39.115
114, -42877.77, -37416.24, -100590.98, -94555.01, -66345.92, -62108.10, -81306.62, -81305.45, 0.000, 0.000, 0.000, 11:53:39.116
115, -42824.22, -37367.82, -100535.22, -94730.83, -66327.16, -62086.48, -81250.17, -81281.24, 0.000, 0.000, 0.000, 11:53:39.116
116, -42886.04, -37433.79, -100488.66, -94552.68, -66257.70, -62077.54, -81273.16, -81235.24, 0.000, 0.000, 0.000, 11:53:39.116
117, -42938.82, -37492.01, -100551.33, -94384.95, -66276.54, -62137.67, -81329.66, -81258.78, 0.000, 0.000, 0.000, 11:53:39.116
118, -42891.90, -37448.91, -100593.42, -94528.85, -66332.42, -62173.39, -81312.94, -81301.77, 0.000, 0.000, 0.000, 11:53:39.116
119, -42824.20, -37384.39, -100543.75, -94739.95, -66325.13, -62142.00, -81245.52, -81283.66, 0.000, 0.000, 0.000, 11:53:39.116
120, -42873.57, -37438.97, -100481.46, -94610.08, -66257.50, -62122.02, -81257.13, -81231.47, 0.000, 0.000, 0.000, 11:53:39.116
121, -42944.67, -37512.82, -100540.94, -94393.23, -66264.36, -62168.78, -81330.71, -81251.47, 0.000, 0.000, 0.000, 11:53:39.116
122, -42912.26, -37484.59, -100590.31, -94487.39, -66319.48, -62196.88, -81328.36, -81298.09, 0.000, 0.000, 0.000, 11:53:39.116
123, -42842.53, -37423.37, -100561.99, -94712.74, -66334.52, -62173.12, -81273.53, -81299.59, 0.000, 0.000, 0.000, 11:53:39.117
124, -42867.79, -37451.96, -100492.08, -94656.77, -66269.91, -62120.77, -81258.02, -81246.35, 0.000, 0.000, 0.000, 11:53:39.117
125, -42958.64, -37547.38, -100531.39, -94407.08, -66253.56, -62143.26, -81325.79, -81243.54, 0.000, 0.000, 0.000, 11:53:39.117
126, -42939.13, -37532.18, -100592.81, -94455.66, -66315.90, -62184.50, -81334.02, -81292.15, 0.000, 0.000, 0.000, 11:53:39.117
127, -42860.68, -37456.52, -100571.60, -94688.34, -66334.55, -62162.41, -81273.38, -81299.88, 0.000, 0.000, 0.000, 11:53:39.117
128, -42858.93, -37465.23, -100497.38, -94698.05, -66276.07, -62115.47, -81239.58, -81249.35, 0.000, 0.000, 0.000, 11:53:39.117
129, -42957.19, -37562.71, -100509.78, -94435.16, -66240.66, -62140.02, -81304.98, -81236.23, 0.000, 0.000, 0.000, 11:53:39.118
130, -42965.44, -37573.53, -100584.05, -94418.68, -66303.25, -62202.42, -81333.62, -81286.52, 0.000, 0.000, 0.000, 11:53:39.118
131, -42878.16, -37494.67, -100573.39, -94648.59, -66330.61, -62198.29, -81273.11, -81301.49, 0.000, 0.000, 0.000, 11:53:39.118
132, -42859.96, -37479.14, -100502.70, -94721.66, -66284.70, -62157.90, -81239.06, -81258.47, 0.000, 0.000, 0.000, 11:53:39.118
133, -42954.71, -37576.61, -100497.93, -94470.36, -66240.27, -62170.73, -81303.59, -81234.66, 0.000, 0.000, 0.000, 11:53:39.118
134, -42974.29, -37600.64, -100576.41, -94398.19, -66292.79, -62225.46, -81343.63, -81281.83, 0.000, 0.000, 0.000, 11:53:39.118
135, -42895.14, -37528.89, -100584.59, -94602.91, -66330.63, -62222.25, -81293.23, -81304.65, 0.000, 0.000, 0.000, 11:53:39.118
136, -42852.88, -37485.02, -100518.41, -94745.35, -66302.36, -62170.32, -81242.13, -81270.29, 0.000, 0.000, 0.000, 11:53:39.118
137, -42940.72, -37574.85, -100490.35, -94525.13, -66239.68, -62171.82, -81287.34, -81233.30, 0.000, 0.000, 0.000, 11:53:39.119
138, -42983.97, -37620.46, -100565.21, -94394.30, -66278.30, -62230.18, -81337.52, -81272.37, 0.000, 0.000, 0.000, 11:53:39.119
139, -42928.91, -37570.15, -100596.84, -94568.64, -66329.89, -62252.55, -81310.63, -81308.06, 0.000, 0.000, 0.000, 11:53:39.119
140, -42869.57, -37515.70, -100543.82, -94751.14, -66309.06, -62214.80, -81250.27, -81279.92, 0.000, 0.000, 0.000, 11:53:39.119
141, -42939.06, -37590.80, -100494.24, -94578.99, -66237.09, -62209.13, -81276.28, -81233.21, 0.000, 0.000, 0.000, 11:53:39.119
142, -43004.35, -37660.90, -100566.13, -94390.97, -66258.93, -62284.68, -81342.17, -81261.46, 0.000, 0.000, 0.000, 11:53:39.119
143, -42952.86, -37613.20, -100606.52, -94524.38, -66317.42, -62329.00, -81322.30, -81304.42, 0.000, 0.000, 0.000, 11:53:39.119
144, -42876.61, -37540.20, -100556.45, -94742.90, -66316.02, -62308.14, -81255.30, -81286.95, 0.000, 0.000, 0.000, 11:53:39.119
145, -42919.75, -37586.40, -100488.79, -94634.84, -66246.74, -62291.70, -81261.69, -81233.10, 0.000, 0.000, 0.000, 11:53:39.120
146, -43001.89, -37668.25, -100541.32, -94401.52, -66246.14, -62337.85, -81328.27, -81244.81, 0.000, 0.000, 0.000, 11:53:39.120
147, -42985.69, -37657.57, -100602.31, -94471.43, -66310.27, -62380.90, -81336.23, -81297.88, 0.000, 0.000, 0.000, 11:53:39.120
148, -42915.13, -37593.15, -100584.77, -94702.69, -66329.41, -62359.93, -81281.63, -81304.78, 0.000, 0.000, 0.000, 11:53:39.120
149, -42924.87, -37609.02, -100508.91, -94678.97, -66267.02, -62314.25, -81263.20, -81252.57, 0.000, 0.000, 0.000, 11:53:39.120
150, -43014.14, -37697.13, -100536.22, -94425.05, -66245.90, -62336.35, -81329.44, -81245.39, 0.000, 0.000, 0.000, 11:53:39.120
151, -43001.31, -37687.86, -100602.00, -94448.79, -66306.27, -62375.09, -81342.71, -81299.70, 0.000, 0.000, 0.000, 11:53:39.120
152, -42923.68, -37612.71, -100589.69, -94680.13, -66331.39, -62364.16, -81289.91, -81316.56, 0.000, 0.000, 0.000, 11:53:39.120
153, -42903.10, -37592.62, -100510.92, -94728.52, -66276.98, -62312.39, -81248.95, -81262.70, 0.000, 0.000, 0.000, 11:53:39.120
154, -43004.26, -37693.38, -100510.36, -94463.34, -66230.16, -62326.54, -81311.98, -81236.38, 0.000, 0.000, 0.000, 11:53:39.120
155, -43025.25, -37714.12, -100594.76, -94420.59, -66292.45, -62389.13, -81351.18, -81292.64, 0.000, 0.000, 0.000, 11:53:39.121
156, -42944.11, -37639.80, -100594.60, -94641.40, -66328.40, -62386.89, -81295.02, -81314.34, 0.000, 0.000, 0.000, 11:53:39.121
157, -42916.93, -37617.34, -100527.73, -94742.70, -66292.73, -62345.81, -81258.58, -81277.40, 0.000, 0.000, 0.000, 11:53:39.121
158, -43005.96, -37705.78, -100511.19, -94506.62, -66234.54, -62337.40, -81307.06, -81241.95, 0.000, 0.000, 0.000, 11:53:39.121
159, -43043.29, -37746.04, -100591.66, -94409.34, -66284.30, -62390.24, -81361.11, -81286.50, 0.000, 0.000, 0.000, 11:53:39.121
160, -42979.09, -37687.54, -100615.93, -94601.43, -66331.39, -62407.84, -81326.46, -81322.93, 0.000, 0.000, 0.000, 11:53:39.121
161, -42922.21, -37636.80, -100553.48, -94759.95, -66302.58, -62361.75, -81262.65, -81287.77, 0.000, 0.000, 0.000, 11:53:39.121
162, -42995.16, -37716.91, -100510.80, -94555.37, -66234.63, -62340.60, -81294.21, -81244.56, 0.000, 0.000, 0.000, 11:53:39.121
163, -43044.79, -37765.89, -100583.77, -94406.19, -66268.72, -62376.61, -81351.65, -81282.18, 0.000, 0.000, 0.000, 11:53:39.121
164, -42989.87, -37710.50, -100614.32, -94567.59, -66325.71, -62389.06, -81325.41, -81317.09, 0.000, 0.000, 0.000, 11:53:39.121
165, -42920.91, -37644.52, -100560.88, -94767.84, -66318.74, -62346.28, -81258.91, -81290.74, 0.000, 0.000, 0.000, 11:53:39.121
166, -42981.42, -37708.38, -100492.55, -94614.82, -66243.57, -62319.72, -81275.95, -81236.41, 0.000, 0.000, 0.000, 11:53:39.122
167, -43055.96, -37779.12, -100556.83, -94408.80, -66264.16, -62380.32, -81349.28, -81262.83, 0.000, 0.000, 0.000, 11:53:39.122
168, -43016.15, -37735.80, -100610.54, -94520.54, -66326.59, -62422.56, -81342.17, -81315.76, 0.000, 0.000, 0.000, 11:53:39.122
169, -42933.92, -37655.89, -100568.12, -94746.07, -66323.08, -62386.55, -81270.54, -81300.27, 0.000, 0.000, 0.000, 11:53:39.122
170, -42966.13, -37691.12, -100495.38, -94662.41, -66254.46, -62349.23, -81268.93, -81244.05, 0.000, 0.000, 0.000, 11:53:39.122
