%OpenBCI Raw EEG Data
%
%Sample Rate = 250.0 Hz
%First Column = SampleIndex
%Last Column = Timestamp 
%Other Columns = EEG data in microvolts followed by Accel Data (in G) interleaved with Aux Data
0, -176017.98, -176638.03, -176888.06, -176970.48, -177220.36, -177685.05, -176955.16, -181275.28, 0, 1, 1, 0, 1, 18:15:35.739
1, -176032.39, -176659.73, -176888.66, -176983.98, -177190.97, -177848.67, -176935.84, -181326.48, 0, 1, 1, 0, 1, 18:15:35.740
2, -176053.23, -176674.42, -176940.45, -177004.16, -177257.91, -177838.72, -176982.38, -181331.19, 0, 1, 1, 0, 1, 18:15:35.741
3, -176083.97, -176688.91, -177022.95, -177034.33, -177385.41, -177721.73, -177054.59, -181309.80, 0, 1, 1, 0, 1, 18:15:35.741
4, -176119.80, -176713.48, -177062.52, -177063.30, -177460.55, -177759.81, -177038.94, -181329.95, 0, 1, 1, 0, 1, 18:15:35.741
5, -176151.13, -176737.16, -177065.69, -177084.06, -177496.97, -177929.36, -176950.59, -181383.86, 0, 1, 1, 0, 1, 18:15:35.742
6, -176181.89, -176752.50, -177109.77, -177107.53, -177599.63, -177972.11, -176903.66, -181408.73, 0, 1, 1, 0, 1, 18:15:35.742
7, -176223.52, -176766.28, -177198.67, -177138.08, -177756.08, -177867.70, -176905.77, -181396.73, 0, 1, 1, 0, 1, 18:15:35.742
8, -176262.13, -176783.89, -177250.95, -177165.13, -177843.69, -177881.92, -176989.88, -181409.25, 0, 1, 1, 0, 1, 18:15:35.743
9, -176294.03, -176801.52, -177256.50, -177176.59, -177845.41, -178045.78, -177047.95, -181448.42, 0, 1, 1, 0, 1, 18:15:35.744
10, -176326.17, -176812.94, -177294.80, -177190.70, -177883.42, -178118.86, -176953.88, -181473.52, 0, 1, 1, 0, 1, 18:15:35.744
11, -176379.89, -176830.86, -177395.08, -177218.17, -177973.77, -178011.67, -176923.64, -181457.98, 0, 1, 1, 0, 1, 18:15:35.745
12, -176436.17, -176859.83, -177474.56, -177247.58, -178002.38, -177982.52, -176938.27, -181467.75, 0, 1, 1, 0, 1, 18:15:35.745
13, -176491.42, -176897.52, -177503.41, -177262.77, -177920.38, -178122.91, -176948.67, -181513.03, 0, 1, 1, 0, 1, 18:15:35.745
14, -176538.70, -176928.30, -177546.97, -177275.02, -177847.64, -178223.80, -176937.36, -181561.78, 0, 1, 1, 0, 1, 18:15:35.745
15, -176603.39, -176956.94, -177652.27, -177293.31, -177832.70, -178131.44, -176996.11, -181568.47, 0, 1, 1, 0, 1, 18:15:35.746
16, -176667.33, -176990.42, -177745.95, -177316.72, -177782.75, -178077.50, -177062.67, -181591.75, 0, 1, 1, 0, 1, 18:15:35.746
17, -176738.13, -177036.19, -177789.03, -177329.44, -177634.09, -178211.70, -177044.05, -181653.72, 0, 1, 1, 0, 1, 18:15:35.746
18, -176797.70, -177078.27, -177831.72, -177338.56, -177487.64, -178363.20, -177038.34, -181732.55, 0, 1, 1, 0, 1, 18:15:35.747
19, -176865.86, -177118.02, -177934.05, -177356.48, -177414.53, -178320.73, -177107.14, -181771.89, 0, 1, 1, 0, 1, 18:15:35.747
20, -176930.08, -177161.70, -178038.30, -177385.61, -177342.88, -178264.67, -177199.73, -181816.19, 0, 1, 1, 0, 1, 18:15:35.747
21, -176990.25, -177212.05, -178082.64, -177406.22, -177240.98, -178386.27, -177224.31, -181888.28, 0, 1, 1, 0, 1, 18:15:35.747
22, -177028.20, -177249.59, -178099.77, -177415.25, -177197.30, -178559.50, -177240.63, -181982.06, 0, 1, 1, 0, 1, 18:15:35.748
23, -177063.92, -177272.23, -178160.86, -177427.56, -177206.13, -178548.09, -177332.28, -182036.89, 0, 1, 1, 0, 1, 18:15:35.748
24, -177095.19, -177287.86, -178229.88, -177446.17, -177244.34, -178460.72, -177449.47, -182072.30, 0, 1, 1, 0, 1, 18:15:35.748
25, -177121.00, -177308.63, -178241.03, -177460.81, -177215.28, -178532.08, -177493.00, -182131.94, 0, 1, 1, 0, 1, 18:15:35.748
26, -177130.19, -177319.95, -178216.13, -177467.02, -177160.34, -178700.56, -177508.63, -182210.45, 0, 1, 1, 0, 1, 18:15:35.749
27, -177135.42, -177313.31, -178232.36, -177476.53, -177187.09, -178712.50, -177588.92, -182254.23, 0, 1, 1, 0, 1, 18:15:35.749
28, -177144.59, -177301.70, -178279.39, -177497.08, -177210.84, -178607.44, -177713.94, -182270.28, 0, 1, 1, 0, 1, 18:15:35.749
29, -177147.27, -177291.39, -178276.08, -177513.88, -177235.95, -178637.38, -177770.33, -182303.70, 0, 1, 1, 0, 1, 18:15:35.750
30, -177135.59, -177278.70, -178226.03, -177517.14, -177224.66, -178793.44, -177759.06, -182345.91, 0, 1, 1, 0, 1, 18:15:35.751
31, -177116.92, -177259.77, -178210.92, -177526.11, -177244.20, -178833.58, -177795.09, -182356.28, 0, 1, 1, 0, 1, 18:15:35.751
32, -177102.13, -177241.89, -178240.11, -177543.19, -177372.69, -178715.17, -177873.44, -182316.56, 0, 1, 1, 0, 1, 18:15:35.752
33, -177079.88, -177232.88, -178233.92, -177558.92, -177490.64, -178704.30, -177898.75, -182289.28, 0, 1, 1, 0, 1, 18:15:35.752
34, -177050.13, -177233.13, -178180.50, -177563.97, -177574.56, -178851.33, -177847.66, -182284.70, 0, 1, 1, 0, 1, 18:15:35.752
35, -177008.55, -177226.42, -178147.38, -177568.38, -177741.95, -178921.06, -177835.41, -182264.25, 0, 1, 1, 0, 1, 18:15:35.752
36, -176974.78, -177220.81, -178168.98, -177579.66, -178015.02, -178800.25, -177880.63, -182196.58, 0, 1, 1, 0, 1, 18:15:35.753
37, -176932.17, -177220.36, -178166.28, -177592.34, -178284.91, -178737.64, -177890.27, -182145.20, 0, 1, 1, 0, 1, 18:15:35.753
38, -176886.69, -177227.95, -178108.44, -177592.89, -178493.33, -178843.81, -177815.86, -182120.53, 0, 1, 1, 0, 1, 18:15:35.753
39, -176827.39, -177226.84, -178055.64, -177589.31, -178738.88, -178923.20, -177771.44, -182099.41, 0, 1, 1, 0, 1, 18:15:35.753
40, -176779.61, -177220.41, -178060.09, -177591.36, -179056.16, -178802.81, -177802.73, -182039.84, 0, 1, 1, 0, 1, 18:15:35.753
41, -176729.20, -177214.73, -178056.61, -177596.16, -179346.69, -178700.63, -177839.28, -181998.30, 0, 1, 1, 0, 1, 18:15:35.754
42, -176681.06, -177215.28, -177997.48, -177588.16, -179522.97, -178778.52, -177802.41, -181997.06, 0, 1, 1, 0, 1, 18:15:35.754
43, -176623.97, -177206.66, -177929.11, -177572.88, -179669.39, -178882.88, -177779.67, -182016.70, 0, 1, 1, 0, 1, 18:15:35.754
44, -176581.50, -177189.89, -177920.14, -177562.05, -179855.30, -178796.77, -177833.98, -182000.13, 0, 1, 1, 0, 1, 18:15:35.754
45, -176539.81, -177168.84, -177920.03, -177558.55, -180006.58, -178680.91, -177907.19, -181991.56, 0, 1, 1, 0, 1, 18:15:35.755
46, -176500.13, -177154.64, -177865.61, -177545.95, -180035.70, -178743.98, -177909.75, -182023.59, 0, 1, 1, 0, 1, 18:15:35.755
47, -176449.06, -177135.20, -177791.38, -177527.09, -180017.77, -178880.67, -177907.41, -182078.69, 0, 1, 1, 0, 1, 18:15:35.755
48, -176404.98, -177106.44, -177770.17, -177514.52, -180050.25, -178838.56, -177980.52, -182096.44, 0, 1, 1, 0, 1, 18:15:35.755
49, -176369.05, -177077.48, -177776.41, -177512.23, -180092.06, -178710.14, -178077.69, -182108.42, 0, 1, 1, 0, 1, 18:15:35.755
50, -176334.27, -177055.00, -177737.47, -177505.72, -180034.56, -178740.88, -178088.28, -182163.22, 0, 1, 1, 0, 1, 18:15:35.756
51, -176294.73, -177034.30, -177669.25, -177493.97, -179916.98, -178886.53, -178049.20, -182244.77, 0, 1, 1, 0, 1, 18:15:35.756
52, -176259.34, -177012.06, -177651.53, -177488.89, -179853.00, -178888.20, -178066.66, -182291.59, 0, 1, 1, 0, 1, 18:15:35.756
53, -176232.86, -176995.17, -177676.67, -177493.94, -179821.64, -178758.27, -178124.95, -182305.89, 0, 1, 1, 0, 1, 18:15:35.757
54, -176204.50, -176992.78, -177665.42, -177498.28, -179716.89, -178761.64, -178126.88, -182351.36, 0, 1, 1, 0, 1, 18:15:35.757
55, -176172.80, -177001.53, -177615.47, -177494.61, -179548.00, -178910.94, -178077.77, -182424.34, 0, 1, 1, 0, 1, 18:15:35.758
56, -176137.27, -177007.89, -177599.83, -177493.30, -179440.42, -178951.61, -178087.72, -182471.05, 0, 1, 1, 0, 1, 18:15:35.758
57, -176120.88, -177018.08, -177636.45, -177504.19, -179410.39, -178814.75, -178160.03, -182469.06, 0, 1, 1, 0, 1, 18:15:35.758
58, -176111.52, -177032.53, -177644.03, -177516.36, -179354.22, -178767.92, -178196.34, -182490.20, 0, 1, 1, 0, 1, 18:15:35.758
59, -176108.41, -177051.64, -177602.69, -177519.31, -179246.09, -178885.67, -178167.73, -182544.44, 0, 1, 1, 0, 1, 18:15:35.758
60, -176102.92, -177060.20, -177578.41, -177522.88, -179203.08, -178943.95, -178184.03, -182585.30, 0, 1, 1, 0, 1, 18:15:35.759
61, -176104.94, -177063.27, -177609.22, -177532.64, -179255.67, -178803.94, -178263.63, -182568.80, 0, 1, 1, 0, 1, 18:15:35.759
62, -176108.42, -177066.06, -177621.28, -177545.20, -179297.75, -178715.06, -178315.48, -182565.89, 0, 1, 1, 0, 1, 18:15:35.759
63, -176110.89, -177071.25, -177578.33, -177547.64, -179266.92, -178810.97, -178270.33, -182602.38, 0, 1, 1, 0, 1, 18:15:35.759
64, -176120.61, -177062.53, -177537.58, -177545.31, -179263.13, -178899.42, -178227.13, -182642.27, 0, 1, 1, 0, 1, 18:15:35.766
65, -176114.91, -177044.94, -177558.77, -177550.00, -179346.86, -178785.25, -178240.27, -182620.39, 0, 1, 1, 0, 1, 18:15:35.766
66, -176109.95, -177025.08, -177579.11, -177559.72, -179433.41, -178673.02, -178248.41, -182591.89, 0, 1, 1, 0, 1, 18:15:35.767
67, -176114.11, -177011.44, -177547.81, -177559.77, -179436.53, -178743.41, -178175.92, -182592.05, 0, 1, 1, 0, 1, 18:15:35.767
68, -176121.84, -176991.14, -177506.97, -177553.56, -179438.22, -178853.05, -178107.13, -182599.34, 0, 1, 1, 0, 1, 18:15:35.767
69, -176117.53, -176964.39, -177524.05, -177550.42, -179524.22, -178758.03, -178111.81, -182543.42, 0, 1, 1, 0, 1, 18:15:35.768
70, -176126.63, -176941.05, -177553.42, -177555.14, -179637.08, -178601.52, -178135.44, -182467.50, 0, 1, 1, 0, 1, 18:15:35.768
71, -176121.44, -176926.55, -177532.39, -177552.91, -179674.52, -178612.45, -178065.14, -182433.97, 0, 1, 1, 0, 1, 18:15:35.768
72, -176127.03, -176910.11, -177486.80, -177543.83, -179686.50, -178706.70, -177948.80, -182428.05, 0, 1, 1, 0, 1, 18:15:35.769
73, -176125.44, -176889.27, -177493.92, -177539.31, -179770.33, -178630.70, -177878.78, -182379.92, 0, 1, 1, 0, 1, 18:15:35.769
74, -176116.56, -176870.59, -177536.45, -177544.08, -179881.83, -178453.27, -177834.56, -182310.23, 0, 1, 1, 0, 1, 18:15:35.769
75, -176121.70, -176864.91, -177538.27, -177545.06, -179903.00, -178433.67, -177728.53, -182277.33, 0, 1, 1, 0, 1, 18:15:35.769
76, -176127.63, -176865.64, -177511.36, -177538.58, -179858.27, -178542.58, -177595.75, -182277.27, 0, 1, 1, 0, 1, 18:15:35.770
77, -176134.13, -176863.25, -177530.38, -177534.00, -179863.94, -178510.66, -177546.31, -182241.08, 0, 1, 1, 0, 1, 18:15:35.770
78, -176148.70, -176865.75, -177596.66, -177537.95, -179915.47, -178326.72, -177557.06, -182168.91, 0, 1, 1, 0, 1, 18:15:35.771
79, -176169.88, -176881.78, -177630.06, -177542.42, -179901.34, -178262.31, -177524.80, -182138.56, 0, 1, 1, 0, 1, 18:15:35.771
80, -176184.20, -176908.31, -177621.91, -177537.27, -179815.22, -178351.27, -177435.66, -182151.59, 0, 1, 1, 0, 1, 18:15:35.771
81, -176195.02, -176933.72, -177644.38, -177534.30, -179770.47, -178349.45, -177400.81, -182160.39, 0, 1, 1, 0, 1, 18:15:35.771
82, -176218.05, -176960.56, -177719.97, -177539.20, -179777.56, -178162.50, -177440.02, -182129.36, 0, 1, 1, 0, 1, 18:15:35.772
83, -176235.94, -176992.97, -177769.63, -177546.47, -179724.97, -178059.02, -177460.16, -182132.83, 0, 1, 1, 0, 1, 18:15:35.772
84, -176252.97, -177031.83, -177769.20, -177544.53, -179568.56, -178133.88, -177411.73, -182186.53, 0, 1, 1, 0, 1, 18:15:35.772
85, -176258.83, -177055.69, -177779.28, -177540.17, -179413.52, -178165.59, -177398.25, -182240.73, 0, 1, 1, 0, 1, 18:15:35.772
86, -176277.86, -177066.41, -177842.67, -177541.27, -179302.38, -177997.75, -177445.73, -182247.09, 0, 1, 1, 0, 1, 18:15:35.773
87, -176293.28, -177070.33, -177888.03, -177545.42, -179145.67, -177872.38, -177476.13, -182278.73, 0, 1, 1, 0, 1, 18:15:35.773
88, -176308.23, -177073.39, -177873.05, -177536.59, -178883.95, -177937.81, -177429.53, -182345.92, 0, 1, 1, 0, 1, 18:15:35.773
89, -176312.03, -177063.00, -177851.02, -177522.73, -178632.44, -178016.27, -177406.30, -182415.08, 0, 1, 1, 0, 1, 18:15:35.774
90, -176325.39, -177039.75, -177883.38, -177511.61, -178466.00, -177888.08, -177467.53, -182418.64, 0, 1, 1, 0, 1, 18:15:35.774
91, -176334.38, -177014.55, -177913.11, -177504.72, -178316.64, -177738.81, -177547.97, -182408.95, 0, 1, 1, 0, 1, 18:15:35.774
92, -176341.88, -176999.08, -177887.36, -177490.17, -178107.70, -177767.59, -177561.25, -182428.16, 0, 1, 1, 0, 1, 18:15:35.775
93, -176330.36, -176977.98, -177843.13, -177467.77, -177917.64, -177847.02, -177576.36, -182445.53, 0, 1, 1, 0, 1, 18:15:35.775
94, -176319.50, -176947.94, -177851.06, -177448.48, -177836.11, -177732.70, -177656.84, -182401.27, 0, 1, 1, 0, 1, 18:15:35.775
95, -176303.47, -176916.33, -177874.81, -177438.41, -177811.11, -177545.58, -177754.91, -182336.31, 0, 1, 1, 0, 1, 18:15:35.775
96, -176281.19, -176892.84, -177846.50, -177425.22, -177739.69, -177532.05, -177764.42, -182291.23, 0, 1, 1, 0, 1, 18:15:35.776
97, -176247.70, -176868.55, -177790.42, -177406.39, -177674.70, -177624.48, -177718.41, -182269.97, 0, 1, 1, 0, 1, 18:15:35.776
98, -176211.02, -176834.39, -177779.48, -177392.42, -177725.63, -177559.39, -177714.56, -182202.63, 0, 1, 1, 0, 1, 18:15:35.776
99, -176179.14, -176797.11, -177797.86, -177387.75, -177860.94, -177378.52, -177725.63, -182096.95, 0, 1, 1, 0, 1, 18:15:35.777
100, -176152.50, -176770.28, -177772.83, -177379.09, -177968.55, -177346.09, -177652.86, -182028.39, 0, 1, 1, 0, 1, 18:15:35.777
101, -176151.34, -176786.69, -177706.00, -177358.81, -178051.64, -177452.59, -177515.45, -181994.09, 0, 1, 1, 0, 1, 18:15:35.777
102, -176153.95, -176791.58, -177673.05, -177335.50, -178211.91, -177421.64, -177429.45, -181929.73, 0, 1, 1, 0, 1, 18:15:35.778
103, -176162.41, -176813.92, -177680.72, -177313.16, -178435.94, -177151.52, -177400.94, -181817.67, 0, 1, 1, 0, 1, 18:15:35.778
104, -176167.86, -176809.47, -177641.09, -177277.98, -178599.97, -177130.42, -177335.58, -181715.52, 0, 1, 1, 0, 1, 18:15:35.778
105, -176160.48, -176796.17, -177560.16, -177232.58, -178693.16, -177413.66, -177228.67, -181650.44, 0, 1, 1, 0, 1, 18:15:35.779
106, -176158.11, -176786.22, -177513.41, -177196.00, -178831.63, -177615.63, -177197.34, -181585.66, 0, 1, 1, 0, 1, 18:15:35.779
107, -176152.27, -176793.39, -177530.44, -177173.72, -179030.63, -177431.42, -177250.41, -181485.67, 0, 1, 1, 0, 1, 18:15:35.779
108, -176151.64, -176792.22, -177522.17, -177150.69, -179175.02, -177220.47, -177281.89, -181413.92, 0, 1, 1, 0, 1, 18:15:35.779
109, -176148.75, -176789.81, -177452.19, -177105.31, -179206.00, -177332.50, -177224.94, -181371.77, 0, 1, 1, 0, 1, 18:15:35.780
110, -176152.97, -176797.02, -177392.31, -177099.08, -179241.61, -177607.80, -177180.69, -181341.02, 0, 1, 1, 0, 1, 18:15:35.780
111, -176141.38, -176782.31, -177401.77, -177131.33, -179330.59, -177507.92, -177186.88, -181286.64, 0, 1, 1, 0, 1, 18:15:35.780
112, -176137.58, -176783.30, -177403.20, -177142.86, -179373.95, -177384.00, -177170.67, -181257.27, 0, 1, 1, 0, 1, 18:15:35.781
113, -176126.00, -176762.75, -177358.05, -177153.94, -179307.36, -177456.38, -177084.64, -181273.30, 0, 1, 1, 0, 1, 18:15:35.781
114, -176142.73, -176796.61, -177304.98, -177220.20, -179219.64, -177555.17, -177055.97, -181303.17, 0, 1, 1, 0, 1, 18:15:35.781
115, -176132.91, -176780.55, -177309.86, -177159.11, -179181.38, -177452.73, -177038.95, -181294.14, 0, 1, 1, 0, 1, 18:15:35.781
116, -176133.47, -176765.56, -177332.23, -177115.78, -179126.69, -177322.38, -177049.30, -181299.28, 0, 1, 1, 0, 1, 18:15:35.784
117, -176127.67, -176745.72, -177307.08, -177149.17, -178964.47, -177371.64, -177048.59, -181341.64, 0, 1, 1, 0, 1, 18:15:35.784
118, -176125.33, -176751.38, -177262.92, -177153.73, -178768.73, -177488.63, -177042.00, -181393.59, 0, 1, 1, 0, 1, 18:15:35.784
119, -176127.45, -176762.75, -177273.56, -177155.55, -178639.00, -177413.20, -177093.06, -181395.67, 0, 1, 1, 0, 1, 18:15:35.785
120, -176127.81, -176764.00, -177303.47, -177147.94, -178533.03, -177176.66, -177206.44, -181376.28, 0, 1, 1, 0, 1, 18:15:36.217
121, -176127.84, -176758.19, -177276.31, -177200.47, -178349.55, -177244.50, -177254.48, -181384.67, 0, 1, 1, 0, 1, 18:15:36.218
122, -176123.78, -176751.67, -177223.44, -177160.08, -178148.94, -177624.34, -177266.41, -181422.48, 0, 1, 1, 0, 1, 18:15:36.218
123, -176134.69, -176756.50, -177227.67, -177114.23, -178048.11, -177710.52, -177330.20, -181446.05, 0, 1, 1, 0, 1, 18:15:36.218
124, -176147.14, -176750.02, -177275.72, -177061.50, -178014.00, -177578.61, -177407.91, -181455.52, 0, 1, 1, 0, 1, 18:15:36.218
125, -176162.16, -176751.16, -177285.36, -177084.73, -177933.52, -177593.80, -177392.31, -181508.70, 0, 1, 1, 0, 1, 18:15:36.219
126, -176173.31, -176748.27, -177255.05, -177083.86, -177809.63, -177762.88, -177303.63, -181602.70, 0, 1, 1, 0, 1, 18:15:36.219
127, -176177.98, -176751.69, -177254.77, -177080.91, -177758.48, -177826.38, -177271.75, -181667.00, 0, 1, 1, 0, 1, 18:15:36.219
128, -176189.88, -176763.47, -177299.89, -177083.19, -177782.66, -177712.72, -177301.30, -181678.38, 0, 1, 1, 0, 1, 18:15:36.220
129, -176201.30, -176762.73, -177315.91, -177066.41, -177775.88, -177694.13, -177307.80, -181716.06, 0, 1, 1, 0, 1, 18:15:36.220
130, -176215.67, -176757.56, -177285.02, -177059.81, -177711.66, -177839.81, -177257.28, -181778.94, 0, 1, 1, 0, 1, 18:15:36.220
131, -176218.95, -176774.47, -177268.70, -177091.25, -177703.78, -177920.61, -177254.22, -181818.50, 0, 1, 1, 0, 1, 18:15:36.220
132, -176230.63, -176777.27, -177305.66, -177085.94, -177779.53, -177804.41, -177318.44, -181797.73, 0, 1, 1, 0, 1, 18:15:36.220
133, -176237.89, -176772.44, -177325.34, -177066.31, -177838.11, -177740.22, -177362.63, -181791.98, 0, 1, 1, 0, 1, 18:15:36.221
134, -176249.36, -176769.02, -177295.94, -177068.33, -177818.00, -177859.39, -177324.73, -181819.50, 0, 1, 1, 0, 1, 18:15:36.221
135, -176246.88, -176790.31, -177267.80, -177094.52, -177822.58, -177971.27, -177296.84, -181844.73, 0, 1, 1, 0, 1, 18:15:36.221
136, -176252.55, -176801.42, -177293.20, -177103.08, -177901.00, -177881.41, -177310.80, -181817.33, 0, 1, 1, 0, 1, 18:15:36.221
137, -176258.00, -176791.27, -177318.55, -177074.41, -177968.61, -177804.05, -177301.27, -181804.30, 0, 1, 1, 0, 1, 18:15:36.221
138, -176271.48, -176771.98, -177296.94, -177079.19, -177944.91, -177915.00, -177190.70, -181835.88, 0, 1, 1, 0, 1, 18:15:36.221
139, -176274.81, -176782.05, -177263.77, -177080.06, -177912.33, -178070.78, -177076.61, -181880.70, 0, 1, 1, 0, 1, 18:15:36.222
140, -176285.13, -176788.19, -177287.97, -177082.63, -177949.19, -178034.25, -177045.38, -181875.38, 0, 1, 1, 0, 1, 18:15:36.222
141, -176293.39, -176788.02, -177324.61, -177078.36, -177986.28, -177943.58, -177057.06, -181863.08, 0, 1, 1, 0, 1, 18:15:36.222
142, -176306.22, -176776.08, -177312.84, -177081.33, -177929.77, -178019.59, -177072.64, -181886.36, 0, 1, 1, 0, 1, 18:15:36.222
143, -176305.72, -176783.11, -177277.58, -177087.81, -177842.05, -178171.50, -177055.31, -181923.09, 0, 1, 1, 0, 1, 18:15:36.222
144, -176307.30, -176790.72, -177292.53, -177083.41, -177823.13, -178145.44, -177070.27, -181917.75, 0, 1, 1, 0, 1, 18:15:36.222
145, -176311.09, -176787.25, -177335.06, -177070.58, -177831.61, -178019.23, -177153.94, -181898.31, 0, 1, 1, 0, 1, 18:15:36.223
146, -176315.30, -176769.48, -177334.58, -177073.95, -177758.45, -178047.94, -177170.16, -181920.17, 0, 1, 1, 0, 1, 18:15:36.223
147, -176312.59, -176775.83, -177303.00, -177072.59, -177627.77, -178206.56, -177137.05, -181974.08, 0, 1, 1, 0, 1, 18:15:36.223
148, -176304.91, -176787.20, -177311.05, -177073.52, -177544.97, -178238.97, -177156.03, -182002.98, 0, 1, 1, 0, 1, 18:15:36.223
149, -176300.47, -176794.27, -177356.91, -177079.61, -177498.73, -178129.11, -177205.45, -182009.13, 0, 1, 1, 0, 1, 18:15:36.223
150, -176293.39, -176780.64, -177366.70, -177084.69, -177397.77, -178145.05, -177184.55, -182050.13, 0, 1, 1, 0, 1, 18:15:36.223
151, -176280.92, -176782.75, -177330.00, -177081.31, -177331.14, -178310.72, -177085.63, -182112.33, 0, 1, 1, 0, 1, 18:15:36.224
152, -176251.02, -176796.91, -177312.83, -177124.58, -177323.58, -178372.50, -177038.13, -182144.09, 0, 1, 1, 0, 1, 18:15:36.224
153, -176231.16, -176795.16, -177348.59, -177106.36, -177311.06, -178251.17, -177044.45, -182127.02, 0, 1, 1, 0, 1, 18:15:36.224
154, -176210.16, -176776.09, -177361.17, -177087.88, -177329.34, -178209.38, -177067.97, -182128.20, 0, 1, 1, 0, 1, 18:15:36.224
155, -176188.16, -176776.56, -177321.45, -177149.53, -177325.19, -178321.25, -177093.73, -182142.53, 0, 1, 1, 0, 1, 18:15:36.224
156, -176161.64, -176772.78, -177296.52, -177127.88, -177317.13, -178381.75, -177045.22, -182142.28, 0, 1, 1, 0, 1, 18:15:36.225
157, -176153.42, -176779.06, -177334.98, -177101.22, -177324.08, -178242.23, -177095.53, -182094.89, 0, 1, 1, 0, 1, 18:15:36.225
158, -176147.14, -176768.27, -177366.14, -177094.42, -177354.17, -178136.38, -177131.52, -182062.91, 0, 1, 1, 0, 1, 18:15:36.225
159, -176146.97, -176766.47, -177347.72, -177130.58, -177321.28, -178210.55, -177078.52, -182063.69, 0, 1, 1, 0, 1, 18:15:36.225
160, -176147.30, -176779.52, -177322.80, -177159.09, -177313.77, -178287.55, -177062.73, -182065.06, 0, 1, 1, 0, 1, 18:15:36.225
161, -176148.84, -176785.16, -177352.41, -177144.98, -177400.63, -178163.61, -177059.45, -182018.81, 0, 1, 1, 0, 1, 18:15:36.225
162, -176143.94, -176778.72, -177385.36, -177119.28, -177505.66, -178026.98, -177072.77, -181982.47, 0, 1, 1, 0, 1, 18:15:36.226
163, -176153.56, -176786.05, -177361.78, -177195.58, -177526.89, -178063.64, -177152.61, -181980.95, 0, 1, 1, 0, 1, 18:15:36.226
164, -176161.56, -176792.39, -177315.41, -177186.72, -177533.59, -178147.80, -177124.30, -181992.02, 0, 1, 1, 0, 1, 18:15:36.226
165, -176157.48, -176791.92, -177326.22, -177170.66, -177619.11, -178046.13, -177066.25, -181963.13, 0, 1, 1, 0, 1, 18:15:36.226
166, -176161.06, -176803.56, -177353.53, -177149.89, -177720.39, -177877.61, -177087.97, -181920.78, 0, 1, 1, 0, 1, 18:15:36.226
167, -176151.81, -176783.11, -177331.67, -177169.16, -177724.77, -177874.70, -177071.47, -181906.67, 0, 1, 1, 0, 1, 18:15:36.226
168, -176167.44, -176797.42, -177276.59, -177194.70, -177676.45, -177970.53, -177041.20, -181912.27, 0, 1, 1, 0, 1, 18:15:36.227
169, -176168.94, -176805.11, -177266.53, -177175.80, -177683.11, -177909.84, -177080.27, -181892.72, 0, 1, 1, 0, 1, 18:15:36.227
170, -176159.36, -176798.09, -177289.58, -177127.95, -177722.16, -177740.22, -177164.55, -181854.91, 0, 1, 1, 0, 1, 18:15:36.227
171, -176157.48, -176788.59, -177269.31, -177164.22, -177689.91, -177717.13, -177172.30, -181852.31, 0, 1, 1, 0, 1, 18:15:36.227
172, -176161.84, -176790.53, -177208.11, -177175.44, -177599.89, -177830.83, -177108.38, -181885.34, 0, 1, 1, 0, 1, 18:15:36.227
173, -176153.98, -176792.92, -177177.78, -177156.88, -177562.56, -177825.48, -177090.23, -181896.33, 0, 1, 1, 0, 1, 18:15:36.228
174, -176163.02, -176808.59, -177191.22, -177142.33, -177578.70, -177662.72, -177128.03, -181865.63, 0, 1, 1, 0, 1, 18:15:36.228
175, -176160.59, -176792.97, -177171.67, -177151.00, -177542.89, -177611.63, -177131.95, -181850.66, 0, 1, 1, 0, 1, 18:15:36.228
176, -176168.70, -176796.08, -177105.97, -177170.25, -177439.58, -177718.95, -177072.09, -181861.19, 0, 1, 1, 0, 1, 18:15:36.228
177, -176162.56, -176787.14, -177064.86, -177155.70, -177385.61, -177749.41, -177062.02, -181861.34, 0, 1, 1, 0, 1, 18:15:36.228
178, -176164.95, -176793.23, -177079.30, -177135.59, -177418.34, -177589.61, -177112.67, -181813.94, 0, 1, 1, 0, 1, 18:15:36.228
179, -176160.48, -176775.89, -177073.42, -177128.09, -177444.06, -177497.52, -177127.75, -181781.91, 0, 1, 1, 0, 1, 18:15:36.229
180, -176163.08, -176772.25, -177020.28, -177161.19, -177411.31, -177578.72, -177066.80, -181781.75, 0, 1, 1, 0, 1, 18:15:36.229
181, -176169.27, -176789.70, -176972.92, -177167.77, -177424.92, -177631.52, -177037.64, -181778.59, 0, 1, 1, 0, 1, 18:15:36.229
182, -176161.89, -176786.02, -176985.39, -177123.28, -177540.30, -177478.23, -177086.30, -181731.03, 0, 1, 1, 0, 1, 18:15:36.229
183, -176158.98, -176777.23, -176991.75, -177102.44, -177666.09, -177345.69, -177137.28, -181687.69, 0, 1, 1, 0, 1, 18:15:36.229
184, -176157.20, -176774.52, -176945.56, -177142.38, -177714.00, -177394.34, -177099.91, -181676.14, 0, 1, 1, 0, 1, 18:15:36.229
185, -176164.63, -176782.44, -176893.17, -177152.67, -177767.39, -177472.53, -177059.98, -181682.28, 0, 1, 1, 0, 1, 18:15:36.230
186, -176158.20, -176784.66, -176899.34, -177136.03, -177898.78, -177309.20, -177078.47, -181645.30, 0, 1, 1, 0, 1, 18:15:36.230
187, -176159.72, -176796.61, -176902.27, -177145.81, -178028.06, -177126.91, -177103.53, -181592.14, 0, 1, 1, 0, 1, 18:15:36.230
188, -176160.75, -176804.17, -176845.63, -177208.00, -178057.81, -177333.61, -177082.03, -181559.77, 0, 1, 1, 0, 1, 18:15:36.230
189, -176162.50, -176802.98, -176773.17, -177174.00, -178063.31, -177687.63, -177061.03, -181557.88, 0, 1, 1, 0, 1, 18:15:36.230
190, -176150.14, -176777.70, -176768.16, -177129.48, -178146.58, -177681.44, -177074.78, -181538.05, 0, 1, 1, 0, 1, 18:15:36.230
191, -176153.88, -176787.03, -176788.45, -177097.09, -178249.50, -177531.36, -177147.94, -181503.11, 0, 1, 1, 0, 1, 18:15:36.231
192, -176160.27, -176791.67, -176758.75, -177083.55, -178258.67, -177545.80, -177150.89, -181497.44, 0, 1, 1, 0, 1, 18:15:36.231
193, -176158.77, -176786.28, -176698.63, -177106.20, -178210.77, -177681.83, -177119.53, -181525.44, 0, 1, 1, 0, 1, 18:15:36.231
194, -176158.47, -176785.16, -176682.53, -177106.20, -178211.91, -177676.45, -177150.16, -181531.41, 0, 1, 1, 0, 1, 18:15:36.231
195, -176161.33, -176798.81, -176704.22, -177087.80, -178246.14, -177548.64, -177222.02, -181512.72, 0, 1, 1, 0, 1, 18:15:36.231
196, -176155.52, -176787.31, -176690.58, -177094.45, -178208.89, -177564.94, -177235.38, -181528.14, 0, 1, 1, 0, 1, 18:15:36.231
197, -176164.63, -176798.09, -176637.50, -177094.27, -178108.66, -177733.47, -177182.36, -181585.77, 0, 1, 1, 0, 1, 18:15:36.231
198, -176172.63, -176803.72, -176623.08, -177096.98, -178065.70, -177797.34, -177171.78, -181623.77, 0, 1, 1, 0, 1, 18:15:36.232
199, -176169.20, -176787.00, -176652.33, -177112.44, -178092.80, -177693.80, -177208.16, -181621.08, 0, 1, 1, 0, 1, 18:15:36.232
200, -176167.86, -176786.56, -176653.23, -177131.02, -178077.28, -177687.84, -177208.69, -181642.25, 0, 1, 1, 0, 1, 18:15:36.232
201, -176165.42, -176781.48, -176630.70, -177140.52, -177997.81, -177850.05, -177156.09, -181695.05, 0, 1, 1, 0, 1, 18:15:36.232
202, -176166.97, -176787.56, -176633.17, -177150.31, -177968.61, -177947.47, -177155.94, -181737.94, 0, 1, 1, 0, 1, 18:15:36.232
203, -176183.03, -176787.19, -176661.77, -177170.45, -178023.34, -177848.63, -177228.92, -181729.58, 0, 1, 1, 0, 1, 18:15:36.232
204, -176191.44, -176797.42, -176683.84, -177197.09, -178062.34, -177807.47, -177279.95, -181739.66, 0, 1, 1, 0, 1, 18:15:36.233
205, -176199.59, -176807.66, -176658.28, -177213.66, -178024.94, -177950.14, -177245.95, -181785.95, 0, 1, 1, 0, 1, 18:15:36.233
206, -176200.98, -176812.38, -176645.70, -177228.52, -178015.95, -178087.66, -177223.89, -181842.08, 0, 1, 1, 0, 1, 18:15:36.233
207, -176220.25, -176812.63, -176685.92, -177251.34, -178092.88, -178024.02, -177261.73, -181848.16, 0, 1, 1, 0, 1, 18:15:36.233
208, -176241.28, -176811.72, -176723.09, -177278.97, -178171.22, -177966.84, -177301.27, -181859.23, 0, 1, 1, 0, 1, 18:15:36.233
209, -176267.89, -176817.80, -176708.66, -177297.58, -178171.77, -178097.44, -177258.31, -181913.95, 0, 1, 1, 0, 1, 18:15:36.233
210, -176284.88, -176817.63, -176683.14, -177310.92, -178175.67, -178268.36, -177210.17, -181991.41, 0, 1, 1, 0, 1, 18:15:36.234
211, -176313.81, -176814.45, -176715.88, -177328.16, -178255.06, -178245.81, -177225.05, -182024.69, 0, 1, 1, 0, 1, 18:15:36.234
212, -176346.89, -176816.11, -176761.25, -177352.81, -178339.89, -178175.67, -177256.75, -182055.16, 0, 1, 1, 0, 1, 18:15:36.234
213, -176382.17, -176817.78, -176756.72, -177369.56, -178327.03, -178278.02, -177216.98, -182125.06, 0, 1, 1, 0, 1, 18:15:36.234
214, -176407.84, -176827.14, -176730.30, -177378.45, -178276.19, -178465.13, -177169.39, -182218.72, 0, 1, 1, 0, 1, 18:15:36.234
215, -176436.81, -176830.09, -176757.05, -177390.23, -178287.03, -178475.31, -177201.25, -182269.02, 0, 1, 1, 0, 1, 18:15:36.234
216, -176469.67, -176831.22, -176811.09, -177409.13, -178320.25, -178380.03, -177277.42, -182292.70, 0, 1, 1, 0, 1, 18:15:36.235
217, -176502.94, -176833.05, -176823.91, -177424.41, -178266.80, -178437.08, -177290.36, -182353.03, 0, 1, 1, 0, 1, 18:15:36.235
218, -176527.86, -176835.58, -176805.22, -177432.59, -178159.17, -178618.11, -177261.33, -182445.80, 0, 1, 1, 0, 1, 18:15:36.235
219, -176550.36, -176840.95, -176829.98, -177445.33, -178110.92, -178662.00, -177289.03, -182510.45, 0, 1, 1, 0, 1, 18:15:36.235
220, -176577.61, -176851.56, -176898.30, -177468.64, -178111.56, -178559.63, -177359.61, -182544.59, 0, 1, 1, 0, 1, 18:15:36.235
221, -176595.52, -176874.41, -176929.67, -177490.03, -178049.25, -178582.09, -177378.39, -182610.27, 0, 1, 1, 0, 1, 18:15:36.235
222, -176606.20, -176904.02, -176918.28, -177502.59, -177920.02, -178760.34, -177335.89, -182713.34, 0, 1, 1, 0, 1, 18:15:36.236
223, -176610.00, -176925.98, -176934.92, -177517.81, -177839.38, -178846.38, -177343.09, -182798.50, 0, 1, 1, 0, 1, 18:15:36.236
224, -176622.41, -176946.23, -177004.59, -177540.02, -177821.64, -178749.31, -177405.83, -182829.42, 0, 1, 1, 0, 1, 18:15:36.236
225, -176631.03, -176970.91, -177048.88, -177563.80, -177765.08, -178735.70, -177441.94, -182881.61, 0, 1, 1, 0, 1, 18:15:36.236
226, -176637.69, -176999.23, -177043.56, -177578.25, -177638.53, -178894.02, -177419.16, -182962.92, 0, 1, 1, 0, 1, 18:15:36.236
227, -176631.97, -177015.63, -177051.53, -177590.69, -177562.83, -179005.17, -177445.84, -183031.28, 0, 1, 1, 0, 1, 18:15:36.236
228, -176638.88, -177027.20, -177116.14, -177607.67, -177582.08, -178914.39, -177555.19, -183032.53, 0, 1, 1, 0, 1, 18:15:36.237
229, -176639.17, -177039.27, -177164.06, -177626.94, -177606.89, -178856.13, -177659.48, -183030.14, 0, 1, 1, 0, 1, 18:15:36.237
230, -176637.77, -177057.42, -177158.63, -177634.42, -177578.61, -178973.09, -177678.84, -183059.81, 0, 1, 1, 0, 1, 18:15:36.237
231, -176621.69, -177066.64, -177149.44, -177635.81, -177596.41, -179092.47, -177702.73, -183097.45, 0, 1, 1, 0, 1, 18:15:36.237
232, -176614.11, -177069.03, -177196.33, -177639.23, -177720.59, -179005.22, -177773.67, -183079.31, 0, 1, 1, 0, 1, 18:15:36.238
233, -176600.86, -177073.52, -177243.89, -177648.64, -177869.72, -178903.89, -177835.48, -183062.81, 0, 1, 1, 0, 1, 18:15:36.238
234, -176585.41, -177086.36, -177238.53, -177650.19, -177947.53, -178980.67, -177803.11, -183082.78, 0, 1, 1, 0, 1, 18:15:36.238
235, -176553.92, -177092.47, -177218.95, -177643.66, -178020.28, -179109.80, -177751.23, -183121.88, 0, 1, 1, 0, 1, 18:15:36.238
236, -176527.67, -177090.88, -177252.48, -177641.48, -178170.28, -179047.64, -177761.52, -183113.58, 0, 1, 1, 0, 1, 18:15:36.239
237, -176496.13, -177085.13, -177297.16, -177644.27, -178339.72, -178912.16, -177790.91, -183087.92, 0, 1, 1, 0, 1, 18:15:36.239
238, -176462.45, -177084.53, -177289.11, -177639.00, -178425.55, -178934.16, -177744.02, -183094.17, 0, 1, 1, 0, 1, 18:15:36.239
239, -176417.16, -177077.53, -177250.33, -177625.28, -178473.23, -179046.66, -177678.08, -183122.06, 0, 1, 1, 0, 1, 18:15:36.239
240, -176373.11, -177059.77, -177254.33, -177611.22, -178578.41, -178992.47, -177687.41, -183107.42, 0, 1, 1, 0, 1, 18:15:36.697
241, -176334.56, -177041.34, -177288.16, -177603.42, -178711.80, -178818.16, -177749.48, -183059.80, 0, 1, 1, 0, 1, 18:15:36.698
242, -176294.03, -177031.78, -177278.70, -177592.94, -178761.28, -178784.47, -177766.59, -183039.28, 0, 1, 1, 0, 1, 18:15:36.698
243, -176267.23, -177025.98, -177231.89, -177574.45, -178741.70, -178885.16, -177746.16, -183049.77, 0, 1, 1, 0, 1, 18:15:36.698
244, -176266.56, -177013.16, -177220.77, -177556.81, -178765.05, -178862.44, -177785.41, -183032.84, 0, 1, 1, 0, 1, 18:15:36.698
245, -176272.00, -176996.91, -177253.48, -177545.06, -178833.48, -178680.83, -177872.03, -182971.83, 0, 1, 1, 0, 1, 18:15:36.698
246, -176273.39, -176986.67, -177252.64, -177534.84, -178848.22, -178610.80, -177907.23, -182938.41, 0, 1, 1, 0, 1, 18:15:36.699
247, -176275.11, -176981.94, -177206.36, -177516.52, -178801.81, -178702.33, -177875.09, -182938.25, 0, 1, 1, 0, 1, 18:15:36.699
248, -176275.27, -176966.63, -177180.17, -177498.23, -178811.02, -178720.45, -177877.09, -182923.05, 0, 1, 1, 0, 1, 18:15:36.699
249, -176271.84, -176950.27, -177209.72, -177489.67, -178903.22, -178558.17, -177928.75, -182862.09, 0, 1, 1, 0, 1, 18:15:36.699
250, -176270.41, -176938.44, -177219.47, -177485.36, -178974.75, -178469.20, -177942.95, -182824.50, 0, 1, 1, 0, 1, 18:15:36.699
251, -176267.89, -176936.45, -177184.02, -177474.25, -178977.05, -178557.98, -177873.13, -182830.31, 0, 1, 1, 0, 1, 18:15:36.700
252, -176267.66, -176930.13, -177160.02, -177463.48, -179013.14, -178618.66, -177828.48, -182836.06, 0, 1, 1, 0, 1, 18:15:36.700
253, -176263.61, -176920.95, -177193.92, -177457.16, -179127.13, -178470.73, -177848.23, -182783.31, 0, 1, 1, 0, 1, 18:15:36.700
254, -176261.09, -176915.61, -177219.69, -177457.13, -179228.81, -178342.03, -177866.03, -182737.19, 0, 1, 1, 0, 1, 18:15:36.701
255, -176260.94, -176922.52, -177197.11, -177449.20, -179242.55, -178393.38, -177810.88, -182728.17, 0, 1, 1, 0, 1, 18:15:36.701
0, -176269.16, -176924.02, -177169.00, -177436.92, -179250.09, -178464.19, -177771.84, -182730.06, 0, 1, 1, 0, 1, 18:15:36.701
1, -176270.70, -176920.02, -177201.78, -177430.48, -179326.08, -178331.58, -177806.38, -182682.80, 0, 1, 1, 0, 1, 18:15:36.702
2, -176269.72, -176919.80, -177240.91, -177433.38, -179404.11, -178166.78, -177857.72, -182636.25, 0, 1, 1, 0, 1, 18:15:36.702
3, -176278.34, -176928.13, -177228.81, -177429.33, -179391.94, -178175.00, -177828.73, -182634.67, 0, 1, 1, 0, 1, 18:15:36.702
4, -176282.66, -176932.38, -177199.73, -177420.86, -179350.30, -178252.27, -177782.03, -182663.61, 0, 1, 1, 0, 1, 18:15:36.702
5, -176299.53, -176924.94, -177221.88, -177417.09, -179360.14, -178152.78, -177794.84, -182646.95, 0, 1, 1, 0, 1, 18:15:36.702
6, -176315.14, -176916.38, -177264.91, -177421.81, -179377.58, -177974.97, -177830.00, -182620.66, 0, 1, 1, 0, 1, 18:15:36.703
7, -176335.39, -176915.92, -177262.25, -177423.31, -179298.78, -177963.59, -177792.92, -182633.42, 0, 1, 1, 0, 1, 18:15:36.703
8, -176347.14, -176913.97, -177230.02, -177418.44, -179154.20, -178070.89, -177720.53, -182674.98, 0, 1, 1, 0, 1, 18:15:36.703
9, -176361.31, -176902.31, -177244.80, -177417.64, -179046.61, -178034.39, -177710.25, -182686.88, 0, 1, 1, 0, 1, 18:15:36.703
10, -176384.03, -176898.45, -177295.50, -177426.11, -178966.03, -177869.08, -177749.53, -182668.53, 0, 1, 1, 0, 1, 18:15:36.704
11, -176407.77, -176899.05, -177306.45, -177433.70, -178819.81, -177838.03, -177749.31, -182672.89, 0, 1, 1, 0, 1, 18:15:36.704
12, -176429.42, -176894.72, -177278.63, -177433.95, -178624.92, -177952.94, -177710.94, -182698.55, 0, 1, 1, 0, 1, 18:15:36.704
13, -176444.03, -176902.58, -177282.59, -177436.17, -178489.27, -177957.97, -177730.73, -182695.80, 0, 1, 1, 0, 1, 18:15:36.704
14, -176465.56, -176906.47, -177335.47, -177445.38, -178420.25, -177794.86, -177802.56, -182649.80, 0, 1, 1, 0, 1, 18:15:36.705
15, -176482.94, -176903.36, -177358.11, -177456.91, -178324.09, -177734.11, -177833.73, -182632.95, 0, 1, 1, 0, 1, 18:15:36.705
16, -176500.83, -176903.30, -177335.67, -177460.16, -178181.19, -177846.25, -177797.44, -182640.30, 0, 1, 1, 0, 1, 18:15:36.705
17, -176510.58, -176908.75, -177332.14, -177465.14, -178101.83, -177900.45, -177787.09, -182639.88, 0, 1, 1, 0, 1, 18:15:36.705
18, -176533.11, -176918.03, -177382.67, -177475.34, -178110.94, -177761.63, -177812.81, -182601.50, 0, 1, 1, 0, 1, 18:15:36.705
19, -176552.56, -176916.42, -177414.84, -177488.89, -178112.11, -177680.52, -177802.95, -182579.39, 0, 1, 1, 0, 1, 18:15:36.706
20, -176576.27, -176915.95, -177399.36, -177495.17, -178048.48, -177784.58, -177709.58, -182588.98, 0, 1, 1, 0, 1, 18:15:36.706
21, -176586.52, -176914.47, -177387.11, -177498.61, -178012.38, -177877.33, -177641.69, -182601.66, 0, 1, 1, 0, 1, 18:15:36.706
22, -176607.72, -176910.34, -177431.25, -177503.59, -178058.66, -177760.64, -177644.66, -182564.61, 0, 1, 1, 0, 1, 18:15:36.706
23, -176626.67, -176912.31, -177468.52, -177511.95, -178110.11, -177645.38, -177655.39, -182533.48, 0, 1, 1, 0, 1, 18:15:36.707
24, -176650.50, -176911.72, -177450.63, -177510.64, -178086.44, -177710.25, -177597.66, -182534.02, 0, 1, 1, 0, 1, 18:15:36.707
25, -176665.83, -176920.33, -177421.80, -177503.56, -178065.20, -177813.58, -177541.89, -182551.25, 0, 1, 1, 0, 1, 18:15:36.707
26, -176688.33, -176932.17, -177447.13, -177498.75, -178115.55, -177717.39, -177545.16, -182525.72, 0, 1, 1, 0, 1, 18:15:36.707
27, -176708.58, -176929.98, -177481.66, -177500.53, -178174.52, -177577.72, -177565.05, -182498.59, 0, 1, 1, 0, 1, 18:15:36.707
28, -176731.69, -176917.27, -177466.92, -177497.52, -178144.89, -177621.47, -177513.09, -182515.11, 0, 1, 1, 0, 1, 18:15:36.708
29, -176741.88, -176931.19, -177426.11, -177485.86, -178077.23, -177754.72, -177447.16, -182563.31, 0, 1, 1, 0, 1, 18:15:36.708
30, -176751.42, -176948.78, -177428.91, -177476.36, -178063.98, -177714.28, -177446.14, -182576.06, 0, 1, 1, 0, 1, 18:15:36.708
31, -176760.63, -176951.77, -177454.42, -177472.89, -178068.09, -177577.77, -177475.89, -182570.45, 0, 1, 1, 0, 1, 18:15:36.708
32, -176765.56, -176941.36, -177433.22, -177466.11, -177984.45, -177601.50, -177441.64, -182601.09, 0, 1, 1, 0, 1, 18:15:36.709
33, -176760.97, -176952.14, -177376.98, -177451.03, -177842.78, -177753.78, -177369.67, -182669.20, 0, 1, 1, 0, 1, 18:15:36.709
34, -176748.42, -176956.94, -177358.53, -177436.09, -177753.84, -177765.47, -177364.13, -182706.64, 0, 1, 1, 0, 1, 18:15:36.709
35, -176736.83, -176957.50, -177380.02, -177427.30, -177710.20, -177632.39, -177421.23, -182700.16, 0, 1, 1, 0, 1, 18:15:36.709
36, -176721.84, -176937.55, -177367.75, -177418.63, -177612.77, -177626.98, -177447.56, -182719.00, 0, 1, 1, 0, 1, 18:15:36.710
37, -176700.41, -176936.45, -177315.53, -177402.17, -177482.88, -177776.31, -177427.98, -182769.22, 0, 1, 1, 0, 1, 18:15:36.710
38, -176666.42, -176954.89, -177288.23, -177381.03, -177450.53, -177825.91, -177453.27, -182797.44, 0, 1, 1, 0, 1, 18:15:36.710
39, -176641.81, -176954.98, -177311.67, -177366.20, -177429.86, -177694.19, -177526.06, -182776.33, 0, 1, 1, 0, 1, 18:15:36.710
40, -176611.13, -176947.83, -177309.36, -177353.83, -177453.89, -177649.95, -177554.73, -182776.72, 0, 1, 1, 0, 1, 18:15:36.711
41, -176576.72, -176936.73, -177256.70, -177328.98, -177480.48, -177780.45, -177494.19, -182815.41, 0, 1, 1, 0, 1, 18:15:36.711
42, -176532.55, -176940.22, -177219.67, -177304.47, -177448.97, -177869.23, -177456.08, -182858.91, 0, 1, 1, 0, 1, 18:15:36.711
43, -176502.80, -176943.80, -177242.39, -177287.84, -177480.38, -177764.56, -177473.88, -182854.25, 0, 1, 1, 0, 1, 18:15:36.711
44, -176473.16, -176934.70, -177253.34, -177276.08, -177514.28, -177701.91, -177476.78, -182867.38, 0, 1, 1, 0, 1, 18:15:36.712
45, -176449.11, -176923.86, -177213.50, -177254.84, -177467.19, -177821.02, -177408.30, -182919.67, 0, 1, 1, 0, 1, 18:15:36.712
46, -176413.28, -176936.14, -177171.39, -177246.80, -177432.88, -177937.89, -177362.53, -182977.70, 0, 1, 1, 0, 1, 18:15:36.712
47, -176382.44, -176948.73, -177181.77, -177299.53, -177475.06, -177840.02, -177394.48, -182974.75, 0, 1, 1, 0, 1, 18:15:36.712
48, -176342.56, -176936.98, -177189.25, -177313.61, -177519.81, -177720.88, -177450.97, -182962.19, 0, 1, 1, 0, 1, 18:15:36.713
49, -176308.55, -176910.72, -177149.06, -177315.00, -177485.67, -177781.77, -177444.75, -182986.44, 0, 1, 1, 0, 1, 18:15:36.713
50, -176304.86, -176940.14, -177090.08, -177355.78, -177442.20, -177891.16, -177436.45, -183032.81, 0, 1, 1, 0, 1, 18:15:36.713
51, -176311.19, -176953.66, -177077.39, -177355.47, -177472.63, -177802.47, -177490.95, -183022.72, 0, 1, 1, 0, 1, 18:15:36.713
52, -176311.72, -176952.77, -177080.34, -177315.16, -177527.09, -177649.78, -177560.84, -182996.52, 0, 1, 1, 0, 1, 18:15:36.713
53, -176308.47, -176939.33, -177033.75, -177341.06, -177502.30, -177668.78, -177546.34, -183008.61, 0, 1, 1, 0, 1, 18:15:36.714
54, -176319.27, -176958.23, -176955.78, -177375.48, -177444.66, -177787.88, -177488.25, -183046.78, 0, 1, 1, 0, 1, 18:15:36.714
55, -176313.70, -176964.03, -176920.56, -177366.67, -177455.52, -177744.89, -177474.80, -183038.42, 0, 1, 1, 0, 1, 18:15:36.714
56, -176316.28, -176966.52, -176915.86, -177323.45, -177508.30, -177593.25, -177492.52, -182996.78, 0, 1, 1, 0, 1, 18:15:36.714
57, -176315.97, -176942.86, -176873.03, -177340.36, -177499.11, -177589.44, -177449.16, -182986.06, 0, 1, 1, 0, 1, 18:15:36.715
58, -176313.02, -176938.73, -176795.94, -177318.59, -177449.84, -177719.78, -177364.91, -183007.11, 0, 1, 1, 0, 1, 18:15:36.715
59, -176306.31, -176944.97, -176754.77, -177322.44, -177471.30, -177717.39, -177348.91, -182991.67, 0, 1, 1, 0, 1, 18:15:36.715
60, -176311.97, -176951.06, -176759.67, -177310.75, -177556.58, -177551.36, -177396.45, -182920.66, 0, 1, 1, 0, 1, 18:15:36.715
61, -176303.36, -176923.39, -176753.39, -177313.41, -177591.17, -177495.44, -177407.88, -182872.41, 0, 1, 1, 0, 1, 18:15:36.715
62, -176305.95, -176913.97, -176760.86, -177340.13, -177556.91, -177596.52, -177361.58, -182857.06, 0, 1, 1, 0, 1, 18:15:36.715
63, -176307.64, -176923.94, -176755.75, -177321.02, -177568.08, -177614.91, -177357.70, -182823.05, 0, 1, 1, 0, 1, 18:15:36.716
64, -176302.80, -176927.38, -176755.05, -177291.27, -177653.88, -177394.91, -177410.42, -182741.38, 0, 1, 1, 0, 1, 18:15:36.716
65, -176303.09, -176925.36, -176749.50, -177324.16, -177706.84, -177295.13, -177416.34, -182679.64, 0, 1, 1, 0, 1, 18:15:36.717
66, -176297.30, -176921.77, -176765.41, -177386.55, -177685.25, -177595.69, -177325.53, -182657.89, 0, 1, 1, 0, 1, 18:15:36.717
67, -176296.05, -176925.56, -176740.92, -177295.63, -177711.72, -177854.33, -177262.42, -182654.69, 0, 1, 1, 0, 1, 18:15:36.717
68, -176278.56, -176909.95, -176736.59, -177254.77, -177829.95, -177737.73, -177270.53, -182617.75, 0, 1, 1, 0, 1, 18:15:36.718
69, -176276.44, -176913.31, -176741.52, -177254.25, -177934.52, -177628.72, -177269.58, -182597.23, 0, 1, 1, 0, 1, 18:15:36.718
70, -176277.63, -176914.91, -176745.20, -177295.08, -177938.00, -177700.44, -177218.86, -182617.05, 0, 1, 1, 0, 1, 18:15:36.718
71, -176284.78, -176920.63, -176734.70, -177281.94, -177922.25, -177787.95, -177201.88, -182646.73, 0, 1, 1, 0, 1, 18:15:36.718
72, -176281.77, -176915.55, -176731.77, -177270.41, -177967.27, -177677.75, -177169.89, -182623.89, 0, 1, 1, 0, 1, 18:15:36.718
73, -176276.61, -176909.56, -176738.39, -177220.09, -178009.63, -177541.22, -177198.36, -182596.16, 0, 1, 1, 0, 1, 18:15:36.718
74, -176273.14, -176902.86, -176739.81, -177296.17, -177954.64, -177578.41, -177194.55, -182603.95, 0, 1, 1, 0, 1, 18:15:36.718
75, -176284.67, -176930.80, -176743.70, -177307.67, -177863.13, -177672.05, -177192.38, -182626.58, 0, 1, 1, 0, 1, 18:15:36.719
76, -176273.66, -176913.47, -176728.64, -177237.44, -177839.09, -177584.61, -177186.55, -182609.09, 0, 1, 1, 0, 1, 18:15:36.719
77, -176273.52, -176908.63, -176738.25, -177235.22, -177836.55, -177362.14, -177220.84, -182573.27, 0, 1, 1, 0, 1, 18:15:36.719
78, -176286.89, -176933.77, -176745.39, -177335.56, -177735.45, -177365.36, -177245.44, -182554.17, 0, 1, 1, 0, 1, 18:15:36.719
79, -176287.64, -176942.08, -176748.80, -177338.25, -177577.92, -177710.16, -177293.70, -182546.98, 0, 1, 1, 0, 1, 18:15:36.719
80, -176271.06, -176906.70, -176740.69, -177255.91, -177504.27, -177797.92, -177197.41, -182520.66, 0, 1, 1, 0, 1, 18:15:36.719
81, -176262.41, -176891.56, -176756.89, -177190.59, -177497.63, -177649.52, -177164.30, -182474.09, 0, 1, 1, 0, 1, 18:15:36.719
82, -176264.67, -176895.48, -176748.00, -177196.69, -177458.36, -177632.23, -177271.19, -182454.20, 0, 1, 1, 0, 1, 18:15:36.720
83, -176270.50, -176903.97, -176729.67, -177246.36, -177453.27, -177742.05, -177304.38, -182449.94, 0, 1, 1, 0, 1, 18:15:36.720
84, -176263.38, -176892.17, -176730.36, -177195.80, -177436.92, -177735.66, -177196.08, -182417.31, 0, 1, 1, 0, 1, 18:15:36.720
85, -176265.02, -176892.91, -176766.03, -177188.39, -177458.36, -177570.98, -177179.20, -182343.22, 0, 1, 1, 0, 1, 18:15:36.720
86, -176275.95, -176897.20, -176784.20, -177201.77, -177473.69, -177507.95, -177199.03, -182287.56, 0, 1, 1, 0, 1, 18:15:36.720
87, -176283.67, -176898.94, -176757.88, -177207.75, -177427.34, -177608.98, -177222.42, -182270.95, 0, 1, 1, 0, 1, 18:15:36.720
88, -176282.55, -176904.59, -176754.58, -177215.06, -177427.11, -177651.39, -177175.14, -182247.83, 0, 1, 1, 0, 1, 18:15:36.721
89, -176296.34, -176915.02, -176814.67, -177235.83, -177500.53, -177493.31, -177172.91, -182188.81, 0, 1, 1, 0, 1, 18:15:36.721
90, -176304.42, -176924.42, -176851.16, -177256.28, -177533.50, -177330.39, -177213.59, -182154.23, 0, 1, 1, 0, 1, 18:15:36.721
91, -176301.92, -176929.66, -176823.70, -177256.06, -177459.39, -177565.14, -177308.27, -182153.09, 0, 1, 1, 0, 1, 18:15:36.721
92, -176296.70, -176933.70, -176810.55, -177261.27, -177417.64, -177852.13, -177254.06, -182170.25, 0, 1, 1, 0, 1, 18:15:36.722
93, -176313.55, -176942.27, -176866.94, -177282.23, -177424.41, -177755.89, -177184.59, -182149.66, 0, 1, 1, 0, 1, 18:15:36.722
94, -176329.13, -176956.36, -176922.80, -177311.48, -177432.41, -177648.31, -177193.42, -182133.55, 0, 1, 1, 0, 1, 18:15:36.722
95, -176335.97, -176968.95, -176917.53, -177323.09, -177448.86, -177714.05, -177274.47, -182136.47, 0, 1, 1, 0, 1, 18:15:36.722
96, -176324.02, -176967.38, -176898.05, -177322.47, -177446.94, -177806.41, -177198.09, -182140.56, 0, 1, 1, 0, 1, 18:15:36.723
97, -176330.78, -176963.53, -176945.81, -177331.67, -177433.78, -177705.33, -177190.63, -182100.44, 0, 1, 1, 0, 1, 18:15:36.723
98, -176343.33, -176965.70, -177011.44, -177351.72, -177427.77, -177561.89, -177246.44, -182055.78, 0, 1, 1, 0, 1, 18:15:36.723
99, -176351.28, -176974.11, -177025.83, -177360.91, -177464.47, -177586.92, -177220.30, -182041.47, 0, 1, 1, 0, 1, 18:15:36.723
100, -176344.22, -176977.17, -177017.50, -177357.33, -177467.61, -177694.44, -177185.78, -182038.34, 0, 1, 1, 0, 1, 18:15:36.724
101, -176344.78, -176977.02, -177065.11, -177357.16, -177444.80, -177636.13, -177176.66, -181997.00, 0, 1, 1, 0, 1, 18:15:36.724
102, -176354.97, -176984.17, -177144.98, -177369.47, -177459.66, -177491.58, -177199.66, -181942.28, 0, 1, 1, 0, 1, 18:15:36.724
103, -176360.67, -177001.73, -177176.34, -177375.02, -177457.02, -177500.25, -177280.67, -181917.58, 0, 1, 1, 0, 1, 18:15:36.724
104, -176348.73, -177013.83, -177164.72, -177361.95, -177445.83, -177621.73, -177310.33, -181913.72, 0, 1, 1, 0, 1, 18:15:37.176
105, -176341.42, -177022.48, -177201.20, -177355.14, -177447.44, -177608.67, -177224.27, -181898.83, 0, 1, 1, 0, 1, 18:15:37.177
106, -176347.08, -177031.78, -177281.48, -177358.98, -177518.59, -177398.13, -177193.36, -181861.86, 0, 1, 1, 0, 1, 18:15:37.177
107, -176342.31, -177032.88, -177311.28, -177348.56, -177521.38, -177364.89, -177291.42, -181840.98, 0, 1, 1, 0, 1, 18:15:37.177
108, -176331.28, -177031.53, -177292.00, -177322.44, -177452.02, -177711.86, -177308.83, -181847.73, 0, 1, 1, 0, 1, 18:15:37.177
109, -176332.38, -177036.50, -177314.50, -177310.17, -177444.09, -177870.17, -177212.41, -181861.52, 0, 1, 1, 0, 1, 18:15:37.177
110, -176354.00, -177045.64, -177393.23, -177313.16, -177497.52, -177726.02, -177241.33, -181849.66, 0, 1, 1, 0, 1, 18:15:37.178
111, -176372.45, -177058.98, -177441.84, -177318.48, -177502.75, -177667.28, -177266.97, -181865.16, 0, 1, 1, 0, 1, 18:15:37.178
112, -176388.14, -177073.80, -177436.45, -177310.17, -177492.09, -177778.73, -177217.75, -181916.42, 0, 1, 1, 0, 1, 18:15:37.178
113, -176391.56, -177074.84, -177440.69, -177297.92, -177479.95, -177841.94, -177201.70, -181974.13, 0, 1, 1, 0, 1, 18:15:37.178
114, -176411.98, -177072.09, -177501.98, -177297.23, -177450.22, -177716.52, -177257.17, -181998.56, 0, 1, 1, 0, 1, 18:15:37.178
115, -176427.19, -177066.88, -177542.89, -177300.48, -177485.89, -177636.14, -177303.23, -182037.23, 0, 1, 1, 0, 1, 18:15:37.178
116, -176439.08, -177061.02, -177522.95, -177290.39, -177454.83, -177737.69, -177268.77, -182102.94, 0, 1, 1, 0, 1, 18:15:37.178
117, -176436.08, -177042.27, -177497.88, -177276.08, -177414.70, -177848.42, -177249.42, -182168.88, 0, 1, 1, 0, 1, 18:15:37.179
118, -176445.47, -177014.45, -177532.23, -177267.33, -177455.61, -177760.58, -177292.84, -182179.05, 0, 1, 1, 0, 1, 18:15:37.179
119, -176450.63, -176985.73, -177565.25, -177264.22, -177499.83, -177667.22, -177339.98, -182180.17, 0, 1, 1, 0, 1, 18:15:37.179
120, -176452.58, -176963.22, -177542.34, -177251.30, -177494.14, -177754.95, -177305.88, -182203.55, 0, 1, 1, 0, 1, 18:15:37.179
121, -176439.77, -176945.50, -177505.64, -177262.09, -177484.84, -177888.88, -177269.44, -182233.63, 0, 1, 1, 0, 1, 18:15:37.179
122, -176436.42, -176951.45, -177530.38, -177274.20, -177493.13, -177827.64, -177306.03, -182211.50, 0, 1, 1, 0, 1, 18:15:37.179
123, -176436.06, -176950.94, -177576.09, -177252.44, -177566.92, -177704.75, -177368.34, -182175.70, 0, 1, 1, 0, 1, 18:15:37.180
124, -176435.08, -176948.86, -177574.61, -177253.55, -177599.67, -177751.95, -177352.13, -182173.50, 0, 1, 1, 0, 1, 18:15:37.180
125, -176424.44, -176950.50, -177547.77, -177250.16, -177623.92, -177894.23, -177298.56, -182196.02, 0, 1, 1, 0, 1, 18:15:37.180
126, -176421.03, -176950.63, -177571.50, -177251.31, -177737.94, -177867.33, -177300.88, -182179.50, 0, 1, 1, 0, 1, 18:15:37.181
127, -176426.61, -176952.97, -177627.00, -177260.91, -177900.56, -177723.39, -177339.56, -182137.50, 0, 1, 1, 0, 1, 18:15:37.181
128, -176429.89, -176963.69, -177635.20, -177267.67, -177993.47, -177724.23, -177319.05, -182129.47, 0, 1, 1, 0, 1, 18:15:37.181
129, -176427.92, -176976.88, -177604.47, -177267.48, -178031.66, -177855.94, -177261.69, -182157.69, 0, 1, 1, 0, 1, 18:15:37.181
130, -176427.94, -176982.47, -177611.11, -177271.17, -178123.19, -177853.63, -177276.94, -182161.08, 0, 1, 1, 0, 1, 18:15:37.182
131, -176440.48, -176987.86, -177660.36, -177286.67, -178262.36, -177691.98, -177356.33, -182129.19, 0, 1, 1, 0, 1, 18:15:37.182
132, -176453.11, -176995.09, -177670.41, -177303.53, -178334.06, -177649.53, -177397.14, -182133.20, 0, 1, 1, 0, 1, 18:15:37.182
133, -176462.95, -176999.34, -177630.22, -177309.44, -178314.17, -177769.44, -177373.56, -182177.69, 0, 1, 1, 0, 1, 18:15:37.183
134, -176466.50, -176988.77, -177614.47, -177316.38, -178312.08, -177810.33, -177393.58, -182212.52, 0, 1, 1, 0, 1, 18:15:37.183
135, -176483.31, -176972.88, -177654.13, -177333.58, -178343.33, -177669.47, -177473.02, -182201.80, 0, 1, 1, 0, 1, 18:15:37.183
136, -176489.81, -176966.63, -177665.88, -177354.30, -178305.89, -177610.84, -177522.27, -182211.25, 0, 1, 1, 0, 1, 18:15:37.183
137, -176490.80, -176968.30, -177624.30, -177366.89, -178165.23, -177741.64, -177493.72, -182258.39, 0, 1, 1, 0, 1, 18:15:37.184
138, -176480.83, -176977.23, -177592.94, -177377.47, -178039.47, -177842.05, -177485.89, -182297.94, 0, 1, 1, 0, 1, 18:15:37.184
139, -176485.80, -176982.77, -177623.55, -177396.83, -177984.34, -177742.11, -177539.61, -182274.98, 0, 1, 1, 0, 1, 18:15:37.184
140, -176493.38, -176982.92, -177650.83, -177421.14, -177915.20, -177672.84, -177585.86, -182255.31, 0, 1, 1, 0, 1, 18:15:37.184
141, -176509.50, -176979.25, -177625.75, -177436.56, -177772.30, -177792.75, -177547.97, -182269.55, 0, 1, 1, 0, 1, 18:15:37.184
142, -176517.36, -176988.97, -177597.66, -177447.41, -177668.48, -177920.55, -177532.14, -182279.66, 0, 1, 1, 0, 1, 18:15:37.184
143, -176538.59, -176989.48, -177634.92, -177464.84, -177686.27, -177833.41, -177584.98, -182223.31, 0, 1, 1, 0, 1, 18:15:37.184
144, -176553.09, -176989.69, -177681.25, -177490.81, -177744.00, -177714.33, -177629.94, -182163.66, 0, 1, 1, 0, 1, 18:15:37.185
145, -176560.88, -177010.66, -177681.03, -177515.97, -177735.34, -177777.55, -177587.11, -182157.38, 0, 1, 1, 0, 1, 18:15:37.185
146, -176556.84, -177043.67, -177667.63, -177537.80, -177731.48, -177906.17, -177515.73, -182180.53, 0, 1, 1, 0, 1, 18:15:37.185
147, -176564.02, -177077.70, -177714.38, -177564.91, -177826.42, -177840.73, -177502.81, -182160.05, 0, 1, 1, 0, 1, 18:15:37.185
148, -176579.77, -177117.08, -177785.70, -177602.31, -177960.31, -177687.11, -177525.59, -182127.84, 0, 1, 1, 0, 1, 18:15:37.185
149, -176596.67, -177166.14, -177807.34, -177634.58, -178007.50, -177697.56, -177478.55, -182136.38, 0, 1, 1, 0, 1, 18:15:37.185
150, -176606.84, -177214.97, -177798.33, -177657.33, -178000.44, -177816.14, -177408.81, -182170.48, 0, 1, 1, 0, 1, 18:15:37.186
151, -176623.28, -177255.58, -177842.23, -177682.03, -178044.77, -177771.70, -177411.73, -182161.66, 0, 1, 1, 0, 1, 18:15:37.186
152, -176646.81, -177292.89, -177925.89, -177711.66, -178118.05, -177580.56, -177469.77, -182118.03, 0, 1, 1, 0, 1, 18:15:37.186
153, -176662.28, -177328.30, -177962.66, -177729.80, -178112.27, -177461.38, -177496.58, -182099.56, 0, 1, 1, 0, 1, 18:15:37.186
154, -176663.59, -177352.97, -177947.95, -177728.28, -178044.16, -177705.55, -177486.25, -182103.19, 0, 1, 1, 0, 1, 18:15:37.186
155, -176674.69, -177373.69, -177977.80, -177734.38, -178047.70, -177874.55, -177547.91, -182087.72, 0, 1, 1, 0, 1, 18:15:37.186
156, -176702.72, -177395.16, -178062.47, -177753.73, -178108.48, -177706.22, -177656.00, -182047.00, 0, 1, 1, 0, 1, 18:15:37.187
157, -176719.72, -177418.28, -178110.81, -177773.98, -178102.16, -177641.28, -177686.11, -182059.11, 0, 1, 1, 0, 1, 18:15:37.187
158, -176725.42, -177447.88, -178105.59, -177784.39, -178006.06, -177763.95, -177611.00, -182124.72, 0, 1, 1, 0, 1, 18:15:37.187
159, -176718.19, -177466.86, -178117.98, -177793.39, -177937.81, -177829.67, -177543.72, -182179.31, 0, 1, 1, 0, 1, 18:15:37.187
160, -176719.95, -177476.89, -178184.06, -177806.48, -177924.39, -177709.34, -177511.67, -182186.05, 0, 1, 1, 0, 1, 18:15:37.187
161, -176716.06, -177483.55, -178226.61, -177821.22, -177875.38, -177654.50, -177454.61, -182222.39, 0, 1, 1, 0, 1, 18:15:37.187
162, -176706.89, -177490.09, -178212.22, -177824.75, -177748.95, -177780.92, -177336.81, -182296.63, 0, 1, 1, 0, 1, 18:15:37.187
163, -176684.92, -177483.78, -178202.39, -177823.05, -177668.25, -177870.84, -177273.98, -182349.38, 0, 1, 1, 0, 1, 18:15:37.188
164, -176675.42, -177471.89, -178254.69, -177826.78, -177691.91, -177732.22, -177309.88, -182319.50, 0, 1, 1, 0, 1, 18:15:37.188
165, -176657.16, -177460.94, -178299.86, -177833.02, -177729.16, -177550.11, -177363.45, -182283.25, 0, 1, 1, 0, 1, 18:15:37.188
166, -176621.13, -177451.86, -178280.72, -177822.06, -177691.47, -177536.09, -177344.97, -182272.25, 0, 1, 1, 0, 1, 18:15:37.188
167, -176565.16, -177438.61, -178254.06, -177804.02, -177675.67, -177814.72, -177338.22, -182250.55, 0, 1, 1, 0, 1, 18:15:37.188
168, -176532.86, -177434.75, -178301.31, -177800.05, -177775.98, -177798.89, -177408.78, -182167.42, 0, 1, 1, 0, 1, 18:15:37.188
169, -176509.91, -177439.58, -178366.95, -177807.03, -177930.05, -177620.05, -177480.48, -182080.56, 0, 1, 1, 0, 1, 18:15:37.188
170, -176487.72, -177457.38, -178383.25, -177811.67, -178041.45, -177626.89, -177439.45, -182043.80, 0, 1, 1, 0, 1, 18:15:37.189
171, -176456.58, -177476.64, -178381.27, -177811.58, -178173.89, -177721.98, -177342.13, -182034.50, 0, 1, 1, 0, 1, 18:15:37.189
172, -176436.48, -177488.63, -178435.42, -177816.45, -178418.70, -177618.00, -177300.78, -181984.34, 0, 1, 1, 0, 1, 18:15:37.189
173, -176418.38, -177486.48, -178504.64, -177817.75, -178705.55, -177376.75, -177391.23, -181911.28, 0, 1, 1, 0, 1, 18:15:37.189
174, -176418.45, -177475.69, -178508.30, -177799.06, -178905.13, -177497.91, -177442.16, -181866.45, 0, 1, 1, 0, 1, 18:15:37.189
175, -176426.84, -177462.92, -178476.23, -177771.38, -179054.31, -177862.75, -177410.02, -181853.98, 0, 1, 1, 0, 1, 18:15:37.189
176, -176414.80, -177446.45, -178495.61, -177753.06, -179259.84, -177933.94, -177395.02, -181820.91, 0, 1, 1, 0, 1, 18:15:37.189
177, -176416.30, -177432.14, -178565.63, -177749.05, -179494.63, -177751.61, -177310.03, -181759.59, 0, 1, 1, 0, 1, 18:15:37.190
178, -176418.77, -177421.41, -178597.00, -177743.84, -179636.47, -177694.34, -177337.14, -181731.56, 0, 1, 1, 0, 1, 18:15:37.190
179, -176430.14, -177404.61, -178576.39, -177725.44, -179679.20, -177785.86, -177351.94, -181733.20, 0, 1, 1, 0, 1, 18:15:37.190
180, -176424.81, -177376.05, -178587.06, -177708.61, -179750.23, -177771.05, -177302.81, -181719.03, 0, 1, 1, 0, 1, 18:15:37.190
181, -176429.73, -177336.97, -178646.80, -177697.02, -179858.61, -177520.72, -177344.45, -181662.03, 0, 1, 1, 0, 1, 18:15:37.190
182, -176432.58, -177282.45, -178669.06, -177674.55, -179879.95, -177412.52, -177354.30, -181622.95, 0, 1, 1, 0, 1, 18:15:37.190
183, -176428.11, -177223.27, -178634.39, -177637.39, -179787.28, -177720.45, -177383.03, -181623.61, 0, 1, 1, 0, 1, 18:15:37.190
184, -176421.19, -177158.94, -178622.03, -177602.17, -179717.42, -177954.33, -177363.09, -181628.17, 0, 1, 1, 0, 1, 18:15:37.191
185, -176405.92, -177101.38, -178683.95, -177583.75, -179712.22, -177825.73, -177318.80, -181595.53, 0, 1, 1, 0, 1, 18:15:37.191
186, -176401.34, -177051.97, -178734.17, -177571.22, -179657.73, -177738.66, -177414.53, -181577.91, 0, 1, 1, 0, 1, 18:15:37.191
187, -176402.05, -177040.27, -178728.14, -177548.42, -179478.33, -177848.11, -177434.98, -181603.06, 0, 1, 1, 0, 1, 18:15:37.191
188, -176404.52, -177042.64, -178725.41, -177522.63, -179298.13, -177949.77, -177427.27, -181633.94, 0, 1, 1, 0, 1, 18:15:37.193
189, -176390.63, -177021.66, -178788.45, -177510.66, -179211.91, -177840.33, -177349.83, -181615.89, 0, 1, 1, 0, 1, 18:15:37.193
190, -176390.63, -177018.36, -178862.55, -177516.36, -179140.19, -177717.64, -177329.72, -181602.80, 0, 1, 1, 0, 1, 18:15:37.193
191, -176393.81, -177024.84, -178883.59, -177513.34, -178974.23, -177772.16, -177435.45, -181623.42, 0, 1, 1, 0, 1, 18:15:37.193
192, -176399.72, -177027.73, -178895.75, -177502.70, -178787.89, -177862.64, -177355.66, -181653.72, 0, 1, 1, 0, 1, 18:15:37.194
193, -176402.16, -177015.39, -178980.48, -177504.94, -178678.83, -177758.59, -177315.06, -181628.06, 0, 1, 1, 0, 1, 18:15:37.194
194, -176409.59, -177014.72, -179089.03, -177514.67, -178585.83, -177543.34, -177386.33, -181569.16, 0, 1, 1, 0, 1, 18:15:37.194
195, -176410.63, -177022.56, -179143.17, -177508.41, -178383.75, -177506.02, -177393.09, -181530.33, 0, 1, 1, 0, 1, 18:15:37.194
196, -176417.53, -177032.00, -179172.27, -177488.36, -178143.36, -177823.98, -177363.41, -181519.14, 0, 1, 1, 0, 1, 18:15:37.194
197, -176447.44, -177054.31, -179260.36, -177476.73, -177998.83, -177859.22, -177396.61, -181473.89, 0, 1, 1, 0, 1, 18:15:37.194
198, -176488.09, -177070.56, -179379.34, -177469.84, -177920.14, -177614.78, -177453.64, -181389.61, 0, 1, 1, 0, 1, 18:15:37.195
199, -176521.64, -177058.16, -179442.97, -177450.05, -177783.95, -177467.95, -177410.80, -181322.44, 0, 1, 1, 0, 1, 18:15:37.195
200, -176534.31, -177061.63, -179454.81, -177406.19, -177616.05, -177620.83, -177421.03, -181279.84, 0, 1, 1, 0, 1, 18:15:37.195
201, -176532.69, -177072.02, -179493.53, -177385.73, -177591.52, -177644.81, -177467.13, -181211.80, 0, 1, 1, 0, 1, 18:15:37.195
202, -176538.94, -177062.53, -179573.33, -177479.06, -177596.30, -177473.89, -177449.08, -181094.83, 0, 1, 1, 0, 1, 18:15:37.195
203, -176544.59, -177045.22, -179619.33, -177511.53, -177524.05, -177391.31, -177448.39, -180982.16, 0, 1, 1, 0, 1, 18:15:37.195
204, -176551.81, -177042.22, -179621.31, -177565.30, -177385.88, -177445.27, -177380.63, -180879.41, 0, 1, 1, 0, 1, 18:15:37.195
205, -176560.94, -177048.70, -179647.89, -177589.45, -177343.58, -177368.70, -177366.72, -180725.27, 0, 1, 1, 0, 1, 18:15:37.195
206, -176592.72, -177055.45, -179734.89, -177574.97, -177317.92, -177071.61, -177403.39, -180482.66, 0, 1, 1, 0, 1, 18:15:37.196
207, -176628.70, -177044.47, -179807.78, -177589.70, -177336.67, -176831.50, -177408.03, -180218.02, 0, 1, 1, 0, 1, 18:15:37.196
208, -176655.52, -177043.84, -179826.95, -177629.84, -177345.42, -176749.30, -177435.83, -179959.39, 0, 1, 1, 0, 1, 18:15:37.196
209, -176673.41, -177029.03, -179866.00, -177564.31, -177323.38, -176634.67, -177320.20, -179699.44, 0, 1, 1, 0, 1, 18:15:37.196
210, -176708.61, -177027.23, -179972.11, -177530.00, -177436.72, -176337.13, -177275.92, -179406.98, 0, 1, 1, 0, 1, 18:15:37.196
211, -176737.67, -177018.25, -180068.70, -177491.22, -177537.08, -176085.98, -177328.91, -179142.66, 0, 1, 1, 0, 1, 18:15:37.196
212, -176754.86, -177021.45, -180105.36, -177521.06, -177544.69, -176060.73, -177417.23, -178936.03, 0, 1, 1, 0, 1, 18:15:37.197
213, -176754.58, -177020.33, -180133.27, -177492.63, -177526.13, -176081.50, -177402.45, -178753.27, 0, 1, 1, 0, 1, 18:15:37.197
214, -176775.50, -177022.72, -180225.89, -177414.27, -177566.78, -175944.00, -177310.27, -178544.88, 0, 1, 1, 0, 1, 18:15:37.197
215, -176803.55, -177027.58, -180324.17, -177390.39, -177604.42, -175824.78, -177299.08, -178367.78, 0, 1, 1, 0, 1, 18:15:37.197
216, -176825.67, -177031.89, -180355.53, -177411.38, -177573.70, -175924.92, -177313.20, -178254.17, 0, 1, 1, 0, 1, 18:15:37.197
217, -176830.25, -177020.53, -180351.02, -177433.30, -177577.70, -176096.36, -177292.89, -178180.34, 0, 1, 1, 0, 1, 18:15:37.197
218, -176843.94, -177011.70, -180386.81, -177355.83, -177551.75, -176091.27, -177309.61, -178088.02, 0, 1, 1, 0, 1, 18:15:37.198
219, -176858.75, -177030.38, -180425.95, -177337.70, -177556.13, -176021.41, -177397.98, -178000.33, 0, 1, 1, 0, 1, 18:15:37.198
220, -176863.02, -177048.20, -180390.89, -177388.72, -177468.13, -176136.80, -177445.11, -177954.33, 0, 1, 1, 0, 1, 18:15:37.198
221, -176846.53, -177076.34, -180299.77, -177406.17, -177337.66, -176373.45, -177481.47, -177938.88, 0, 1, 1, 0, 1, 18:15:37.199
222, -176826.03, -177094.91, -180230.98, -177398.39, -177315.00, -176450.39, -177582.13, -177885.95, 0, 1, 1, 0, 1, 18:15:37.199
223, -176807.56, -177085.98, -180182.56, -177373.33, -177285.73, -176412.61, -177711.41, -177800.66, 0, 1, 1, 0, 1, 18:15:37.199
224, -176771.22, -177070.67, -180079.77, -177401.19, -177175.08, -176544.75, -177761.89, -177746.92, 0, 1, 1, 0, 1, 18:15:37.658
225, -176704.13, -177056.36, -179925.45, -177403.58, -177025.41, -176850.39, -177732.53, -177723.66, 0, 1, 1, 0, 1, 18:15:37.658
226, -176615.59, -177048.41, -179798.64, -177363.36, -176982.36, -177051.30, -177700.61, -177674.08, 0, 1, 1, 0, 1, 18:15:37.658
227, -176521.28, -177056.45, -179716.95, -177327.69, -177065.73, -177095.91, -177610.58, -177606.78, 0, 1, 1, 0, 1, 18:15:37.658
228, -176417.63, -177053.91, -179598.97, -177298.72, -177172.02, -177273.78, -177427.61, -177585.08, 0, 1, 1, 0, 1, 18:15:37.658
229, -176367.70, -177049.69, -179423.92, -177323.56, -177249.06, -177702.94, -177277.95, -177596.25, 0, 1, 1, 0, 1, 18:15:37.658
230, -176314.67, -177038.70, -179276.09, -177284.58, -177331.66, -178007.67, -177056.36, -177610.38, 0, 1, 1, 0, 1, 18:15:37.658
231, -176274.55, -177015.17, -179194.94, -177287.08, -177474.00, -177952.53, -176855.95, -177558.88, 0, 1, 1, 0, 1, 18:15:37.659
232, -176232.13, -177005.72, -179097.30, -177309.08, -177548.84, -177941.94, -176792.06, -177495.28, 0, 1, 1, 0, 1, 18:15:37.659
233, -176211.80, -177000.19, -178935.16, -177312.34, -177579.22, -178114.25, -176835.53, -177239.25, 0, 1, 1, 0, 1, 18:15:37.659
234, -176218.80, -177010.75, -178764.38, -177304.33, -177649.42, -178238.19, -176780.17, -177111.53, 0, 1, 1, 0, 1, 18:15:37.659
235, -176204.19, -176991.64, -178658.52, -177317.92, -177812.13, -178134.59, -176697.78, -177186.36, 0, 1, 1, 0, 1, 18:15:37.659
236, -176187.38, -176963.41, -178553.69, -177348.25, -177956.63, -178047.00, -176742.09, -177299.80, 0, 1, 1, 0, 1, 18:15:37.659
237, -176175.95, -176951.98, -178391.64, -177366.88, -177973.13, -178167.67, -176827.06, -177480.36, 0, 1, 1, 0, 1, 18:15:37.659
238, -176176.38, -176951.64, -178215.80, -177382.56, -177958.14, -178331.47, -176783.36, -177679.86, 0, 1, 1, 0, 1, 18:15:37.660
239, -176196.38, -176939.73, -178104.89, -177416.52, -177982.73, -178298.34, -176697.19, -177899.63, 0, 1, 1, 0, 1, 18:15:37.660
240, -176243.59, -176939.28, -178014.27, -177473.67, -177962.64, -178251.67, -176746.17, -178329.19, 0, 1, 1, 0, 1, 18:15:37.660
241, -176304.94, -176967.52, -177878.22, -177538.05, -177780.31, -178444.81, -176766.19, -178507.66, 0, 1, 1, 0, 1, 18:15:37.660
242, -176331.19, -177012.98, -177719.66, -177601.97, -177526.20, -178750.83, -176760.77, -178612.73, 0, 1, 1, 0, 1, 18:15:37.660
243, -176308.59, -177068.09, -177614.36, -177678.97, -177352.08, -178874.41, -176756.19, -178714.19, 0, 1, 1, 0, 1, 18:15:37.660
244, -176310.78, -177122.22, -177530.05, -177764.11, -177190.88, -178891.91, -176742.20, -178847.13, 0, 1, 1, 0, 1, 18:15:37.660
245, -176307.38, -177174.34, -177386.05, -177836.73, -176902.14, -179083.59, -176567.88, -179068.20, 0, 1, 1, 0, 1, 18:15:37.661
246, -176310.08, -177230.86, -177199.19, -177901.70, -176487.56, -179408.97, -176430.88, -179322.00, 0, 1, 1, 0, 1, 18:15:37.661
247, -176303.17, -177300.33, -177055.92, -177977.91, -176102.13, -179567.22, -176468.16, -179499.80, 0, 1, 1, 0, 1, 18:15:37.661
248, -176302.38, -177383.86, -176963.34, -178072.19, -175729.09, -179571.41, -176583.33, -179616.58, 0, 1, 1, 0, 1, 18:15:37.661
249, -176308.23, -177475.33, -176847.22, -178166.33, -175262.95, -179719.80, -176679.05, -179786.72, 0, 1, 1, 0, 1, 18:15:37.661
250, -176316.03, -177563.73, -176791.34, -178245.02, -174715.64, -180030.69, -176721.36, -180007.95, 0, 1, 1, 0, 1, 18:15:37.662
251, -176313.84, -177647.09, -176773.92, -178328.00, -174254.63, -180203.84, -176692.34, -180165.63, 0, 1, 1, 0, 1, 18:15:37.662
252, -176306.52, -177749.98, -176752.53, -178433.05, -173918.77, -180157.53, -176843.20, -180211.22, 0, 1, 1, 0, 1, 18:15:37.662
253, -176287.89, -177854.97, -176776.16, -178525.64, -173579.69, -180186.75, -177041.28, -180243.86, 0, 1, 1, 0, 1, 18:15:37.663
254, -176228.97, -177965.50, -176791.94, -178599.47, -173199.19, -180392.14, -177193.66, -180301.39, 0, 1, 1, 0, 1, 18:15:37.663
255, -176157.16, -178084.75, -176754.92, -178675.14, -172918.72, -180522.11, -177220.34, -180314.73, 0, 1, 1, 0, 1, 18:15:37.663
0, -176149.11, -178231.83, -176718.73, -178770.86, -172807.34, -180424.50, -177293.97, -180232.03, 0, 1, 1, 0, 1, 18:15:37.664
1, -176162.70, -178389.25, -176743.42, -178861.58, -172769.64, -180360.17, -177381.34, -180107.44, 0, 1, 1, 0, 1, 18:15:37.664
2, -176139.73, -178544.83, -176767.53, -178928.19, -172744.53, -180494.59, -177362.89, -180006.45, 0, 1, 1, 0, 1, 18:15:37.664
3, -176090.75, -178696.92, -176742.64, -178989.95, -172846.91, -180615.41, -177312.52, -179901.97, 0, 1, 1, 0, 1, 18:15:37.664
4, -176057.58, -178861.30, -176701.69, -179067.78, -173161.28, -180494.22, -177327.88, -179703.77, 0, 1, 1, 0, 1, 18:15:37.664
5, -176014.86, -179025.52, -176715.56, -179145.66, -173587.91, -180350.56, -177615.00, -179425.52, 0, 1, 1, 0, 1, 18:15:37.665
6, -175945.69, -179175.28, -176750.86, -179196.98, -174030.20, -180404.44, -178112.80, -179120.64, 0, 1, 1, 0, 1, 18:15:37.665
7, -175853.80, -179303.09, -176742.38, -179233.41, -174554.95, -180512.44, -178301.20, -178891.52, 0, 1, 1, 0, 1, 18:15:37.665
8, -175781.63, -179425.77, -176702.31, -179283.20, -175222.16, -180403.67, -178334.50, -178661.83, 0, 1, 1, 0, 1, 18:15:37.665
9, -175718.39, -179534.39, -176718.39, -179334.66, -175951.72, -180223.61, -178325.91, -178431.67, 0, 1, 1, 0, 1, 18:15:37.665
10, -175637.23, -179613.84, -176741.52, -179358.11, -176572.20, -180242.66, -178210.59, -178281.55, 0, 1, 1, 0, 1, 18:15:37.666
11, -175538.88, -179662.36, -176726.00, -179359.36, -177070.63, -180374.09, -178077.55, -178187.97, 0, 1, 1, 0, 1, 18:15:37.666
12, -175467.83, -179707.66, -176709.38, -179375.06, -177444.28, -180316.81, -178010.30, -178066.86, 0, 1, 1, 0, 1, 18:15:37.666
13, -175427.38, -179753.92, -176706.50, -179407.92, -177793.59, -180128.02, -178005.94, -177940.75, 0, 1, 1, 0, 1, 18:15:37.666
14, -175382.94, -179778.92, -176726.83, -179420.63, -178016.81, -180106.63, -177991.88, -177895.61, 0, 1, 1, 0, 1, 18:15:37.666
15, -175321.27, -179784.70, -176717.53, -179410.72, -178129.89, -180238.92, -177947.95, -177920.06, 0, 1, 1, 0, 1, 18:15:37.666
16, -175266.34, -179782.06, -176699.91, -179411.44, -178253.75, -180218.16, -177966.39, -177917.06, 0, 1, 1, 0, 1, 18:15:37.666
17, -175254.44, -179774.38, -176694.61, -179436.78, -178398.34, -180017.09, -178053.75, -177876.81, 0, 1, 1, 0, 1, 18:15:37.666
18, -175252.67, -179741.81, -176714.70, -179453.48, -178442.28, -179953.42, -178096.23, -177900.02, 0, 1, 1, 0, 1, 18:15:37.667
19, -175245.69, -179682.41, -176722.50, -179449.67, -178375.05, -180089.92, -178080.14, -177993.69, 0, 1, 1, 0, 1, 18:15:37.667
20, -175256.36, -179617.55, -176699.47, -179460.23, -178333.92, -180133.44, -178104.97, -178053.47, 0, 1, 1, 0, 1, 18:15:37.667
21, -175313.16, -179568.00, -176661.80, -179491.14, -178427.22, -179951.23, -178150.69, -178026.03, 0, 1, 1, 0, 1, 18:15:37.667
22, -175379.73, -179514.77, -176691.22, -179514.83, -178518.39, -179852.95, -178091.58, -178027.38, 0, 1, 1, 0, 1, 18:15:37.667
23, -175432.44, -179444.25, -176711.77, -179512.08, -178602.44, -179952.56, -177904.55, -178084.25, 0, 1, 1, 0, 1, 18:15:37.667
24, -175483.03, -179372.66, -176682.39, -179506.78, -178762.92, -179982.44, -177690.22, -178108.42, 0, 1, 1, 0, 1, 18:15:37.667
25, -175590.78, -179337.03, -176658.33, -179520.95, -179040.47, -179757.63, -177493.50, -178033.34, 0, 1, 1, 0, 1, 18:15:37.668
26, -175711.95, -179324.28, -176660.11, -179535.89, -179320.95, -179552.00, -177324.34, -177927.33, 0, 1, 1, 0, 1, 18:15:37.668
27, -175813.09, -179291.77, -176687.78, -179509.41, -179548.72, -179536.48, -177183.97, -177858.81, 0, 1, 1, 0, 1, 18:15:37.668
28, -175883.80, -179230.83, -176681.61, -179441.14, -179813.44, -179486.56, -177211.42, -177725.83, 0, 1, 1, 0, 1, 18:15:37.668
29, -175985.27, -179189.50, -176640.48, -179379.25, -180200.16, -179161.16, -177158.92, -177445.55, 0, 1, 1, 0, 1, 18:15:37.668
30, -176045.03, -179184.97, -176637.06, -179337.45, -180645.55, -178798.11, -177028.84, -176976.61, 0, 1, 1, 0, 1, 18:15:37.669
31, -176048.95, -179193.50, -176665.44, -179294.78, -181035.47, -178679.69, -176758.48, -176951.56, 0, 1, 1, 0, 1, 18:15:37.669
32, -176052.50, -179197.50, -176644.31, -179247.89, -181378.45, -178652.86, -176613.11, -177143.36, 0, 1, 1, 0, 1, 18:15:37.669
33, -176095.59, -179221.41, -176629.42, -179231.61, -181756.64, -178415.66, -176545.25, -177253.63, 0, 1, 1, 0, 1, 18:15:37.669
34, -176162.19, -179271.53, -176647.34, -179240.91, -182148.14, -178117.06, -176472.92, -177358.16, 0, 1, 1, 0, 1, 18:15:37.669
35, -176168.94, -179322.08, -176632.84, -179242.70, -182405.70, -178062.81, -176404.67, -177587.05, 0, 1, 1, 0, 1, 18:15:37.670
36, -176164.47, -179364.23, -176616.80, -179237.63, -182536.52, -178168.08, -176390.94, -178081.73, 0, 1, 1, 0, 1, 18:15:37.670
37, -176188.84, -179424.36, -176651.33, -179265.33, -182668.44, -178101.48, -176498.67, -178271.94, 0, 1, 1, 0, 1, 18:15:37.670
38, -176244.59, -179510.88, -176743.11, -179329.30, -182778.08, -177896.95, -176568.14, -178236.11, 0, 1, 1, 0, 1, 18:15:37.670
39, -176308.97, -179590.20, -176809.27, -179393.39, -182666.11, -177893.33, -176563.27, -178332.47, 0, 1, 1, 0, 1, 18:15:37.670
40, -176368.94, -179657.14, -176837.72, -179443.94, -182323.22, -178084.05, -176557.83, -178536.78, 0, 1, 1, 0, 1, 18:15:37.670
41, -176474.28, -179735.27, -176935.38, -179526.50, -181940.31, -178138.23, -176648.27, -178676.52, 0, 1, 1, 0, 1, 18:15:37.670
42, -176639.11, -179837.08, -177120.53, -179650.67, -181544.45, -178004.75, -176926.50, -178708.69, 0, 1, 1, 0, 1, 18:15:37.671
43, -176810.47, -179944.86, -177290.75, -179783.84, -180988.28, -178021.83, -177166.97, -178786.17, 0, 1, 1, 0, 1, 18:15:37.671
44, -176977.47, -180049.47, -177421.86, -179914.75, -180281.52, -178280.97, -177428.88, -178961.25, 0, 1, 1, 0, 1, 18:15:37.671
45, -177163.09, -180164.75, -177591.69, -180064.34, -179610.66, -178459.88, -177878.00, -179063.80, 0, 1, 1, 0, 1, 18:15:37.671
46, -177400.30, -180304.13, -177838.31, -180249.69, -179035.34, -178397.61, -178446.11, -179059.95, 0, 1, 1, 0, 1, 18:15:37.671
47, -177631.63, -180441.00, -178063.94, -180435.14, -178466.00, -178421.05, -178958.20, -179129.75, 0, 1, 1, 0, 1, 18:15:37.671
48, -177831.95, -180560.61, -178220.44, -180599.98, -177831.81, -178699.20, -179360.83, -179304.64, 0, 1, 1, 0, 1, 18:15:37.671
49, -178028.02, -180689.48, -178391.08, -180770.05, -177357.52, -178957.31, -179719.13, -179462.64, 0, 1, 1, 0, 1, 18:15:37.671
50, -178269.39, -180850.39, -178646.00, -180960.77, -177185.38, -178956.20, -180065.31, -179511.19, 0, 1, 1, 0, 1, 18:15:37.672
51, -178490.63, -181014.34, -178884.14, -181146.39, -177119.95, -178969.66, -180372.11, -179553.81, 0, 1, 1, 0, 1, 18:15:37.672
52, -178674.20, -181154.47, -179043.44, -181303.63, -177013.98, -179245.83, -180539.19, -179672.95, 0, 1, 1, 0, 1, 18:15:37.672
53, -178838.98, -181294.97, -179192.47, -181461.00, -176997.41, -179585.05, -180616.97, -179801.88, 0, 1, 1, 0, 1, 18:15:37.672
54, -179047.95, -181468.47, -179423.09, -181658.08, -177125.25, -179690.86, -180709.64, -179826.59, 0, 1, 1, 0, 1, 18:15:37.672
55, -179269.64, -181646.86, -179671.61, -181876.92, -177234.52, -179760.14, -180796.03, -179825.08, 0, 1, 1, 0, 1, 18:15:37.672
56, -179420.63, -181739.44, -179799.58, -182027.89, -177245.86, -180034.83, -180746.89, -179890.56, 0, 1, 1, 0, 1, 18:15:37.672
57, -179509.22, -181763.69, -179847.66, -182115.22, -177236.41, -180365.97, -180637.11, -180003.83, 0, 1, 1, 0, 1, 18:15:37.672
58, -179616.80, -181784.81, -179940.56, -182197.02, -177343.94, -180438.08, -180590.84, -179999.42, 0, 1, 1, 0, 1, 18:15:37.673
59, -179739.33, -181795.25, -180052.06, -182274.09, -177459.25, -180354.55, -180576.34, -179900.52, 0, 1, 1, 0, 1, 18:15:37.673
60, -179833.05, -181769.52, -180092.36, -182308.52, -177482.36, -180460.47, -180516.55, -179884.22, 0, 1, 1, 0, 1, 18:15:37.673
61, -179922.75, -181692.66, -180082.91, -182302.75, -177499.13, -180710.67, -180421.64, -179933.34, 0, 1, 1, 0, 1, 18:15:37.673
62, -180053.78, -181613.23, -180126.20, -182306.45, -177646.61, -180747.53, -180378.73, -179927.42, 0, 1, 1, 0, 1, 18:15:37.673
63, -180241.05, -181534.31, -180228.22, -182326.69, -177923.92, -180584.50, -180410.80, -179813.45, 0, 1, 1, 0, 1, 18:15:37.673
64, -180428.22, -181416.41, -180282.64, -182325.03, -178192.66, -180589.66, -180411.89, -179722.97, 0, 1, 1, 0, 1, 18:15:37.673
65, -180591.38, -181279.89, -180284.84, -182296.70, -178409.16, -180799.48, -180336.59, -179724.78, 0, 1, 1, 0, 1, 18:15:37.674
66, -180778.59, -181155.86, -180334.03, -182277.08, -178670.25, -180869.84, -180239.14, -179737.09, 0, 1, 1, 0, 1, 18:15:37.674
67, -181003.39, -181060.36, -180448.55, -182283.16, -178995.67, -180715.75, -180116.94, -179705.19, 0, 1, 1, 0, 1, 18:15:37.674
68, -181200.52, -180950.86, -180525.73, -182283.97, -179291.50, -180691.77, -179965.59, -179680.53, 0, 1, 1, 0, 1, 18:15:37.674
69, -181357.31, -180808.19, -180539.33, -182261.69, -179480.77, -180916.13, -179770.83, -179721.91, 0, 1, 1, 0, 1, 18:15:37.674
70, -181505.59, -180660.00, -180590.41, -182242.66, -179592.28, -181053.81, -179629.25, -179811.02, 0, 1, 1, 0, 1, 18:15:37.674
71, -181696.34, -180534.19, -180737.81, -182252.30, -179668.53, -180935.22, -179617.30, -179862.56, 0, 1, 1, 0, 1, 18:15:37.675
72, -181884.77, -180401.42, -180880.34, -182263.58, -179630.61, -180883.88, -179667.55, -179959.86, 0, 1, 1, 0, 1, 18:15:37.675
73, -182043.64, -180259.45, -180957.34, -182256.98, -179445.44, -181080.30, -179673.59, -180146.41, 0, 1, 1, 0, 1, 18:15:37.675
74, -182191.98, -180125.91, -181043.58, -182256.20, -179333.56, -181259.03, -179712.06, -180311.16, 0, 1, 1, 0, 1, 18:15:37.675
75, -182384.13, -180032.45, -181217.77, -182285.38, -179316.78, -181170.67, -179872.44, -180368.22, 0, 1, 1, 0, 1, 18:15:37.675
76, -182573.33, -179944.14, -181392.09, -182310.50, -179309.69, -181090.16, -180154.39, -180414.45, 0, 1, 1, 0, 1, 18:15:37.675
77, -182711.42, -179842.84, -181484.95, -182304.16, -179186.70, -181276.98, -180503.56, -180529.17, 0, 1, 1, 0, 1, 18:15:37.675
78, -182823.66, -179735.13, -181559.39, -182296.06, -179042.14, -181532.64, -180937.30, -180670.47, 0, 1, 1, 0, 1, 18:15:37.676
79, -182986.59, -179677.86, -181723.94, -182333.39, -179004.70, -181560.11, -181517.06, -180710.81, 0, 1, 1, 0, 1, 18:15:37.676
80, -183185.56, -179661.70, -181939.55, -182411.16, -179014.64, -181553.16, -182093.00, -180774.22, 0, 1, 1, 0, 1, 18:15:37.676
81, -183386.36, -179680.45, -182123.77, -182515.94, -178970.02, -181856.63, -182567.81, -181021.31, 0, 1, 1, 0, 1, 18:15:37.676
82, -183579.47, -179732.58, -182290.89, -182639.27, -178943.08, -182337.50, -183049.19, -181386.39, 0, 1, 1, 0, 1, 18:15:37.676
83, -183751.77, -179772.86, -182494.86, -182748.73, -178978.95, -182581.33, -183560.59, -181667.53, 0, 1, 1, 0, 1, 18:15:37.676
84, -183915.27, -179796.89, -182721.17, -182841.44, -179012.25, -182662.72, -184024.45, -181876.72, 0, 1, 1, 0, 1, 18:15:37.676
85, -184019.16, -179794.05, -182854.70, -182884.38, -178940.61, -182960.91, -184348.42, -182139.20, 0, 1, 1, 0, 1, 18:15:37.677
86, -184066.63, -179743.95, -182901.34, -182870.17, -178792.17, -183450.86, -184449.16, -182455.88, 0, 1, 1, 0, 1, 18:15:37.677
87, -184108.16, -179678.31, -182986.63, -182842.34, -178735.52, -183740.41, -184464.27, -182684.84, 0, 1, 1, 0, 1, 18:15:37.677
88, -184181.19, -179614.25, -183133.56, -182826.94, -178784.38, -183770.06, -184475.56, -182806.97, 0, 1, 1, 0, 1, 18:15:37.677
89, -184233.16, -179543.72, -183225.88, -182796.84, -178856.91, -183929.50, -184483.56, -182986.38, 0, 1, 1, 0, 1, 18:15:38.136
90, -184266.45, -179471.05, -183258.06, -182755.77, -178968.53, -184274.17, -184489.44, -183242.86, 0, 1, 1, 0, 1, 18:15:38.137
91, -184286.97, -179388.09, -183295.73, -182701.20, -179207.11, -184438.30, -184494.83, -183450.50, 0, 1, 1, 0, 1, 18:15:38.137
92, -184293.66, -179290.42, -183360.55, -182620.89, -179546.22, -184443.70, -184498.48, -183541.81, 0, 1, 1, 0, 1, 18:15:38.137
93, -184284.88, -179162.81, -183363.80, -182503.02, -179849.27, -184446.88, -184502.58, -183648.67, 0, 1, 1, 0, 1, 18:15:38.137
94, -184210.02, -179001.34, -183256.83, -182337.88, -180065.17, -184455.31, -184499.98, -183820.00, 0, 1, 1, 0, 1, 18:15:38.137
95, -184080.41, -178811.09, -183134.81, -182152.94, -180297.25, -184459.73, -184500.88, -183953.94, 0, 1, 1, 0, 1, 18:15:38.137
96, -183943.61, -178637.80, -183073.45, -181978.00, -180610.05, -184458.34, -184500.36, -183976.53, 0, 1, 1, 0, 1, 18:15:38.137
97, -183787.08, -178456.44, -182992.77, -181798.11, -180912.80, -184455.13, -184497.80, -184036.81, 0, 1, 1, 0, 1, 18:15:38.138
98, -183577.80, -178254.31, -182816.78, -181588.56, -181154.56, -184452.73, -184493.28, -184183.63, 0, 1, 1, 0, 1, 18:15:38.138
99, -183341.78, -178040.59, -182617.70, -181365.17, -181454.19, -184449.88, -184489.14, -184311.19, 0, 1, 1, 0, 1, 18:15:38.138
100, -183143.80, -177849.27, -182492.13, -181159.11, -181869.88, -184442.47, -184482.33, -184317.73, 0, 1, 1, 0, 1, 18:15:38.138
101, -182930.50, -177661.81, -182365.80, -180948.56, -182302.98, -184435.17, -184475.83, -184285.05, 0, 1, 1, 0, 1, 18:15:38.138
102, -182660.44, -177465.83, -182156.30, -180708.81, -182653.31, -184431.13, -184471.63, -184319.11, 0, 1, 1, 0, 1, 18:15:38.138
103, -182356.59, -177270.66, -181919.17, -180454.98, -183002.36, -184426.63, -184467.36, -184378.50, 0, 1, 1, 0, 1, 18:15:38.138
104, -182090.58, -177123.22, -181754.70, -180217.39, -183442.59, -184416.89, -184459.00, -184340.39, 0, 1, 1, 0, 1, 18:15:38.139
105, -181851.84, -177111.02, -181627.50, -179996.05, -183899.34, -184405.59, -184452.75, -184205.19, 0, 1, 1, 0, 1, 18:15:38.139
106, -181614.72, -177072.77, -181448.53, -179767.30, -184239.02, -184396.31, -184446.52, -184089.72, 0, 1, 1, 0, 1, 18:15:38.139
107, -181384.38, -177009.66, -181238.53, -179535.64, -184389.80, -184391.31, -184438.05, -184032.56, 0, 1, 1, 0, 1, 18:15:38.139
108, -181196.02, -176981.42, -181092.73, -179328.28, -184403.94, -184292.58, -184433.94, -183894.17, 0, 1, 1, 0, 1, 18:15:38.139
109, -181046.31, -176981.70, -180993.98, -179146.61, -184399.78, -183986.56, -184428.53, -183621.41, 0, 1, 1, 0, 1, 18:15:38.139
110, -180884.86, -176981.58, -180848.50, -178972.16, -184396.20, -183861.84, -184423.23, -183493.98, 0, 1, 1, 0, 1, 18:15:38.139
111, -180710.98, -176977.02, -180664.39, -178786.50, -184391.73, -184020.61, -184417.33, -183612.36, 0, 1, 1, 0, 1, 18:15:38.139
112, -180568.06, -176997.89, -180531.70, -178607.63, -184389.06, -184063.97, -184413.48, -183721.20, 0, 1, 1, 0, 1, 18:15:38.139
113, -180473.36, -177051.17, -180449.30, -178454.16, -184389.86, -183856.77, -184413.70, -183651.06, 0, 1, 1, 0, 1, 18:15:38.140
114, -180362.56, -177067.14, -180319.16, -178303.41, -184388.75, -183778.08, -184412.48, -183548.67, 0, 1, 1, 0, 1, 18:15:38.140
115, -180223.94, -177056.44, -180134.88, -178144.20, -184384.31, -183969.69, -184407.78, -183593.17, 0, 1, 1, 0, 1, 18:15:38.140
116, -180079.81, -177036.78, -179979.19, -177986.88, -184382.31, -184114.38, -184405.75, -183766.25, 0, 1, 1, 0, 1, 18:15:38.140
117, -179953.42, -177002.16, -179886.78, -177845.25, -184381.19, -183993.67, -184405.59, -183861.28, 0, 1, 1, 0, 1, 18:15:38.140
118, -179808.13, -176995.44, -179767.19, -177720.66, -184382.59, -183892.13, -184407.77, -183775.41, 0, 1, 1, 0, 1, 18:15:38.140
119, -179620.88, -176995.36, -179572.41, -177595.02, -184378.59, -184047.19, -184404.44, -183736.78, 0, 1, 1, 0, 1, 18:15:38.140
120, -179408.48, -177001.31, -179370.78, -177455.39, -184376.16, -184230.69, -184401.70, -183890.30, 0, 1, 1, 0, 1, 18:15:38.140
121, -179220.22, -176987.70, -179232.75, -177423.30, -184371.00, -184177.03, -184398.44, -184100.61, 0, 1, 1, 0, 1, 18:15:38.140
122, -179021.95, -176981.28, -179080.81, -177631.61, -184368.31, -184105.33, -184398.23, -184238.25, 0, 1, 1, 0, 1, 18:15:38.141
123, -178785.94, -176998.73, -178858.91, -177669.92, -184365.88, -184244.63, -184396.31, -184302.08, 0, 1, 1, 0, 1, 18:15:38.141
124, -178524.31, -176999.41, -178626.02, -177645.20, -184359.84, -184340.59, -184390.75, -184338.34, 0, 1, 1, 0, 1, 18:15:38.141
125, -178283.59, -176989.36, -178450.53, -177674.84, -184352.47, -184339.45, -184385.17, -184344.64, 0, 1, 1, 0, 1, 18:15:38.141
126, -178067.72, -177011.77, -178269.14, -177672.80, -184345.56, -184333.88, -184380.45, -184343.03, 0, 1, 1, 0, 1, 18:15:38.141
127, -177857.61, -177015.89, -178001.94, -177684.22, -184333.56, -184331.30, -184374.48, -184338.63, 0, 1, 1, 0, 1, 18:15:38.141
128, -177637.84, -177029.59, -177691.38, -177702.80, -184256.91, -184326.02, -184367.03, -184331.86, 0, 1, 1, 0, 1, 18:15:38.141
129, -177449.86, -177025.45, -177425.28, -177678.45, -183990.41, -184314.64, -184357.98, -184322.69, 0, 1, 1, 0, 1, 18:15:38.141
130, -177251.45, -177011.91, -177164.64, -177639.16, -183637.72, -184304.75, -184349.92, -184314.61, 0, 1, 1, 0, 1, 18:15:38.141
131, -176992.28, -177010.88, -176867.09, -177572.84, -183179.06, -184294.75, -184339.39, -184304.63, 0, 1, 1, 0, 1, 18:15:38.141
132, -176709.83, -176996.91, -176649.78, -177506.50, -182683.73, -184284.84, -184328.14, -184294.28, 0, 1, 1, 0, 1, 18:15:38.142
133, -176468.61, -176981.53, -176578.11, -177448.86, -182260.86, -184273.97, -184317.66, -184284.34, 0, 1, 1, 0, 1, 18:15:38.142
134, -176286.69, -176949.55, -176563.53, -177384.80, -181893.91, -184262.34, -184308.03, -184274.69, 0, 1, 1, 0, 1, 18:15:38.142
135, -176166.98, -176904.53, -176471.83, -177320.78, -181479.59, -184250.16, -184296.03, -184262.98, 0, 1, 1, 0, 1, 18:15:38.142
136, -176088.20, -176811.84, -176316.75, -177268.08, -181024.31, -184237.72, -184282.22, -184249.92, 0, 1, 1, 0, 1, 18:15:38.142
137, -176006.56, -176693.22, -176162.34, -177217.78, -180681.48, -184225.22, -184269.25, -184237.47, 0, 1, 1, 0, 1, 18:15:38.142
138, -175942.02, -176603.11, -176023.56, -177148.13, -180463.86, -184211.11, -184256.73, -184224.77, 0, 1, 1, 0, 1, 18:15:38.142
139, -175853.50, -176550.81, -175850.41, -177062.58, -180222.98, -184195.22, -184242.11, -184210.05, 0, 1, 1, 0, 1, 18:15:38.142
140, -175738.06, -176439.95, -175631.91, -176982.11, -179848.80, -184180.69, -184227.67, -184196.11, 0, 1, 1, 0, 1, 18:15:38.142
141, -175636.47, -176360.11, -175461.09, -176925.97, -179429.20, -184154.27, -184214.00, -184182.75, 0, 1, 1, 0, 1, 18:15:38.142
142, -175600.70, -176340.13, -175394.56, -176886.69, -179160.48, -183870.31, -184203.77, -184171.84, 0, 1, 1, 0, 1, 18:15:38.142
143, -175548.67, -176343.81, -175342.66, -176856.36, -179060.94, -183115.81, -184192.77, -184159.56, 0, 1, 1, 0, 1, 18:15:38.143
144, -175458.66, -176355.95, -175263.80, -176837.66, -179060.17, -182470.78, -184183.94, -184149.98, 0, 1, 1, 0, 1, 18:15:38.143
145, -175367.06, -176416.92, -175231.66, -176836.98, -179174.64, -181796.97, -184173.00, -184138.77, 0, 1, 1, 0, 1, 18:15:38.143
146, -175308.22, -176475.20, -175297.81, -176798.02, -179479.09, -180767.77, -184163.39, -184125.89, 0, 1, 1, 0, 1, 18:15:38.143
147, -175216.02, -176519.05, -175366.78, -176757.39, -179938.11, -179664.41, -184152.16, -184038.67, 0, 1, 1, 0, 1, 18:15:38.143
148, -175077.78, -176667.89, -175403.88, -176780.97, -180434.03, -178802.13, -184140.34, -183651.63, 0, 1, 1, 0, 1, 18:15:38.143
149, -174941.00, -176789.59, -175482.13, -176829.61, -181089.11, -177960.81, -184131.67, -183077.91, 0, 1, 1, 0, 1, 18:15:38.143
150, -174866.25, -176949.17, -175656.19, -176868.03, -181889.89, -176737.39, -184121.81, -182382.47, 0, 1, 1, 0, 1, 18:15:38.143
151, -174846.63, -177167.98, -175860.09, -176904.23, -182863.11, -175464.70, -184113.08, -181602.59, 0, 1, 1, 0, 1, 18:15:38.143
152, -174854.14, -177396.83, -176029.95, -176962.28, -183756.64, -174430.95, -184103.67, -180879.31, 0, 1, 1, 0, 1, 18:15:38.143
153, -174896.34, -177631.77, -176215.53, -177025.92, -184053.98, -173460.86, -184094.81, -180191.39, 0, 1, 1, 0, 1, 18:15:38.144
154, -175019.50, -177898.63, -176389.08, -177079.08, -184063.45, -172159.52, -184087.38, -179376.75, 0, 1, 1, 0, 1, 18:15:38.144
155, -175223.59, -178202.78, -176517.91, -177136.88, -184059.08, -170658.38, -184078.72, -178489.48, 0, 1, 1, 0, 1, 18:15:38.144
156, -175445.78, -178526.11, -176568.14, -177215.83, -184056.14, -169408.83, -184073.03, -177634.50, 0, 1, 1, 0, 1, 18:15:38.144
157, -175680.25, -178833.00, -176622.20, -177277.17, -184052.50, -168356.34, -184067.84, -176626.63, 0, 1, 1, 0, 1, 18:15:38.144
158, -175900.22, -179148.42, -176721.02, -177293.16, -184047.59, -167071.11, -184062.58, -175839.09, 0, 1, 1, 0, 1, 18:15:38.144
159, -176034.16, -179488.56, -176855.80, -177293.61, -184045.31, -165566.92, -184059.91, -175231.53, 0, 1, 1, 0, 1, 18:15:38.144
160, -176096.36, -179821.88, -176949.69, -177314.86, -184043.86, -164300.45, -184057.83, -174828.61, 0, 1, 1, 0, 1, 18:15:38.144
161, -176147.97, -180133.47, -176990.97, -177354.41, -184041.94, -163359.38, -184055.50, -174623.27, 0, 1, 1, 0, 1, 18:15:38.144
162, -176230.42, -180443.39, -177060.72, -177379.13, -184040.92, -162317.89, -184054.52, -174451.38, 0, 1, 1, 0, 1, 18:15:38.144
163, -176370.05, -180761.88, -177183.81, -177376.69, -184038.17, -161020.67, -184052.08, -174220.63, 0, 1, 1, 0, 1, 18:15:38.145
164, -176497.89, -181058.28, -177262.38, -177375.02, -184034.13, -159962.95, -184048.69, -174152.42, 0, 1, 1, 0, 1, 18:15:38.145
165, -176602.38, -181324.19, -177270.09, -177389.63, -184032.95, -159328.84, -184048.69, -174341.00, 0, 1, 1, 0, 1, 18:15:38.145
166, -176717.27, -181585.25, -177278.39, -177391.81, -184029.86, -158752.77, -184047.14, -174592.38, 0, 1, 1, 0, 1, 18:15:38.145
167, -176866.95, -181858.80, -177323.30, -177385.66, -184026.42, -157978.41, -184045.28, -174788.77, 0, 1, 1, 0, 1, 18:15:38.145
168, -177024.84, -182126.52, -177349.42, -177375.02, -184023.22, -157259.30, -184044.03, -175070.53, 0, 1, 1, 0, 1, 18:15:38.145
169, -177168.69, -182361.42, -177308.81, -177370.66, -184017.19, -156859.80, -184040.59, -175548.94, 0, 1, 1, 0, 1, 18:15:38.145
170, -177306.13, -182564.38, -177225.48, -177350.72, -184011.36, -156569.66, -184037.91, -176082.91, 0, 1, 1, 0, 1, 18:15:38.145
171, -177463.81, -182772.73, -177154.58, -177301.27, -184002.81, -156074.83, -184033.06, -176497.45, 0, 1, 1, 0, 1, 18:15:38.145
172, -177557.05, -182966.64, -177043.72, -177262.42, -183980.47, -155645.41, -184029.23, -176883.78, 0, 1, 1, 0, 1, 18:15:38.145
173, -177495.69, -183115.77, -176832.84, -177255.34, -183755.50, -155639.11, -184023.63, -177441.48, 0, 1, 1, 0, 1, 18:15:38.146
174, -177344.66, -183230.08, -176588.63, -177259.94, -183218.83, -155883.09, -184016.86, -178145.98, 0, 1, 1, 0, 1, 18:15:38.146
175, -177176.39, -183349.36, -176482.53, -177256.17, -182684.59, -155914.09, -184011.83, -178350.98, 0, 1, 1, 0, 1, 18:15:38.146
176, -176964.67, -183460.83, -176468.05, -177266.14, -182223.97, -155834.25, -184005.97, -178424.94, 0, 1, 1, 0, 1, 18:15:38.146
177, -176670.11, -183529.78, -176365.56, -177237.73, -181799.72, -156070.78, -184001.55, -178637.64, 0, 1, 1, 0, 1, 18:15:38.146
178, -176328.30, -183561.58, -176233.38, -177040.14, -181466.25, -156535.66, -183993.92, -178873.53, 0, 1, 1, 0, 1, 18:15:38.146
179, -176044.77, -183597.42, -176196.83, -177154.53, -181255.23, -156745.89, -183986.34, -178899.25, 0, 1, 1, 0, 1, 18:15:38.146
180, -175886.70, -183614.86, -176222.44, -177304.56, -181124.88, -156747.23, -183979.45, -178828.55, 0, 1, 1, 0, 1, 18:15:38.146
181, -175742.73, -183608.56, -176213.30, -177154.98, -181073.70, -157029.36, -183970.09, -178874.98, 0, 1, 1, 0, 1, 18:15:38.146
182, -175566.53, -183591.03, -176167.66, -177067.56, -181083.03, -157579.50, -183960.19, -178955.70, 0, 1, 1, 0, 1, 18:15:38.146
183, -175441.55, -183587.36, -176172.89, -177240.97, -181264.48, -157924.05, -183952.86, -178816.92, 0, 1, 1, 0, 1, 18:15:38.147
184, -175356.22, -183634.11, -176204.77, -177281.69, -181828.22, -157893.48, -183944.33, -178460.72, 0, 1, 1, 0, 1, 18:15:38.147
185, -175272.42, -183662.42, -176190.22, -177236.67, -182587.53, -157968.64, -183935.38, -178128.06, 0, 1, 1, 0, 1, 18:15:38.147
186, -175141.30, -183648.75, -176124.63, -177153.27, -183352.81, -158390.98, -183925.75, -178008.97, 0, 1, 1, 0, 1, 18:15:38.147
187, -175011.98, -183613.72, -176049.67, -177218.13, -183823.67, -158780.47, -183913.55, -177906.33, 0, 1, 1, 0, 1, 18:15:38.147
188, -174901.20, -183587.77, -175980.52, -177229.09, -183876.91, -158978.25, -183897.50, -177732.06, 0, 1, 1, 0, 1, 18:15:38.148
189, -174730.22, -183495.77, -175822.86, -177197.63, -183868.86, -159292.73, -183866.20, -177446.16, 0, 1, 1, 0, 1, 18:15:38.148
190, -174501.31, -183321.05, -175570.33, -177124.61, -183855.59, -159932.66, -183575.45, -176900.73, 0, 1, 1, 0, 1, 18:15:38.148
191, -174559.78, -183352.73, -175582.31, -176932.58, -183855.41, -160853.14, -183006.75, -176442.03, 0, 1, 1, 0, 1, 18:15:38.148
192, -175014.78, -183615.02, -175945.45, -177107.11, -183871.17, -161791.53, -182573.16, -176291.69, 0, 1, 1, 0, 1, 18:15:38.148
193, -175710.95, -183755.56, -176409.28, -177655.25, -183901.75, -163120.08, -182432.72, -176495.77, 0, 1, 1, 0, 1, 18:15:38.148
194, -176364.52, -183807.38, -176939.36, -178376.61, -183946.05, -164845.19, -182723.84, -176996.17, 0, 1, 1, 0, 1, 18:15:38.148
195, -176770.47, -183839.06, -177313.75, -178860.08, -183975.77, -166273.38, -183260.78, -177130.13, 0, 1, 1, 0, 1, 18:15:38.148
196, -177048.30, -183858.25, -177573.45, -179142.63, -183994.45, -167207.72, -183819.64, -176725.72, 0, 1, 1, 0, 1, 18:15:38.149
197, -177214.89, -183873.36, -177707.89, -179276.16, -184009.41, -167918.30, -184006.19, -176116.36, 0, 1, 1, 0, 1, 18:15:38.149
198, -177289.58, -183886.39, -177780.16, -179417.69, -184022.31, -168847.70, -184026.98, -175671.09, 0, 1, 1, 0, 1, 18:15:38.149
199, -177347.78, -183900.52, -177858.33, -179571.36, -184036.45, -169889.33, -184043.61, -175415.92, 0, 1, 1, 0, 1, 18:15:38.149
200, -177459.19, -183920.56, -177982.55, -179648.98, -184056.48, -170580.59, -184065.69, -175483.56, 0, 1, 1, 0, 1, 18:15:38.149
201, -177689.41, -183948.08, -178230.09, -179839.36, -184084.36, -171336.52, -184095.73, -175317.22, 0, 1, 1, 0, 1, 18:15:38.149
202, -178060.56, -183986.05, -178586.25, -180222.72, -184122.63, -172582.64, -184136.91, -175148.23, 0, 1, 1, 0, 1, 18:15:38.149
203, -178287.45, -184019.53, -178767.91, -180472.84, -184156.59, -173787.95, -184174.17, -174827.94, 0, 1, 1, 0, 1, 18:15:38.149
204, -178383.92, -184041.75, -178839.50, -180483.25, -184179.22, -174505.11, -184199.88, -174057.88, 0, 1, 1, 0, 1, 18:15:38.149
205, -178696.02, -184069.27, -179130.06, -180663.42, -184206.58, -174843.13, -184230.69, -173162.36, 0, 1, 1, 0, 1, 18:15:38.149
206, -179124.80, -184097.14, -179451.69, -181088.39, -184234.03, -174340.36, -184261.67, -172351.14, 0, 1, 1, 0, 1, 18:15:38.150
207, -179412.95, -184121.34, -179526.55, -181572.02, -184257.58, -173869.81, -184286.91, -171263.84, 0, 1, 1, 0, 1, 18:15:38.150
208, -179788.58, -184153.61, -179659.45, -182161.28, -184288.98, -174207.75, -184318.72, -169970.45, 0, 1, 1, 0, 1, 18:15:38.150
209, -180259.97, -184194.78, -179880.17, -182924.91, -184329.56, -175339.66, -184357.50, -169506.50, 0, 1, 1, 0, 1, 18:15:38.616
210, -180593.13, -184229.36, -179788.58, -183606.31, -184363.27, -176937.00, -184389.38, -169862.05, 0, 1, 1, 0, 1, 18:15:38.616
211, -180646.03, -184245.52, -179413.41, -184004.89, -184378.97, -178665.44, -184403.92, -170211.97, 0, 1, 1, 0, 1, 18:15:38.616
212, -180531.23, -184249.16, -179119.52, -184197.75, -184382.47, -179795.22, -184407.52, -170200.02, 0, 1, 1, 0, 1, 18:15:38.616
213, -180329.39, -184244.94, -178840.81, -184193.98, -184377.66, -180543.39, -184404.03, -170105.47, 0, 1, 1, 0, 1, 18:15:38.617
214, -179944.98, -184233.02, -178470.11, -184044.59, -184365.36, -181669.70, -184393.13, -169601.80, 0, 1, 1, 0, 1, 18:15:38.617
215, -179528.25, -184218.52, -177854.09, -183874.41, -184351.42, -183247.38, -184379.31, -168472.27, 0, 1, 1, 0, 1, 18:15:38.617
216, -179226.83, -184205.72, -177396.94, -183604.42, -184340.50, -184233.98, -184365.88, -167180.97, 0, 1, 1, 0, 1, 18:15:38.617
217, -178851.36, -184193.80, -177093.36, -183120.44, -184328.50, -184314.02, -184353.31, -166279.11, 0, 1, 1, 0, 1, 18:15:38.617
218, -178460.92, -184178.53, -176835.22, -182566.22, -184312.80, -184301.30, -184337.22, -165665.61, 0, 1, 1, 0, 1, 18:15:38.617
219, -178116.59, -184166.19, -176790.64, -181991.08, -184300.20, -184290.73, -184324.45, -164912.64, 0, 1, 1, 0, 1, 18:15:38.617
220, -177694.63, -184157.00, -176759.94, -181200.53, -184291.13, -184283.33, -184315.36, -163664.97, 0, 1, 1, 0, 1, 18:15:38.617
221, -177209.00, -184150.72, -176736.73, -180180.69, -184285.30, -184278.55, -184309.81, -162535.23, 0, 1, 1, 0, 1, 18:15:38.617
222, -176614.94, -184139.34, -176688.02, -179204.72, -184275.42, -184269.25, -184300.75, -161791.73, 0, 1, 1, 0, 1, 18:15:38.617
223, -175903.44, -184112.98, -176494.48, -178558.67, -184249.94, -184243.86, -184276.14, -160853.55, 0, 1, 1, 0, 1, 18:15:38.618
224, -175060.47, -184081.56, -176314.38, -178233.00, -184218.42, -184212.36, -184245.78, -159621.00, 0, 1, 1, 0, 1, 18:15:38.618
225, -174106.88, -184044.23, -176236.70, -177533.44, -184182.61, -184176.72, -184211.78, -158267.16, 0, 1, 1, 0, 1, 18:15:38.618
226, -173093.17, -183983.73, -176212.91, -176790.16, -184137.55, -184131.98, -184169.09, -156638.38, 0, 1, 1, 0, 1, 18:15:38.618
227, -171733.91, -183616.94, -176028.19, -176038.44, -184078.70, -184074.34, -184113.84, -155183.69, 0, 1, 1, 0, 1, 18:15:38.618
228, -170411.28, -182754.55, -175591.41, -175660.34, -184008.52, -184016.36, -184058.58, -154185.91, 0, 1, 1, 0, 1, 18:15:38.618
229, -169375.41, -182065.95, -174989.31, -175082.80, -183545.91, -183961.17, -184009.19, -153319.34, 0, 1, 1, 0, 1, 18:15:38.618
230, -168582.94, -181836.78, -174699.13, -174742.09, -182555.83, -183888.95, -183979.42, -152288.48, 0, 1, 1, 0, 1, 18:15:38.618
231, -168157.22, -182067.72, -174777.83, -174772.13, -182146.73, -183591.88, -183965.20, -151252.11, 0, 1, 1, 0, 1, 18:15:38.618
232, -168193.39, -182625.06, -175127.61, -175067.84, -181703.06, -183262.14, -183968.78, -150421.42, 0, 1, 1, 0, 1, 18:15:38.618
233, -168529.67, -183384.88, -175739.05, -175432.63, -181644.28, -182981.67, -183987.55, -149855.86, 0, 1, 1, 0, 1, 18:15:38.619
234, -168760.61, -183810.84, -176323.66, -175776.86, -181904.39, -183219.55, -184013.23, -148781.34, 0, 1, 1, 0, 1, 18:15:38.619
235, -168621.98, -183874.89, -176715.39, -176663.91, -182509.75, -183882.88, -184042.05, -147290.13, 0, 1, 1, 0, 1, 18:15:38.619
236, -168415.42, -183907.38, -176881.31, -177944.89, -183528.69, -184023.16, -184073.41, -146379.80, 0, 1, 1, 0, 1, 18:15:38.619
237, -168191.80, -183933.97, -177057.13, -179019.30, -183418.55, -184051.67, -184099.52, -146330.98, 0, 1, 1, 0, 1, 18:15:38.619
238, -168025.98, -183963.98, -177320.31, -180328.69, -183213.59, -184081.63, -184128.72, -146292.03, 0, 1, 1, 0, 1, 18:15:38.619
239, -167711.28, -183994.19, -177520.55, -182160.98, -183334.44, -184111.83, -184158.16, -145510.77, 0, 1, 1, 0, 1, 18:15:38.619
240, -167214.20, -184015.73, -177562.41, -183620.84, -182804.00, -184133.75, -184178.64, -144512.30, 0, 1, 1, 0, 1, 18:15:38.619
241, -166786.70, -184031.14, -177524.28, -184030.84, -181379.53, -184149.47, -184192.73, -143711.86, 0, 1, 1, 0, 1, 18:15:38.619
242, -166922.91, -184051.77, -177530.16, -184062.27, -179714.41, -184170.17, -184212.09, -143584.61, 0, 1, 1, 0, 1, 18:15:38.619
243, -167344.38, -184073.03, -177665.53, -184084.67, -178110.08, -184191.06, -184232.84, -144011.03, 0, 1, 1, 0, 1, 18:15:38.620
244, -167684.44, -184097.81, -177937.20, -184110.64, -177014.91, -184216.28, -184258.08, -144366.81, 0, 1, 1, 0, 1, 18:15:38.620
245, -167893.05, -184123.22, -178272.91, -184136.84, -176310.52, -184242.81, -184283.89, -144436.77, 0, 1, 1, 0, 1, 18:15:38.620
246, -167787.28, -184148.89, -178632.25, -184162.98, -175666.31, -184268.77, -184309.59, -144382.81, 0, 1, 1, 0, 1, 18:15:38.620
247, -167601.63, -184174.36, -178912.66, -184188.67, -174941.33, -184294.86, -184334.98, -144318.97, 0, 1, 1, 0, 1, 18:15:38.620
248, -167469.45, -184195.17, -179012.19, -184209.59, -174304.42, -184316.53, -184356.02, -144523.17, 0, 1, 1, 0, 1, 18:15:38.620
249, -167570.64, -184211.77, -179003.06, -184226.41, -174153.64, -184333.94, -184373.05, -144961.98, 0, 1, 1, 0, 1, 18:15:38.620
250, -167793.02, -184220.66, -178899.88, -184235.45, -174248.00, -184343.86, -184382.91, -145182.31, 0, 1, 1, 0, 1, 18:15:38.620
251, -168015.55, -184223.98, -178762.41, -184238.97, -174385.53, -184348.00, -184387.16, -145123.55, 0, 1, 1, 0, 1, 18:15:38.620
252, -168255.17, -184222.47, -178559.77, -184237.53, -174337.72, -184347.30, -184386.44, -145162.69, 0, 1, 1, 0, 1, 18:15:38.621
253, -168419.36, -184216.95, -178301.47, -184232.06, -173962.23, -184342.67, -184381.67, -145138.34, 0, 1, 1, 0, 1, 18:15:38.621
254, -168392.50, -184207.30, -178043.39, -184222.33, -173447.61, -184333.95, -184372.97, -144525.33, 0, 1, 1, 0, 1, 18:15:38.621
255, -168306.16, -184192.92, -177760.27, -184207.88, -172901.67, -184320.39, -184359.58, -143241.53, 0, 1, 1, 0, 1, 18:15:38.621
0, -168130.95, -184175.23, -177424.23, -184190.14, -172170.78, -184303.50, -184342.78, -141879.86, 0, 1, 1, 0, 1, 18:15:38.621
1, -167738.80, -184150.67, -177032.61, -184164.38, -171412.66, -184279.80, -184319.03, -140373.98, 0, 1, 1, 0, 1, 18:15:38.621
2, -167353.58, -184122.47, -176731.23, -184133.64, -170332.30, -184252.38, -184292.11, -138062.41, 0, 1, 1, 0, 1, 18:15:38.621
3, -166994.91, -184089.86, -176557.41, -184102.33, -168102.38, -184220.81, -184261.67, -135733.83, 0, 1, 1, 0, 1, 18:15:38.621
4, -166584.63, -184058.30, -176490.73, -184070.30, -163495.61, -184190.77, -184232.19, -134644.78, 0, 1, 1, 0, 1, 18:15:38.621
5, -166177.19, -184025.75, -176459.94, -184036.95, -158808.95, -184159.64, -184201.55, -133836.56, 0, 1, 1, 0, 1, 18:15:38.622
6, -165773.98, -183999.98, -176376.33, -184009.88, -155310.84, -184134.92, -184177.55, -132598.80, 0, 1, 1, 0, 1, 18:15:38.622
7, -165430.19, -183974.30, -176444.83, -183983.03, -152935.34, -184109.45, -184152.13, -132896.78, 0, 1, 1, 0, 1, 18:15:38.622
8, -165051.47, -183948.95, -176583.72, -183956.33, -152904.48, -184083.69, -184127.11, -133658.53, 0, 1, 1, 0, 1, 18:15:38.622
9, -164689.80, -183922.73, -176254.92, -183930.23, -154493.16, -184057.11, -184101.75, -133481.13, 0, 1, 1, 0, 1, 18:15:38.622
10, -164445.05, -183895.73, -175770.72, -183904.05, -157106.63, -184029.48, -184074.91, -134054.09, 0, 1, 1, 0, 1, 18:15:38.622
11, -164341.23, -183878.31, -175311.20, -183886.09, -160108.31, -184011.11, -184057.53, -134946.55, 0, 1, 1, 0, 1, 18:15:38.622
12, -164342.97, -183864.03, -174987.38, -183871.55, -162763.52, -183996.14, -184043.55, -135137.56, 0, 1, 1, 0, 1, 18:15:38.622
13, -164396.67, -183851.41, -174808.98, -183859.50, -164094.50, -183983.39, -184030.75, -135164.59, 0, 1, 1, 0, 1, 18:15:38.622
14, -164456.91, -183844.80, -174832.70, -183853.28, -163954.48, -183976.84, -184023.34, -135397.78, 0, 1, 1, 0, 1, 18:15:38.622
15, -164584.53, -183841.13, -175053.14, -183849.78, -163621.80, -183973.22, -184018.48, -135630.88, 0, 1, 1, 0, 1, 18:15:38.623
16, -164848.61, -183843.22, -175404.34, -183851.63, -163340.86, -183975.17, -184019.38, -135789.22, 0, 1, 1, 0, 1, 18:15:38.623
17, -165204.55, -183849.73, -175809.81, -183857.78, -163019.56, -183981.50, -184025.03, -135849.11, 0, 1, 1, 0, 1, 18:15:38.623
18, -165594.03, -183855.36, -176150.77, -183862.11, -162732.88, -183987.06, -184030.09, -135797.55, 0, 1, 1, 0, 1, 18:15:38.623
19, -166038.52, -183863.19, -176371.84, -183866.31, -162452.45, -183994.59, -184037.13, -135766.56, 0, 1, 1, 0, 1, 18:15:38.623
20, -166533.55, -183874.98, -176467.00, -183873.11, -162348.22, -184005.83, -184047.92, -135842.05, 0, 1, 1, 0, 1, 18:15:38.623
21, -167027.58, -183888.56, -176487.61, -183886.20, -162416.52, -184018.75, -184060.39, -136157.66, 0, 1, 1, 0, 1, 18:15:38.623
22, -167530.67, -183904.98, -176478.14, -183898.03, -162589.88, -184034.13, -184075.22, -136717.03, 0, 1, 1, 0, 1, 18:15:38.623
23, -168131.53, -183921.30, -176525.27, -183916.83, -162891.84, -184049.55, -184090.39, -137380.02, 0, 1, 1, 0, 1, 18:15:38.623
24, -168755.23, -183938.28, -176657.00, -183940.91, -163276.83, -184066.52, -184107.45, -137912.09, 0, 1, 1, 0, 1, 18:15:38.624
25, -169217.31, -183950.67, -176704.73, -183954.27, -163591.78, -184078.77, -184119.61, -138371.47, 0, 1, 1, 0, 1, 18:15:38.624
26, -169432.81, -183957.94, -176612.66, -183958.56, -163918.20, -184086.19, -184126.48, -138915.53, 0, 1, 1, 0, 1, 18:15:38.624
27, -169641.33, -183963.08, -176536.89, -183955.86, -164278.44, -184091.36, -184130.78, -139476.11, 0, 1, 1, 0, 1, 18:15:38.624
28, -170015.55, -183962.78, -176539.23, -183954.22, -164591.84, -184091.02, -184130.06, -140123.17, 0, 1, 1, 0, 1, 18:15:38.624
29, -170390.50, -183962.55, -176561.91, -183956.77, -164767.05, -184090.69, -184129.53, -140878.38, 0, 1, 1, 0, 1, 18:15:38.624
30, -170607.55, -183958.67, -176575.17, -183957.64, -164780.50, -184086.81, -184125.48, -141673.80, 0, 1, 1, 0, 1, 18:15:38.624
31, -170646.94, -183952.03, -176565.00, -183951.97, -164685.66, -184080.27, -184118.89, -142355.31, 0, 1, 1, 0, 1, 18:15:38.624
32, -170645.50, -183946.22, -176567.73, -183942.98, -164553.66, -184074.52, -184113.08, -142865.39, 0, 1, 1, 0, 1, 18:15:38.624
33, -170659.08, -183937.45, -176547.17, -183934.80, -164341.75, -184065.61, -184104.52, -143375.50, 0, 1, 1, 0, 1, 18:15:38.624
34, -170630.69, -183926.55, -176439.23, -183925.69, -164081.78, -184054.73, -184093.86, -143918.45, 0, 1, 1, 0, 1, 18:15:38.625
35, -170600.80, -183911.00, -176313.50, -183909.00, -163815.02, -184038.98, -184078.25, -144512.09, 0, 1, 1, 0, 1, 18:15:38.625
36, -170697.00, -183895.66, -176254.83, -183890.52, -163599.50, -184023.56, -184062.94, -145139.70, 0, 1, 1, 0, 1, 18:15:38.625
37, -170705.83, -183877.33, -176249.05, -183838.20, -163398.05, -184005.05, -184044.56, -145707.47, 0, 1, 1, 0, 1, 18:15:38.625
38, -170518.03, -183855.55, -176253.09, -183419.91, -163145.88, -183983.17, -184022.63, -146207.52, 0, 1, 1, 0, 1, 18:15:38.625
39, -170095.58, -183829.22, -176207.27, -182374.14, -162825.97, -183956.80, -183996.06, -146717.42, 0, 1, 1, 0, 1, 18:15:38.625
40, -169610.31, -183795.23, -176116.58, -180990.94, -162423.69, -183922.55, -183961.73, -147170.94, 0, 1, 1, 0, 1, 18:15:38.625
41, -169008.94, -183757.89, -175937.61, -179570.13, -161882.30, -183884.73, -183923.94, -147372.13, 0, 1, 1, 0, 1, 18:15:38.625
42, -168200.64, -183709.97, -175552.52, -178249.86, -161221.19, -183836.63, -183875.59, -147279.81, 0, 1, 1, 0, 1, 18:15:38.625
43, -167127.36, -183645.23, -174931.78, -177063.52, -160215.05, -183771.70, -183810.39, -146910.59, 0, 1, 1, 0, 1, 18:15:38.625
44, -165960.05, -183578.36, -174227.58, -176020.52, -158956.38, -183704.64, -183743.31, -146290.44, 0, 1, 1, 0, 1, 18:15:38.626
45, -164788.95, -183512.06, -173546.78, -175011.22, -157438.73, -183638.03, -183676.66, -145590.70, 0, 1, 1, 0, 1, 18:15:38.626
46, -163963.88, -183463.81, -173183.77, -174206.39, -156320.31, -183589.42, -183627.94, -145245.25, 0, 1, 1, 0, 1, 18:15:38.626
47, -163824.02, -183451.98, -173437.78, -174011.66, -155994.41, -183577.53, -183615.94, -145532.83, 0, 1, 1, 0, 1, 18:15:38.626
48, -163917.03, -183450.81, -173974.44, -173976.30, -155655.11, -183576.69, -183615.23, -145949.06, 0, 1, 1, 0, 1, 18:15:38.626
49, -164111.67, -183457.45, -174638.36, -173946.77, -155423.92, -183583.44, -183622.09, -146427.14, 0, 1, 1, 0, 1, 18:15:38.626
50, -164351.08, -183470.31, -175329.14, -174045.83, -155443.84, -183595.84, -183634.58, -147027.16, 0, 1, 1, 0, 1, 18:15:38.626
51, -164554.59, -183481.22, -175892.27, -174322.56, -155679.83, -183606.66, -183645.33, -147714.38, 0, 1, 1, 0, 1, 18:15:38.626
52, -164781.06, -183493.59, -176270.02, -174624.88, -155953.17, -183619.19, -183658.11, -148294.36, 0, 1, 1, 0, 1, 18:15:38.626
53, -165084.81, -183506.86, -176683.98, -174831.22, -156048.50, -183632.41, -183671.78, -148815.50, 0, 1, 1, 0, 1, 18:15:38.626
54, -165203.23, -183518.67, -177110.14, -175064.94, -155833.20, -183644.09, -183683.81, -149371.34, 0, 1, 1, 0, 1, 18:15:38.626
55, -164966.95, -183530.77, -177516.78, -175389.78, -155472.16, -183656.14, -183696.00, -149999.78, 0, 1, 1, 0, 1, 18:15:38.627
56, -164864.16, -183545.23, -177960.58, -175479.88, -155101.25, -183670.33, -183710.30, -150761.73, 0, 1, 1, 0, 1, 18:15:38.627
57, -164952.42, -183562.02, -178497.38, -175501.44, -154952.88, -183686.89, -183727.00, -151492.66, 0, 1, 1, 0, 1, 18:15:38.627
58, -165060.39, -183576.44, -179012.86, -175709.66, -155311.98, -183701.05, -183741.23, -152174.81, 0, 1, 1, 0, 1, 18:15:38.627
59, -164939.03, -183590.16, -179423.58, -175990.72, -156267.66, -183714.44, -183754.73, -152817.78, 0, 1, 1, 0, 1, 18:15:38.627
60, -164767.64, -183599.17, -179774.41, -176245.58, -157433.13, -183723.22, -183763.45, -153501.52, 0, 1, 1, 0, 1, 18:15:38.627
61, -164741.83, -183603.09, -180114.42, -176360.16, -158954.81, -183727.06, -183767.25, -154100.30, 0, 1, 1, 0, 1, 18:15:38.627
62, -164801.27, -183606.20, -180449.97, -176420.02, -160923.28, -183730.02, -183770.52, -154308.14, 0, 1, 1, 0, 1, 18:15:38.627
63, -164854.50, -183607.33, -180743.38, -176559.28, -163157.77, -183731.16, -183771.88, -154625.50, 0, 1, 1, 0, 1, 18:15:38.627
64, -164883.98, -183610.33, -181021.56, -176733.20, -165528.63, -183734.19, -183775.08, -154949.27, 0, 1, 1, 0, 1, 18:15:38.628
65, -164889.19, -183612.72, -181424.47, -176828.42, -166705.20, -183736.73, -183777.84, -154877.28, 0, 1, 1, 0, 1, 18:15:38.628
66, -164819.77, -183614.64, -181845.83, -176871.94, -167137.52, -183739.06, -183780.33, -154756.70, 0, 1, 1, 0, 1, 18:15:38.628
67, -164565.72, -183612.69, -182159.02, -176964.44, -167537.34, -183737.75, -183779.28, -154586.92, 0, 1, 1, 0, 1, 18:15:38.628
68, -164311.80, -183604.73, -182375.86, -177020.09, -167947.17, -183730.84, -183772.44, -154194.38, 0, 1, 1, 0, 1, 18:15:38.628
69, -164136.45, -183597.80, -182563.09, -177011.91, -168352.94, -183724.88, -183766.78, -153807.88, 0, 1, 1, 0, 1, 18:15:38.628
70, -163984.84, -183589.59, -182762.20, -176964.88, -168632.08, -183717.56, -183759.88, -153602.17, 0, 1, 1, 0, 1, 18:15:38.628
71, -163787.25, -183577.59, -182905.39, -176892.70, -168720.94, -183706.39, -183748.91, -153569.72, 0, 1, 1, 0, 1, 18:15:38.628
72, -163546.08, -183562.94, -182940.44, -176847.31, -168680.09, -183692.31, -183735.20, -153505.89, 0, 1, 1, 0, 1, 18:15:38.628
73, -163471.47, -183549.39, -182991.53, -176752.94, -168722.22, -183679.61, -183722.81, -153398.20, 0, 1, 1, 0, 1, 18:15:39.096
74, -163249.45, -183541.25, -183086.44, -176609.55, -168880.64, -183671.92, -183715.53, -153329.78, 0, 1, 1, 0, 1, 18:15:39.096
75, -162915.31, -183527.75, -183116.08, -176478.48, -169036.61, -183658.84, -183702.88, -153352.41, 0, 1, 1, 0, 1, 18:15:39.096
76, -162584.95, -183513.41, -183081.25, -176424.45, -169171.83, -183645.34, -183689.61, -153487.09, 0, 1, 1, 0, 1, 18:15:39.096
77, -162364.09, -183501.28, -183042.34, -176387.94, -169330.23, -183634.19, -183678.63, -153757.84, 0, 1, 1, 0, 1, 18:15:39.096
78, -162232.13, -183490.31, -183062.64, -176272.94, -169538.89, -183624.11, -183669.16, -154095.17, 0, 1, 1, 0, 1, 18:15:39.096
79, -162174.33, -183479.14, -183060.94, -176172.69, -169741.52, -183614.36, -183659.92, -154515.88, 0, 1, 1, 0, 1, 18:15:39.096
80, -162118.67, -183465.55, -182988.42, -176188.84, -169875.13, -183602.98, -183648.98, -155001.05, 0, 1, 1, 0, 1, 18:15:39.096
81, -162075.11, -183454.00, -182895.53, -176243.64, -169935.97, -183596.27, -183642.47, -155510.61, 0, 1, 1, 0, 1, 18:15:39.097
82, -162095.20, -183392.33, -182854.86, -176211.20, -169964.42, -183588.94, -183635.63, -155998.31, 0, 1, 1, 0, 1, 18:15:39.097
83, -162130.58, -183080.70, -182825.47, -176174.92, -169937.61, -183582.67, -183630.23, -156484.11, 0, 1, 1, 0, 1, 18:15:39.097
84, -162143.44, -182601.55, -182740.17, -176252.69, -169857.05, -183577.58, -183625.75, -157011.25, 0, 1, 1, 0, 1, 18:15:39.097
85, -162144.44, -182118.83, -182630.94, -176380.56, -169738.36, -183572.66, -183621.08, -157568.80, 0, 1, 1, 0, 1, 18:15:39.098
86, -162199.50, -181709.22, -182584.22, -176421.67, -169534.16, -183568.08, -183617.23, -158086.02, 0, 1, 1, 0, 1, 18:15:39.098
87, -162281.86, -181358.25, -182622.33, -176434.42, -168779.16, -183566.17, -183616.09, -158568.70, 0, 1, 1, 0, 1, 18:15:39.098
88, -162334.50, -181015.17, -182670.52, -176549.81, -167637.45, -183565.44, -183615.22, -159091.28, 0, 1, 1, 0, 1, 18:15:39.098
89, -162371.58, -180682.69, -182711.72, -176746.03, -166501.20, -183564.50, -183613.92, -159605.89, 0, 1, 1, 0, 1, 18:15:39.098
90, -162458.52, -180394.16, -182813.84, -176869.55, -165500.17, -183562.22, -183611.30, -160078.05, 0, 1, 1, 0, 1, 18:15:39.098
91, -162599.88, -180148.30, -182970.45, -176811.88, -164763.38, -183562.28, -183610.95, -160613.50, 0, 1, 1, 0, 1, 18:15:39.098
92, -162724.47, -179893.03, -183098.88, -176552.27, -164270.31, -183563.11, -183611.28, -161168.97, 0, 1, 1, 0, 1, 18:15:39.098
93, -162819.41, -179617.52, -183193.69, -176569.98, -163916.31, -183565.64, -183613.61, -161633.58, 0, 1, 1, 0, 1, 18:15:39.098
94, -162941.13, -179344.28, -183304.69, -176585.33, -163729.98, -183569.59, -183617.34, -162006.17, 0, 1, 1, 0, 1, 18:15:39.098
95, -163096.97, -179073.52, -183424.64, -176682.73, -163750.47, -183571.81, -183619.55, -162330.30, 0, 1, 1, 0, 1, 18:15:39.098
96, -163216.03, -178766.70, -183458.03, -176653.94, -163909.41, -183570.92, -183618.55, -162691.34, 0, 1, 1, 0, 1, 18:15:39.098
97, -163300.05, -178427.89, -183461.41, -176502.13, -164219.02, -183571.94, -183619.44, -163068.84, 0, 1, 1, 0, 1, 18:15:39.099
98, -163423.72, -178119.23, -183470.72, -176615.44, -164769.08, -183577.13, -183624.56, -163441.41, 0, 1, 1, 0, 1, 18:15:39.099
99, -163619.70, -177857.27, -183485.11, -176883.08, -165581.83, -183582.30, -183630.13, -163813.89, 0, 1, 1, 0, 1, 18:15:39.099
100, -163800.55, -177590.34, -183490.11, -176829.03, -166568.70, -183586.84, -183634.80, -164210.91, 0, 1, 1, 0, 1, 18:15:39.099
101, -163943.88, -177319.25, -183490.56, -176574.42, -167723.38, -183590.11, -183637.81, -164622.06, 0, 1, 1, 0, 1, 18:15:39.099
102, -164078.42, -177042.63, -183496.11, -176613.73, -168770.91, -183594.05, -183641.84, -164973.19, 0, 1, 1, 0, 1, 18:15:39.099
103, -164258.27, -176786.11, -183504.27, -176865.97, -169131.06, -183597.48, -183645.48, -165245.22, 0, 1, 1, 0, 1, 18:15:39.099
104, -164421.14, -176559.86, -183508.23, -176895.77, -169184.23, -183598.66, -183646.53, -165462.88, 0, 1, 1, 0, 1, 18:15:39.099
105, -164483.94, -176357.58, -183500.91, -176816.16, -169124.89, -183594.63, -183642.17, -165658.97, 0, 1, 1, 0, 1, 18:15:39.099
106, -164545.17, -176238.36, -183496.22, -176780.20, -168995.28, -183591.55, -183639.02, -165858.20, 0, 1, 1, 0, 1, 18:15:39.099
107, -164634.89, -176150.14, -183501.09, -176844.61, -168883.31, -183590.77, -183638.17, -166034.39, 0, 1, 1, 0, 1, 18:15:39.100
108, -164718.25, -176026.55, -183496.17, -176697.94, -168741.45, -183584.13, -183631.59, -166226.72, 0, 1, 1, 0, 1, 18:15:39.100
109, -164713.73, -175942.44, -183491.45, -176623.09, -168512.75, -183579.31, -183626.75, -166486.81, 0, 1, 1, 0, 1, 18:15:39.100
110, -164678.34, -175925.88, -183486.05, -176574.33, -168251.86, -183574.06, -183621.31, -166811.83, 0, 1, 1, 0, 1, 18:15:39.100
111, -164682.44, -175906.61, -183477.00, -176424.09, -168038.00, -183564.88, -183611.95, -167151.39, 0, 1, 1, 0, 1, 18:15:39.100
112, -164712.92, -175898.66, -183471.20, -176232.45, -167858.42, -183558.83, -183605.94, -167464.72, 0, 1, 1, 0, 1, 18:15:39.101
113, -164712.80, -175872.59, -183465.03, -176145.67, -167633.31, -183552.61, -183599.66, -167798.92, 0, 1, 1, 0, 1, 18:15:39.101
114, -164686.84, -175846.78, -183456.47, -176143.28, -167267.00, -183544.52, -183591.19, -168206.38, 0, 1, 1, 0, 1, 18:15:39.101
115, -164711.31, -175860.14, -183449.28, -176062.70, -166666.31, -183537.56, -183583.83, -168683.80, 0, 1, 1, 0, 1, 18:15:39.101
116, -164797.14, -175864.69, -183441.56, -175909.61, -165766.44, -183529.72, -183575.92, -169094.30, 0, 1, 1, 0, 1, 18:15:39.102
117, -164853.81, -175866.47, -183435.34, -175852.41, -164927.48, -183523.48, -183569.55, -169387.69, 0, 1, 1, 0, 1, 18:15:39.102
118, -164855.83, -175897.94, -183430.13, -175897.72, -164460.44, -183518.59, -183564.34, -169622.27, 0, 1, 1, 0, 1, 18:15:39.102
119, -164871.47, -175884.28, -183423.81, -175890.77, -164144.44, -183512.53, -183557.95, -169778.53, 0, 1, 1, 0, 1, 18:15:39.102
120, -164941.47, -175866.89, -183418.56, -175768.55, -163727.64, -183507.50, -183552.63, -169911.86, 0, 1, 1, 0, 1, 18:15:39.102
121, -165015.86, -175854.94, -183412.98, -175696.84, -162891.38, -183502.05, -183546.73, -170115.88, 0, 1, 1, 0, 1, 18:15:39.102
122, -165070.67, -175824.22, -183405.05, -175729.70, -161231.42, -183494.69, -183538.48, -170334.28, 0, 1, 1, 0, 1, 18:15:39.102
123, -165151.72, -175807.17, -183399.80, -175753.45, -159070.91, -183490.09, -183532.89, -170562.31, 0, 1, 1, 0, 1, 18:15:39.102
124, -165270.05, -175819.23, -183395.44, -175644.50, -157174.94, -183486.06, -183528.25, -170746.52, 0, 1, 1, 0, 1, 18:15:39.102
125, -165354.94, -175860.03, -183390.30, -175544.45, -155782.38, -183481.19, -183522.77, -170805.03, 0, 1, 1, 0, 1, 18:15:39.102
126, -165394.56, -175845.50, -183384.70, -175579.86, -154397.59, -183476.44, -183517.19, -170832.19, 0, 1, 1, 0, 1, 18:15:39.103
127, -165444.95, -175810.80, -183376.81, -175639.73, -152844.83, -183469.30, -183509.36, -170889.94, 0, 1, 1, 0, 1, 18:15:39.103
128, -165502.81, -175836.27, -183367.83, -175562.53, -151451.55, -183460.70, -183500.17, -171001.55, 0, 1, 1, 0, 1, 18:15:39.103
129, -165535.56, -175791.14, -183359.67, -175461.66, -149698.23, -183453.08, -183491.77, -171227.19, 0, 1, 1, 0, 1, 18:15:39.103
130, -165529.22, -175755.61, -183350.48, -175443.95, -146983.84, -183444.67, -183482.45, -171465.13, 0, 1, 1, 0, 1, 18:15:39.103
131, -165518.38, -175759.16, -183337.14, -175423.28, -143950.64, -183432.09, -183468.95, -171838.66, 0, 1, 1, 0, 1, 18:15:39.103
132, -165576.67, -175741.05, -183325.98, -175228.94, -141471.52, -183421.67, -183457.92, -172277.36, 0, 1, 1, 0, 1, 18:15:39.103
133, -165617.19, -175756.00, -183316.55, -175242.56, -140014.09, -183413.20, -183448.88, -172575.44, 0, 1, 1, 0, 1, 18:15:39.103
134, -165558.77, -175737.45, -183304.48, -175422.16, -139891.05, -183401.41, -183436.94, -172969.45, 0, 1, 1, 0, 1, 18:15:39.103
135, -165391.38, -175713.41, -183289.19, -175379.63, -140098.81, -183386.05, -183421.47, -173205.67, 0, 1, 1, 0, 1, 18:15:39.103
136, -165229.44, -175642.66, -183276.86, -175240.39, -140255.52, -183373.61, -183408.97, -173167.47, 0, 1, 1, 0, 1, 18:15:39.104
137, -165120.75, -175612.42, -183264.89, -175087.27, -140350.16, -183361.55, -183397.11, -173196.05, 0, 1, 1, 0, 1, 18:15:39.104
138, -165018.70, -175657.80, -183249.81, -175097.06, -140303.38, -183346.56, -183382.17, -173378.94, 0, 1, 1, 0, 1, 18:15:39.104
139, -164966.06, -175769.59, -183240.31, -175260.36, -139951.58, -183337.45, -183372.78, -173700.11, 0, 1, 1, 0, 1, 18:15:39.104
140, -164970.42, -175935.52, -183231.38, -175337.66, -138721.31, -183328.94, -183364.14, -174143.48, 0, 1, 1, 0, 1, 18:15:39.104
141, -165017.20, -176036.56, -183221.33, -175269.03, -136664.47, -183318.81, -183353.45, -174547.36, 0, 1, 1, 0, 1, 18:15:39.104
142, -165034.81, -176167.14, -183207.72, -175256.38, -134082.55, -183306.30, -183340.05, -174919.89, 0, 1, 1, 0, 1, 18:15:39.104
143, -164974.48, -176268.48, -183190.59, -175116.44, -131893.97, -183291.08, -183324.42, -175186.55, 0, 1, 1, 0, 1, 18:15:39.104
144, -164943.59, -176377.97, -183177.38, -175052.63, -130749.43, -183278.59, -183311.72, -175516.75, 0, 1, 1, 0, 1, 18:15:39.104
145, -164962.89, -176477.31, -183170.34, -175267.63, -130731.19, -183270.91, -183303.50, -175981.30, 0, 1, 1, 0, 1, 18:15:39.104
146, -164899.86, -176474.86, -183161.59, -175211.58, -130969.46, -183262.48, -183295.19, -176406.31, 0, 1, 1, 0, 1, 18:15:39.105
147, -164749.41, -176394.39, -183148.16, -174960.53, -130848.43, -183250.19, -183282.64, -176627.88, 0, 1, 1, 0, 1, 18:15:39.105
148, -164608.66, -176314.22, -183133.63, -174903.27, -130587.76, -183236.55, -183269.23, -177040.81, 0, 1, 1, 0, 1, 18:15:39.105
149, -164610.38, -176356.58, -183126.11, -174864.67, -130457.56, -183229.83, -183263.44, -177488.31, 0, 1, 1, 0, 1, 18:15:39.105
150, -164749.36, -176534.36, -183128.00, -174949.16, -130278.68, -183231.48, -183265.09, -177859.44, 0, 1, 1, 0, 1, 18:15:39.105
151, -164966.75, -176811.61, -183134.14, -175274.69, -130184.71, -183236.94, -183270.48, -178220.94, 0, 1, 1, 0, 1, 18:15:39.105
152, -165224.05, -177153.48, -183141.56, -175659.17, -130164.13, -183243.86, -183277.39, -178432.86, 0, 1, 1, 0, 1, 18:15:39.105
153, -165509.98, -177541.86, -183149.56, -175896.89, -130191.33, -183251.16, -183284.83, -178652.64, 0, 1, 1, 0, 1, 18:15:39.105
154, -165759.09, -177934.05, -183153.52, -176056.39, -130187.95, -183254.48, -183288.14, -178822.58, 0, 1, 1, 0, 1, 18:15:39.105
155, -165901.81, -178270.91, -183149.67, -176276.94, -130034.40, -183250.44, -183284.31, -178863.95, 0, 1, 1, 0, 1, 18:15:39.105
156, -165946.20, -178495.89, -183140.84, -176483.36, -130076.11, -183242.77, -183276.91, -178926.94, 0, 1, 1, 0, 1, 18:15:39.105
157, -166024.19, -178692.95, -183132.75, -176554.81, -130482.46, -183235.73, -183270.23, -179125.36, 0, 1, 1, 0, 1, 18:15:39.106
158, -166083.33, -178840.09, -183126.05, -176540.27, -131008.95, -183228.59, -183263.88, -179268.81, 0, 1, 1, 0, 1, 18:15:39.106
159, -166091.09, -178943.92, -183116.48, -176317.08, -131522.52, -183221.98, -183257.56, -179378.23, 0, 1, 1, 0, 1, 18:15:39.106
160, -166069.97, -178971.02, -183108.70, -176224.52, -132075.77, -183212.22, -183248.22, -179561.34, 0, 1, 1, 0, 1, 18:15:39.106
161, -166067.75, -178888.36, -183098.36, -176231.39, -132708.61, -183202.64, -183239.19, -179724.83, 0, 1, 1, 0, 1, 18:15:39.106
162, -166107.36, -178673.72, -183086.17, -176207.77, -133419.92, -183195.52, -183232.70, -179846.69, 0, 1, 1, 0, 1, 18:15:39.106
163, -166249.91, -178284.80, -183030.88, -176393.77, -134112.25, -183188.13, -183225.88, -179956.33, 0, 1, 1, 0, 1, 18:15:39.106
