%OpenBCI Raw EEG Data
%
%Sample Rate = 250.0 Hz
%First Column = SampleIndex
%Last Column = Timestamp 
%Other Columns = EEG data in microvolts followed by Accel Data (in G) interleaved with Aux Data
0, 0.00, 0.00, 0.00, 0.00, 0.00, 0.00, 0.00, 0.00, 0.000, 0.000, 0.000, 11:55:43.603
1, -53348.16, -58910.95, -105065.96, -99076.36, -61598.12, -58936.00, -82650.84, -85104.42, 0.000, 0.000, 0.000, 11:55:44.087
2, -53398.56, -58961.02, -105128.66, -98929.47, -61630.17, -58981.87, -82703.62, -85136.25, 0.000, 0.000, 0.000, 11:55:44.087
3, -53335.89, -58899.19, -105157.31, -99084.19, -61671.72, -58994.05, -82672.20, -85172.99, 0.000, 0.000, 0.000, 11:55:44.087
4, -53277.66, -58840.47, -105105.16, -99261.45, -61649.37, -58952.19, -82611.69, -85151.52, 0.000, 0.000, 0.000, 11:55:44.088
5, -53332.27, -58896.96, -105062.05, -99128.46, -61597.94, -58932.32, -82627.18, -85111.22, 0.000, 0.000, 0.000, 11:55:44.088
6, -53395.81, -58960.79, -105112.80, -98940.82, -61617.90, -58974.72, -82689.60, -85134.35, 0.000, 0.000, 0.000, 11:55:44.089
7, -53352.29, -58916.89, -105157.65, -99048.09, -61668.17, -59001.45, -82684.62, -85181.11, 0.000, 0.000, 0.000, 11:55:44.089
8, -53277.80, -58842.55, -105118.38, -99253.99, -61658.61, -58967.07, -82620.45, -85169.71, 0.000, 0.000, 0.000, 11:55:44.090
9, -53309.96, -58872.28, -105059.38, -99172.20, -61602.72, -58933.37, -82618.73, -85121.74, 0.000, 0.000, 0.000, 11:55:44.091
10, -53383.38, -58949.21, -105093.63, -98951.59, -61605.68, -58962.60, -82685.91, -85128.41, 0.000, 0.000, 0.000, 11:55:44.091
11, -53351.71, -58919.22, -105152.03, -99013.38, -61655.86, -58988.53, -82684.30, -85171.52, 0.000, 0.000, 0.000, 11:55:44.092
12, -53283.81, -58847.29, -105124.38, -99226.48, -61652.73, -58961.38, -82625.16, -85166.52, 0.000, 0.000, 0.000, 11:55:44.093
13, -53308.44, -58870.27, -105073.55, -99197.09, -61608.47, -58931.73, -82620.80, -85127.09, 0.000, 0.000, 0.000, 11:55:44.093
14, -53391.75, -58954.76, -105099.51, -98966.81, -61605.34, -58956.93, -82684.89, -85125.59, 0.000, 0.000, 0.000, 11:55:44.094
15, -53381.42, -58942.46, -105159.43, -98982.53, -61654.18, -58987.35, -82695.55, -85166.00, 0.000, 0.000, 0.000, 11:55:44.094
16, -53309.76, -58869.78, -105145.82, -99194.85, -61665.00, -58968.73, -82640.97, -85173.04, 0.000, 0.000, 0.000, 11:55:44.094
17, -53295.12, -58855.47, -105082.97, -99230.68, -61618.35, -58925.81, -82609.97, -85130.44, 0.000, 0.000, 0.000, 11:55:44.095
18, -53367.40, -58926.04, -105077.91, -99008.63, -61587.59, -58925.14, -82653.53, -85106.16, 0.000, 0.000, 0.000, 11:55:44.095
19, -53386.45, -58944.27, -105142.70, -98954.79, -61632.68, -58966.63, -82693.09, -85147.72, 0.000, 0.000, 0.000, 11:55:44.096
20, -53313.20, -58873.55, -105150.25, -99162.69, -61659.57, -58966.02, -82653.33, -85173.87, 0.000, 0.000, 0.000, 11:55:44.096
21, -53281.91, -58841.64, -105087.05, -99256.98, -61616.87, -58924.88, -82609.32, -85138.69, 0.000, 0.000, 0.000, 11:55:44.096
22, -53360.09, -58918.44, -105070.14, -99045.96, -61578.88, -58922.64, -82646.00, -85107.86, 0.000, 0.000, 0.000, 11:55:44.097
23, -53396.53, -58956.21, -105140.13, -98934.23, -61623.78, -58967.79, -82696.04, -85146.45, 0.000, 0.000, 0.000, 11:55:44.097
24, -53319.01, -58883.10, -105155.92, -99119.48, -61659.83, -58974.92, -82657.42, -85176.15, 0.000, 0.000, 0.000, 11:55:44.097
25, -53260.29, -58824.47, -105090.66, -99265.75, -61624.03, -58927.27, -82596.42, -85141.10, 0.000, 0.000, 0.000, 11:55:44.098
26, -53331.30, -58891.01, -105056.62, -99088.88, -61577.76, -58912.63, -82627.73, -85101.56, 0.000, 0.000, 0.000, 11:55:44.099
27, -53397.69, -58954.33, -105126.98, -98930.36, -61616.58, -58958.09, -82696.38, -85134.91, 0.000, 0.000, 0.000, 11:55:44.099
28, -53346.71, -58901.54, -105170.14, -99076.67, -61665.82, -58977.33, -82675.77, -85176.17, 0.000, 0.000, 0.000, 11:55:44.099
29, -53285.24, -58838.86, -105122.09, -99264.83, -61644.57, -58938.33, -82615.27, -85153.77, 0.000, 0.000, 0.000, 11:55:44.099
30, -53335.13, -58888.95, -105072.80, -99139.59, -61592.60, -58910.68, -82631.70, -85107.41, 0.000, 0.000, 0.000, 11:55:44.100
31, -53411.88, -58965.09, -105128.16, -98937.29, -61610.66, -58949.04, -82700.05, -85126.48, 0.000, 0.000, 0.000, 11:55:44.100
32, -53363.13, -58916.52, -105176.55, -99043.33, -61656.32, -58969.55, -82685.63, -85170.89, 0.000, 0.000, 0.000, 11:55:44.100
33, -53286.85, -58840.77, -105134.27, -99253.90, -61646.13, -58932.52, -82621.59, -85158.80, 0.000, 0.000, 0.000, 11:55:44.100
34, -53314.30, -58868.03, -105075.16, -99190.04, -61600.82, -58897.11, -82617.30, -85111.06, 0.000, 0.000, 0.000, 11:55:44.101
35, -53390.29, -58946.60, -105099.87, -98966.46, -61597.20, -58922.46, -82671.55, -85110.12, 0.000, 0.000, 0.000, 11:55:44.101
36, -53378.16, -58932.99, -105164.06, -99005.95, -61650.56, -58963.16, -82690.88, -85161.02, 0.000, 0.000, 0.000, 11:55:44.101
37, -53292.30, -58845.82, -105146.02, -99231.77, -61656.79, -58937.55, -82626.15, -85164.10, 0.000, 0.000, 0.000, 11:55:44.101
38, -53305.49, -58859.09, -105078.25, -99217.89, -61602.16, -58897.79, -82608.00, -85120.29, 0.000, 0.000, 0.000, 11:55:44.102
39, -53398.65, -58951.54, -105100.07, -98983.06, -61591.13, -58921.86, -82675.28, -85118.62, 0.000, 0.000, 0.000, 11:55:44.102
40, -53392.66, -58947.00, -105165.24, -98981.01, -61644.79, -58957.15, -82696.65, -85161.35, 0.000, 0.000, 0.000, 11:55:44.102
41, -53302.47, -58859.76, -105150.96, -99202.88, -61657.38, -58937.01, -82633.08, -85166.49, 0.000, 0.000, 0.000, 11:55:44.102
42, -53290.16, -58848.74, -105086.21, -99250.80, -61612.34, -58895.93, -82601.05, -85126.41, 0.000, 0.000, 0.000, 11:55:44.103
43, -53377.68, -58930.59, -105082.41, -99024.82, -61587.82, -58899.95, -82655.05, -85104.24, 0.000, 0.000, 0.000, 11:55:44.103
44, -53400.59, -58952.16, -105147.27, -98950.97, -61631.07, -58938.66, -82691.13, -85141.01, 0.000, 0.000, 0.000, 11:55:44.103
45, -53327.89, -58881.36, -105157.82, -99148.29, -61656.05, -58935.96, -82645.04, -85165.44, 0.000, 0.000, 0.000, 11:55:44.103
46, -53307.10, -58856.68, -105107.15, -99253.27, -61626.55, -58899.55, -82611.84, -85136.77, 0.000, 0.000, 0.000, 11:55:44.104
47, -53376.57, -58925.23, -105089.47, -99064.96, -61595.55, -58889.34, -82651.32, -85106.08, 0.000, 0.000, 0.000, 11:55:44.105
48, -53414.30, -58965.00, -105149.22, -98945.36, -61633.55, -58931.16, -82701.09, -85142.17, 0.000, 0.000, 0.000, 11:55:44.105
49, -53349.63, -58900.46, -105173.29, -99117.31, -61672.91, -58940.97, -82671.26, -85174.60, 0.000, 0.000, 0.000, 11:55:44.106
50, -53297.29, -58847.43, -105120.61, -99273.44, -61646.15, -58902.90, -82618.39, -85147.90, 0.000, 0.000, 0.000, 11:55:44.106
51, -53356.00, -58906.84, -105080.13, -99115.30, -61599.82, -58882.34, -82637.66, -85105.16, 0.000, 0.000, 0.000, 11:55:44.106
52, -53418.12, -58969.27, -105133.33, -98940.10, -61626.37, -58921.39, -82695.69, -85128.43, 0.000, 0.000, 0.000, 11:55:44.106
53, -53366.73, -58917.79, -105173.94, -99072.67, -61675.99, -58944.70, -82680.13, -85170.45, 0.000, 0.000, 0.000, 11:55:44.107
54, -53298.56, -58850.18, -105125.26, -99263.49, -61659.09, -58916.16, -82617.48, -85155.72, 0.000, 0.000, 0.000, 11:55:44.107
55, -53337.59, -58890.52, -105069.49, -99150.37, -61606.12, -58890.23, -82621.97, -85111.66, 0.000, 0.000, 0.000, 11:55:44.107
56, -53407.21, -58962.04, -105113.48, -98941.49, -61620.72, -58924.70, -82686.90, -85125.34, 0.000, 0.000, 0.000, 11:55:44.107
57, -53373.95, -58924.85, -105165.71, -99025.47, -61669.71, -58951.58, -82685.56, -85168.99, 0.000, 0.000, 0.000, 11:55:44.107
58, -53296.88, -58845.88, -105134.49, -99241.88, -61660.41, -58921.30, -82622.75, -85164.48, 0.000, 0.000, 0.000, 11:55:44.108
59, -53314.79, -58863.25, -105072.84, -99193.26, -61609.92, -58882.63, -82614.13, -85118.41, 0.000, 0.000, 0.000, 11:55:44.108
60, -53397.60, -58946.67, -105096.05, -98962.03, -61611.57, -58906.97, -82681.07, -85118.55, 0.000, 0.000, 0.000, 11:55:44.108
61, -53404.62, -58953.06, -105174.09, -98982.59, -61679.35, -58957.77, -82711.73, -85175.50, 0.000, 0.000, 0.000, 11:55:44.108
62, -53316.78, -58863.99, -105159.12, -99216.13, -61693.76, -58932.85, -82649.62, -85182.85, 0.000, 0.000, 0.000, 11:55:44.109
63, -53316.48, -58862.76, -105086.21, -99226.45, -61634.04, -58887.99, -82620.25, -85133.81, 0.000, 0.000, 0.000, 11:55:44.109
64, -53396.13, -58944.10, -105093.14, -98992.37, -61614.01, -58904.73, -82670.74, -85119.44, 0.000, 0.000, 0.000, 11:55:44.109
65, -53394.34, -58939.18, -105147.34, -98967.09, -61659.88, -58937.30, -82687.02, -85155.56, 0.000, 0.000, 0.000, 11:55:44.116
66, -53314.30, -58855.92, -105133.98, -99178.22, -61668.39, -58918.48, -82628.16, -85164.81, 0.000, 0.000, 0.000, 11:55:44.116
67, -53306.90, -58851.05, -105074.59, -99234.92, -61628.03, -58883.30, -82603.87, -85129.14, 0.000, 0.000, 0.000, 11:55:44.117
68, -53388.14, -58932.12, -105072.71, -99010.13, -61604.87, -58897.00, -82662.78, -85113.43, 0.000, 0.000, 0.000, 11:55:44.117
69, -53413.20, -58958.69, -105146.72, -98928.30, -61655.50, -58947.36, -82707.76, -85158.45, 0.000, 0.000, 0.000, 11:55:44.117
70, -53333.56, -58879.77, -105156.33, -99130.90, -61684.18, -58941.01, -82659.05, -85181.80, 0.000, 0.000, 0.000, 11:55:44.118
71, -53298.94, -58843.20, -105096.58, -99257.99, -61648.75, -58894.18, -82613.48, -85146.98, 0.000, 0.000, 0.000, 11:55:44.118
72, -53371.92, -58911.06, -105068.66, -99068.38, -61604.73, -58877.49, -82645.86, -85108.65, 0.000, 0.000, 0.000, 11:55:44.118
73, -53413.05, -58950.73, -105125.68, -98932.48, -61634.73, -58916.02, -82689.07, -85136.90, 0.000, 0.000, 0.000, 11:55:44.119
74, -53353.59, -58890.92, -105156.44, -99094.16, -61668.66, -58932.34, -82658.89, -85174.34, 0.000, 0.000, 0.000, 11:55:44.119
75, -53296.97, -58833.66, -105108.27, -99261.91, -61642.55, -58894.23, -82604.38, -85151.74, 0.000, 0.000, 0.000, 11:55:44.119
76, -53360.16, -58892.73, -105070.00, -99112.52, -61602.84, -58879.68, -82633.37, -85114.81, 0.000, 0.000, 0.000, 11:55:44.119
77, -53422.30, -58954.76, -105132.68, -98937.40, -61636.07, -58924.07, -82698.57, -85143.07, 0.000, 0.000, 0.000, 11:55:44.120
78, -53373.06, -58910.17, -105172.48, -99060.88, -61676.33, -58942.15, -82676.69, -85180.28, 0.000, 0.000, 0.000, 11:55:44.120
79, -53313.63, -58851.07, -105135.65, -99253.72, -61659.92, -58913.47, -82621.92, -85168.88, 0.000, 0.000, 0.000, 11:55:44.120
80, -53342.64, -58881.71, -105078.14, -99161.68, -61606.46, -58881.06, -82623.16, -85121.85, 0.000, 0.000, 0.000, 11:55:44.121
81, -53416.91, -58954.33, -105112.00, -98948.48, -61615.46, -58912.78, -82685.58, -85129.05, 0.000, 0.000, 0.000, 11:55:44.121
82, -53390.87, -58926.82, -105169.91, -99019.30, -61670.20, -58946.93, -82689.59, -85175.74, 0.000, 0.000, 0.000, 11:55:44.121
83, -53305.20, -58842.26, -105134.71, -99238.10, -61669.33, -58915.64, -82624.63, -85170.83, 0.000, 0.000, 0.000, 11:55:44.121
84, -53324.87, -58863.14, -105067.55, -99193.44, -61615.96, -58877.53, -82611.69, -85122.81, 0.000, 0.000, 0.000, 11:55:44.122
85, -53407.19, -58947.52, -105091.33, -98961.05, -61613.14, -58900.78, -82675.97, -85121.45, 0.000, 0.000, 0.000, 11:55:44.122
86, -53391.97, -58929.07, -105147.68, -98985.81, -61662.74, -58931.98, -82683.39, -85165.02, 0.000, 0.000, 0.000, 11:55:44.122
87, -53310.41, -58844.23, -105130.22, -99210.31, -61668.42, -58913.12, -82628.30, -85170.42, 0.000, 0.000, 0.000, 11:55:44.123
88, -53312.69, -58847.04, -105070.49, -99225.67, -61621.79, -58876.15, -82611.02, -85126.19, 0.000, 0.000, 0.000, 11:55:44.123
89, -53399.14, -58931.36, -105074.74, -98990.09, -61604.11, -58885.51, -82667.55, -85108.20, 0.000, 0.000, 0.000, 11:55:44.123
90, -53422.14, -58953.37, -105151.32, -98947.62, -61657.71, -58934.15, -82708.29, -85158.63, 0.000, 0.000, 0.000, 11:55:44.124
91, -53338.21, -58869.82, -105153.35, -99165.97, -61679.95, -58923.27, -82653.22, -85176.84, 0.000, 0.000, 0.000, 11:55:44.124
92, -53321.89, -58854.06, -105094.75, -99244.40, -61640.66, -58885.36, -82620.74, -85141.52, 0.000, 0.000, 0.000, 11:55:44.124
93, -53395.10, -58927.98, -105083.10, -99038.30, -61608.71, -58885.49, -82662.18, -85115.41, 0.000, 0.000, 0.000, 11:55:44.125
94, -53410.59, -58943.78, -105135.41, -98946.19, -61640.54, -58922.35, -82696.80, -85145.86, 0.000, 0.000, 0.000, 11:55:44.125
95, -53333.85, -58867.59, -105141.98, -99134.48, -61662.16, -58920.61, -82650.45, -85169.48, 0.000, 0.000, 0.000, 11:55:44.125
96, -53302.45, -58837.43, -105085.85, -99255.98, -61627.24, -58886.27, -82605.85, -85140.77, 0.000, 0.000, 0.000, 11:55:44.126
97, -53376.86, -58911.48, -105064.04, -99073.27, -61589.52, -58880.41, -82645.20, -85109.12, 0.000, 0.000, 0.000, 11:55:44.126
98, -53426.88, -58960.41, -105126.60, -98929.63, -61627.31, -58923.82, -82701.72, -85141.19, 0.000, 0.000, 0.000, 11:55:44.126
99, -53364.21, -58898.61, -105154.59, -99086.38, -61668.71, -58933.84, -82673.20, -85177.16, 0.000, 0.000, 0.000, 11:55:44.126
100, -53310.72, -58841.79, -105111.40, -99260.23, -61650.36, -58895.59, -82620.56, -85156.81, 0.000, 0.000, 0.000, 11:55:44.126
101, -53359.40, -58888.08, -105063.23, -99124.66, -61600.78, -58864.88, -82633.75, -85109.20, 0.000, 0.000, 0.000, 11:55:44.127
102, -53436.56, -58966.92, -105122.38, -98928.28, -61627.38, -58911.13, -82705.95, -85132.80, 0.000, 0.000, 0.000, 11:55:44.127
103, -53388.23, -58916.78, -105169.80, -99045.54, -61682.81, -58934.64, -82692.94, -85176.91, 0.000, 0.000, 0.000, 11:55:44.127
104, -53319.13, -58849.37, -105126.22, -99250.70, -61670.36, -58902.97, -82632.59, -85168.44, 0.000, 0.000, 0.000, 11:55:44.127
105, -53356.50, -58886.16, -105073.96, -99171.06, -61620.11, -58874.49, -82640.34, -85126.48, 0.000, 0.000, 0.000, 11:55:44.128
106, -53429.54, -58961.38, -105107.87, -98960.11, -61626.26, -58899.26, -82702.88, -85129.55, 0.000, 0.000, 0.000, 11:55:44.128
107, -53406.18, -58939.67, -105163.55, -99017.13, -61674.56, -58932.47, -82699.38, -85169.98, 0.000, 0.000, 0.000, 11:55:44.128
108, -53323.08, -58855.72, -105137.84, -99242.99, -61671.12, -58907.26, -82632.50, -85167.50, 0.000, 0.000, 0.000, 11:55:44.128
109, -53334.30, -58868.32, -105073.31, -99219.63, -61618.57, -58869.55, -82622.91, -85122.91, 0.000, 0.000, 0.000, 11:55:44.128
110, -53433.34, -58960.05, -105095.87, -98979.82, -61610.19, -58895.88, -82688.58, -85121.54, 0.000, 0.000, 0.000, 11:55:44.128
111, -53418.32, -58947.40, -105159.08, -98985.05, -61663.57, -58934.89, -82701.92, -85166.91, 0.000, 0.000, 0.000, 11:55:44.128
112, -53334.41, -58866.45, -105139.95, -99202.98, -61671.05, -58917.86, -82642.45, -85173.82, 0.000, 0.000, 0.000, 11:55:44.129
113, -53324.87, -58857.59, -105079.50, -99237.18, -61627.96, -58871.88, -82616.72, -85131.33, 0.000, 0.000, 0.000, 11:55:44.129
114, -53407.77, -58941.04, -105076.91, -99007.09, -61606.79, -58872.39, -82669.11, -85107.75, 0.000, 0.000, 0.000, 11:55:44.129
115, -53431.42, -58965.91, -105152.39, -98946.43, -61656.84, -58918.57, -82708.47, -85156.48, 0.000, 0.000, 0.000, 11:55:44.129
116, -53351.20, -58885.78, -105162.59, -99165.99, -61684.15, -58910.90, -82658.36, -85179.84, 0.000, 0.000, 0.000, 11:55:44.129
117, -53324.53, -58855.49, -105098.95, -99262.38, -61641.32, -58866.87, -82615.64, -85142.35, 0.000, 0.000, 0.000, 11:55:44.129
118, -53398.70, -58929.12, -105085.02, -99057.01, -61604.51, -58863.00, -82657.66, -85113.34, 0.000, 0.000, 0.000, 11:55:44.130
119, -53426.50, -58959.21, -105143.30, -98946.79, -61637.86, -58901.79, -82697.96, -85145.16, 0.000, 0.000, 0.000, 11:55:44.130
120, -53369.53, -58900.89, -105171.44, -99121.76, -61680.22, -58915.62, -82672.10, -85180.88, 0.000, 0.000, 0.000, 11:55:44.131
121, -53320.35, -58850.73, -105114.02, -99277.23, -61658.20, -58868.59, -82620.65, -85150.73, 0.000, 0.000, 0.000, 11:55:44.567
122, -53386.45, -58918.46, -105076.27, -99103.07, -61614.23, -58856.63, -82651.27, -85112.71, 0.000, 0.000, 0.000, 11:55:44.567
123, -53438.01, -58970.65, -105136.57, -98944.27, -61644.14, -58902.39, -82706.26, -85144.38, 0.000, 0.000, 0.000, 11:55:44.568
124, -53382.49, -58913.25, -105172.30, -99088.56, -61687.08, -58916.27, -82686.45, -85183.03, 0.000, 0.000, 0.000, 11:55:44.568
125, -53327.17, -58854.31, -105129.98, -99270.93, -61667.14, -58881.62, -82630.73, -85166.09, 0.000, 0.000, 0.000, 11:55:44.568
126, -53370.46, -58899.10, -105076.87, -99151.35, -61611.62, -58852.95, -82636.43, -85122.28, 0.000, 0.000, 0.000, 11:55:44.568
127, -53443.40, -58974.32, -105122.58, -98948.58, -61621.88, -58890.05, -82698.92, -85137.73, 0.000, 0.000, 0.000, 11:55:44.568
128, -53407.57, -58940.27, -105177.98, -99040.89, -61674.85, -58922.06, -82699.24, -85182.95, 0.000, 0.000, 0.000, 11:55:44.569
129, -53341.99, -58872.08, -105145.11, -99246.91, -61666.63, -58892.35, -82633.86, -85172.86, 0.000, 0.000, 0.000, 11:55:44.569
130, -53363.76, -58894.07, -105082.72, -99186.17, -61618.97, -58856.25, -82619.76, -85122.30, 0.000, 0.000, 0.000, 11:55:44.569
131, -53433.61, -58965.22, -105102.08, -98965.19, -61614.84, -58874.76, -82672.41, -85116.80, 0.000, 0.000, 0.000, 11:55:44.569
132, -53406.90, -58936.43, -105151.92, -99012.32, -61660.68, -58901.11, -82675.23, -85156.03, 0.000, 0.000, 0.000, 11:55:44.570
133, -53336.45, -58865.78, -105133.10, -99226.45, -61668.35, -58883.30, -82627.49, -85163.27, 0.000, 0.000, 0.000, 11:55:44.570
134, -53342.82, -58871.95, -105075.97, -99221.31, -61627.38, -58848.72, -82615.73, -85123.76, 0.000, 0.000, 0.000, 11:55:44.570
135, -53433.54, -58959.14, -105093.56, -98988.25, -61617.66, -58871.23, -82683.77, -85118.59, 0.000, 0.000, 0.000, 11:55:44.570
136, -53445.28, -58969.09, -105171.19, -98974.84, -61671.34, -58918.14, -82717.08, -85168.70, 0.000, 0.000, 0.000, 11:55:44.571
137, -53349.32, -58875.52, -105163.92, -99203.01, -61689.20, -58899.39, -82656.44, -85182.80, 0.000, 0.000, 0.000, 11:55:44.571
138, -53329.02, -58861.24, -105091.51, -99256.80, -61640.32, -58853.19, -82622.80, -85137.88, 0.000, 0.000, 0.000, 11:55:44.571
139, -53430.95, -58963.72, -105096.16, -99023.30, -61618.93, -58868.48, -82682.70, -85117.92, 0.000, 0.000, 0.000, 11:55:44.571
140, -53447.58, -58977.56, -105167.66, -98959.93, -61669.09, -58907.51, -82710.77, -85159.30, 0.000, 0.000, 0.000, 11:55:44.572
141, -53372.63, -58897.89, -105172.13, -99165.57, -61692.54, -58904.13, -82666.38, -85185.45, 0.000, 0.000, 0.000, 11:55:44.572
142, -53332.78, -58858.38, -105108.80, -99278.20, -61646.18, -58857.84, -82621.30, -85150.71, 0.000, 0.000, 0.000, 11:55:44.572
143, -53405.18, -58936.23, -105079.81, -99072.30, -61596.27, -58848.25, -82654.96, -85113.12, 0.000, 0.000, 0.000, 11:55:44.572
144, -53445.66, -58977.78, -105149.77, -98946.19, -61632.88, -58891.12, -82705.07, -85147.27, 0.000, 0.000, 0.000, 11:55:44.572
145, -53378.73, -58906.43, -105169.94, -99127.66, -61668.77, -58893.96, -82666.67, -85173.60, 0.000, 0.000, 0.000, 11:55:44.573
146, -53332.73, -58857.84, -105115.45, -99283.36, -61642.87, -58856.03, -82619.40, -85150.87, 0.000, 0.000, 0.000, 11:55:44.573
147, -53401.85, -58927.55, -105080.73, -99112.64, -61601.43, -58843.36, -82652.70, -85112.76, 0.000, 0.000, 0.000, 11:55:44.573
148, -53455.54, -58981.98, -105143.18, -98944.40, -61632.21, -58881.20, -82708.05, -85137.48, 0.000, 0.000, 0.000, 11:55:44.573
149, -53404.46, -58931.16, -105181.12, -99083.73, -61673.51, -58898.01, -82687.51, -85177.17, 0.000, 0.000, 0.000, 11:55:44.574
150, -53342.70, -58869.15, -105139.27, -99278.84, -61658.43, -58863.85, -82631.22, -85161.80, 0.000, 0.000, 0.000, 11:55:44.574
151, -53376.84, -58907.95, -105083.46, -99174.02, -61603.02, -58833.90, -82638.95, -85116.98, 0.000, 0.000, 0.000, 11:55:44.574
152, -53457.59, -58986.32, -105131.05, -98966.41, -61615.26, -58874.54, -82708.91, -85136.12, 0.000, 0.000, 0.000, 11:55:44.574
153, -53425.05, -58952.59, -105183.55, -99051.69, -61667.97, -58901.96, -82697.43, -85178.65, 0.000, 0.000, 0.000, 11:55:44.575
154, -53358.11, -58884.68, -105159.74, -99265.50, -61673.80, -58880.19, -82646.38, -85178.78, 0.000, 0.000, 0.000, 11:55:44.575
155, -53383.77, -58910.39, -105103.09, -99212.51, -61629.14, -58848.03, -82644.66, -85137.37, 0.000, 0.000, 0.000, 11:55:44.575
156, -53456.72, -58984.78, -105131.02, -98986.40, -61628.63, -58869.62, -82703.11, -85134.98, 0.000, 0.000, 0.000, 11:55:44.575
157, -53448.45, -58977.47, -105190.50, -99014.36, -61682.81, -58906.52, -82718.95, -85180.08, 0.000, 0.000, 0.000, 11:55:44.576
158, -53373.53, -58903.06, -105176.76, -99233.38, -61689.43, -58891.19, -82657.80, -85187.13, 0.000, 0.000, 0.000, 11:55:44.576
159, -53371.89, -58902.70, -105110.08, -99242.73, -61640.32, -58849.77, -82635.11, -85143.49, 0.000, 0.000, 0.000, 11:55:44.576
160, -53442.19, -58974.79, -105112.20, -99014.94, -61615.35, -58853.73, -82684.27, -85123.13, 0.000, 0.000, 0.000, 11:55:44.576
161, -53456.25, -58985.80, -105176.87, -98983.76, -61664.01, -58896.91, -82716.45, -85168.39, 0.000, 0.000, 0.000, 11:55:44.577
162, -53372.07, -58900.69, -105172.91, -99202.05, -61685.38, -58884.93, -82662.20, -85185.73, 0.000, 0.000, 0.000, 11:55:44.577
163, -53347.89, -58882.07, -105105.21, -99273.08, -61635.40, -58837.21, -82622.23, -85144.74, 0.000, 0.000, 0.000, 11:55:44.577
164, -53433.27, -58971.57, -105096.47, -99045.31, -61600.78, -58842.20, -82672.93, -85120.55, 0.000, 0.000, 0.000, 11:55:44.578
165, -53460.39, -58999.57, -105171.86, -98963.77, -61652.28, -58888.82, -82716.61, -85164.21, 0.000, 0.000, 0.000, 11:55:44.578
166, -53391.18, -58925.95, -105189.36, -99163.82, -61682.30, -58891.50, -82674.80, -85193.47, 0.000, 0.000, 0.000, 11:55:44.578
167, -53349.95, -58883.30, -105129.05, -99287.09, -61647.52, -58849.84, -82628.83, -85161.53, 0.000, 0.000, 0.000, 11:55:44.578
168, -53429.27, -58964.04, -105104.85, -99087.60, -61605.54, -58841.61, -82670.02, -85129.84, 0.000, 0.000, 0.000, 11:55:44.579
169, -53470.63, -59004.40, -105177.98, -98960.09, -61648.21, -58882.47, -82724.63, -85163.66, 0.000, 0.000, 0.000, 11:55:44.579
170, -53393.53, -58927.96, -105197.74, -99132.45, -61681.13, -58884.53, -82686.63, -85191.30, 0.000, 0.000, 0.000, 11:55:44.579
171, -53347.96, -58876.66, -105146.07, -99297.09, -61651.61, -58846.98, -82632.77, -85166.23, 0.000, 0.000, 0.000, 11:55:44.579
172, -53411.01, -58941.14, -105105.50, -99156.09, -61606.19, -58824.49, -82657.11, -85123.66, 0.000, 0.000, 0.000, 11:55:44.580
173, -53484.01, -59019.60, -105170.48, -98970.19, -61632.99, -58873.06, -82727.09, -85151.52, 0.000, 0.000, 0.000, 11:55:44.580
174, -53423.89, -58955.92, -105202.35, -99101.09, -61669.85, -58888.55, -82698.45, -85187.73, 0.000, 0.000, 0.000, 11:55:44.580
175, -53352.81, -58886.83, -105151.66, -99299.25, -61646.91, -58851.96, -82636.79, -85172.41, 0.000, 0.000, 0.000, 11:55:44.580
176, -53395.81, -58933.25, -105101.56, -99199.85, -61599.15, -58829.88, -82649.30, -85131.11, 0.000, 0.000, 0.000, 11:55:44.581
177, -53475.61, -59012.20, -105150.54, -98983.55, -61616.65, -58867.74, -82720.61, -85144.41, 0.000, 0.000, 0.000, 11:55:44.581
178, -53436.87, -58972.21, -105202.93, -99059.87, -61666.94, -58892.11, -82714.77, -85185.67, 0.000, 0.000, 0.000, 11:55:44.581
179, -53342.68, -58875.99, -105164.73, -99286.31, -61661.51, -58854.67, -82640.03, -85175.30, 0.000, 0.000, 0.000, 11:55:44.581
180, -53373.46, -58903.04, -105103.09, -99238.12, -61608.13, -58823.29, -82634.06, -85129.01, 0.000, 0.000, 0.000, 11:55:44.582
181, -53476.75, -59004.65, -105148.80, -98997.08, -61614.48, -58862.54, -82718.84, -85140.61, 0.000, 0.000, 0.000, 11:55:44.582
182, -53458.49, -58985.45, -105214.10, -99017.42, -61668.55, -58895.39, -82728.48, -85185.20, 0.000, 0.000, 0.000, 11:55:44.582
183, -53365.32, -58892.51, -105184.76, -99240.83, -61666.52, -58865.53, -82657.53, -85183.95, 0.000, 0.000, 0.000, 11:55:44.582
184, -53361.12, -58889.51, -105120.72, -99267.16, -61620.79, -58823.73, -82630.35, -85138.71, 0.000, 0.000, 0.000, 11:55:44.583
185, -53448.52, -58974.67, -105127.31, -99038.95, -61598.97, -58833.84, -82683.95, -85121.20, 0.000, 0.000, 0.000, 11:55:44.583
186, -53465.06, -58990.97, -105194.81, -98994.82, -61646.51, -58875.07, -82722.51, -85167.41, 0.000, 0.000, 0.000, 11:55:44.583
187, -53390.07, -58914.10, -105199.51, -99206.20, -61671.61, -58867.86, -82678.67, -85188.10, 0.000, 0.000, 0.000, 11:55:44.583
188, -53364.68, -58888.46, -105132.95, -99288.59, -61629.66, -58825.18, -82637.91, -85152.97, 0.000, 0.000, 0.000, 11:55:44.584
189, -53439.00, -58963.74, -105118.33, -99074.02, -61594.05, -58822.91, -82680.30, -85126.34, 0.000, 0.000, 0.000, 11:55:44.584
190, -53470.60, -58996.31, -105182.30, -98974.21, -61635.65, -58863.56, -82726.33, -85162.45, 0.000, 0.000, 0.000, 11:55:44.584
191, -53403.05, -58929.52, -105203.29, -99156.73, -61669.55, -58872.41, -82691.86, -85194.09, 0.000, 0.000, 0.000, 11:55:44.584
192, -53357.64, -58884.60, -105142.73, -99293.82, -61638.35, -58831.60, -82643.25, -85166.70, 0.000, 0.000, 0.000, 11:55:44.585
193, -53417.83, -58945.17, -105105.48, -99119.91, -61594.75, -58812.67, -82670.31, -85126.64, 0.000, 0.000, 0.000, 11:55:44.585
194, -53467.85, -58996.96, -105161.38, -98963.51, -61625.97, -58855.54, -82725.30, -85156.05, 0.000, 0.000, 0.000, 11:55:44.585
195, -53414.95, -58940.52, -105196.89, -99112.82, -61670.79, -58874.07, -82699.80, -85196.22, 0.000, 0.000, 0.000, 11:55:44.585
196, -53354.86, -58882.09, -105148.73, -99291.52, -61651.85, -58836.72, -82644.03, -85175.37, 0.000, 0.000, 0.000, 11:55:44.586
197, -53411.41, -58939.92, -105103.91, -99152.11, -61601.88, -58817.32, -82660.73, -85133.43, 0.000, 0.000, 0.000, 11:55:44.586
198, -53470.78, -59002.48, -105157.84, -98965.63, -61623.29, -58854.84, -82721.37, -85154.40, 0.000, 0.000, 0.000, 11:55:44.586
199, -53428.76, -58953.48, -105195.11, -99076.95, -61669.55, -58874.56, -82704.72, -85192.91, 0.000, 0.000, 0.000, 11:55:44.586
200, -53352.43, -58873.84, -105153.58, -99284.05, -61661.35, -58841.30, -82640.23, -85178.43, 0.000, 0.000, 0.000, 11:55:44.587
201, -53387.34, -58914.77, -105091.91, -99204.41, -61605.81, -58808.71, -82634.82, -85126.64, 0.000, 0.000, 0.000, 11:55:44.587
202, -53472.97, -59002.90, -105133.64, -98985.13, -61615.09, -58842.17, -82705.95, -85136.67, 0.000, 0.000, 0.000, 11:55:44.587
203, -53446.06, -58974.20, -105189.25, -99033.29, -61664.35, -58874.36, -82714.17, -85185.40, 0.000, 0.000, 0.000, 11:55:44.587
204, -53369.06, -58892.98, -105164.69, -99251.78, -61667.54, -58850.02, -82649.53, -85186.20, 0.000, 0.000, 0.000, 11:55:44.588
205, -53380.46, -58907.95, -105101.01, -99239.71, -61617.43, -58810.86, -82633.62, -85140.95, 0.000, 0.000, 0.000, 11:55:44.588
206, -53461.26, -58989.89, -105121.62, -99008.93, -61611.91, -58829.36, -82698.10, -85137.14, 0.000, 0.000, 0.000, 11:55:44.588
207, -53458.24, -58987.08, -105189.18, -99004.68, -61666.00, -58871.12, -82724.18, -85184.53, 0.000, 0.000, 0.000, 11:55:44.588
208, -53381.08, -58910.79, -105181.45, -99224.27, -61678.41, -58855.92, -82670.20, -85195.55, 0.000, 0.000, 0.000, 11:55:44.588
209, -53371.14, -58900.11, -105118.84, -99269.28, -61632.88, -58812.40, -82635.98, -85155.16, 0.000, 0.000, 0.000, 11:55:44.588
210, -53459.92, -58987.68, -105117.86, -99040.04, -61609.21, -58821.16, -82694.68, -85138.91, 0.000, 0.000, 0.000, 11:55:44.589
211, -53484.53, -59011.42, -105195.80, -98978.44, -61661.58, -58870.47, -82734.13, -85186.14, 0.000, 0.000, 0.000, 11:55:44.589
212, -53398.36, -58923.60, -105203.04, -99196.81, -61686.14, -58861.51, -82677.31, -85205.05, 0.000, 0.000, 0.000, 11:55:44.589
213, -53362.24, -58886.21, -105132.99, -99301.02, -61637.70, -58811.26, -82629.41, -85163.30, 0.000, 0.000, 0.000, 11:55:44.589
214, -53447.54, -58971.37, -105114.57, -99092.39, -61596.51, -58809.61, -82677.31, -85132.07, 0.000, 0.000, 0.000, 11:55:44.589
215, -53478.29, -59003.11, -105180.53, -98982.71, -61637.14, -58852.81, -82722.28, -85168.19, 0.000, 0.000, 0.000, 11:55:44.589
216, -53404.64, -58933.88, -105197.81, -99158.46, -61660.75, -58856.03, -82679.81, -85194.27, 0.000, 0.000, 0.000, 11:55:44.589
217, -53356.36, -58883.25, -105140.81, -99300.17, -61623.98, -58814.34, -82625.70, -85165.93, 0.000, 0.000, 0.000, 11:55:44.590
218, -53427.57, -58953.86, -105108.43, -99126.12, -61581.42, -58805.23, -82657.95, -85133.12, 0.000, 0.000, 0.000, 11:55:44.590
219, -53479.48, -59005.77, -105161.42, -98963.91, -61612.00, -58845.82, -82710.70, -85160.68, 0.000, 0.000, 0.000, 11:55:44.590
220, -53433.50, -58956.23, -105198.82, -99100.97, -61657.53, -58868.59, -82696.06, -85204.69, 0.000, 0.000, 0.000, 11:55:44.590
221, -53374.49, -58896.26, -105155.41, -99286.38, -61639.09, -58831.82, -82635.34, -85185.22, 0.000, 0.000, 0.000, 11:55:44.590
222, -53418.79, -58942.49, -105110.02, -99167.02, -61585.89, -58805.65, -82646.02, -85140.27, 0.000, 0.000, 0.000, 11:55:44.591
223, -53483.70, -59003.91, -105155.84, -98974.51, -61603.51, -58838.80, -82706.01, -85157.39, 0.000, 0.000, 0.000, 11:55:44.591
224, -53439.80, -58961.20, -105198.50, -99069.77, -61655.63, -58863.92, -82695.51, -85196.06, 0.000, 0.000, 0.000, 11:55:44.591
225, -53364.50, -58889.16, -105165.45, -99276.37, -61650.73, -58837.95, -82638.02, -85187.26, 0.000, 0.000, 0.000, 11:55:44.591
226, -53397.02, -58917.97, -105107.76, -99214.72, -61597.63, -58804.87, -82630.13, -85141.88, 0.000, 0.000, 0.000, 11:55:44.591
227, -53478.43, -58998.01, -105138.00, -98989.91, -61595.73, -58830.71, -82688.58, -85143.31, 0.000, 0.000, 0.000, 11:55:44.592
228, -53459.89, -58984.17, -105200.74, -99029.80, -61645.26, -58872.19, -82702.88, -85193.41, 0.000, 0.000, 0.000, 11:55:44.592
229, -53377.64, -58899.13, -105178.74, -99256.54, -61655.92, -58849.70, -82643.18, -85200.33, 0.000, 0.000, 0.000, 11:55:44.592
230, -53384.14, -58904.58, -105116.14, -99252.05, -61609.54, -58807.37, -82628.18, -85154.94, 0.000, 0.000, 0.000, 11:55:44.592
231, -53467.25, -58988.35, -105134.78, -99019.21, -61595.91, -58823.35, -82696.13, -85145.91, 0.000, 0.000, 0.000, 11:55:44.592
232, -53463.45, -58983.73, -105192.58, -99006.80, -61639.61, -58860.07, -82712.54, -85183.70, 0.000, 0.000, 0.000, 11:55:44.593
233, -53383.95, -58904.38, -105186.61, -99222.03, -61649.98, -58848.32, -82654.16, -85195.77, 0.000, 0.000, 0.000, 11:55:44.593
234, -53365.39, -58890.07, -105120.79, -99275.83, -61603.51, -58804.69, -82619.58, -85155.25, 0.000, 0.000, 0.000, 11:55:44.593
235, -53447.55, -58972.35, -105117.50, -99051.80, -61578.59, -58808.24, -82670.80, -85135.02, 0.000, 0.000, 0.000, 11:55:44.594
236, -53473.29, -58996.55, -105186.10, -98981.95, -61630.98, -58852.45, -82713.16, -85176.82, 0.000, 0.000, 0.000, 11:55:44.594
237, -53399.90, -58924.20, -105197.30, -99179.18, -61662.02, -58854.29, -82673.38, -85202.88, 0.000, 0.000, 0.000, 11:55:44.594
238, -53351.91, -58879.70, -105128.43, -99285.80, -61617.19, -58809.09, -82620.52, -85165.91, 0.000, 0.000, 0.000, 11:55:44.594
239, -53432.02, -58956.41, -105107.53, -99083.76, -61580.33, -58803.57, -82660.88, -85134.39, 0.000, 0.000, 0.000, 11:55:44.595
240, -53477.62, -58999.95, -105172.04, -98958.27, -61623.85, -58847.85, -82712.27, -85169.20, 0.000, 0.000, 0.000, 11:55:44.595
241, -53414.97, -58937.39, -105197.27, -99126.88, -61659.45, -58860.43, -82680.11, -85200.96, 0.000, 0.000, 0.000, 11:55:45.046
242, -53357.79, -58883.03, -105140.63, -99285.57, -61629.77, -58820.11, -82621.77, -85173.71, 0.000, 0.000, 0.000, 11:55:45.047
243, -53422.41, -58950.54, -105099.82, -99123.55, -61581.13, -58805.94, -82650.31, -85136.80, 0.000, 0.000, 0.000, 11:55:45.047
244, -53475.41, -59000.13, -105157.84, -98959.33, -61609.77, -58845.03, -82706.86, -85163.18, 0.000, 0.000, 0.000, 11:55:45.047
245, -53421.56, -58946.60, -105193.59, -99089.55, -61654.67, -58863.23, -82690.27, -85201.36, 0.000, 0.000, 0.000, 11:55:45.047
246, -53352.09, -58876.44, -105146.40, -99286.42, -61636.63, -58822.08, -82626.15, -85181.53, 0.000, 0.000, 0.000, 11:55:45.048
247, -53400.19, -58923.60, -105088.84, -99176.81, -61577.31, -58794.03, -82632.25, -85132.41, 0.000, 0.000, 0.000, 11:55:45.048
248, -53478.94, -59002.95, -105139.27, -98968.13, -61590.86, -58833.28, -82700.38, -85146.87, 0.000, 0.000, 0.000, 11:55:45.048
249, -53441.54, -58967.45, -105189.05, -99056.94, -61643.11, -58858.76, -82693.92, -85186.56, 0.000, 0.000, 0.000, 11:55:45.048
250, -53368.41, -58895.48, -105158.31, -99268.84, -61639.98, -58831.78, -82637.01, -85182.83, 0.000, 0.000, 0.000, 11:55:45.049
251, -53395.48, -58922.50, -105104.72, -99219.48, -61593.63, -58801.94, -82633.68, -85140.16, 0.000, 0.000, 0.000, 11:55:45.049
252, -53481.38, -59008.54, -105137.08, -98998.02, -61596.85, -58829.41, -82696.42, -85144.77, 0.000, 0.000, 0.000, 11:55:45.049
253, -53460.16, -58982.54, -105192.16, -99030.65, -61650.94, -58861.21, -82705.27, -85189.40, 0.000, 0.000, 0.000, 11:55:45.049
254, -53379.47, -58905.09, -105172.71, -99246.75, -61654.47, -58844.09, -82646.22, -85195.73, 0.000, 0.000, 0.000, 11:55:45.050
255, -53374.87, -58900.33, -105105.90, -99259.49, -61602.75, -58802.09, -82616.42, -85149.93, 0.000, 0.000, 0.000, 11:55:45.050
0, -53458.64, -58980.98, -105114.71, -99031.57, -61585.56, -58811.59, -82669.22, -85135.53, 0.000, 0.000, 0.000, 11:55:45.050
1, -53459.45, -58983.03, -105176.42, -98997.41, -61629.86, -58849.28, -82695.28, -85175.43, 0.000, 0.000, 0.000, 11:55:45.050
2, -53381.13, -58904.98, -105174.61, -99208.04, -61643.56, -58845.66, -82647.83, -85193.42, 0.000, 0.000, 0.000, 11:55:45.051
3, -53368.68, -58892.17, -105117.73, -99276.86, -61604.80, -58812.29, -82622.75, -85158.22, 0.000, 0.000, 0.000, 11:55:45.051
4, -53457.61, -58981.87, -105120.12, -99058.23, -61580.77, -58822.28, -82678.45, -85140.52, 0.000, 0.000, 0.000, 11:55:45.051
5, -53473.11, -58998.63, -105180.87, -98977.08, -61618.71, -58858.22, -82711.76, -85176.33, 0.000, 0.000, 0.000, 11:55:45.051
6, -53399.01, -58926.33, -105192.34, -99167.98, -61639.74, -58859.05, -82664.05, -85201.09, 0.000, 0.000, 0.000, 11:55:45.052
7, -53356.50, -58880.77, -105132.90, -99291.90, -61605.18, -58816.45, -82619.96, -85171.43, 0.000, 0.000, 0.000, 11:55:45.052
8, -53435.51, -58956.99, -105110.28, -99104.37, -61569.27, -58807.08, -82662.58, -85138.71, 0.000, 0.000, 0.000, 11:55:45.052
9, -53481.49, -59004.47, -105172.33, -98968.47, -61604.38, -58849.95, -82719.11, -85169.80, 0.000, 0.000, 0.000, 11:55:45.052
10, -53417.27, -58941.04, -105201.92, -99127.97, -61641.73, -58867.03, -82694.26, -85207.44, 0.000, 0.000, 0.000, 11:55:45.053
11, -53361.84, -58888.51, -105151.56, -99292.93, -61614.35, -58829.81, -82635.31, -85185.05, 0.000, 0.000, 0.000, 11:55:45.053
12, -53411.55, -58938.89, -105105.79, -99147.62, -61564.35, -58809.63, -82651.43, -85142.02, 0.000, 0.000, 0.000, 11:55:45.053
13, -53474.89, -58999.93, -105157.71, -98963.48, -61586.50, -58849.10, -82716.25, -85163.81, 0.000, 0.000, 0.000, 11:55:45.053
14, -53418.21, -58944.81, -105192.05, -99076.79, -61624.34, -58862.87, -82696.80, -85198.16, 0.000, 0.000, 0.000, 11:55:45.054
15, -53330.68, -58854.31, -105135.25, -99273.64, -61598.54, -58816.40, -82621.14, -85175.55, 0.000, 0.000, 0.000, 11:55:45.054
16, -53369.71, -58892.48, -105084.76, -99172.98, -61548.84, -58790.09, -82631.58, -85132.49, 0.000, 0.000, 0.000, 11:55:45.054
17, -53440.76, -58965.60, -105123.91, -98959.82, -61556.88, -58818.82, -82690.41, -85138.02, 0.000, 0.000, 0.000, 11:55:45.054
18, -53414.79, -58936.34, -105174.32, -99024.23, -61604.71, -58849.23, -82696.40, -85181.96, 0.000, 0.000, 0.000, 11:55:45.054
19, -53335.08, -58857.30, -105153.33, -99236.91, -61603.17, -58826.91, -82639.90, -85183.23, 0.000, 0.000, 0.000, 11:55:45.055
20, -53342.97, -58868.14, -105088.60, -99208.44, -61547.70, -58785.46, -82624.92, -85135.65, 0.000, 0.000, 0.000, 11:55:45.055
21, -53438.46, -58962.43, -105116.67, -98972.83, -61542.40, -58813.56, -82699.13, -85140.34, 0.000, 0.000, 0.000, 11:55:45.055
22, -53428.85, -58952.48, -105187.38, -98991.27, -61601.09, -58853.44, -82724.01, -85193.70, 0.000, 0.000, 0.000, 11:55:45.055
23, -53339.20, -58863.65, -105166.45, -99219.39, -61603.95, -58829.39, -82657.73, -85197.23, 0.000, 0.000, 0.000, 11:55:45.056
24, -53333.63, -58857.64, -105101.63, -99243.71, -61552.05, -58787.77, -82632.52, -85153.41, 0.000, 0.000, 0.000, 11:55:45.056
25, -53412.98, -58938.87, -105101.14, -99014.63, -61527.13, -58792.04, -82679.34, -85132.41, 0.000, 0.000, 0.000, 11:55:45.056
26, -53431.42, -58955.16, -105169.70, -98970.52, -61575.81, -58835.18, -82711.42, -85174.91, 0.000, 0.000, 0.000, 11:55:45.056
27, -53347.51, -58870.76, -105172.87, -99186.02, -61602.19, -58827.73, -82664.84, -85193.80, 0.000, 0.000, 0.000, 11:55:45.057
28, -53323.57, -58842.84, -105108.63, -99271.78, -61566.85, -58786.74, -82628.52, -85156.74, 0.000, 0.000, 0.000, 11:55:45.057
29, -53421.88, -58941.91, -105103.02, -99045.60, -61537.37, -58801.61, -82689.29, -85135.71, 0.000, 0.000, 0.000, 11:55:45.057
30, -53441.32, -58963.72, -105167.73, -98951.48, -61575.41, -58845.50, -82727.02, -85174.56, 0.000, 0.000, 0.000, 11:55:45.057
31, -53366.51, -58888.73, -105180.55, -99136.55, -61600.60, -58846.53, -82686.72, -85203.13, 0.000, 0.000, 0.000, 11:55:45.058
32, -53317.34, -58838.75, -105116.95, -99268.59, -61561.98, -58798.05, -82630.75, -85167.79, 0.000, 0.000, 0.000, 11:55:45.058
33, -53399.05, -58922.64, -105093.16, -99080.70, -61522.46, -58793.02, -82676.40, -85136.54, 0.000, 0.000, 0.000, 11:55:45.058
34, -53441.50, -58963.03, -105154.38, -98942.05, -61560.30, -58833.21, -82726.02, -85166.73, 0.000, 0.000, 0.000, 11:55:45.058
35, -53379.00, -58898.36, -105187.80, -99096.39, -61599.59, -58846.55, -82699.82, -85203.82, 0.000, 0.000, 0.000, 11:55:45.059
36, -53314.86, -58835.51, -105141.53, -99275.98, -61574.00, -58804.11, -82643.23, -85184.33, 0.000, 0.000, 0.000, 11:55:45.059
37, -53362.26, -58884.42, -105091.59, -99144.84, -61518.46, -58778.22, -82660.01, -85141.23, 0.000, 0.000, 0.000, 11:55:45.059
38, -53427.48, -58950.58, -105143.36, -98954.27, -61535.71, -58817.85, -82719.09, -85160.50, 0.000, 0.000, 0.000, 11:55:45.059
39, -53382.65, -58903.08, -105185.27, -99066.05, -61582.74, -58843.20, -82705.12, -85201.20, 0.000, 0.000, 0.000, 11:55:45.059
40, -53312.21, -58831.93, -105148.16, -99275.52, -61574.92, -58813.52, -82646.38, -85191.99, 0.000, 0.000, 0.000, 11:55:45.060
41, -53351.24, -58873.58, -105096.49, -99194.31, -61526.62, -58784.50, -82650.80, -85150.13, 0.000, 0.000, 0.000, 11:55:45.060
42, -53433.54, -58955.56, -105143.95, -98974.57, -61536.72, -58821.07, -82722.71, -85163.77, 0.000, 0.000, 0.000, 11:55:45.060
43, -53396.84, -58918.35, -105192.89, -99034.34, -61582.56, -58848.65, -82724.63, -85205.67, 0.000, 0.000, 0.000, 11:55:45.060
44, -53316.17, -58836.63, -105163.30, -99253.34, -61574.52, -58820.83, -82655.30, -85200.96, 0.000, 0.000, 0.000, 11:55:45.061
45, -53325.65, -58846.80, -105096.34, -99237.23, -61513.99, -58778.87, -82631.85, -85149.73, 0.000, 0.000, 0.000, 11:55:45.061
46, -53411.44, -58930.73, -105117.50, -99006.13, -61499.62, -58793.76, -82691.04, -85139.67, 0.000, 0.000, 0.000, 11:55:45.061
47, -53420.20, -58937.30, -105193.50, -99000.03, -61559.79, -58839.78, -82722.26, -85189.18, 0.000, 0.000, 0.000, 11:55:45.061
48, -53339.46, -58857.89, -105191.64, -99216.24, -61579.97, -58827.69, -82671.05, -85203.70, 0.000, 0.000, 0.000, 11:55:45.061
49, -53320.31, -58841.05, -105121.08, -99258.75, -61526.64, -58779.81, -82636.79, -85157.44, 0.000, 0.000, 0.000, 11:55:45.062
50, -53402.83, -58921.75, -105118.93, -99035.79, -61500.58, -58782.20, -82693.54, -85138.35, 0.000, 0.000, 0.000, 11:55:45.062
51, -53415.13, -58931.89, -105181.25, -98972.91, -61542.40, -58820.02, -82722.44, -85176.21, 0.000, 0.000, 0.000, 11:55:45.062
52, -53347.31, -58865.53, -105192.36, -99168.30, -61561.08, -58824.07, -82682.74, -85187.05, 0.000, 0.000, 0.000, 11:55:45.062
53, -53324.76, -58848.81, -105143.32, -99268.09, -61528.79, -58783.30, -82649.91, -85161.51, 0.000, 0.000, 0.000, 11:55:45.062
54, -53392.91, -58919.38, -105120.30, -99070.62, -61497.11, -58777.24, -82687.59, -85141.75, 0.000, 0.000, 0.000, 11:55:45.063
55, -53417.34, -58943.58, -105173.73, -98967.24, -61539.20, -58814.61, -82726.82, -85172.62, 0.000, 0.000, 0.000, 11:55:45.063
56, -53352.02, -58877.31, -105187.91, -99136.35, -61565.84, -58821.05, -82688.31, -85198.48, 0.000, 0.000, 0.000, 11:55:45.063
57, -53298.07, -58826.23, -105132.61, -99281.95, -61531.85, -58777.38, -82628.90, -85167.43, 0.000, 0.000, 0.000, 11:55:45.063
58, -53361.95, -58888.33, -105093.18, -99112.34, -61481.58, -58761.48, -82656.68, -85127.66, 0.000, 0.000, 0.000, 11:55:45.064
59, -53435.55, -58958.02, -105164.57, -98947.02, -61516.43, -58813.43, -82727.45, -85164.91, 0.000, 0.000, 0.000, 11:55:45.064
60, -53379.07, -58897.63, -105201.97, -99090.13, -61564.52, -58828.76, -82704.88, -85202.45, 0.000, 0.000, 0.000, 11:55:45.064
61, -53312.64, -58832.52, -105154.52, -99274.80, -61540.65, -58786.92, -82639.80, -85181.63, 0.000, 0.000, 0.000, 11:55:45.064
62, -53350.21, -58870.61, -105098.66, -99159.33, -61483.81, -58752.56, -82643.27, -85135.42, 0.000, 0.000, 0.000, 11:55:45.064
63, -53428.87, -58948.99, -105148.34, -98952.04, -61500.13, -58787.99, -82711.69, -85151.80, 0.000, 0.000, 0.000, 11:55:45.065
64, -53394.65, -58916.04, -105205.01, -99047.64, -61553.10, -58818.61, -82712.00, -85201.74, 0.000, 0.000, 0.000, 11:55:45.065
65, -53302.05, -58821.81, -105156.46, -99267.94, -61537.41, -58780.77, -82637.66, -85188.84, 0.000, 0.000, 0.000, 11:55:45.065
66, -53326.03, -58845.48, -105091.13, -99204.05, -61478.89, -58748.36, -82636.20, -85139.58, 0.000, 0.000, 0.000, 11:55:45.065
67, -53411.64, -58931.78, -105133.91, -98975.58, -61486.16, -58779.57, -82706.86, -85146.09, 0.000, 0.000, 0.000, 11:55:45.065
68, -53381.98, -58900.29, -105187.28, -99021.76, -61531.71, -58808.31, -82703.38, -85189.00, 0.000, 0.000, 0.000, 11:55:45.066
69, -53300.53, -58817.99, -105155.03, -99232.65, -61527.73, -58784.62, -82642.82, -85189.27, 0.000, 0.000, 0.000, 11:55:45.066
70, -53306.83, -58824.96, -105093.20, -99227.75, -61479.63, -58747.73, -82626.26, -85149.95, 0.000, 0.000, 0.000, 11:55:45.066
71, -53394.92, -58911.38, -105112.00, -98999.92, -61469.22, -58766.80, -82691.33, -85143.02, 0.000, 0.000, 0.000, 11:55:45.066
72, -53399.70, -58913.03, -105184.87, -98982.51, -61523.20, -58811.06, -82725.26, -85190.19, 0.000, 0.000, 0.000, 11:55:45.066
73, -53311.43, -58826.59, -105177.29, -99200.48, -61531.04, -58791.81, -82662.41, -85198.61, 0.000, 0.000, 0.000, 11:55:45.067
74, -53304.10, -58826.97, -105103.91, -99250.15, -61470.92, -58744.88, -82619.58, -85147.65, 0.000, 0.000, 0.000, 11:55:45.067
75, -53395.66, -58920.00, -105105.97, -99029.34, -61445.48, -58756.12, -82675.91, -85126.88, 0.000, 0.000, 0.000, 11:55:45.067
76, -53410.12, -58935.49, -105170.72, -98955.55, -61487.39, -58795.05, -82716.74, -85166.83, 0.000, 0.000, 0.000, 11:55:45.067
77, -53338.43, -58869.31, -105180.20, -99151.22, -61512.45, -58796.06, -82677.09, -85192.53, 0.000, 0.000, 0.000, 11:55:45.067
78, -53297.20, -58825.92, -105120.88, -99273.91, -61480.59, -58751.56, -82627.94, -85159.23, 0.000, 0.000, 0.000, 11:55:45.068
79, -53371.61, -58899.68, -105092.89, -99087.23, -61438.51, -58737.95, -82662.70, -85124.02, 0.000, 0.000, 0.000, 11:55:45.068
80, -53418.93, -58947.40, -105161.20, -98953.29, -61474.85, -58787.41, -82723.47, -85162.06, 0.000, 0.000, 0.000, 11:55:45.068
81, -53344.43, -58868.97, -105182.48, -99123.05, -61508.87, -58794.65, -82690.59, -85194.84, 0.000, 0.000, 0.000, 11:55:45.068
82, -53301.55, -58825.57, -105132.95, -99282.47, -61477.00, -58761.04, -82639.67, -85163.43, 0.000, 0.000, 0.000, 11:55:45.069
83, -53369.53, -58889.78, -105104.36, -99129.67, -61437.72, -58745.32, -82672.26, -85113.07, 0.000, 0.000, 0.000, 11:55:45.069
84, -53407.99, -58929.59, -105150.72, -98956.66, -61459.27, -58773.11, -82720.59, -85163.25, 0.000, 0.000, 0.000, 11:55:45.069
85, -53356.90, -58878.92, -105184.27, -99078.24, -61494.74, -58796.55, -82700.00, -85199.75, 0.000, 0.000, 0.000, 11:55:45.069
86, -53277.88, -58800.87, -105136.97, -99277.66, -61479.28, -58755.18, -82633.52, -85179.99, 0.000, 0.000, 0.000, 11:55:45.070
87, -53328.40, -58853.19, -105083.57, -99169.52, -61421.34, -58733.81, -82647.07, -85138.69, 0.000, 0.000, 0.000, 11:55:45.070
88, -53401.22, -58928.38, -105133.93, -98957.96, -61437.21, -58777.31, -82723.89, -85158.29, 0.000, 0.000, 0.000, 11:55:45.070
89, -53354.08, -58883.01, -105180.65, -99045.56, -61481.24, -58798.81, -82716.65, -85197.20, 0.000, 0.000, 0.000, 11:55:45.070
90, -53278.51, -58805.16, -105144.73, -99259.83, -61471.81, -58762.20, -82652.52, -85187.05, 0.000, 0.000, 0.000, 11:55:45.071
91, -53322.48, -58847.54, -105100.23, -99210.65, -61427.11, -58738.13, -82653.66, -85148.90, 0.000, 0.000, 0.000, 11:55:45.071
92, -53387.12, -58915.55, -105125.93, -98994.02, -61420.56, -58753.84, -82703.28, -85142.80, 0.000, 0.000, 0.000, 11:55:45.071
93, -53374.78, -58899.84, -105183.57, -99015.12, -61466.22, -58787.12, -82717.91, -85187.01, 0.000, 0.000, 0.000, 11:55:45.071
94, -53305.82, -58825.12, -105178.74, -99236.69, -61479.68, -58770.27, -82669.02, -85199.10, 0.000, 0.000, 0.000, 11:55:45.071
95, -53296.08, -58818.61, -105110.93, -99247.58, -61424.69, -58725.16, -82641.33, -85152.92, 0.000, 0.000, 0.000, 11:55:45.071
96, -53371.40, -58888.89, -105110.93, -99007.61, -61403.04, -58733.77, -82698.30, -85136.16, 0.000, 0.000, 0.000, 11:55:45.071
97, -53384.32, -58899.35, -105172.35, -98968.09, -61446.29, -58770.71, -82726.09, -85176.04, 0.000, 0.000, 0.000, 11:55:45.072
98, -53313.91, -58831.76, -105186.37, -99177.55, -61473.42, -58771.05, -82688.29, -85200.71, 0.000, 0.000, 0.000, 11:55:45.072
99, -53279.09, -58795.82, -105118.93, -99256.36, -61430.13, -58723.89, -82647.67, -85160.70, 0.000, 0.000, 0.000, 11:55:45.072
100, -53357.37, -58876.77, -105105.48, -99042.19, -61395.23, -58724.65, -82691.39, -85135.38, 0.000, 0.000, 0.000, 11:55:45.072
101, -53389.91, -58908.22, -105172.71, -98950.81, -61435.62, -58771.59, -82736.12, -85177.04, 0.000, 0.000, 0.000, 11:55:45.073
102, -53318.88, -58836.85, -105191.27, -99145.65, -61464.50, -58776.73, -82689.83, -85206.81, 0.000, 0.000, 0.000, 11:55:45.073
103, -53272.16, -58793.71, -105130.58, -99272.03, -61428.92, -58736.45, -82637.28, -85176.05, 0.000, 0.000, 0.000, 11:55:45.073
104, -53336.98, -58857.64, -105102.08, -99085.86, -61388.10, -58725.81, -82676.57, -85142.75, 0.000, 0.000, 0.000, 11:55:45.073
105, -53384.17, -58900.76, -105160.84, -98948.66, -61419.73, -58765.89, -82729.03, -85174.47, 0.000, 0.000, 0.000, 11:55:45.527
106, -53317.22, -58834.82, -105185.36, -99107.05, -61453.91, -58776.79, -82688.66, -85204.55, 0.000, 0.000, 0.000, 11:55:45.527
107, -53270.71, -58788.02, -105137.17, -99273.46, -61429.88, -58740.98, -82636.77, -85183.34, 0.000, 0.000, 0.000, 11:55:45.527
108, -53332.56, -58845.39, -105098.19, -99125.71, -61381.71, -58721.54, -82661.20, -85142.77, 0.000, 0.000, 0.000, 11:55:45.527
109, -53404.29, -58916.04, -105160.23, -98941.85, -61410.34, -58763.14, -82730.53, -85166.47, 0.000, 0.000, 0.000, 11:55:45.528
110, -53351.45, -58866.00, -105204.54, -99058.13, -61452.61, -58784.08, -82714.64, -85208.24, 0.000, 0.000, 0.000, 11:55:45.528
111, -53278.67, -58795.84, -105163.86, -99260.54, -61433.90, -58747.25, -82646.63, -85193.54, 0.000, 0.000, 0.000, 11:55:45.528
112, -53310.72, -58829.43, -105100.60, -99164.67, -61372.39, -58709.65, -82643.29, -85140.77, 0.000, 0.000, 0.000, 11:55:45.528
113, -53384.50, -58902.37, -105141.64, -98951.62, -61379.36, -58735.62, -82706.75, -85148.59, 0.000, 0.000, 0.000, 11:55:45.529
114, -53351.46, -58867.79, -105192.94, -99020.08, -61424.78, -58756.34, -82697.38, -85186.27, 0.000, 0.000, 0.000, 11:55:45.529
115, -53273.97, -58790.14, -105165.00, -99237.88, -61426.14, -58724.98, -82636.20, -85180.95, 0.000, 0.000, 0.000, 11:55:45.529
116, -53288.86, -58805.34, -105105.52, -99207.01, -61380.32, -58686.40, -82628.23, -85136.61, 0.000, 0.000, 0.000, 11:55:45.529
117, -53366.53, -58883.70, -105126.35, -98981.14, -61368.79, -58701.31, -82686.19, -85127.20, 0.000, 0.000, 0.000, 11:55:45.530
118, -53363.47, -58881.13, -105188.31, -98986.71, -61419.26, -58743.85, -82709.12, -85173.35, 0.000, 0.000, 0.000, 11:55:45.530
119, -53277.01, -58791.21, -105174.32, -99205.91, -61430.59, -58722.70, -82652.41, -85181.51, 0.000, 0.000, 0.000, 11:55:45.530
120, -53272.88, -58783.61, -105107.11, -99233.67, -61379.21, -58681.08, -82625.92, -85139.29, 0.000, 0.000, 0.000, 11:55:45.530
121, -53359.94, -58871.23, -105114.26, -99003.43, -61354.51, -58695.25, -82682.16, -85124.54, 0.000, 0.000, 0.000, 11:55:45.531
122, -53362.75, -58876.30, -105177.56, -98958.70, -61399.66, -58735.13, -82712.85, -85168.13, 0.000, 0.000, 0.000, 11:55:45.531
123, -53283.11, -58791.30, -105175.99, -99165.32, -61417.83, -58726.90, -82662.16, -85188.51, 0.000, 0.000, 0.000, 11:55:45.531
124, -53253.21, -58761.44, -105112.59, -99249.63, -61369.75, -58679.68, -82615.98, -85148.34, 0.000, 0.000, 0.000, 11:55:45.531
125, -53328.89, -58840.94, -105097.81, -99038.19, -61333.54, -58671.90, -82661.46, -85117.20, 0.000, 0.000, 0.000, 11:55:45.531
126, -53364.54, -58875.92, -105167.37, -98934.98, -61378.47, -58714.54, -82707.45, -85156.63, 0.000, 0.000, 0.000, 11:55:45.532
127, -53296.95, -58807.30, -105189.09, -99117.63, -61410.70, -58723.73, -82672.17, -85189.29, 0.000, 0.000, 0.000, 11:55:45.532
128, -53253.41, -58756.34, -105130.29, -99262.22, -61376.12, -58676.55, -82620.41, -85160.19, 0.000, 0.000, 0.000, 11:55:45.532
129, -53313.85, -58817.43, -105089.98, -99087.91, -61329.43, -58657.23, -82648.97, -85120.89, 0.000, 0.000, 0.000, 11:55:45.533
130, -53372.95, -58876.41, -105153.64, -98928.91, -61358.53, -58703.77, -82712.96, -85152.56, 0.000, 0.000, 0.000, 11:55:45.533
131, -53313.49, -58817.36, -105195.66, -99080.61, -61408.82, -58719.04, -82692.82, -85194.61, 0.000, 0.000, 0.000, 11:55:45.533
132, -53249.25, -58752.39, -105146.52, -99259.02, -61383.81, -58679.54, -82627.38, -85173.60, 0.000, 0.000, 0.000, 11:55:45.533
133, -53290.82, -58792.15, -105097.36, -99137.74, -61330.08, -58652.12, -82635.65, -85128.05, 0.000, 0.000, 0.000, 11:55:45.533
134, -53357.46, -58860.46, -105140.14, -98944.15, -61346.64, -58686.92, -82697.20, -85143.29, 0.000, 0.000, 0.000, 11:55:45.534
135, -53312.66, -58813.63, -105186.81, -99049.59, -61395.86, -58710.52, -82687.23, -85187.97, 0.000, 0.000, 0.000, 11:55:45.534
136, -53237.27, -58742.17, -105145.20, -99252.56, -61380.93, -58680.05, -82624.23, -85179.34, 0.000, 0.000, 0.000, 11:55:45.534
137, -53269.88, -58778.40, -105090.95, -99173.37, -61329.05, -58650.73, -82625.84, -85134.38, 0.000, 0.000, 0.000, 11:55:45.534
138, -53354.30, -58860.46, -105134.11, -98955.80, -61337.03, -58681.26, -82692.82, -85144.23, 0.000, 0.000, 0.000, 11:55:45.534
139, -53335.64, -58838.77, -105193.72, -99009.66, -61388.93, -58712.22, -82699.02, -85188.22, 0.000, 0.000, 0.000, 11:55:45.535
140, -53250.28, -58751.49, -105171.59, -99235.75, -61391.39, -58686.31, -82634.30, -85187.13, 0.000, 0.000, 0.000, 11:55:45.535
141, -53250.91, -58751.11, -105101.14, -99229.31, -61331.53, -58640.18, -82606.03, -85135.49, 0.000, 0.000, 0.000, 11:55:45.535
142, -53336.45, -58841.39, -105120.90, -98995.38, -61320.02, -58659.56, -82670.07, -85128.65, 0.000, 0.000, 0.000, 11:55:45.536
143, -53329.14, -58834.66, -105184.51, -98994.06, -61375.90, -58700.21, -82696.02, -85176.64, 0.000, 0.000, 0.000, 11:55:45.536
144, -53252.61, -58755.13, -105170.16, -99211.01, -61379.36, -58686.76, -82640.37, -85187.34, 0.000, 0.000, 0.000, 11:55:45.536
145, -53248.49, -58749.08, -105111.84, -99254.51, -61331.11, -58647.06, -82614.41, -85147.47, 0.000, 0.000, 0.000, 11:55:45.536
146, -53338.84, -58836.20, -105114.80, -99027.10, -61304.21, -58655.42, -82671.19, -85127.84, 0.000, 0.000, 0.000, 11:55:45.536
147, -53355.64, -58852.72, -105185.34, -98969.54, -61352.88, -58702.27, -82707.24, -85172.77, 0.000, 0.000, 0.000, 11:55:45.536
148, -53280.07, -58775.83, -105186.84, -99168.02, -61375.52, -58700.57, -82662.13, -85195.46, 0.000, 0.000, 0.000, 11:55:45.537
149, -53241.21, -58737.90, -105124.25, -99268.85, -61333.79, -58650.95, -82617.63, -85153.64, 0.000, 0.000, 0.000, 11:55:45.537
150, -53311.52, -58807.15, -105100.47, -99067.45, -61298.11, -58639.11, -82654.76, -85119.93, 0.000, 0.000, 0.000, 11:55:45.537
151, -53350.66, -58845.28, -105165.98, -98949.36, -61337.68, -58684.64, -82706.59, -85157.15, 0.000, 0.000, 0.000, 11:55:45.537
152, -53276.77, -58773.84, -105190.03, -99127.05, -61373.89, -58691.14, -82676.91, -85190.23, 0.000, 0.000, 0.000, 11:55:45.537
153, -53226.86, -58722.95, -105132.63, -99275.76, -61343.62, -58651.11, -82624.43, -85165.55, 0.000, 0.000, 0.000, 11:55:45.537
154, -53297.64, -58787.07, -105099.24, -99111.84, -61294.20, -58636.13, -82654.05, -85128.63, 0.000, 0.000, 0.000, 11:55:45.538
155, -53353.21, -58841.82, -105160.51, -98950.63, -61322.66, -58676.21, -82707.93, -85153.86, 0.000, 0.000, 0.000, 11:55:45.538
156, -53288.30, -58775.09, -105193.81, -99097.23, -61357.84, -58685.49, -82680.27, -85188.35, 0.000, 0.000, 0.000, 11:55:45.538
157, -53217.80, -58708.60, -105141.51, -99279.29, -61328.34, -58645.39, -82617.43, -85164.91, 0.000, 0.000, 0.000, 11:55:45.538
158, -53267.58, -58762.11, -105097.95, -99160.54, -61279.74, -58625.90, -82643.76, -85125.48, 0.000, 0.000, 0.000, 11:55:45.539
159, -53340.85, -58830.71, -105151.19, -98965.83, -61296.98, -58663.83, -82707.80, -85145.08, 0.000, 0.000, 0.000, 11:55:45.539
160, -53306.52, -58794.79, -105197.90, -99060.76, -61337.97, -58681.87, -82688.69, -85184.09, 0.000, 0.000, 0.000, 11:55:45.539
161, -53236.40, -58724.76, -105156.93, -99271.83, -61320.91, -58644.29, -82617.95, -85171.23, 0.000, 0.000, 0.000, 11:55:45.539
162, -53263.73, -58751.80, -105094.63, -99213.27, -61269.80, -58611.57, -82610.73, -85126.03, 0.000, 0.000, 0.000, 11:55:45.540
163, -53344.58, -58831.96, -105125.33, -98984.92, -61268.75, -58638.79, -82679.59, -85126.55, 0.000, 0.000, 0.000, 11:55:45.540
164, -53331.26, -58816.09, -105190.99, -99015.85, -61322.50, -58676.16, -82703.11, -85172.80, 0.000, 0.000, 0.000, 11:55:45.540
165, -53249.32, -58733.05, -105176.04, -99234.61, -61330.79, -58657.17, -82649.13, -85184.44, 0.000, 0.000, 0.000, 11:55:45.540
166, -53237.47, -58720.60, -105106.66, -99242.88, -61277.33, -58611.91, -82616.74, -85139.29, 0.000, 0.000, 0.000, 11:55:45.540
167, -53311.52, -58794.41, -105109.77, -99009.62, -61254.39, -58622.97, -82670.18, -85120.78, 0.000, 0.000, 0.000, 11:55:45.541
168, -53312.11, -58796.53, -105171.16, -98984.67, -61301.73, -58659.67, -82699.20, -85165.15, 0.000, 0.000, 0.000, 11:55:45.541
169, -53230.21, -58714.90, -105161.98, -99197.58, -61314.27, -58646.15, -82645.59, -85182.09, 0.000, 0.000, 0.000, 11:55:45.541
170, -53211.21, -58695.81, -105095.46, -99255.20, -61267.76, -58603.28, -82611.80, -85144.12, 0.000, 0.000, 0.000, 11:55:45.542
171, -53295.09, -58781.49, -105094.16, -99033.47, -61238.43, -58607.97, -82664.17, -85120.47, 0.000, 0.000, 0.000, 11:55:45.542
172, -53318.18, -58804.55, -105165.65, -98964.96, -61281.64, -58649.39, -82702.05, -85159.95, 0.000, 0.000, 0.000, 11:55:45.542
173, -53253.10, -58739.73, -105184.16, -99157.92, -61317.25, -58653.64, -82667.73, -85189.89, 0.000, 0.000, 0.000, 11:55:45.542
174, -53207.70, -58690.67, -105124.88, -99281.10, -61282.91, -58603.34, -82617.34, -85154.66, 0.000, 0.000, 0.000, 11:55:45.543
175, -53280.01, -58761.32, -105093.23, -99089.70, -61236.00, -58587.14, -82652.77, -85116.52, 0.000, 0.000, 0.000, 11:55:45.543
176, -53331.51, -58811.28, -105159.23, -98952.87, -61270.49, -58635.89, -82709.37, -85152.88, 0.000, 0.000, 0.000, 11:55:45.543
177, -53269.14, -58747.25, -105189.97, -99118.09, -61310.09, -58651.31, -82682.14, -85191.80, 0.000, 0.000, 0.000, 11:55:45.543
178, -53207.43, -58688.48, -105131.88, -99277.68, -61280.08, -58606.47, -82625.55, -85165.06, 0.000, 0.000, 0.000, 11:55:45.543
179, -53275.11, -58758.09, -105099.82, -99118.49, -61236.98, -58589.20, -82652.32, -85127.82, 0.000, 0.000, 0.000, 11:55:45.543
180, -53338.59, -58817.43, -105165.45, -98949.88, -61267.92, -58631.30, -82714.66, -85158.53, 0.000, 0.000, 0.000, 11:55:45.543
181, -53272.90, -58753.77, -105196.94, -99084.52, -61305.11, -58643.40, -82693.65, -85196.71, 0.000, 0.000, 0.000, 11:55:45.543
182, -53191.88, -58676.25, -105139.52, -99278.31, -61278.80, -58601.58, -82625.37, -85175.27, 0.000, 0.000, 0.000, 11:55:45.544
183, -53243.17, -58722.61, -105089.78, -99169.37, -61221.74, -58572.27, -82635.65, -85130.41, 0.000, 0.000, 0.000, 11:55:45.544
184, -53321.85, -58798.99, -105141.06, -98960.24, -61234.88, -58608.46, -82700.52, -85145.59, 0.000, 0.000, 0.000, 11:55:45.544
185, -53279.79, -58761.84, -105187.40, -99037.02, -61280.14, -58636.63, -82690.12, -85190.07, 0.000, 0.000, 0.000, 11:55:45.544
186, -53206.70, -58687.34, -105159.97, -99247.98, -61280.23, -58612.53, -82637.68, -85193.98, 0.000, 0.000, 0.000, 11:55:45.544
187, -53228.87, -58706.99, -105105.01, -99212.23, -61236.00, -58578.40, -82631.54, -85155.16, 0.000, 0.000, 0.000, 11:55:45.544
188, -53301.02, -58782.38, -105123.09, -98988.97, -61228.67, -58598.16, -82686.03, -85147.18, 0.000, 0.000, 0.000, 11:55:45.544
189, -53288.10, -58770.98, -105184.65, -99005.23, -61277.33, -58634.77, -82707.11, -85192.51, 0.000, 0.000, 0.000, 11:55:45.544
190, -53203.59, -58685.53, -105166.79, -99224.95, -61287.03, -58610.59, -82650.31, -85199.37, 0.000, 0.000, 0.000, 11:55:45.545
191, -53203.09, -58683.18, -105107.31, -99242.05, -61238.95, -58567.85, -82628.34, -85154.31, 0.000, 0.000, 0.000, 11:55:45.545
192, -53282.02, -58764.05, -105118.22, -99019.43, -61218.14, -58575.98, -82683.48, -85136.49, 0.000, 0.000, 0.000, 11:55:45.545
193, -53294.80, -58774.80, -105183.59, -98982.59, -61264.88, -58616.15, -82718.08, -85178.80, 0.000, 0.000, 0.000, 11:55:45.545
194, -53222.88, -58702.54, -105187.44, -99186.91, -61285.60, -58610.34, -82668.66, -85197.96, 0.000, 0.000, 0.000, 11:55:45.545
195, -53202.52, -58678.07, -105126.04, -99265.10, -61244.14, -58565.39, -82628.70, -85158.55, 0.000, 0.000, 0.000, 11:55:45.545
196, -53275.07, -58746.73, -105108.43, -99058.44, -61210.14, -58556.45, -82669.22, -85125.77, 0.000, 0.000, 0.000, 11:55:45.545
197, -53301.24, -58772.84, -105172.48, -98965.85, -61248.96, -58595.59, -82710.34, -85162.24, 0.000, 0.000, 0.000, 11:55:45.546
198, -53222.16, -58696.21, -105184.20, -99153.54, -61275.25, -58590.71, -82661.82, -85185.45, 0.000, 0.000, 0.000, 11:55:45.546
199, -53176.34, -58651.11, -105121.44, -99275.18, -61232.02, -58541.03, -82611.89, -85147.83, 0.000, 0.000, 0.000, 11:55:45.546
200, -53237.56, -58714.05, -105090.45, -99084.36, -61187.72, -58525.38, -82650.98, -85111.57, 0.000, 0.000, 0.000, 11:55:45.546
201, -53284.70, -58760.66, -105154.31, -98940.02, -61220.24, -58566.66, -82708.83, -85144.70, 0.000, 0.000, 0.000, 11:55:45.546
202, -53221.31, -58693.18, -105183.08, -99097.22, -61256.38, -58578.11, -82677.24, -85181.11, 0.000, 0.000, 0.000, 11:55:45.546
203, -53161.30, -58630.59, -105133.08, -99266.53, -61231.21, -58537.09, -82620.12, -85159.90, 0.000, 0.000, 0.000, 11:55:45.546
204, -53220.35, -58692.32, -105094.45, -99120.91, -61185.51, -58516.55, -82646.42, -85120.27, 0.000, 0.000, 0.000, 11:55:45.546
205, -53287.03, -58758.06, -105154.63, -98939.86, -61214.18, -58558.33, -82715.80, -85148.54, 0.000, 0.000, 0.000, 11:55:45.546
206, -53238.25, -58707.70, -105195.22, -99054.99, -61262.82, -58578.27, -82701.72, -85188.13, 0.000, 0.000, 0.000, 11:55:45.547
207, -53171.07, -58638.77, -105157.02, -99250.19, -61252.47, -58549.18, -82644.66, -85178.94, 0.000, 0.000, 0.000, 11:55:45.547
208, -53204.88, -58672.46, -105103.17, -99164.94, -61204.26, -58518.90, -82647.25, -85135.60, 0.000, 0.000, 0.000, 11:55:45.548
209, -53273.26, -58739.64, -105138.38, -98955.10, -61210.81, -58541.88, -82699.77, -85138.33, 0.000, 0.000, 0.000, 11:55:45.548
210, -53247.91, -58715.28, -105189.34, -99012.46, -61259.71, -58570.98, -82706.86, -85183.66, 0.000, 0.000, 0.000, 11:55:45.548
211, -53177.93, -58647.42, -105170.61, -99224.71, -61264.50, -58550.53, -82657.71, -85189.63, 0.000, 0.000, 0.000, 11:55:45.548
212, -53190.89, -58659.25, -105108.78, -99202.49, -61212.42, -58510.20, -82635.38, -85142.20, 0.000, 0.000, 0.000, 11:55:45.548
213, -53264.36, -58730.01, -105127.45, -98982.20, -61201.45, -58525.71, -82694.43, -85135.94, 0.000, 0.000, 0.000, 11:55:45.549
214, -53254.35, -58720.20, -105188.63, -98988.83, -61247.13, -58559.09, -82712.98, -85177.80, 0.000, 0.000, 0.000, 11:55:45.549
215, -53171.60, -58637.95, -105178.63, -99205.35, -61253.88, -58537.56, -82657.48, -85187.14, 0.000, 0.000, 0.000, 11:55:45.549
216, -53166.75, -58630.37, -105118.10, -99235.57, -61204.48, -58495.32, -82632.09, -85143.98, 0.000, 0.000, 0.000, 11:55:45.549
217, -53247.64, -58711.91, -105120.85, -99005.73, -61181.35, -58501.09, -82687.30, -85123.48, 0.000, 0.000, 0.000, 11:55:45.549
218, -53262.06, -58725.41, -105182.37, -98952.55, -61226.86, -58535.93, -82716.59, -85163.25, 0.000, 0.000, 0.000, 11:55:45.549
219, -53183.89, -58645.19, -105186.81, -99155.93, -61248.83, -58531.59, -82670.85, -85187.57, 0.000, 0.000, 0.000, 11:55:45.549
220, -53143.93, -58607.46, -105119.96, -99249.84, -61196.82, -58485.71, -82623.73, -85147.83, 0.000, 0.000, 0.000, 11:55:45.549
221, -53226.70, -58688.17, -105100.20, -99036.76, -61151.93, -58480.88, -82666.12, -85113.12, 0.000, 0.000, 0.000, 11:55:45.550
222, -53261.72, -58724.13, -105170.14, -98933.51, -61196.79, -58527.06, -82715.22, -85152.32, 0.000, 0.000, 0.000, 11:55:45.550
223, -53187.56, -58650.35, -105189.18, -99116.88, -61226.30, -58528.13, -82671.32, -85180.69, 0.000, 0.000, 0.000, 11:55:45.550
224, -53142.97, -58605.45, -105132.16, -99254.68, -61191.79, -58489.39, -82621.97, -85153.80, 0.000, 0.000, 0.000, 11:55:45.550
225, -53207.27, -58669.13, -105103.06, -99084.97, -61154.97, -58472.99, -82652.81, -85117.14, 0.000, 0.000, 0.000, 11:55:46.007
226, -53263.67, -58720.71, -105163.70, -98936.48, -61192.52, -58511.93, -82709.54, -85145.41, 0.000, 0.000, 0.000, 11:55:46.007
227, -53204.32, -58658.62, -105200.34, -99084.70, -61238.01, -58526.41, -82682.50, -85181.94, 0.000, 0.000, 0.000, 11:55:46.007
228, -53141.14, -58593.17, -105149.30, -99257.34, -61210.12, -58486.67, -82625.75, -85162.00, 0.000, 0.000, 0.000, 11:55:46.007
229, -53192.77, -58646.86, -105107.20, -99129.76, -61161.28, -58467.58, -82648.91, -85122.68, 0.000, 0.000, 0.000, 11:55:46.007
230, -53253.68, -58708.11, -105153.80, -98941.94, -61179.85, -58501.98, -82706.81, -85141.23, 0.000, 0.000, 0.000, 11:55:46.007
231, -53223.68, -58673.19, -105207.87, -99033.70, -61232.67, -58536.31, -82707.04, -85190.85, 0.000, 0.000, 0.000, 11:55:46.008
232, -53142.10, -58586.18, -105171.59, -99242.16, -61222.03, -58502.54, -82642.80, -85182.88, 0.000, 0.000, 0.000, 11:55:46.008
233, -53164.70, -58606.68, -105107.64, -99169.86, -61165.68, -58464.00, -82639.29, -85135.04, 0.000, 0.000, 0.000, 11:55:46.008
234, -53233.36, -58674.02, -105135.41, -98956.22, -61163.98, -58485.91, -82695.17, -85135.16, 0.000, 0.000, 0.000, 11:55:46.008
235, -53221.11, -58659.67, -105190.57, -98999.83, -61215.37, -58519.70, -82709.52, -85182.34, 0.000, 0.000, 0.000, 11:55:46.008
236, -53144.85, -58584.01, -105173.60, -99213.40, -61219.91, -58498.74, -82657.38, -85189.73, 0.000, 0.000, 0.000, 11:55:46.008
237, -53148.20, -58590.09, -105109.88, -99204.68, -61166.20, -58456.54, -82635.16, -85144.61, 0.000, 0.000, 0.000, 11:55:46.008
238, -53228.04, -58671.29, -105125.70, -98977.14, -61156.67, -58472.96, -82694.73, -85135.06, 0.000, 0.000, 0.000, 11:55:46.009
239, -53227.39, -58672.03, -105191.38, -98968.27, -61212.51, -58514.32, -82724.41, -85181.24, 0.000, 0.000, 0.000, 11:55:46.009
240, -53141.25, -58584.41, -105187.35, -99189.84, -61233.70, -58500.91, -82670.70, -85197.67, 0.000, 0.000, 0.000, 11:55:46.009
241, -53134.21, -58578.45, -105118.75, -99231.13, -61180.16, -58458.66, -82636.61, -85153.05, 0.000, 0.000, 0.000, 11:55:46.010
242, -53211.66, -58659.18, -105120.79, -99007.74, -61157.57, -58465.10, -82691.15, -85132.13, 0.000, 0.000, 0.000, 11:55:46.010
243, -53216.75, -58665.08, -105179.08, -98950.03, -61198.79, -58499.16, -82722.69, -85170.85, 0.000, 0.000, 0.000, 11:55:46.010
244, -53143.57, -58590.92, -105185.25, -99143.82, -61218.36, -58496.41, -82678.95, -85195.28, 0.000, 0.000, 0.000, 11:55:46.010
245, -53102.73, -58549.99, -105121.70, -99248.49, -61177.08, -58450.41, -82631.20, -85159.85, 0.000, 0.000, 0.000, 11:55:46.010
246, -53185.73, -58629.00, -105104.80, -99047.13, -61139.04, -58446.99, -82677.11, -85130.55, 0.000, 0.000, 0.000, 11:55:46.011
247, -53226.09, -58670.62, -105174.92, -98930.31, -61183.03, -58489.77, -82730.30, -85167.20, 0.000, 0.000, 0.000, 11:55:46.011
248, -53158.19, -58603.41, -105195.40, -99108.05, -61221.58, -58495.83, -82696.11, -85202.43, 0.000, 0.000, 0.000, 11:55:46.011
249, -53108.57, -58552.70, -105133.80, -99255.55, -61180.46, -58450.84, -82631.96, -85172.30, 0.000, 0.000, 0.000, 11:55:46.011
250, -53176.77, -58622.90, -105100.11, -99085.30, -61131.01, -58437.72, -82663.68, -85136.54, 0.000, 0.000, 0.000, 11:55:46.011
251, -53231.55, -58680.01, -105163.44, -98921.64, -61159.33, -58481.26, -82723.49, -85164.68, 0.000, 0.000, 0.000, 11:55:46.011
252, -53171.94, -58619.71, -105195.93, -99059.84, -61201.13, -58499.07, -82701.74, -85200.53, 0.000, 0.000, 0.000, 11:55:46.011
253, -53110.22, -58556.47, -105156.66, -99242.50, -61180.95, -58467.45, -82645.53, -85186.38, 0.000, 0.000, 0.000, 11:55:46.011
254, -53148.31, -58596.53, -105105.72, -99131.34, -61125.80, -58436.42, -82655.72, -85141.44, 0.000, 0.000, 0.000, 11:55:46.012
255, -53212.93, -58663.00, -105150.80, -98935.99, -61140.00, -58466.60, -82717.70, -85153.57, 0.000, 0.000, 0.000, 11:55:46.012
0, -53178.78, -58625.54, -105201.19, -99026.77, -61190.56, -58493.42, -82713.45, -85199.44, 0.000, 0.000, 0.000, 11:55:46.012
1, -53105.44, -58551.53, -105168.62, -99239.80, -61183.67, -58464.14, -82654.94, -85193.18, 0.000, 0.000, 0.000, 11:55:46.012
2, -53127.43, -58572.77, -105109.66, -99189.23, -61130.39, -58426.70, -82644.39, -85144.81, 0.000, 0.000, 0.000, 11:55:46.012
3, -53211.25, -58658.66, -105144.21, -98963.09, -61131.44, -58453.48, -82712.41, -85149.34, 0.000, 0.000, 0.000, 11:55:46.012
4, -53184.05, -58633.92, -105201.25, -99007.98, -61179.32, -58481.91, -82717.45, -85193.56, 0.000, 0.000, 0.000, 11:55:46.013
5, -53109.71, -58557.05, -105178.16, -99225.91, -61180.30, -58459.55, -82659.70, -85196.22, 0.000, 0.000, 0.000, 11:55:46.013
6, -53104.17, -58551.49, -105112.85, -99233.45, -61132.45, -58413.87, -82634.15, -85147.85, 0.000, 0.000, 0.000, 11:55:46.013
7, -53184.95, -58633.81, -105121.37, -98997.93, -61116.53, -58426.59, -82690.61, -85132.41, 0.000, 0.000, 0.000, 11:55:46.013
8, -53187.07, -58635.11, -105185.54, -98972.07, -61165.57, -58469.41, -82718.41, -85177.17, 0.000, 0.000, 0.000, 11:55:46.013
9, -53106.11, -58556.63, -105183.87, -99185.51, -61180.95, -58462.77, -82665.17, -85196.38, 0.000, 0.000, 0.000, 11:55:46.013
10, -53080.43, -58531.28, -105118.24, -99251.63, -61125.76, -58417.94, -82625.34, -85158.51, 0.000, 0.000, 0.000, 11:55:46.013
11, -53157.30, -58609.04, -105105.14, -99030.16, -61082.27, -58419.88, -82673.35, -85133.34, 0.000, 0.000, 0.000, 11:55:46.013
12, -53179.58, -58634.48, -105171.19, -98948.64, -61124.35, -58466.17, -82719.52, -85175.86, 0.000, 0.000, 0.000, 11:55:46.014
13, -53100.64, -58557.41, -105181.70, -99146.45, -61153.30, -58470.51, -82684.17, -85208.00, 0.000, 0.000, 0.000, 11:55:46.014
14, -53068.79, -58528.09, -105123.73, -99259.11, -61110.58, -58428.38, -82642.24, -85179.32, 0.000, 0.000, 0.000, 11:55:46.014
15, -53143.95, -58604.24, -105105.66, -99063.77, -61059.29, -58417.45, -82674.20, -85144.97, 0.000, 0.000, 0.000, 11:55:46.014
16, -53176.50, -58634.50, -105168.73, -98945.60, -61084.61, -58453.41, -82716.25, -85173.35, 0.000, 0.000, 0.000, 11:55:46.014
17, -53119.61, -58576.36, -105192.09, -99108.28, -61116.06, -58462.53, -82686.61, -85202.16, 0.000, 0.000, 0.000, 11:55:46.014
18, -53066.77, -58526.41, -105146.85, -99267.00, -61088.79, -58426.59, -82640.07, -85180.57, 0.000, 0.000, 0.000, 11:55:46.014
19, -53125.33, -58588.88, -105110.88, -99114.05, -61031.79, -58409.71, -82667.92, -85141.46, 0.000, 0.000, 0.000, 11:55:46.014
20, -53188.12, -58654.15, -105170.32, -98940.59, -61043.21, -58451.29, -82729.37, -85167.25, 0.000, 0.000, 0.000, 11:55:46.015
21, -53136.22, -58593.91, -105210.59, -99069.39, -61077.08, -58468.88, -82708.76, -85207.77, 0.000, 0.000, 0.000, 11:55:46.015
22, -53063.82, -58521.36, -105161.58, -99264.34, -61054.39, -58431.41, -82645.84, -85189.80, 0.000, 0.000, 0.000, 11:55:46.016
23, -53111.68, -58573.68, -105113.05, -99159.30, -60999.63, -58408.62, -82659.38, -85149.05, 0.000, 0.000, 0.000, 11:55:46.016
24, -53180.25, -58644.89, -105161.47, -98956.02, -61012.13, -58446.21, -82721.55, -85166.05, 0.000, 0.000, 0.000, 11:55:46.016
25, -53137.34, -58602.50, -105207.91, -99040.48, -61060.14, -58470.39, -82711.64, -85206.01, 0.000, 0.000, 0.000, 11:55:46.016
26, -53057.83, -58521.56, -105171.37, -99255.69, -61052.56, -58437.79, -82646.49, -85196.98, 0.000, 0.000, 0.000, 11:55:46.016
27, -53081.95, -58549.41, -105113.01, -99206.59, -61003.63, -58402.83, -82646.73, -85150.73, 0.000, 0.000, 0.000, 11:55:46.017
28, -53165.88, -58635.55, -105147.61, -98979.58, -61003.63, -58425.60, -82713.09, -85151.90, 0.000, 0.000, 0.000, 11:55:46.017
29, -53162.91, -58632.36, -105213.68, -98997.15, -61058.59, -58466.98, -82732.27, -85204.51, 0.000, 0.000, 0.000, 11:55:46.017
30, -53077.68, -58547.11, -105196.88, -99222.09, -61068.56, -58444.49, -82670.47, -85211.64, 0.000, 0.000, 0.000, 11:55:46.017
31, -53080.52, -58550.48, -105136.84, -99241.38, -61023.19, -58399.77, -82648.39, -85167.84, 0.000, 0.000, 0.000, 11:55:46.017
32, -53161.01, -58632.89, -105142.58, -99017.15, -61006.49, -58407.90, -82701.30, -85150.13, 0.000, 0.000, 0.000, 11:55:46.017
33, -53170.20, -58638.50, -105206.04, -98981.57, -61047.84, -58448.63, -82727.54, -85192.09, 0.000, 0.000, 0.000, 11:55:46.017
34, -53090.84, -58559.56, -105206.39, -99193.10, -61063.60, -58441.05, -82680.44, -85209.92, 0.000, 0.000, 0.000, 11:55:46.017
35, -53064.49, -58534.93, -105140.52, -99273.52, -61017.15, -58396.59, -82643.12, -85171.14, 0.000, 0.000, 0.000, 11:55:46.018
36, -53142.03, -58616.31, -105126.77, -99058.01, -60975.36, -58395.94, -82679.55, -85139.49, 0.000, 0.000, 0.000, 11:55:46.018
37, -53172.32, -58642.95, -105192.98, -98964.27, -61015.81, -58439.39, -82725.84, -85175.74, 0.000, 0.000, 0.000, 11:55:46.018
38, -53099.85, -58569.30, -105211.02, -99154.48, -61052.47, -58444.67, -82687.70, -85206.70, 0.000, 0.000, 0.000, 11:55:46.018
39, -53048.64, -58521.80, -105142.67, -99286.31, -61011.14, -58394.96, -82628.30, -85170.91, 0.000, 0.000, 0.000, 11:55:46.018
40, -53113.64, -58588.28, -105109.66, -99107.99, -60965.99, -58379.27, -82660.03, -85134.08, 0.000, 0.000, 0.000, 11:55:46.018
41, -53172.21, -58646.55, -105175.70, -98960.69, -61002.76, -58426.00, -82722.84, -85168.10, 0.000, 0.000, 0.000, 11:55:46.018
42, -53114.27, -58588.97, -105216.61, -99116.48, -61051.91, -58445.94, -82705.20, -85214.99, 0.000, 0.000, 0.000, 11:55:46.018
43, -53046.81, -58518.90, -105157.71, -99295.85, -61028.22, -58401.86, -82636.88, -85188.89, 0.000, 0.000, 0.000, 11:55:46.018
44, -53106.65, -58579.27, -105113.95, -99150.86, -60976.70, -58382.96, -82656.88, -85144.14, 0.000, 0.000, 0.000, 11:55:46.019
45, -53172.16, -58647.31, -105170.01, -98964.40, -61000.30, -58425.96, -82720.23, -85167.52, 0.000, 0.000, 0.000, 11:55:46.019
46, -53127.66, -58604.53, -105215.27, -99080.74, -61050.93, -58452.13, -82714.57, -85211.73, 0.000, 0.000, 0.000, 11:55:46.019
47, -53056.49, -58532.96, -105175.75, -99281.77, -61040.06, -58418.74, -82652.97, -85198.95, 0.000, 0.000, 0.000, 11:55:46.019
48, -53087.43, -58559.36, -105114.53, -99197.51, -60983.45, -58382.20, -82648.55, -85151.25, 0.000, 0.000, 0.000, 11:55:46.019
49, -53163.51, -58638.26, -105153.60, -98979.06, -60989.46, -58411.72, -82710.03, -85159.00, 0.000, 0.000, 0.000, 11:55:46.019
50, -53135.50, -58614.81, -105210.51, -99039.50, -61046.66, -58444.36, -82715.80, -85204.24, 0.000, 0.000, 0.000, 11:55:46.019
51, -53064.70, -58541.56, -105189.41, -99256.65, -61054.95, -58422.45, -82657.77, -85205.85, 0.000, 0.000, 0.000, 11:55:46.019
52, -53074.53, -58552.00, -105126.91, -99232.82, -61004.41, -58384.23, -82641.98, -85159.80, 0.000, 0.000, 0.000, 11:55:46.019
53, -53145.16, -58625.02, -105144.50, -99008.59, -60996.43, -58399.05, -82697.98, -85151.47, 0.000, 0.000, 0.000, 11:55:46.020
54, -53127.55, -58608.98, -105197.88, -99017.76, -61042.70, -58427.93, -82704.96, -85187.81, 0.000, 0.000, 0.000, 11:55:46.020
55, -53054.90, -58536.58, -105189.30, -99228.78, -61059.64, -58418.72, -82659.05, -85200.69, 0.000, 0.000, 0.000, 11:55:46.020
56, -53045.94, -58528.29, -105130.51, -99269.46, -61016.41, -58380.32, -82628.43, -85159.52, 0.000, 0.000, 0.000, 11:55:46.020
57, -53133.27, -58615.35, -105134.40, -99038.84, -60993.46, -58389.71, -82682.50, -85141.52, 0.000, 0.000, 0.000, 11:55:46.020
58, -53153.90, -58635.82, -105207.35, -98987.91, -61045.23, -58432.82, -82723.34, -85190.23, 0.000, 0.000, 0.000, 11:55:46.020
59, -53079.45, -58561.93, -105213.50, -99193.77, -61072.05, -58431.50, -82683.80, -85217.32, 0.000, 0.000, 0.000, 11:55:46.020
60, -53047.35, -58528.38, -105147.43, -99286.58, -61028.22, -58387.25, -82640.34, -85178.29, 0.000, 0.000, 0.000, 11:55:46.020
61, -53121.47, -58603.97, -105130.06, -99080.97, -60993.64, -58382.40, -82677.36, -85147.07, 0.000, 0.000, 0.000, 11:55:46.020
62, -53156.83, -58636.98, -105196.56, -98974.77, -61038.19, -58427.55, -82722.73, -85183.88, 0.000, 0.000, 0.000, 11:55:46.021
63, -53086.62, -58567.00, -105206.64, -99149.14, -61067.80, -58431.62, -82686.68, -85210.59, 0.000, 0.000, 0.000, 11:55:46.021
64, -53040.55, -58523.66, -105149.27, -99282.53, -61038.16, -58391.79, -82634.42, -85181.98, 0.000, 0.000, 0.000, 11:55:46.021
65, -53096.77, -58583.72, -105113.23, -99112.51, -60992.93, -58374.13, -82657.69, -85142.06, 0.000, 0.000, 0.000, 11:55:46.021
66, -53145.36, -58635.15, -105173.38, -98959.77, -61022.74, -58417.54, -82717.68, -85171.68, 0.000, 0.000, 0.000, 11:55:46.021
67, -53080.61, -58569.44, -105200.07, -99096.21, -61060.63, -58432.09, -82692.80, -85207.33, 0.000, 0.000, 0.000, 11:55:46.022
68, -53019.79, -58511.75, -105148.57, -99268.20, -61038.95, -58394.27, -82633.55, -85184.64, 0.000, 0.000, 0.000, 11:55:46.022
69, -53078.82, -58571.94, -105110.77, -99144.65, -60996.93, -58374.95, -82654.89, -85142.48, 0.000, 0.000, 0.000, 11:55:46.023
70, -53147.15, -58638.50, -105160.13, -98948.71, -61021.96, -58412.01, -82719.27, -85158.78, 0.000, 0.000, 0.000, 11:55:46.023
71, -53092.50, -58586.36, -105198.73, -99056.02, -61072.61, -58428.22, -82700.83, -85196.82, 0.000, 0.000, 0.000, 11:55:46.023
72, -53028.19, -58524.66, -105170.59, -99278.80, -61078.15, -58405.04, -82651.96, -85197.11, 0.000, 0.000, 0.000, 11:55:46.023
73, -53059.91, -58557.75, -105116.18, -99208.26, -61021.98, -58376.54, -82650.31, -85154.55, 0.000, 0.000, 0.000, 11:55:46.023
74, -53126.99, -58624.89, -105138.98, -98979.78, -61016.17, -58396.23, -82704.52, -85149.46, 0.000, 0.000, 0.000, 11:55:46.023
75, -53113.31, -58611.21, -105200.36, -99027.27, -61072.50, -58436.06, -82718.10, -85198.61, 0.000, 0.000, 0.000, 11:55:46.024
76, -53030.54, -58529.63, -105175.93, -99246.41, -61080.03, -58412.26, -82652.81, -85200.02, 0.000, 0.000, 0.000, 11:55:46.024
77, -53032.06, -58533.56, -105106.03, -99235.75, -61025.18, -58363.89, -82624.41, -85145.03, 0.000, 0.000, 0.000, 11:55:46.024
78, -53123.41, -58623.15, -105132.37, -99013.44, -61021.85, -58389.21, -82690.01, -85143.91, 0.000, 0.000, 0.000, 11:55:46.024
79, -53134.54, -58632.69, -105207.91, -99004.86, -61082.89, -58436.13, -82721.92, -85199.13, 0.000, 0.000, 0.000, 11:55:46.024
80, -53043.23, -58540.98, -105194.86, -99220.24, -61090.13, -58417.09, -82658.89, -85208.60, 0.000, 0.000, 0.000, 11:55:46.024
81, -53039.95, -58536.58, -105131.92, -99257.08, -61048.82, -58382.11, -82634.02, -85171.23, 0.000, 0.000, 0.000, 11:55:46.024
82, -53132.73, -58632.34, -105143.77, -99035.81, -61038.88, -58398.69, -82696.24, -85160.91, 0.000, 0.000, 0.000, 11:55:46.024
83, -53145.03, -58648.36, -105206.48, -98974.05, -61085.77, -58438.39, -82730.82, -85203.64, 0.000, 0.000, 0.000, 11:55:46.025
84, -53067.35, -58569.50, -105205.79, -99175.40, -61107.79, -58432.98, -82678.79, -85223.66, 0.000, 0.000, 0.000, 11:55:46.025
85, -53025.00, -58528.98, -105140.16, -99283.16, -61065.32, -58382.06, -82626.64, -85181.83, 0.000, 0.000, 0.000, 11:55:46.025
86, -53098.22, -58603.68, -105118.40, -99080.01, -61027.43, -58369.28, -82665.48, -85144.03, 0.000, 0.000, 0.000, 11:55:46.025
87, -53143.42, -58646.59, -105189.63, -98962.75, -61075.13, -58414.74, -82718.82, -85181.09, 0.000, 0.000, 0.000, 11:55:46.025
88, -53083.58, -58587.30, -105219.85, -99139.51, -61118.25, -58425.51, -82690.01, -85217.63, 0.000, 0.000, 0.000, 11:55:46.025
89, -53028.44, -58531.98, -105162.72, -99293.62, -61091.20, -58381.12, -82635.70, -85189.00, 0.000, 0.000, 0.000, 11:55:46.025
90, -53087.16, -58586.04, -105123.20, -99131.97, -61045.65, -58360.63, -82659.97, -85145.64, 0.000, 0.000, 0.000, 11:55:46.487
91, -53150.64, -58654.66, -105180.47, -98963.38, -61077.55, -58403.30, -82720.02, -85172.02, 0.000, 0.000, 0.000, 11:55:46.487
92, -53114.52, -58621.54, -105237.59, -99101.30, -61138.95, -58432.24, -82713.97, -85225.61, 0.000, 0.000, 0.000, 11:55:46.487
93, -53039.55, -58545.72, -105196.38, -99300.10, -61120.38, -58395.25, -82653.41, -85212.65, 0.000, 0.000, 0.000, 11:55:46.487
94, -53067.93, -58576.59, -105125.10, -99184.61, -61052.40, -58350.39, -82646.17, -85150.22, 0.000, 0.000, 0.000, 11:55:46.487
95, -53134.52, -58648.38, -105159.16, -98978.55, -61064.50, -58372.56, -82700.24, -85154.40, 0.000, 0.000, 0.000, 11:55:46.487
96, -53103.09, -58618.36, -105211.40, -99057.98, -61119.55, -58408.08, -82700.24, -85202.45, 0.000, 0.000, 0.000, 11:55:46.487
97, -53003.88, -58526.45, -105171.05, -99265.68, -61112.71, -58370.82, -82633.05, -85191.26, 0.000, 0.000, 0.000, 11:55:46.488
98, -53024.84, -58553.16, -105111.55, -99211.84, -61065.21, -58336.42, -82633.59, -85147.49, 0.000, 0.000, 0.000, 11:55:46.488
99, -53099.18, -58628.27, -105139.34, -98985.86, -61069.48, -58360.80, -82696.16, -85149.88, 0.000, 0.000, 0.000, 11:55:46.488
100, -53080.63, -58613.69, -105193.05, -99006.04, -61116.77, -58393.91, -82701.88, -85190.50, 0.000, 0.000, 0.000, 11:55:46.488
101, -52990.44, -58526.63, -105170.97, -99225.36, -61123.08, -58367.31, -82640.23, -85196.27, 0.000, 0.000, 0.000, 11:55:46.488
102, -52983.55, -58525.79, -105102.10, -99225.85, -61073.10, -58320.44, -82618.62, -85149.03, 0.000, 0.000, 0.000, 11:55:46.488
103, -53057.38, -58604.73, -105107.87, -98990.11, -61052.31, -58325.69, -82669.80, -85129.43, 0.000, 0.000, 0.000, 11:55:46.488
104, -53055.08, -58604.37, -105171.80, -98967.02, -61102.54, -58364.47, -82693.36, -85174.11, 0.000, 0.000, 0.000, 11:55:46.488
105, -52957.85, -58510.70, -105161.29, -99183.65, -61122.00, -58348.13, -82635.31, -85185.58, 0.000, 0.000, 0.000, 11:55:46.489
106, -52916.73, -58473.70, -105077.83, -99244.18, -61065.72, -58292.39, -82586.02, -85133.79, 0.000, 0.000, 0.000, 11:55:46.489
107, -52991.89, -58551.15, -105062.67, -99016.62, -61035.37, -58293.95, -82636.32, -85108.47, 0.000, 0.000, 0.000, 11:55:46.489
108, -53029.40, -58590.85, -105142.70, -98933.98, -61091.99, -58350.88, -82692.20, -85161.62, 0.000, 0.000, 0.000, 11:55:46.489
109, -52959.17, -58521.65, -105161.35, -99126.56, -61127.08, -58356.07, -82654.80, -85194.59, 0.000, 0.000, 0.000, 11:55:46.489
110, -52912.19, -58475.85, -105099.82, -99245.14, -61092.50, -58307.68, -82605.52, -85157.62, 0.000, 0.000, 0.000, 11:55:46.489
111, -52974.55, -58541.86, -105071.68, -99052.55, -61054.88, -58291.70, -82635.55, -85116.96, 0.000, 0.000, 0.000, 11:55:46.489
112, -53008.86, -58577.91, -105132.92, -98921.27, -61096.19, -58329.87, -82685.38, -85148.14, 0.000, 0.000, 0.000, 11:55:46.489
113, -52947.46, -58515.77, -105164.66, -99083.36, -61138.19, -58341.31, -82654.24, -85183.59, 0.000, 0.000, 0.000, 11:55:46.489
114, -52883.46, -58451.60, -105106.33, -99242.62, -61111.10, -58297.04, -82589.98, -85153.73, 0.000, 0.000, 0.000, 11:55:46.490
115, -52949.11, -58517.11, -105065.06, -99086.02, -61065.46, -58280.72, -82619.29, -85115.44, 0.000, 0.000, 0.000, 11:55:46.491
116, -53012.55, -58581.15, -105125.97, -98920.84, -61093.60, -58319.50, -82677.55, -85141.68, 0.000, 0.000, 0.000, 11:55:46.491
117, -52972.34, -58540.22, -105170.20, -99046.03, -61141.83, -58340.80, -82666.18, -85181.84, 0.000, 0.000, 0.000, 11:55:46.491
118, -52903.74, -58469.23, -105130.15, -99245.81, -61131.30, -58303.52, -82606.39, -85164.05, 0.000, 0.000, 0.000, 11:55:46.491
119, -52935.52, -58503.16, -105070.48, -99135.93, -61080.43, -58271.80, -82607.73, -85115.71, 0.000, 0.000, 0.000, 11:55:46.491
120, -53011.99, -58577.15, -105119.00, -98931.50, -61099.65, -58303.00, -82670.31, -85130.35, 0.000, 0.000, 0.000, 11:55:46.492
121, -52982.93, -58550.82, -105168.55, -99006.02, -61146.08, -58330.74, -82674.52, -85175.32, 0.000, 0.000, 0.000, 11:55:46.492
122, -52900.81, -58471.04, -105137.64, -99220.27, -61140.38, -58301.06, -82617.27, -85170.36, 0.000, 0.000, 0.000, 11:55:46.492
123, -52928.35, -58494.56, -105082.95, -99188.70, -61094.96, -58266.01, -82614.62, -85129.61, 0.000, 0.000, 0.000, 11:55:46.492
124, -53017.42, -58582.67, -105116.20, -98965.34, -61097.53, -58298.58, -82690.32, -85136.77, 0.000, 0.000, 0.000, 11:55:46.492
125, -52994.17, -58559.71, -105169.94, -98986.40, -61143.30, -58328.04, -82695.13, -85174.85, 0.000, 0.000, 0.000, 11:55:46.492
126, -52905.68, -58470.35, -105145.55, -99211.27, -61143.22, -58301.98, -82624.59, -85171.81, 0.000, 0.000, 0.000, 11:55:46.492
127, -52908.50, -58475.34, -105081.25, -99223.59, -61090.20, -58265.30, -82602.70, -85130.77, 0.000, 0.000, 0.000, 11:55:46.492
128, -52985.68, -58553.84, -105087.51, -98990.91, -61072.63, -58277.72, -82660.91, -85119.22, 0.000, 0.000, 0.000, 11:55:46.492
129, -52987.45, -58558.64, -105150.11, -98952.76, -61117.00, -58315.86, -82691.46, -85163.12, 0.000, 0.000, 0.000, 11:55:46.492
130, -52913.39, -58483.70, -105147.41, -99165.66, -61138.30, -58308.34, -82643.83, -85183.59, 0.000, 0.000, 0.000, 11:55:46.492
131, -52902.26, -58469.19, -105092.22, -99248.25, -61100.30, -58274.93, -82605.32, -85151.13, 0.000, 0.000, 0.000, 11:55:46.492
132, -52984.94, -58552.83, -105083.80, -99032.10, -61074.82, -58277.61, -82658.29, -85127.51, 0.000, 0.000, 0.000, 11:55:46.492
133, -53011.30, -58581.21, -105151.97, -98938.63, -61118.52, -58316.46, -82699.30, -85163.34, 0.000, 0.000, 0.000, 11:55:46.493
134, -52938.90, -58507.95, -105171.86, -99132.30, -61148.76, -58323.52, -82658.60, -85190.95, 0.000, 0.000, 0.000, 11:55:46.493
135, -52895.40, -58463.27, -105110.28, -99264.92, -61114.38, -58281.64, -82608.27, -85160.92, 0.000, 0.000, 0.000, 11:55:46.493
136, -52979.15, -58548.70, -105086.45, -99076.80, -61085.77, -58280.07, -82649.75, -85135.34, 0.000, 0.000, 0.000, 11:55:46.493
137, -53026.88, -58596.84, -105150.70, -98935.91, -61126.74, -58324.66, -82702.46, -85169.53, 0.000, 0.000, 0.000, 11:55:46.494
138, -52972.83, -58535.91, -105180.60, -99092.45, -61163.94, -58337.89, -82671.77, -85202.92, 0.000, 0.000, 0.000, 11:55:46.494
139, -52912.14, -58474.11, -105127.67, -99259.34, -61139.53, -58301.19, -82613.25, -85176.55, 0.000, 0.000, 0.000, 11:55:46.494
140, -52970.28, -58530.97, -105084.04, -99122.49, -61105.42, -58285.30, -82639.11, -85141.21, 0.000, 0.000, 0.000, 11:55:46.494
141, -53046.86, -58610.86, -105146.05, -98937.13, -61143.57, -58337.96, -82723.52, -85177.71, 0.000, 0.000, 0.000, 11:55:46.494
142, -52988.16, -58557.30, -105179.55, -99049.65, -61178.87, -58351.17, -82695.33, -85209.05, 0.000, 0.000, 0.000, 11:55:46.494
143, -52907.74, -58476.01, -105133.08, -99246.03, -61152.88, -58303.11, -82612.29, -85178.18, 0.000, 0.000, 0.000, 11:55:46.494
144, -52954.75, -58522.92, -105092.29, -99167.00, -61116.71, -58283.09, -82627.29, -85144.34, 0.000, 0.000, 0.000, 11:55:46.494
145, -53033.33, -58604.17, -105135.47, -98952.38, -61133.76, -58323.90, -82694.39, -85164.88, 0.000, 0.000, 0.000, 11:55:46.494
146, -53002.54, -58573.66, -105181.12, -99001.91, -61184.32, -58349.41, -82700.94, -85206.23, 0.000, 0.000, 0.000, 11:55:46.495
147, -52926.22, -58495.79, -105153.42, -99216.28, -61180.34, -58316.28, -82625.21, -85196.09, 0.000, 0.000, 0.000, 11:55:46.495
148, -52945.96, -58514.88, -105098.95, -99197.42, -61142.66, -58290.35, -82620.02, -85162.80, 0.000, 0.000, 0.000, 11:55:46.495
149, -53023.79, -58594.18, -105116.65, -98969.30, -61139.44, -58314.31, -82679.73, -85163.52, 0.000, 0.000, 0.000, 11:55:46.495
150, -53024.53, -58593.64, -105183.08, -98973.43, -61190.00, -58353.56, -82702.62, -85205.63, 0.000, 0.000, 0.000, 11:55:46.495
151, -52941.89, -58516.53, -105170.34, -99188.14, -61198.96, -58330.92, -82645.10, -85208.76, 0.000, 0.000, 0.000, 11:55:46.495
152, -52925.29, -58501.49, -105101.97, -99219.46, -61159.54, -58284.50, -82622.08, -85166.02, 0.000, 0.000, 0.000, 11:55:46.495
153, -53031.16, -58602.41, -105120.12, -99002.38, -61160.11, -58308.14, -82690.74, -85160.66, 0.000, 0.000, 0.000, 11:55:46.495
154, -53053.29, -58623.08, -105194.55, -98961.97, -61218.09, -58357.83, -82729.62, -85213.16, 0.000, 0.000, 0.000, 11:55:46.495
155, -52959.71, -58531.66, -105186.81, -99168.56, -61231.68, -58342.32, -82669.69, -85221.32, 0.000, 0.000, 0.000, 11:55:46.495
156, -52928.53, -58500.26, -105118.59, -99263.67, -61181.59, -58294.67, -82611.33, -85180.98, 0.000, 0.000, 0.000, 11:55:46.495
157, -53012.46, -58583.83, -105109.09, -99051.73, -61159.27, -58297.08, -82660.75, -85156.68, 0.000, 0.000, 0.000, 11:55:46.495
158, -53037.60, -58610.56, -105169.36, -98949.25, -61206.18, -58335.04, -82703.91, -85189.34, 0.000, 0.000, 0.000, 11:55:46.495
159, -52973.07, -58544.13, -105187.24, -99130.92, -61240.02, -58338.99, -82668.59, -85216.83, 0.000, 0.000, 0.000, 11:55:46.496
160, -52926.31, -58495.95, -105131.83, -99276.12, -61218.99, -58304.50, -82624.02, -85197.78, 0.000, 0.000, 0.000, 11:55:46.496
161, -52998.06, -58565.17, -105099.04, -99094.76, -61188.37, -58298.80, -82659.68, -85164.63, 0.000, 0.000, 0.000, 11:55:46.496
162, -53051.95, -58618.77, -105155.12, -98932.23, -61212.17, -58334.52, -82697.63, -85178.85, 0.000, 0.000, 0.000, 11:55:46.496
163, -52997.21, -58565.75, -105193.20, -99080.95, -61254.15, -58347.95, -82674.80, -85215.60, 0.000, 0.000, 0.000, 11:55:46.496
164, -52934.72, -58505.80, -105149.06, -99270.11, -61239.51, -58312.17, -82621.12, -85198.05, 0.000, 0.000, 0.000, 11:55:46.496
165, -52988.81, -58562.95, -105106.02, -99141.36, -61194.47, -58294.38, -82624.88, -85157.80, 0.000, 0.000, 0.000, 11:55:46.496
166, -53047.13, -58621.40, -105148.91, -98951.03, -61220.73, -58330.09, -82684.11, -85174.80, 0.000, 0.000, 0.000, 11:55:46.496
167, -53021.06, -58592.19, -105195.73, -99047.30, -61266.26, -58362.01, -82683.59, -85216.49, 0.000, 0.000, 0.000, 11:55:46.496
168, -52945.52, -58514.05, -105171.64, -99264.25, -61264.83, -58338.70, -82624.43, -85210.37, 0.000, 0.000, 0.000, 11:55:46.497
169, -52969.12, -58541.03, -105109.27, -99196.88, -61218.95, -58304.97, -82621.56, -85163.41, 0.000, 0.000, 0.000, 11:55:46.497
170, -53058.82, -58635.66, -105145.64, -98976.34, -61235.82, -58341.16, -82695.88, -85175.41, 0.000, 0.000, 0.000, 11:55:46.497
171, -53027.37, -58610.56, -105188.29, -99023.81, -61271.65, -58368.92, -82687.77, -85212.65, 0.000, 0.000, 0.000, 11:55:46.497
172, -52940.53, -58526.83, -105160.10, -99241.88, -61264.07, -58347.21, -82627.45, -85210.73, 0.000, 0.000, 0.000, 11:55:46.497
173, -52935.50, -58524.26, -105095.40, -99232.91, -61220.09, -58308.19, -82615.40, -85168.68, 0.000, 0.000, 0.000, 11:55:46.497
174, -53014.45, -58603.07, -105110.73, -99003.12, -61219.10, -58330.27, -82676.15, -85169.06, 0.000, 0.000, 0.000, 11:55:46.497
175, -53014.80, -58599.54, -105170.25, -99001.08, -61257.12, -58368.29, -82673.45, -85206.21, 0.000, 0.000, 0.000, 11:55:46.497
176, -52936.44, -58521.09, -105155.90, -99213.11, -61259.49, -58349.99, -82611.13, -85204.06, 0.000, 0.000, 0.000, 11:55:46.497
177, -52922.20, -58506.07, -105091.88, -99262.66, -61218.32, -58305.95, -82576.93, -85160.52, 0.000, 0.000, 0.000, 11:55:46.498
178, -53000.14, -58581.06, -105087.66, -99039.28, -61206.70, -58310.31, -82628.14, -85138.93, 0.000, 0.000, 0.000, 11:55:46.498
179, -53035.01, -58615.57, -105159.68, -98962.77, -61261.57, -58361.23, -82680.06, -85181.51, 0.000, 0.000, 0.000, 11:55:46.498
180, -52958.72, -58542.28, -105173.13, -99166.62, -61287.12, -58356.76, -82625.77, -85201.43, 0.000, 0.000, 0.000, 11:55:46.498
181, -52918.09, -58504.77, -105107.89, -99274.35, -61255.29, -58310.83, -82584.51, -85164.19, 0.000, 0.000, 0.000, 11:55:46.498
182, -52995.63, -58587.61, -105089.70, -99071.13, -61228.18, -58311.79, -82635.88, -85140.30, 0.000, 0.000, 0.000, 11:55:46.499
183, -53036.53, -58627.98, -105156.86, -98956.29, -61275.61, -58359.71, -82688.64, -85179.26, 0.000, 0.000, 0.000, 11:55:46.499
184, -52967.35, -58558.89, -105172.30, -99123.10, -61303.86, -58363.64, -82641.82, -85202.97, 0.000, 0.000, 0.000, 11:55:46.499
185, -52906.91, -58494.89, -105109.52, -99276.68, -61276.25, -58315.92, -82585.91, -85174.65, 0.000, 0.000, 0.000, 11:55:46.499
186, -52978.57, -58569.37, -105084.04, -99122.41, -61256.38, -58316.88, -82625.70, -85155.20, 0.000, 0.000, 0.000, 11:55:46.499
187, -53034.12, -58628.00, -105143.34, -98956.53, -61291.92, -58360.38, -82679.16, -85181.04, 0.000, 0.000, 0.000, 11:55:46.499
188, -52977.79, -58569.41, -105175.70, -99086.09, -61334.41, -58367.02, -82665.17, -85209.63, 0.000, 0.000, 0.000, 11:55:46.499
189, -52919.90, -58508.91, -105136.32, -99272.01, -61318.93, -58330.99, -82600.84, -85191.73, 0.000, 0.000, 0.000, 11:55:46.499
190, -52955.55, -58549.88, -105085.27, -99157.61, -61276.79, -58302.04, -82609.90, -85151.49, 0.000, 0.000, 0.000, 11:55:46.499
191, -53032.77, -58625.43, -105129.82, -98954.16, -61302.83, -58338.52, -82678.63, -85167.95, 0.000, 0.000, 0.000, 11:55:46.499
192, -53008.88, -58601.00, -105184.83, -99051.87, -61353.43, -58367.22, -82669.78, -85208.80, 0.000, 0.000, 0.000, 11:55:46.499
193, -52921.93, -58517.63, -105142.20, -99267.24, -61345.23, -58332.51, -82603.82, -85195.62, 0.000, 0.000, 0.000, 11:55:46.500
194, -52943.05, -58540.60, -105081.60, -99204.73, -61301.09, -58298.55, -82600.38, -85150.42, 0.000, 0.000, 0.000, 11:55:46.500
195, -53025.15, -58620.93, -105107.55, -98982.20, -61311.61, -58324.42, -82662.56, -85154.58, 0.000, 0.000, 0.000, 11:55:46.500
196, -53022.49, -58616.42, -105169.78, -99016.75, -61363.85, -58370.06, -82676.51, -85205.49, 0.000, 0.000, 0.000, 11:55:46.500
197, -52935.07, -58528.09, -105154.27, -99237.85, -61369.64, -58350.93, -82623.34, -85209.52, 0.000, 0.000, 0.000, 11:55:46.500
198, -52935.34, -58529.25, -105092.02, -99248.96, -61326.41, -58312.95, -82594.59, -85166.05, 0.000, 0.000, 0.000, 11:55:46.500
199, -53025.98, -58622.48, -105108.80, -99016.77, -61325.56, -58337.25, -82657.71, -85163.36, 0.000, 0.000, 0.000, 11:55:46.500
200, -53026.02, -58622.75, -105166.98, -98987.09, -61372.66, -58377.03, -82682.81, -85204.06, 0.000, 0.000, 0.000, 11:55:46.500
201, -52936.91, -58535.71, -105154.56, -99199.74, -61380.04, -58357.99, -82621.01, -85209.07, 0.000, 0.000, 0.000, 11:55:46.500
202, -52925.46, -58525.00, -105097.83, -99262.88, -61345.14, -58316.35, -82583.34, -85170.25, 0.000, 0.000, 0.000, 11:55:46.500
203, -53003.25, -58606.07, -105090.01, -99048.38, -61322.46, -58322.09, -82621.45, -85150.63, 0.000, 0.000, 0.000, 11:55:46.500
204, -53037.43, -58641.57, -105158.67, -98968.98, -61374.85, -58373.61, -82668.28, -85196.58, 0.000, 0.000, 0.000, 11:55:46.501
205, -52963.86, -58568.74, -105170.70, -99166.35, -61411.55, -58369.52, -82628.72, -85217.34, 0.000, 0.000, 0.000, 11:55:46.501
206, -52916.66, -58527.39, -105107.13, -99284.10, -61381.89, -58324.21, -82575.92, -85179.73, 0.000, 0.000, 0.000, 11:55:46.501
207, -52986.71, -58598.29, -105080.06, -99088.61, -61350.06, -58315.16, -82611.35, -85146.02, 0.000, 0.000, 0.000, 11:55:46.501
208, -53029.02, -58638.39, -105142.96, -98959.46, -61398.96, -58356.60, -82670.83, -85178.96, 0.000, 0.000, 0.000, 11:55:46.501
209, -52968.40, -58576.63, -105167.03, -99118.38, -61442.86, -58368.23, -82648.86, -85207.51, 0.000, 0.000, 0.000, 11:55:46.501
210, -52912.81, -58520.53, -105113.37, -99281.02, -61406.52, -58323.99, -82565.35, -85175.19, 0.000, 0.000, 0.000, 11:55:46.966
211, -52977.05, -58585.66, -105086.59, -99136.94, -61382.80, -58314.70, -82599.77, -85145.97, 0.000, 0.000, 0.000, 11:55:46.966
212, -53029.98, -58639.26, -105135.98, -98967.04, -61418.48, -58347.53, -82663.34, -85168.08, 0.000, 0.000, 0.000, 11:55:46.967
213, -52989.43, -58596.95, -105182.50, -99093.80, -61465.20, -58366.53, -82653.10, -85206.91, 0.000, 0.000, 0.000, 11:55:46.967
214, -52915.12, -58522.23, -105134.66, -99294.38, -61448.52, -58324.93, -82584.73, -85186.48, 0.000, 0.000, 0.000, 11:55:46.967
215, -52967.38, -58577.08, -105091.20, -99192.77, -61413.94, -58305.77, -82602.03, -85150.45, 0.000, 0.000, 0.000, 11:55:46.967
216, -53039.97, -58655.69, -105138.96, -98994.40, -61442.21, -58343.88, -82669.76, -85169.77, 0.000, 0.000, 0.000, 11:55:46.967
217, -53006.07, -58624.54, -105185.67, -99065.97, -61489.13, -58371.29, -82661.66, -85207.51, 0.000, 0.000, 0.000, 11:55:46.967
218, -52921.17, -58538.48, -105148.21, -99285.46, -61477.73, -58337.87, -82583.23, -85193.38, 0.000, 0.000, 0.000, 11:55:46.967
219, -52949.20, -58565.91, -105094.01, -99246.16, -61439.67, -58312.14, -82585.89, -85156.41, 0.000, 0.000, 0.000, 11:55:46.967
220, -53036.24, -58657.03, -105125.64, -99018.41, -61450.29, -58344.64, -82657.51, -85165.09, 0.000, 0.000, 0.000, 11:55:46.967
221, -53016.13, -58636.27, -105180.94, -99044.27, -61500.18, -58373.93, -82664.82, -85204.38, 0.000, 0.000, 0.000, 11:55:46.967
222, -52926.49, -58546.53, -105151.43, -99265.37, -61498.61, -58345.27, -82598.09, -85197.94, 0.000, 0.000, 0.000, 11:55:46.968
223, -52917.57, -58544.07, -105080.38, -99279.65, -61451.34, -58299.85, -82571.34, -85149.68, 0.000, 0.000, 0.000, 11:55:46.968
224, -53009.29, -58634.46, -105090.66, -99042.38, -61443.69, -58313.35, -82628.72, -85138.22, 0.000, 0.000, 0.000, 11:55:46.968
225, -53028.17, -58647.98, -105160.17, -99001.33, -61505.72, -58361.88, -82674.77, -85188.69, 0.000, 0.000, 0.000, 11:55:46.968
226, -52948.00, -58569.10, -105165.98, -99209.66, -61525.05, -58355.35, -82620.56, -85205.27, 0.000, 0.000, 0.000, 11:55:46.968
227, -52916.99, -58540.47, -105107.84, -99298.31, -61492.62, -58310.13, -82583.30, -85172.95, 0.000, 0.000, 0.000, 11:55:46.968
228, -52995.71, -58622.54, -105097.83, -99091.34, -61478.98, -58316.13, -82649.91, -85159.49, 0.000, 0.000, 0.000, 11:55:46.968
229, -53034.88, -58663.47, -105173.00, -98999.38, -61532.09, -58370.39, -82699.77, -85203.53, 0.000, 0.000, 0.000, 11:55:46.968
230, -52963.51, -58594.58, -105186.05, -99191.16, -61555.68, -58370.71, -82640.92, -85213.70, 0.000, 0.000, 0.000, 11:55:46.968
231, -52918.69, -58546.91, -105128.66, -99317.42, -61521.74, -58334.30, -82591.01, -85176.10, 0.000, 0.000, 0.000, 11:55:46.968
232, -52976.18, -58612.11, -105098.88, -99142.66, -61490.79, -58328.42, -82618.39, -85147.05, 0.000, 0.000, 0.000, 11:55:46.968
233, -53025.64, -58669.55, -105154.47, -98998.02, -61522.08, -58373.46, -82671.74, -85183.12, 0.000, 0.000, 0.000, 11:55:46.969
234, -52963.48, -58609.31, -105181.30, -99146.84, -61556.97, -58381.52, -82646.04, -85210.86, 0.000, 0.000, 0.000, 11:55:46.969
235, -52905.95, -58551.42, -105135.43, -99310.83, -61532.61, -58349.68, -82598.25, -85189.18, 0.000, 0.000, 0.000, 11:55:46.969
236, -52945.18, -58595.48, -105087.70, -99175.34, -61492.82, -58326.74, -82614.46, -85148.61, 0.000, 0.000, 0.000, 11:55:46.969
237, -53003.88, -58664.92, -105130.02, -98983.89, -61520.63, -58358.82, -82669.78, -85167.30, 0.000, 0.000, 0.000, 11:55:46.969
238, -52974.91, -58637.74, -105178.74, -99094.65, -61575.07, -58388.05, -82670.18, -85216.65, 0.000, 0.000, 0.000, 11:55:46.969
239, -52908.70, -58573.39, -105147.05, -99289.93, -61560.61, -58359.40, -82605.72, -85206.59, 0.000, 0.000, 0.000, 11:55:46.969
240, -52941.69, -58608.39, -105095.41, -99206.25, -61511.82, -58332.73, -82600.58, -85166.83, 0.000, 0.000, 0.000, 11:55:46.969
241, -53013.11, -58676.61, -105132.37, -98998.53, -61526.39, -58360.09, -82661.42, -85170.56, 0.000, 0.000, 0.000, 11:55:46.970
242, -52988.52, -58649.50, -105179.75, -99055.10, -61577.31, -58390.11, -82666.54, -85207.40, 0.000, 0.000, 0.000, 11:55:46.970
243, -52916.32, -58577.08, -105161.18, -99267.63, -61579.39, -58373.30, -82608.40, -85213.77, 0.000, 0.000, 0.000, 11:55:46.970
244, -52926.43, -58587.14, -105104.94, -99253.30, -61537.59, -58334.88, -82593.85, -85168.08, 0.000, 0.000, 0.000, 11:55:46.970
245, -53008.25, -58671.94, -105124.14, -99030.48, -61542.26, -58358.21, -82662.90, -85166.63, 0.000, 0.000, 0.000, 11:55:46.970
246, -53007.70, -58672.66, -105178.86, -99033.70, -61590.23, -58400.50, -82675.66, -85211.87, 0.000, 0.000, 0.000, 11:55:46.970
247, -52939.34, -58605.69, -105169.38, -99246.66, -61599.19, -58389.04, -82625.70, -85219.89, 0.000, 0.000, 0.000, 11:55:46.970
248, -52917.48, -58587.18, -105106.57, -99291.63, -61560.86, -58343.68, -82597.67, -85175.90, 0.000, 0.000, 0.000, 11:55:46.970
249, -52990.44, -58666.78, -105102.41, -99065.14, -61542.80, -58353.63, -82642.58, -85157.10, 0.000, 0.000, 0.000, 11:55:46.970
250, -53016.86, -58685.96, -105167.08, -98998.98, -61585.89, -58398.56, -82678.27, -85188.77, 0.000, 0.000, 0.000, 11:55:46.970
251, -52953.16, -58621.63, -105178.84, -99203.16, -61615.49, -58396.50, -82636.95, -85208.38, 0.000, 0.000, 0.000, 11:55:46.970
252, -52931.81, -58602.09, -105117.16, -99305.60, -61580.71, -58348.20, -82588.89, -85175.90, 0.000, 0.000, 0.000, 11:55:46.971
253, -53028.80, -58692.86, -105107.31, -99100.97, -61552.68, -58352.56, -82650.78, -85163.16, 0.000, 0.000, 0.000, 11:55:46.971
254, -53082.42, -58748.00, -105179.64, -98995.07, -61591.97, -58399.16, -82700.27, -85201.47, 0.000, 0.000, 0.000, 11:55:46.971
255, -53039.04, -58707.68, -105201.88, -99166.77, -61618.26, -58401.75, -82649.80, -85215.42, 0.000, 0.000, 0.000, 11:55:46.971
0, -53016.97, -58678.76, -105157.06, -99313.60, -61590.59, -58359.48, -82592.02, -85184.95, 0.000, 0.000, 0.000, 11:55:46.971
1, -53095.43, -58758.89, -105124.20, -99153.95, -61550.29, -58344.20, -82615.71, -85149.33, 0.000, 0.000, 0.000, 11:55:46.971
2, -53186.85, -58849.50, -105197.07, -98992.81, -61587.01, -58399.94, -82683.62, -85187.68, 0.000, 0.000, 0.000, 11:55:46.971
3, -53161.03, -58815.98, -105247.52, -99141.18, -61638.26, -58422.00, -82678.18, -85229.81, 0.000, 0.000, 0.000, 11:55:46.971
4, -53115.32, -58767.56, -105204.47, -99325.77, -61624.07, -58388.70, -82634.76, -85213.85, 0.000, 0.000, 0.000, 11:55:46.972
5, -53192.81, -58846.46, -105171.01, -99205.55, -61583.99, -58384.36, -82658.80, -85193.65, 0.000, 0.000, 0.000, 11:55:46.972
6, -53282.87, -58935.87, -105230.47, -99018.85, -61610.61, -58433.87, -82722.20, -85221.03, 0.000, 0.000, 0.000, 11:55:46.972
7, -53253.32, -58903.77, -105275.39, -99125.42, -61654.40, -58451.57, -82710.02, -85252.44, 0.000, 0.000, 0.000, 11:55:46.972
8, -53199.05, -58852.95, -105239.36, -99332.91, -61651.00, -58420.93, -82662.05, -85237.23, 0.000, 0.000, 0.000, 11:55:46.972
9, -53239.44, -58886.14, -105193.48, -99273.82, -61611.40, -58393.02, -82663.70, -85202.21, 0.000, 0.000, 0.000, 11:55:46.972
10, -53328.78, -58975.72, -105226.51, -99065.55, -61614.14, -58421.67, -82712.05, -85207.66, 0.000, 0.000, 0.000, 11:55:46.972
11, -53321.34, -58976.26, -105279.08, -99107.43, -61661.35, -58451.20, -82715.96, -85244.84, 0.000, 0.000, 0.000, 11:55:46.972
12, -53251.22, -58901.52, -105262.09, -99324.80, -61667.99, -58428.96, -82678.05, -85249.39, 0.000, 0.000, 0.000, 11:55:46.972
13, -53267.42, -58915.42, -105209.14, -99319.68, -61628.36, -58396.50, -82662.65, -85212.96, 0.000, 0.000, 0.000, 11:55:46.972
14, -53356.72, -59006.17, -105230.53, -99096.45, -61624.36, -58417.33, -82713.79, -85207.88, 0.000, 0.000, 0.000, 11:55:46.973
15, -53360.79, -59012.71, -105294.46, -99074.02, -61673.87, -58462.80, -82745.10, -85254.71, 0.000, 0.000, 0.000, 11:55:46.973
16, -53282.02, -58933.75, -105290.46, -99292.91, -61691.10, -58450.26, -82690.12, -85267.12, 0.000, 0.000, 0.000, 11:55:46.973
17, -53265.01, -58911.33, -105228.43, -99357.13, -61660.39, -58409.31, -82657.09, -85228.90, 0.000, 0.000, 0.000, 11:55:46.973
18, -53356.45, -58999.68, -105227.43, -99136.51, -61641.84, -58418.79, -82707.64, -85207.20, 0.000, 0.000, 0.000, 11:55:46.973
19, -53378.47, -59021.90, -105300.95, -99069.77, -61692.24, -58466.95, -82752.30, -85255.63, 0.000, 0.000, 0.000, 11:55:46.973
20, -53301.22, -58945.13, -105306.91, -99264.70, -61720.43, -58466.06, -82718.35, -85282.12, 0.000, 0.000, 0.000, 11:55:46.973
21, -53258.80, -58904.71, -105251.41, -99368.14, -61685.47, -58425.38, -82665.94, -85246.47, 0.000, 0.000, 0.000, 11:55:46.973
22, -53328.71, -58967.01, -105236.68, -99175.45, -61666.38, -58425.20, -82720.02, -85227.89, 0.000, 0.000, 0.000, 11:55:46.973
23, -53367.18, -59002.32, -105300.49, -99058.16, -61707.89, -58468.72, -82768.20, -85264.55, 0.000, 0.000, 0.000, 11:55:46.973
24, -53297.31, -58933.64, -105320.12, -99221.60, -61730.35, -58473.93, -82735.00, -85290.68, 0.000, 0.000, 0.000, 11:55:46.973
25, -53228.26, -58866.36, -105266.72, -99373.17, -61699.17, -58429.85, -82679.57, -85262.65, 0.000, 0.000, 0.000, 11:55:46.974
26, -53275.63, -58914.73, -105231.02, -99217.22, -61659.83, -58410.79, -82701.41, -85220.09, 0.000, 0.000, 0.000, 11:55:46.974
27, -53317.27, -58964.70, -105284.23, -99053.52, -61689.72, -58449.96, -82759.95, -85244.77, 0.000, 0.000, 0.000, 11:55:46.974
28, -53261.63, -58904.38, -105319.23, -99175.54, -61729.05, -58469.61, -82749.42, -85287.21, 0.000, 0.000, 0.000, 11:55:46.974
29, -53186.11, -58839.60, -105277.20, -99360.63, -61711.80, -58440.51, -82693.27, -85279.95, 0.000, 0.000, 0.000, 11:55:46.974
30, -53217.63, -58874.71, -105227.07, -99255.71, -61669.09, -58419.37, -82701.88, -85243.36, 0.000, 0.000, 0.000, 11:55:46.974
31, -53279.65, -58942.42, -105271.44, -99054.39, -61686.99, -58450.68, -82757.51, -85246.84, 0.000, 0.000, 0.000, 11:55:46.974
32, -53228.69, -58894.25, -105308.41, -99137.67, -61730.40, -58464.11, -82741.28, -85276.30, 0.000, 0.000, 0.000, 11:55:46.974
33, -53141.02, -58806.34, -105264.95, -99343.38, -61715.13, -58423.23, -82664.55, -85256.59, 0.000, 0.000, 0.000, 11:55:46.974
34, -53160.74, -58829.97, -105205.84, -99284.44, -61669.15, -58392.75, -82668.08, -85209.79, 0.000, 0.000, 0.000, 11:55:46.974
35, -53242.10, -58910.30, -105243.56, -99062.77, -61681.78, -58424.30, -82737.88, -85213.16, 0.000, 0.000, 0.000, 11:55:46.975
36, -53223.19, -58890.03, -105305.30, -99095.41, -61738.31, -58464.38, -82755.68, -85263.45, 0.000, 0.000, 0.000, 11:55:46.975
37, -53130.90, -58800.82, -105280.89, -99317.65, -61740.48, -58441.07, -82697.65, -85269.06, 0.000, 0.000, 0.000, 11:55:46.975
38, -53137.96, -58805.00, -105226.04, -99325.70, -61702.26, -58412.19, -82687.98, -85234.10, 0.000, 0.000, 0.000, 11:55:46.975
39, -53213.27, -58885.09, -105236.91, -99103.67, -61696.47, -58430.50, -82742.60, -85224.05, 0.000, 0.000, 0.000, 11:55:46.975
40, -53206.36, -58883.34, -105284.47, -99068.60, -61738.96, -58465.84, -82765.51, -85258.98, 0.000, 0.000, 0.000, 11:55:46.975
41, -53120.66, -58798.12, -105276.09, -99270.46, -61754.11, -58457.43, -82715.06, -85273.20, 0.000, 0.000, 0.000, 11:55:46.975
42, -53101.24, -58777.66, -105214.87, -99329.67, -61713.43, -58418.34, -82676.46, -85234.73, 0.000, 0.000, 0.000, 11:55:46.975
43, -53185.46, -58862.67, -105213.05, -99114.52, -61692.62, -58424.82, -82730.20, -85220.88, 0.000, 0.000, 0.000, 11:55:46.975
44, -53207.39, -58886.07, -105280.05, -99035.95, -61738.40, -58471.18, -82773.78, -85271.45, 0.000, 0.000, 0.000, 11:55:46.975
45, -53134.54, -58812.42, -105291.51, -99224.48, -61764.28, -58472.54, -82736.45, -85295.75, 0.000, 0.000, 0.000, 11:55:46.975
46, -53088.30, -58773.55, -105231.88, -99350.17, -61725.64, -58417.73, -82675.88, -85249.73, 0.000, 0.000, 0.000, 11:55:46.975
47, -53167.02, -58856.21, -105213.10, -99164.27, -61694.32, -58414.29, -82717.14, -85221.03, 0.000, 0.000, 0.000, 11:55:46.976
48, -53214.59, -58904.13, -105279.22, -99035.63, -61735.05, -58459.00, -82776.35, -85256.45, 0.000, 0.000, 0.000, 11:55:46.976
49, -53152.74, -58845.91, -105304.36, -99194.85, -61763.59, -58465.95, -82744.10, -85287.26, 0.000, 0.000, 0.000, 11:55:46.976
50, -53088.34, -58784.15, -105249.60, -99360.79, -61727.63, -58420.57, -82673.87, -85259.85, 0.000, 0.000, 0.000, 11:55:46.976
51, -53141.92, -58838.33, -105209.91, -99218.92, -61685.71, -58400.32, -82698.19, -85218.62, 0.000, 0.000, 0.000, 11:55:46.976
52, -53203.63, -58898.39, -105264.30, -99049.05, -61717.21, -58438.75, -82763.77, -85237.77, 0.000, 0.000, 0.000, 11:55:46.976
53, -53159.49, -58849.05, -105299.38, -99163.20, -61759.90, -58457.23, -82748.99, -85267.97, 0.000, 0.000, 0.000, 11:55:46.976
54, -53092.28, -58782.56, -105259.70, -99353.70, -61747.43, -58429.34, -82692.13, -85256.45, 0.000, 0.000, 0.000, 11:55:46.976
55, -53128.30, -58820.51, -105212.09, -99269.05, -61708.18, -58406.16, -82700.78, -85218.39, 0.000, 0.000, 0.000, 11:55:46.976
56, -53190.69, -58885.78, -105250.77, -99068.34, -61721.61, -58434.81, -82760.04, -85225.86, 0.000, 0.000, 0.000, 11:55:46.977
57, -53160.58, -58862.16, -105291.63, -99127.57, -61762.14, -58466.89, -82763.19, -85267.97, 0.000, 0.000, 0.000, 11:55:46.977
58, -53088.57, -58790.36, -105270.92, -99334.44, -61766.03, -58451.57, -82710.19, -85278.48, 0.000, 0.000, 0.000, 11:55:46.977
59, -53098.11, -58800.46, -105204.77, -99302.94, -61716.90, -58415.70, -82697.05, -85238.51, 0.000, 0.000, 0.000, 11:55:46.977
60, -53177.08, -58879.75, -105222.60, -99071.58, -61716.00, -58440.00, -82760.41, -85236.32, 0.000, 0.000, 0.000, 11:55:46.977
61, -53162.53, -58866.42, -105277.80, -99080.63, -61765.13, -58475.71, -82776.27, -85281.76, 0.000, 0.000, 0.000, 11:55:46.977
62, -53074.13, -58781.89, -105251.81, -99300.66, -61765.11, -58451.73, -82711.09, -85286.41, 0.000, 0.000, 0.000, 11:55:46.977
63, -53073.99, -58782.43, -105190.48, -99322.72, -61722.80, -58418.56, -82693.63, -85251.54, 0.000, 0.000, 0.000, 11:55:46.977
64, -53151.71, -58862.02, -105198.75, -99102.02, -61708.94, -58426.36, -82744.48, -85233.50, 0.000, 0.000, 0.000, 11:55:46.977
65, -53167.73, -58877.18, -105259.99, -99053.09, -61748.08, -58463.46, -82769.31, -85267.74, 0.000, 0.000, 0.000, 11:55:46.977
66, -53096.95, -58812.29, -105263.44, -99246.59, -61766.43, -58458.84, -82721.55, -85284.87, 0.000, 0.000, 0.000, 11:55:46.978
67, -53070.86, -58790.43, -105209.59, -99331.20, -61732.92, -58421.29, -82684.22, -85252.14, 0.000, 0.000, 0.000, 11:55:46.978
68, -53150.14, -58873.18, -105203.22, -99125.29, -61706.66, -58418.79, -82730.42, -85225.61, 0.000, 0.000, 0.000, 11:55:46.978
69, -53179.80, -58903.91, -105267.59, -99028.87, -61746.94, -58457.10, -82770.34, -85256.32, 0.000, 0.000, 0.000, 11:55:46.978
70, -53112.04, -58833.57, -105283.77, -99212.15, -61776.40, -58459.84, -82729.62, -85281.06, 0.000, 0.000, 0.000, 11:55:46.978
71, -53071.09, -58795.21, -105228.63, -99345.92, -61749.51, -58423.17, -82682.19, -85253.22, 0.000, 0.000, 0.000, 11:55:46.978
72, -53135.50, -58863.00, -105203.47, -99179.45, -61714.62, -58416.30, -82710.98, -85220.13, 0.000, 0.000, 0.000, 11:55:46.978
73, -53184.72, -58908.82, -105262.67, -99042.27, -61753.22, -58462.75, -82776.95, -85255.70, 0.000, 0.000, 0.000, 11:55:46.978
74, -53131.93, -58856.88, -105292.78, -99188.59, -61796.00, -58486.60, -82770.05, -85298.92, 0.000, 0.000, 0.000, 11:55:47.448
75, -53064.98, -58794.59, -105241.22, -99363.02, -61774.32, -58449.27, -82710.98, -85275.91, 0.000, 0.000, 0.000, 11:55:47.448
76, -53120.28, -58842.80, -105196.38, -99238.59, -61730.38, -58427.12, -82720.54, -85237.68, 0.000, 0.000, 0.000, 11:55:47.448
77, -53186.73, -58911.30, -105247.14, -99049.09, -61747.95, -58464.88, -82768.38, -85251.65, 0.000, 0.000, 0.000, 11:55:47.448
78, -53139.46, -58863.92, -105289.16, -99154.80, -61787.51, -58485.06, -82749.82, -85285.78, 0.000, 0.000, 0.000, 11:55:47.448
79, -53071.96, -58796.98, -105247.01, -99353.79, -61778.32, -58453.14, -82702.32, -85276.84, 0.000, 0.000, 0.000, 11:55:47.449
80, -53108.12, -58834.42, -105198.15, -99277.86, -61735.70, -58423.90, -82705.90, -85235.24, 0.000, 0.000, 0.000, 11:55:47.449
81, -53180.18, -58903.37, -105237.55, -99071.35, -61742.04, -58445.72, -82761.40, -85240.70, 0.000, 0.000, 0.000, 11:55:47.449
82, -53148.80, -58869.22, -105282.79, -99127.08, -61782.72, -58467.31, -82756.21, -85277.69, 0.000, 0.000, 0.000, 11:55:47.449
83, -53080.86, -58804.04, -105262.45, -99329.23, -61782.39, -58447.29, -82705.45, -85276.23, 0.000, 0.000, 0.000, 11:55:47.449
84, -53092.03, -58817.59, -105216.07, -99312.91, -61746.04, -58413.49, -82700.49, -85236.05, 0.000, 0.000, 0.000, 11:55:47.449
85, -53168.11, -58897.40, -105236.32, -99097.71, -61746.45, -58431.73, -82758.56, -85232.83, 0.000, 0.000, 0.000, 11:55:47.449
86, -53160.54, -58893.47, -105289.66, -99097.17, -61786.01, -58464.07, -82771.23, -85270.38, 0.000, 0.000, 0.000, 11:55:47.449
87, -53081.77, -58810.84, -105272.89, -99309.73, -61794.97, -58442.68, -82713.43, -85275.01, 0.000, 0.000, 0.000, 11:55:47.449
88, -53080.34, -58807.15, -105209.66, -99341.74, -61748.30, -58404.46, -82681.76, -85234.40, 0.000, 0.000, 0.000, 11:55:47.449
89, -53162.04, -58892.33, -105211.76, -99115.14, -61731.87, -58413.73, -82740.68, -85215.22, 0.000, 0.000, 0.000, 11:55:47.450
90, -53173.39, -58903.37, -105273.67, -99055.95, -61776.24, -58457.10, -82779.82, -85259.20, 0.000, 0.000, 0.000, 11:55:47.450
91, -53095.18, -58826.05, -105274.41, -99257.66, -61798.32, -58453.25, -82735.18, -85282.59, 0.000, 0.000, 0.000, 11:55:47.450
92, -53076.05, -58810.32, -105220.97, -99349.66, -61764.57, -58419.39, -82695.06, -85251.77, 0.000, 0.000, 0.000, 11:55:47.450
93, -53141.25, -58878.56, -105207.38, -99161.92, -61733.21, -58409.96, -82726.15, -85220.02, 0.000, 0.000, 0.000, 11:55:47.450
94, -53184.39, -58922.04, -105274.61, -99051.55, -61774.39, -58456.79, -82782.30, -85258.06, 0.000, 0.000, 0.000, 11:55:47.450
95, -53124.20, -58862.24, -105300.65, -99218.36, -61807.82, -58468.18, -82752.88, -85290.66, 0.000, 0.000, 0.000, 11:55:47.450
96, -53061.45, -58798.59, -105238.40, -99365.93, -61779.75, -58420.82, -82689.70, -85259.27, 0.000, 0.000, 0.000, 11:55:47.450
97, -53126.45, -58861.44, -105199.84, -99199.41, -61739.34, -58401.82, -82713.23, -85216.27, 0.000, 0.000, 0.000, 11:55:47.450
98, -53174.57, -58910.46, -105253.27, -99045.29, -61768.89, -58439.73, -82768.06, -85240.52, 0.000, 0.000, 0.000, 11:55:47.450
99, -53120.53, -58856.63, -105280.29, -99176.43, -61801.50, -58455.04, -82740.81, -85274.18, 0.000, 0.000, 0.000, 11:55:47.450
100, -53058.57, -58790.70, -105230.04, -99356.90, -61778.75, -58417.13, -82684.73, -85258.98, 0.000, 0.000, 0.000, 11:55:47.451
101, -53119.39, -58850.93, -105197.05, -99238.08, -61744.86, -58399.29, -82714.51, -85227.24, 0.000, 0.000, 0.000, 11:55:47.451
102, -53191.20, -58921.59, -105249.20, -99048.65, -61764.71, -58433.70, -82772.77, -85240.97, 0.000, 0.000, 0.000, 11:55:47.451
103, -53160.05, -58889.78, -105296.09, -99135.02, -61814.98, -58458.21, -82768.98, -85280.13, 0.000, 0.000, 0.000, 11:55:47.451
104, -53073.68, -58805.20, -105258.16, -99343.29, -61807.91, -58420.73, -82698.30, -85268.51, 0.000, 0.000, 0.000, 11:55:47.451
105, -53091.02, -58826.44, -105191.40, -99289.95, -61749.64, -58379.18, -82685.47, -85216.07, 0.000, 0.000, 0.000, 11:55:47.451
106, -53177.84, -58913.52, -105226.91, -99072.78, -61755.75, -58412.13, -82756.75, -85223.82, 0.000, 0.000, 0.000, 11:55:47.451
107, -53171.89, -58907.11, -105288.05, -99109.60, -61812.43, -58457.34, -82780.20, -85278.16, 0.000, 0.000, 0.000, 11:55:47.451
108, -53094.62, -58831.55, -105269.43, -99327.73, -61822.84, -58443.80, -82733.59, -85290.27, 0.000, 0.000, 0.000, 11:55:47.451
109, -53087.47, -58830.10, -105206.02, -99328.22, -61771.21, -58407.05, -82708.34, -85244.48, 0.000, 0.000, 0.000, 11:55:47.451
110, -53166.89, -58904.38, -105220.61, -99103.85, -61758.56, -58422.23, -82756.46, -85231.09, 0.000, 0.000, 0.000, 11:55:47.451
111, -53176.61, -58911.17, -105277.65, -99082.87, -61807.82, -58455.26, -82775.34, -85268.84, 0.000, 0.000, 0.000, 11:55:47.452
112, -53097.71, -58832.32, -105270.03, -99288.57, -61830.02, -58439.02, -82726.84, -85282.14, 0.000, 0.000, 0.000, 11:55:47.452
113, -53081.34, -58818.73, -105209.63, -99342.02, -61786.57, -58396.93, -82693.43, -85240.84, 0.000, 0.000, 0.000, 11:55:47.452
114, -53163.15, -58906.10, -105215.16, -99127.34, -61764.06, -58406.85, -82747.12, -85223.82, 0.000, 0.000, 0.000, 11:55:47.452
115, -53179.31, -58921.36, -105275.80, -99061.34, -61809.07, -58448.22, -82785.85, -85263.14, 0.000, 0.000, 0.000, 11:55:47.452
116, -53108.84, -58851.02, -105281.74, -99251.40, -61834.80, -58447.80, -82745.91, -85290.21, 0.000, 0.000, 0.000, 11:55:47.452
117, -53064.80, -58806.57, -105217.52, -99358.95, -61792.96, -58395.96, -82687.64, -85248.23, 0.000, 0.000, 0.000, 11:55:47.452
118, -53137.00, -58879.61, -105201.79, -99173.10, -61763.95, -58388.43, -82724.20, -85211.98, 0.000, 0.000, 0.000, 11:55:47.452
119, -53177.57, -58922.23, -105259.77, -99058.32, -61809.14, -58431.77, -82776.48, -85247.27, 0.000, 0.000, 0.000, 11:55:47.452
120, -53131.57, -58876.28, -105293.16, -99211.59, -61850.52, -58456.56, -82761.55, -85288.33, 0.000, 0.000, 0.000, 11:55:47.452
121, -53065.43, -58812.69, -105237.95, -99373.21, -61823.40, -58412.32, -82698.92, -85260.59, 0.000, 0.000, 0.000, 11:55:47.453
122, -53117.53, -58869.55, -105191.93, -99219.30, -61768.08, -58387.70, -82716.38, -85215.04, 0.000, 0.000, 0.000, 11:55:47.453
123, -53173.50, -58925.88, -105247.27, -99050.16, -61792.16, -58424.55, -82776.24, -85236.74, 0.000, 0.000, 0.000, 11:55:47.453
124, -53120.17, -58868.50, -105279.15, -99179.29, -61838.22, -58440.04, -82756.82, -85274.79, 0.000, 0.000, 0.000, 11:55:47.453
125, -53060.78, -58809.58, -105236.37, -99364.20, -61826.06, -58407.97, -82704.94, -85264.84, 0.000, 0.000, 0.000, 11:55:47.453
126, -53102.94, -58854.18, -105192.71, -99261.45, -61779.68, -58379.65, -82709.25, -85222.33, 0.000, 0.000, 0.000, 11:55:47.453
127, -53170.39, -58922.93, -105232.03, -99064.02, -61794.10, -58409.22, -82769.89, -85234.02, 0.000, 0.000, 0.000, 11:55:47.453
128, -53142.41, -58896.04, -105281.98, -99139.10, -61848.17, -58438.52, -82776.20, -85280.20, 0.000, 0.000, 0.000, 11:55:47.453
129, -53060.11, -58816.38, -105246.78, -99347.17, -61838.87, -58403.41, -82702.46, -85270.92, 0.000, 0.000, 0.000, 11:55:47.453
130, -53083.51, -58837.05, -105187.28, -99295.25, -61786.79, -58365.32, -82686.03, -85218.23, 0.000, 0.000, 0.000, 11:55:47.454
131, -53168.23, -58920.58, -105221.37, -99072.47, -61791.02, -58389.97, -82752.46, -85218.28, 0.000, 0.000, 0.000, 11:55:47.454
132, -53155.22, -58906.05, -105280.11, -99098.31, -61841.22, -58425.76, -82773.07, -85269.31, 0.000, 0.000, 0.000, 11:55:47.454
133, -53070.46, -58820.71, -105256.75, -99313.38, -61844.17, -58406.49, -82712.76, -85275.12, 0.000, 0.000, 0.000, 11:55:47.454
134, -53080.70, -58837.14, -105201.79, -99319.50, -61805.95, -58377.66, -82704.20, -85241.10, 0.000, 0.000, 0.000, 11:55:47.454
135, -53162.44, -58922.91, -105221.46, -99103.23, -61798.68, -58395.59, -82765.24, -85233.88, 0.000, 0.000, 0.000, 11:55:47.454
136, -53162.41, -58920.96, -105276.69, -99077.68, -61845.62, -58429.20, -82783.48, -85271.03, 0.000, 0.000, 0.000, 11:55:47.454
137, -53079.07, -58838.15, -105263.46, -99280.23, -61861.56, -58418.16, -82728.90, -85285.58, 0.000, 0.000, 0.000, 11:55:47.455
138, -53049.67, -58810.66, -105197.90, -99350.17, -61813.84, -58369.77, -82687.73, -85245.66, 0.000, 0.000, 0.000, 11:55:47.455
139, -53134.45, -58897.05, -105191.02, -99140.09, -61785.02, -58370.46, -82733.80, -85219.51, 0.000, 0.000, 0.000, 11:55:47.455
140, -53165.90, -58925.95, -105262.52, -99057.81, -61836.10, -58417.51, -82779.86, -85262.16, 0.000, 0.000, 0.000, 11:55:47.455
141, -53097.55, -58850.44, -105276.66, -99246.30, -61868.44, -58421.56, -82740.77, -85289.59, 0.000, 0.000, 0.000, 11:55:47.455
142, -53063.53, -58817.94, -105224.45, -99365.37, -61841.26, -58387.94, -82702.55, -85264.19, 0.000, 0.000, 0.000, 11:55:47.455
143, -53118.18, -58878.65, -105196.25, -99188.27, -61805.19, -58369.88, -82728.41, -85223.94, 0.000, 0.000, 0.000, 11:55:47.455
144, -53168.00, -58928.16, -105254.27, -99045.16, -61837.86, -58408.93, -82779.99, -85248.92, 0.000, 0.000, 0.000, 11:55:47.455
145, -53109.69, -58872.41, -105284.63, -99195.30, -61877.16, -58425.20, -82755.45, -85285.24, 0.000, 0.000, 0.000, 11:55:47.455
146, -53052.85, -58815.57, -105232.37, -99358.46, -61852.64, -58383.36, -82701.02, -85259.67, 0.000, 0.000, 0.000, 11:55:47.456
147, -53109.96, -58869.93, -105199.04, -99227.37, -61809.61, -58361.99, -82725.52, -85222.23, 0.000, 0.000, 0.000, 11:55:47.456
148, -53164.79, -58925.48, -105251.55, -99062.03, -61830.71, -58398.45, -82778.63, -85245.91, 0.000, 0.000, 0.000, 11:55:47.456
149, -53129.89, -58896.49, -105292.91, -99175.16, -61875.91, -58424.73, -82769.87, -85288.33, 0.000, 0.000, 0.000, 11:55:47.456
150, -53057.09, -58826.23, -105246.56, -99369.66, -61857.36, -58380.79, -82696.69, -85266.45, 0.000, 0.000, 0.000, 11:55:47.456
151, -53092.14, -58859.65, -105184.87, -99277.44, -61799.80, -58340.55, -82691.66, -85209.48, 0.000, 0.000, 0.000, 11:55:47.456
152, -53166.86, -58936.99, -105231.95, -99075.94, -61814.30, -58376.63, -82760.80, -85225.03, 0.000, 0.000, 0.000, 11:55:47.456
153, -53128.39, -58902.14, -105272.02, -99142.39, -61855.70, -58399.05, -82743.54, -85263.38, 0.000, 0.000, 0.000, 11:55:47.456
154, -53061.56, -58836.90, -105238.31, -99341.52, -61851.86, -58375.07, -82686.34, -85256.57, 0.000, 0.000, 0.000, 11:55:47.456
155, -53092.28, -58868.68, -105197.86, -99303.81, -61813.23, -58351.73, -82695.75, -85222.35, 0.000, 0.000, 0.000, 11:55:47.456
156, -53166.75, -58945.59, -105221.50, -99086.51, -61807.36, -58370.13, -82755.14, -85219.53, 0.000, 0.000, 0.000, 11:55:47.456
157, -53151.22, -58928.50, -105273.18, -99096.73, -61851.25, -58403.47, -82763.01, -85257.42, 0.000, 0.000, 0.000, 11:55:47.457
158, -53072.00, -58846.02, -105257.60, -99309.36, -61867.88, -58388.68, -82709.81, -85264.68, 0.000, 0.000, 0.000, 11:55:47.457
159, -53062.50, -58837.21, -105191.06, -99341.74, -61829.15, -58348.11, -82684.82, -85226.48, 0.000, 0.000, 0.000, 11:55:47.457
160, -53136.93, -58911.51, -105192.42, -99122.34, -61805.50, -58354.97, -82727.91, -85206.26, 0.000, 0.000, 0.000, 11:55:47.457
161, -53148.58, -58926.91, -105253.80, -99071.47, -61849.42, -58397.13, -82765.11, -85247.36, 0.000, 0.000, 0.000, 11:55:47.457
162, -53069.66, -58847.47, -105252.66, -99273.19, -61870.61, -58390.51, -82720.43, -85268.15, 0.000, 0.000, 0.000, 11:55:47.457
163, -53042.30, -58817.99, -105191.44, -99358.13, -61829.33, -58347.59, -82683.86, -85234.82, 0.000, 0.000, 0.000, 11:55:47.457
164, -53129.34, -58906.39, -105181.41, -99154.59, -61800.78, -58345.52, -82727.11, -85199.86, 0.000, 0.000, 0.000, 11:55:47.457
165, -53165.54, -58943.78, -105251.32, -99052.49, -61845.91, -58392.77, -82776.04, -85238.55, 0.000, 0.000, 0.000, 11:55:47.457
166, -53091.63, -58867.00, -105258.52, -99228.53, -61876.20, -58391.89, -82735.41, -85266.88, 0.000, 0.000, 0.000, 11:55:47.457
167, -53046.32, -58820.58, -105204.12, -99365.70, -61852.35, -58350.86, -82689.80, -85242.55, 0.000, 0.000, 0.000, 11:55:47.457
168, -53113.71, -58885.98, -105172.58, -99199.88, -61811.63, -58334.14, -82718.80, -85204.49, 0.000, 0.000, 0.000, 11:55:47.457
169, -53156.49, -58930.24, -105229.04, -99057.54, -61843.05, -58367.71, -82768.09, -85228.34, 0.000, 0.000, 0.000, 11:55:47.458
170, -53100.43, -58874.43, -105253.66, -99195.01, -61885.32, -58379.67, -82747.07, -85264.39, 0.000, 0.000, 0.000, 11:55:47.458
