%OpenBCI Raw EEG Data
%
%Sample Rate = 250.0 Hz
%First Column = SampleIndex
%5 Columns before Timestamp are Frequency Power factors DELTA THETA ALPHA BETA GAMMA
%Last Column = Timestamp 
%Other Columns = EEG data in microvolts followed by Accel Data (in G) interleaved with Aux Data
0.000000, 0.000000, 0.000000, 0.000000, 0.000000, 0.000000, 0.000000, 0.000000, 1, 256, 1,0.0,0.0,0.0,0.0,0.0, 12:14:56.908
68395.265625, 69302.382813, 187500.015625, 128333.343750, 141507.921875, 80844.601563, 103266.265625, 126769.929688, 1, 256, 1,0.0,0.0,0.0,0.0,0.0, 12:14:57.380
68399.820313, 69303.570313, 187500.015625, 128305.781250, 141520.765625, 80736.664063, 103169.812500, 126646.007813, 1, 256, 1,0.0,0.0,0.0,0.0,0.0, 12:14:57.380
68484.671875, 69387.789063, 187500.015625, 127930.515625, 141602.828125, 80417.570313, 103059.507813, 126567.953125, 1, 256, 1,0.0,0.0,0.0,0.0,0.0, 12:14:57.380
68478.789063, 69388.593750, 187500.015625, 127915.812500, 141597.015625, 80490.664063, 103137.648438, 126675.023438, 1, 256, 1,0.0,0.0,0.0,0.0,0.0, 12:14:57.380
68394.679688, 69301.070313, 187500.015625, 128280.281250, 141507.125000, 80808.906250, 103251.625000, 126757.539063, 1, 256, 1,0.0,0.0,0.0,0.0,0.0, 12:14:57.380
68405.296875, 69309.539063, 187500.015625, 128337.093750, 141494.734375, 80781.343750, 103190.375000, 126671.335938, 1, 256, 1,0.0,0.0,0.0,0.0,0.0, 12:14:57.380
68485.140625, 69386.335938, 187500.015625, 127981.320313, 141582.921875, 80459.570313, 103054.789063, 126565.476563, 1, 256, 1,0.0,0.0,0.0,0.0,0.0, 12:14:57.380
68487.398438, 69387.500000, 187500.015625, 127872.421875, 141590.718750, 80439.656250, 103094.000000, 126639.078125, 1, 256, 1,0.0,0.0,0.0,0.0,0.0, 12:14:57.380
68415.960938, 69312.398438, 187500.015625, 128220.445313, 141505.000000, 80765.117188, 103237.492188, 126760.468750, 1, 256, 1,0.0,0.0,0.0,0.0,0.0, 12:14:57.381
68403.242188, 69301.000000, 187500.015625, 128379.898438, 141487.281250, 80824.148438, 103220.148438, 126700.101563, 1, 256, 1,0.0,0.0,0.0,0.0,0.0, 12:14:57.381
68464.148438, 69368.617188, 187500.015625, 128053.164063, 141558.437500, 80510.242188, 103069.882813, 126574.882813, 1, 256, 1,0.0,0.0,0.0,0.0,0.0, 12:14:57.381
68484.335938, 69395.703125, 187500.015625, 127836.304688, 141601.687500, 80403.781250, 103076.789063, 126621.468750, 1, 256, 1,0.0,0.0,0.0,0.0,0.0, 12:14:57.381
68417.523438, 69320.960938, 187500.015625, 128131.054688, 141532.765625, 80704.546875, 103228.507813, 126759.195313, 1, 256, 1,0.0,0.0,0.0,0.0,0.0, 12:14:57.381
68395.265625, 69290.515625, 187500.015625, 128369.234375, 141500.187500, 80852.179688, 103244.492188, 126733.875000, 1, 256, 1,0.0,0.0,0.0,0.0,0.0, 12:14:57.381
68456.039063, 69360.859375, 187500.015625, 128104.460938, 141567.500000, 80572.562500, 103102.695313, 126600.210938, 1, 256, 1,0.0,0.0,0.0,0.0,0.0, 12:14:57.381
68489.406250, 69402.140625, 187500.015625, 127827.546875, 141611.734375, 80394.953125, 103070.390625, 126618.070313, 1, 256, 1,0.0,0.0,0.0,0.0,0.0, 12:14:57.381
68421.437500, 69335.710938, 187500.015625, 128060.828125, 141531.890625, 80668.406250, 103205.312500, 126758.101563, 1, 256, 1,0.0,0.0,0.0,0.0,0.0, 12:14:57.382
68376.468750, 69288.617188, 187500.015625, 128360.164063, 141493.156250, 80876.679688, 103251.914063, 126746.140625, 1, 256, 1,0.0,0.0,0.0,0.0,0.0, 12:14:57.382
68438.601563, 69350.953125, 187500.015625, 128185.820313, 141552.390625, 80650.992188, 103126.851563, 126610.312500, 1, 256, 1,0.0,0.0,0.0,0.0,0.0, 12:14:57.382
68498.640625, 69414.656250, 187500.015625, 127847.187500, 141603.031250, 80396.406250, 103053.632813, 126587.335938, 1, 256, 1,0.0,0.0,0.0,0.0,0.0, 12:14:57.382
68447.898438, 69365.976563, 187500.015625, 127985.007813, 141548.031250, 80595.515625, 103178.148438, 126723.789063, 1, 256, 1,0.0,0.0,0.0,0.0,0.0, 12:14:57.382
68387.882813, 69307.859375, 187500.015625, 128337.945313, 141485.125000, 80867.578125, 103260.046875, 126766.257813, 1, 256, 1,0.0,0.0,0.0,0.0,0.0, 12:14:57.382
68418.109375, 69345.679688, 187500.015625, 128253.007813, 141539.750000, 80709.351563, 103150.523438, 126639.414063, 1, 256, 1,0.0,0.0,0.0,0.0,0.0, 12:14:57.382
68486.593750, 69418.656250, 187500.015625, 127891.468750, 141608.406250, 80415.781250, 103050.859375, 126597.210938, 1, 256, 1,0.0,0.0,0.0,0.0,0.0, 12:14:57.382
68462.765625, 69394.273438, 187500.015625, 127939.101563, 141563.296875, 80542.187500, 103159.445313, 126707.046875, 1, 256, 1,0.0,0.0,0.0,0.0,0.0, 12:14:57.382
68383.906250, 69306.007813, 187500.015625, 128312.890625, 141477.343750, 80849.093750, 103266.757813, 126764.718750, 1, 256, 1,0.0,0.0,0.0,0.0,0.0, 12:14:57.383
68399.484375, 69330.437500, 187500.015625, 128317.000000, 141494.859375, 80764.718750, 103180.320313, 126653.140625, 1, 256, 1,0.0,0.0,0.0,0.0,0.0, 12:14:57.383
68481.320313, 69421.562500, 187500.015625, 127927.765625, 141594.812500, 80425.664063, 103053.656250, 126563.304688, 1, 256, 1,0.0,0.0,0.0,0.0,0.0, 12:14:57.383
68462.789063, 69404.734375, 187500.015625, 127879.445313, 141595.843750, 80470.789063, 103125.156250, 126671.507813, 1, 256, 1,0.0,0.0,0.0,0.0,0.0, 12:14:57.383
68397.945313, 69334.617188, 187500.015625, 128238.796875, 141529.921875, 80800.281250, 103261.007813, 126772.945313, 1, 256, 1,0.0,0.0,0.0,0.0,0.0, 12:14:57.383
68408.203125, 69341.859375, 187500.015625, 128341.789063, 141541.281250, 80812.703125, 103227.210938, 126696.210938, 1, 256, 1,0.0,0.0,0.0,0.0,0.0, 12:14:57.383
68459.523438, 69401.562500, 187500.015625, 128003.765625, 141593.046875, 80488.429688, 103082.085938, 126573.343750, 1, 256, 1,0.0,0.0,0.0,0.0,0.0, 12:14:57.383
68465.242188, 69413.007813, 187500.015625, 127852.578125, 141595.343750, 80432.523438, 103116.281250, 126646.406250, 1, 256, 1,0.0,0.0,0.0,0.0,0.0, 12:14:57.383
68390.726563, 69335.492188, 187500.015625, 128176.476563, 141523.843750, 80754.656250, 103263.242188, 126772.476563, 1, 256, 1,0.0,0.0,0.0,0.0,0.0, 12:14:57.383
68372.687500, 69318.140625, 187500.015625, 128359.179688, 141505.453125, 80840.289063, 103246.992188, 126711.382813, 1, 256, 1,0.0,0.0,0.0,0.0,0.0, 12:14:57.384
68425.039063, 69377.445313, 187500.015625, 128069.187500, 141564.718750, 80532.390625, 103090.687500, 126569.500000, 1, 256, 1,0.0,0.0,0.0,0.0,0.0, 12:14:57.384
68464.507813, 69422.835938, 187500.015625, 127843.320313, 141592.390625, 80407.359375, 103083.132813, 126623.812500, 1, 256, 1,0.0,0.0,0.0,0.0,0.0, 12:14:57.384
68414.062500, 69364.906250, 187500.015625, 128121.226563, 141529.593750, 80705.750000, 103240.109375, 126746.835938, 1, 256, 1,0.0,0.0,0.0,0.0,0.0, 12:14:57.384
68380.890625, 69336.296875, 187500.015625, 128393.531250, 141509.500000, 80875.898438, 103280.273438, 126730.968750, 1, 256, 1,0.0,0.0,0.0,0.0,0.0, 12:14:57.384
68413.750000, 69376.953125, 187500.015625, 128151.398438, 141557.750000, 80597.281250, 103128.796875, 126579.960938, 1, 256, 1,0.0,0.0,0.0,0.0,0.0, 12:14:57.384
68474.726563, 69438.507813, 187500.015625, 127853.984375, 141620.000000, 80386.929688, 103095.562500, 126590.265625, 1, 256, 1,0.0,0.0,0.0,0.0,0.0, 12:14:57.384
68419.382813, 69378.742188, 187500.015625, 128060.000000, 141569.625000, 80643.664063, 103237.742188, 126734.523438, 1, 256, 1,0.0,0.0,0.0,0.0,0.0, 12:14:57.384
68359.500000, 69317.765625, 187500.015625, 128383.789063, 141496.312500, 80889.554688, 103303.476563, 126750.812500, 1, 256, 1,0.0,0.0,0.0,0.0,0.0, 12:14:57.384
68399.507813, 69365.734375, 187500.015625, 128226.632813, 141533.703125, 80673.945313, 103168.765625, 126600.164063, 1, 256, 1,0.0,0.0,0.0,0.0,0.0, 12:14:57.384
68463.835938, 69437.617188, 187500.015625, 127885.476563, 141615.078125, 80406.421875, 103094.843750, 126562.992188, 1, 256, 1,0.0,0.0,0.0,0.0,0.0, 12:14:57.385
68407.132813, 69382.648438, 187500.015625, 127999.492188, 141566.109375, 80584.671875, 103215.812500, 126688.656250, 1, 256, 1,0.0,0.0,0.0,0.0,0.0, 12:14:57.385
68358.429688, 69331.328125, 187500.015625, 128369.687500, 141509.375000, 80891.539063, 103327.687500, 126750.007813, 1, 256, 1,0.0,0.0,0.0,0.0,0.0, 12:14:57.385
68384.937500, 69363.585938, 187500.015625, 128319.820313, 141558.125000, 80767.023438, 103234.859375, 126630.023438, 1, 256, 1,0.0,0.0,0.0,0.0,0.0, 12:14:57.385
68445.734375, 69429.390625, 187500.015625, 127960.828125, 141609.187500, 80452.867188, 103113.171875, 126547.257813, 1, 256, 1,0.0,0.0,0.0,0.0,0.0, 12:14:57.385
68435.851563, 69419.421875, 187500.015625, 127966.328125, 141598.875000, 80544.664063, 103203.835938, 126658.992188, 1, 256, 1,0.0,7.669584E-6,9.42744E-6,2.9658699E-5,3.766642E-5, 12:14:57.385
68374.187500, 69355.984375, 187500.015625, 128344.023438, 141538.343750, 80873.546875, 103326.789063, 126744.000000, 1, 256, 1,5.7899374E-6,7.669584E-6,9.42744E-6,2.9658699E-5,3.766642E-5, 12:14:57.393
68362.960938, 69347.562500, 187500.015625, 128364.546875, 141514.546875, 80804.906250, 103244.734375, 126626.226563, 1, 256, 1,5.7899374E-6,7.669584E-6,9.42744E-6,2.9658699E-5,3.766642E-5, 12:14:57.393
68437.085938, 69422.414063, 187500.015625, 127994.265625, 141590.859375, 80469.539063, 103113.578125, 126519.070313, 1, 256, 1,5.7899374E-6,7.669584E-6,9.42744E-6,2.9658699E-5,3.766642E-5, 12:14:57.393
68448.414063, 69435.156250, 187500.015625, 127925.687500, 141606.828125, 80490.710938, 103178.171875, 126623.093750, 1, 256, 1,5.7899374E-6,7.669584E-6,9.42744E-6,2.9658699E-5,3.766642E-5, 12:14:57.393
68378.718750, 69362.359375, 187500.015625, 128279.070313, 141523.578125, 80820.148438, 103312.953125, 126737.445313, 1, 256, 1,5.7899374E-6,7.669584E-6,9.42744E-6,2.9658699E-5,3.766642E-5, 12:14:57.393
68375.906250, 69359.000000, 187500.015625, 128414.992188, 141510.187500, 80854.507813, 103275.203125, 126663.132813, 1, 256, 1,5.7899374E-6,7.669584E-6,9.42744E-6,2.9658699E-5,3.766642E-5, 12:14:57.393
68450.585938, 69442.531250, 187500.015625, 128079.109375, 141590.234375, 80522.648438, 103130.859375, 126536.171875, 1, 256, 1,5.7899374E-6,7.669584E-6,9.42744E-6,2.9658699E-5,3.766642E-5, 12:14:57.394
68459.632813, 69451.492188, 187500.015625, 127927.140625, 141599.078125, 80455.906250, 103153.609375, 126594.953125, 1, 256, 1,5.7899374E-6,7.669584E-6,9.42744E-6,2.9658699E-5,3.766642E-5, 12:14:57.394
68382.921875, 69375.476563, 187500.015625, 128233.765625, 141520.265625, 80765.187500, 103295.742188, 126719.117188, 1, 256, 1,5.7899374E-6,7.669584E-6,9.42744E-6,2.9658699E-5,3.766642E-5, 12:14:57.394
68364.773438, 69355.648438, 187500.015625, 128441.476563, 141512.750000, 80877.460938, 103298.156250, 126689.992188, 1, 256, 1,5.7899374E-6,7.669584E-6,9.42744E-6,2.9658699E-5,3.766642E-5, 12:14:57.394
68438.062500, 69432.765625, 187500.015625, 128155.218750, 141581.671875, 80574.570313, 103152.445313, 126559.867188, 1, 256, 1,5.7899374E-6,7.669584E-6,9.42744E-6,2.9658699E-5,3.766642E-5, 12:14:57.394
68466.835938, 69463.835938, 187500.015625, 127914.734375, 141632.500000, 80427.164063, 103138.210938, 126590.687500, 1, 256, 1,5.7899374E-6,7.669584E-6,9.42744E-6,2.9658699E-5,3.766642E-5, 12:14:57.395
68398.304688, 69398.164063, 187500.015625, 128172.453125, 141563.890625, 80718.718750, 103288.906250, 126730.632813, 1, 256, 1,5.7899374E-6,7.669584E-6,9.42744E-6,2.9658699E-5,3.766642E-5, 12:14:57.395
68356.976563, 69359.140625, 187500.015625, 128450.351563, 141513.984375, 80909.781250, 103330.437500, 126723.343750, 1, 256, 1,5.7899374E-6,7.669584E-6,9.42744E-6,2.9658699E-5,3.766642E-5, 12:14:57.395
68414.039063, 69419.351563, 187500.015625, 128235.929688, 141571.500000, 80652.289063, 103185.593750, 126578.507813, 1, 256, 1,5.7899374E-6,7.669584E-6,9.42744E-6,2.9658699E-5,3.766642E-5, 12:14:57.395
68461.914063, 69466.625000, 187500.015625, 127932.351563, 141641.703125, 80431.718750, 103137.781250, 126574.304688, 1, 256, 1,5.7899374E-6,7.669584E-6,9.42744E-6,2.9658699E-5,3.766642E-5, 12:14:57.395
68407.351563, 69416.226563, 187500.015625, 128113.039063, 141587.593750, 80663.289063, 103275.492188, 126707.875000, 1, 256, 1,5.7899374E-6,7.669584E-6,9.42744E-6,2.9658699E-5,3.766642E-5, 12:14:57.396
68358.921875, 69370.515625, 187500.015625, 128444.984375, 141518.796875, 80916.601563, 103349.054688, 126722.648438, 1, 256, 1,5.7899374E-6,7.669584E-6,9.42744E-6,2.9658699E-5,3.766642E-5, 12:14:57.396
68388.531250, 69407.507813, 187500.015625, 128320.578125, 141541.203125, 80720.593750, 103200.437500, 126563.750000, 1, 256, 1,5.7899374E-6,7.669584E-6,9.42744E-6,2.9658699E-5,3.766642E-5, 12:14:57.396
68448.882813, 69474.070313, 187500.015625, 127961.296875, 141624.109375, 80426.539063, 103103.765625, 126509.281250, 1, 256, 1,5.7899374E-6,7.669584E-6,9.42744E-6,2.9658699E-5,3.766642E-5, 12:14:57.396
68399.781250, 69425.164063, 187500.015625, 128057.992188, 141583.328125, 80594.554688, 103225.468750, 126644.757813, 1, 256, 1,5.7899374E-6,7.669584E-6,9.42744E-6,2.9658699E-5,3.766642E-5, 12:14:57.396
68326.640625, 69355.937500, 187500.015625, 128426.460938, 141510.765625, 80907.414063, 103340.875000, 126714.093750, 1, 256, 1,5.7899374E-6,7.669584E-6,9.42744E-6,2.9658699E-5,3.766642E-5, 12:14:57.396
68334.781250, 69374.601563, 187500.015625, 128382.109375, 141526.796875, 80792.101563, 103243.148438, 126592.835938, 1, 256, 1,5.7899374E-6,7.669584E-6,9.42744E-6,2.9658699E-5,3.766642E-5, 12:14:57.396
68400.265625, 69450.492188, 187500.015625, 128001.375000, 141620.375000, 80464.937500, 103123.101563, 126507.093750, 1, 256, 1,5.7899374E-6,7.669584E-6,9.42744E-6,2.9658699E-5,3.766642E-5, 12:14:57.396
68381.226563, 69428.382813, 187500.015625, 127974.820313, 141607.375000, 80537.960938, 103210.804688, 126617.531250, 1, 256, 1,5.7899374E-6,7.669584E-6,9.42744E-6,2.9658699E-5,3.766642E-5, 12:14:57.396
68294.281250, 69341.750000, 187500.015625, 128358.421875, 141519.640625, 80885.062500, 103352.046875, 126708.546875, 1, 256, 1,5.7899374E-6,7.669584E-6,9.42744E-6,2.9658699E-5,3.766642E-5, 12:14:57.396
68289.468750, 69345.031250, 187500.015625, 128429.695313, 141510.203125, 80863.000000, 103289.445313, 126602.000000, 1, 256, 1,5.7899374E-6,7.669584E-6,9.42744E-6,2.9658699E-5,3.766642E-5, 12:14:57.397
68346.179688, 69409.515625, 187500.015625, 128080.945313, 141593.687500, 80527.898438, 103146.859375, 126476.757813, 1, 256, 1,5.7899374E-6,7.669584E-6,9.42744E-6,2.9658699E-5,3.766642E-5, 12:14:57.397
68358.359375, 69420.156250, 187500.015625, 127972.804688, 141609.500000, 80519.742188, 103223.640625, 126562.210938, 1, 256, 1,5.7899374E-6,7.669584E-6,9.42744E-6,2.9658699E-5,3.766642E-5, 12:14:57.397
68286.343750, 69344.898438, 187500.015625, 128330.281250, 141528.921875, 80875.406250, 103402.828125, 126698.156250, 1, 256, 1,5.7899374E-6,7.669584E-6,9.42744E-6,2.9658699E-5,3.766642E-5, 12:14:57.397
68271.281250, 69330.437500, 187500.015625, 128501.406250, 141511.437500, 80943.953125, 103387.250000, 126635.210938, 1, 256, 1,5.7899374E-6,7.669584E-6,9.42744E-6,2.9658699E-5,3.766642E-5, 12:14:57.397
68323.890625, 69387.609375, 187500.015625, 128201.601563, 141588.265625, 80624.570313, 103236.554688, 126494.125000, 1, 256, 1,5.7899374E-6,7.669584E-6,9.42744E-6,2.9658699E-5,3.766642E-5, 12:14:57.397
68332.093750, 69395.593750, 187500.015625, 128015.812500, 141617.984375, 80521.484375, 103250.507813, 126535.101563, 1, 256, 1,5.7899374E-6,7.669584E-6,9.42744E-6,2.9658699E-5,3.766642E-5, 12:14:57.397
68282.054688, 69338.953125, 187500.015625, 128310.093750, 141543.328125, 80844.601563, 103433.453125, 126687.648438, 1, 256, 1,5.7899374E-6,7.669584E-6,9.42744E-6,2.9658699E-5,3.766642E-5, 12:14:57.397
68252.703125, 69305.023438, 187500.015625, 128580.351563, 141497.125000, 81016.156250, 103482.625000, 126672.851563, 1, 256, 1,5.7899374E-6,7.669584E-6,9.42744E-6,2.9658699E-5,3.766642E-5, 12:14:57.397
68309.187500, 69369.617188, 187500.015625, 128315.148438, 141575.750000, 80713.109375, 103328.625000, 126523.539063, 1, 256, 1,5.7899374E-6,7.669584E-6,9.42744E-6,2.9658699E-5,3.766642E-5, 12:14:57.398
68351.382813, 69415.195313, 187500.015625, 128044.507813, 141632.875000, 80519.921875, 103280.546875, 126528.234375, 1, 256, 1,5.7899374E-6,7.669584E-6,9.42744E-6,2.9658699E-5,3.766642E-5, 12:14:57.398
68307.242188, 69372.281250, 187500.015625, 128260.273438, 141580.765625, 80775.804688, 103423.796875, 126672.609375, 1, 256, 1,5.7899374E-6,7.669584E-6,9.42744E-6,2.9658699E-5,3.766642E-5, 12:14:57.398
68243.718750, 69311.351563, 187500.015625, 128567.562500, 141509.015625, 80997.445313, 103478.648438, 126685.171875, 1, 256, 1,5.7899374E-6,7.669584E-6,9.42744E-6,2.9658699E-5,3.766642E-5, 12:14:57.398
68280.710938, 69353.078125, 187500.015625, 128391.632813, 141557.890625, 80759.687500, 103324.867188, 126528.726563, 1, 256, 1,5.7899374E-6,7.669584E-6,9.42744E-6,2.9658699E-5,3.766642E-5, 12:14:57.398
68339.945313, 69418.460938, 187500.015625, 128047.976563, 141631.421875, 80487.664063, 103242.773438, 126504.210938, 1, 256, 1,5.7899374E-6,7.669584E-6,9.42744E-6,2.9658699E-5,3.766642E-5, 12:14:57.398
68286.054688, 69362.578125, 187500.015625, 128197.085938, 141581.359375, 80695.851563, 103373.531250, 126649.046875, 1, 256, 1,5.7899374E-6,7.669584E-6,9.42744E-6,2.9658699E-5,3.766642E-5, 12:14:57.399
68220.406250, 69302.945313, 187500.015625, 128534.078125, 141514.500000, 80973.234375, 103462.156250, 126695.875000, 1, 256, 1,5.7899374E-6,7.669584E-6,9.42744E-6,2.9658699E-5,3.766642E-5, 12:14:57.399
68247.718750, 69340.968750, 187500.015625, 128426.210938, 141560.328125, 80796.343750, 103332.914063, 126565.671875, 1, 256, 1,5.7899374E-6,7.669584E-6,9.42744E-6,2.9658699E-5,3.766642E-5, 12:14:57.399
68305.765625, 69403.171875, 187500.015625, 128067.781250, 141631.671875, 80489.414063, 103230.765625, 126506.601563, 1, 256, 1,5.7899374E-6,7.669584E-6,9.42744E-6,2.9658699E-5,3.766642E-5, 12:14:57.399
68284.328125, 69385.492188, 187500.015625, 128108.750000, 141621.453125, 80620.679688, 103358.867188, 126645.898438, 1, 256, 1,5.7899374E-6,7.669584E-6,9.42744E-6,2.9658699E-5,3.766642E-5, 12:14:57.399
68206.992188, 69309.156250, 187500.015625, 128466.828125, 141517.468750, 80937.429688, 103451.226563, 126720.687500, 1, 256, 1,5.7899374E-6,7.669584E-6,9.42744E-6,2.9658699E-5,3.766642E-5, 12:14:57.399
68212.875000, 69316.203125, 187500.015625, 128482.312500, 141519.812500, 80851.937500, 103341.562500, 126598.265625, 1, 256, 1,5.7899374E-6,7.669584E-6,9.42744E-6,2.9658699E-5,3.766642E-5, 12:14:57.399
68288.156250, 69396.132813, 187500.015625, 128100.437500, 141625.093750, 80513.375000, 103208.703125, 126494.867188, 1, 256, 1,5.7899374E-6,7.669584E-6,9.42744E-6,2.9658699E-5,3.766642E-5, 12:14:57.399
68279.343750, 69391.414063, 187500.015625, 128049.335938, 141629.906250, 80558.992188, 103288.570313, 126608.296875, 1, 256, 1,5.7899374E-6,7.669584E-6,9.42744E-6,2.9658699E-5,3.766642E-5, 12:14:57.400
68200.398438, 69308.531250, 187500.015625, 128402.992188, 141553.437500, 80897.796875, 103444.226563, 126740.242188, 1, 256, 1,5.7899374E-6,7.669584E-6,9.42744E-6,2.9658699E-5,3.766642E-5, 12:14:57.400
68206.968750, 69309.898438, 187500.015625, 128503.437500, 141558.593750, 80904.234375, 103396.843750, 126659.617188, 1, 256, 1,5.7899374E-6,7.669584E-6,9.42744E-6,2.9658699E-5,3.766642E-5, 12:14:57.400
68275.320313, 69386.609375, 187500.015625, 128161.750000, 141617.984375, 80560.804688, 103223.820313, 126522.578125, 1, 256, 1,5.7899374E-6,7.669584E-6,9.42744E-6,2.9658699E-5,3.766642E-5, 12:14:57.400
68298.164063, 69407.554688, 187500.015625, 128011.367188, 141644.203125, 80510.421875, 103256.515625, 126600.585938, 1, 256, 1,5.7899374E-6,7.669584E-6,9.42744E-6,2.9658699E-5,3.766642E-5, 12:14:57.400
68222.218750, 69330.437500, 187500.015625, 128351.023438, 141566.156250, 80856.828125, 103421.828125, 126745.609375, 1, 256, 1,5.7899374E-6,7.669584E-6,9.42744E-6,2.9658699E-5,3.766642E-5, 12:14:57.400
68199.218750, 69309.765625, 187500.015625, 128537.140625, 141550.515625, 80950.617188, 103415.796875, 126691.289063, 1, 256, 1,5.7899374E-6,7.669584E-6,9.42744E-6,2.9658699E-5,3.766642E-5, 12:14:57.400
68254.312500, 69373.039063, 187500.015625, 128222.320313, 141588.703125, 80609.820313, 103211.609375, 126519.500000, 1, 256, 1,5.7899374E-6,7.669584E-6,9.42744E-6,2.9658699E-5,3.766642E-5, 12:14:57.400
68269.804688, 69391.703125, 187500.015625, 127980.765625, 141625.609375, 80464.062500, 103186.156250, 126549.695313, 1, 256, 1,5.7899374E-6,7.669584E-6,9.42744E-6,2.9658699E-5,3.766642E-5, 12:14:57.400
68206.859375, 69322.859375, 187500.015625, 128246.726563, 141567.421875, 80775.265625, 103350.531250, 126705.914063, 1, 256, 1,5.7899374E-6,7.669584E-6,9.42744E-6,2.9658699E-5,3.766642E-5, 12:14:57.401
68167.945313, 69283.500000, 187500.015625, 128511.882813, 141538.500000, 80960.742188, 103392.507813, 126699.898438, 1, 256, 1,5.7899374E-6,7.669584E-6,9.42744E-6,2.9658699E-5,3.766642E-5, 12:14:57.401
68228.828125, 69352.742188, 187500.015625, 128277.257813, 141598.562500, 80685.992188, 103247.085938, 126563.101563, 1, 256, 1,5.7899374E-6,7.669584E-6,9.42744E-6,2.9658699E-5,3.766642E-5, 12:14:57.401
68264.210938, 69394.835938, 187500.015625, 127961.718750, 141635.015625, 80459.390625, 103161.882813, 126541.515625, 1, 256, 1,5.7899374E-6,7.669584E-6,9.42744E-6,2.9658699E-5,3.766642E-5, 12:14:57.401
68197.140625, 69326.726563, 187500.015625, 128158.882813, 141581.625000, 80714.117188, 103301.289063, 126683.289063, 1, 256, 1,5.7899374E-6,7.669584E-6,9.42744E-6,2.9658699E-5,3.766642E-5, 12:14:57.401
68132.765625, 69266.289063, 187500.015625, 128479.585938, 141513.765625, 80952.156250, 103364.992188, 126693.234375, 1, 256, 1,5.7899374E-6,7.669584E-6,9.42744E-6,2.9658699E-5,3.766642E-5, 12:14:57.401
68186.992188, 69317.804688, 187500.015625, 128333.296875, 141587.703125, 80745.226563, 103230.117188, 126558.523438, 1, 256, 1,5.7899374E-6,7.669584E-6,9.42744E-6,2.9658699E-5,3.766642E-5, 12:14:57.402
68251.476563, 69383.140625, 187500.015625, 127991.046875, 141676.953125, 80479.664063, 103159.195313, 126542.632813, 1, 256, 1,5.7899374E-6,7.669584E-6,9.42744E-6,2.9658699E-5,3.766642E-5, 12:14:57.402
68203.531250, 69331.734375, 187500.015625, 128112.171875, 141658.125000, 80690.554688, 103321.960938, 126732.687500, 1, 256, 1,5.7899374E-6,7.669584E-6,9.42744E-6,2.9658699E-5,3.766642E-5, 12:14:57.402
68133.992188, 69267.156250, 187500.015625, 128465.507813, 141565.343750, 80975.046875, 103395.140625, 126757.476563, 1, 256, 1,5.7899374E-6,7.669584E-6,9.42744E-6,2.9658699E-5,3.766642E-5, 12:14:57.402
68152.078125, 69292.843750, 187500.015625, 128399.078125, 141557.437500, 80813.734375, 103237.320313, 126597.726563, 1, 256, 1,5.7899374E-6,7.669584E-6,9.42744E-6,2.9658699E-5,3.766642E-5, 12:14:57.402
68218.015625, 69359.296875, 187500.015625, 128033.382813, 141650.109375, 80488.335938, 103103.007813, 126524.976563, 1, 256, 1,5.7899374E-6,7.669584E-6,9.42744E-6,2.9658699E-5,3.766642E-5, 12:14:57.402
68195.304688, 69329.718750, 187500.015625, 128052.156250, 141630.687500, 80594.664063, 103210.921875, 126658.679688, 1, 256, 1,0.0,0.0,0.0,0.0,0.0, 12:14:57.862
68120.000000, 69258.375000, 187500.015625, 128430.281250, 141552.390625, 80941.718750, 103366.062500, 126779.515625, 1, 256, 1,0.0,0.0,0.0,0.0,0.0, 12:14:57.862
68130.867188, 69279.031250, 187500.015625, 128464.632813, 141561.171875, 80898.515625, 103279.250000, 126702.710938, 1, 256, 1,0.0,0.0,0.0,0.0,0.0, 12:14:57.862
68205.695313, 69365.976563, 187500.015625, 128100.125000, 141640.296875, 80539.750000, 103081.367188, 126534.382813, 1, 256, 1,0.0,0.0,0.0,0.0,0.0, 12:14:57.862
68191.078125, 69351.445313, 187500.015625, 128000.992188, 141636.156250, 80537.312500, 103117.671875, 126606.132813, 1, 256, 1,0.0,0.0,0.0,0.0,0.0, 12:14:57.862
68104.710938, 69267.117188, 187500.015625, 128349.296875, 141567.765625, 80887.429688, 103295.210938, 126745.070313, 1, 256, 1,0.0,0.0,0.0,0.0,0.0, 12:14:57.862
68085.687500, 69256.632813, 187500.015625, 128472.546875, 141573.515625, 80922.390625, 103281.570313, 126674.351563, 1, 256, 1,0.0,0.0,0.0,0.0,0.0, 12:14:57.863
68168.367188, 69346.640625, 187500.015625, 128124.242188, 141628.187500, 80575.289063, 103078.531250, 126541.156250, 1, 256, 1,0.0,0.0,0.0,0.0,0.0, 12:14:57.863
68182.453125, 69365.929688, 187500.015625, 127942.453125, 141669.156250, 80500.187500, 103096.523438, 126616.125000, 1, 256, 1,0.0,0.0,0.0,0.0,0.0, 12:14:57.863
68092.328125, 69275.476563, 187500.015625, 128264.250000, 141586.671875, 80840.375000, 103257.007813, 126756.109375, 1, 256, 1,0.0,0.0,0.0,0.0,0.0, 12:14:57.863
68055.609375, 69243.843750, 187500.015625, 128467.070313, 141550.265625, 80958.710938, 103262.867188, 126727.812500, 1, 256, 1,0.0,0.0,0.0,0.0,0.0, 12:14:57.863
68110.031250, 69302.539063, 187500.015625, 128207.101563, 141606.953125, 80671.601563, 103112.234375, 126594.890625, 1, 256, 1,0.0,0.0,0.0,0.0,0.0, 12:14:57.863
68159.343750, 69350.289063, 187500.015625, 127948.734375, 141668.281250, 80502.953125, 103088.835938, 126610.000000, 1, 256, 1,0.0,0.0,0.0,0.0,0.0, 12:14:57.863
68094.117188, 69272.945313, 187500.015625, 128203.234375, 141617.906250, 80801.578125, 103261.125000, 126771.695313, 1, 256, 1,0.0,0.0,0.0,0.0,0.0, 12:14:57.863
68040.515625, 69212.601563, 187500.015625, 128492.375000, 141561.843750, 80999.570313, 103302.468750, 126757.921875, 1, 256, 1,0.0,0.0,0.0,0.0,0.0, 12:14:57.864
68089.578125, 69273.773438, 187500.015625, 128264.296875, 141625.765625, 80733.718750, 103156.070313, 126618.335938, 1, 256, 1,0.0,0.0,0.0,0.0,0.0, 12:14:57.864
68130.078125, 69310.765625, 187500.015625, 127956.625000, 141683.968750, 80508.007813, 103099.226563, 126609.906250, 1, 256, 1,0.0,0.0,0.0,0.0,0.0, 12:14:57.864
68078.289063, 69257.437500, 187500.015625, 128129.179688, 141630.687500, 80742.742188, 103237.656250, 126753.539063, 1, 256, 1,0.0,0.0,0.0,0.0,0.0, 12:14:57.864
68023.929688, 69207.054688, 187500.015625, 128455.312500, 141580.453125, 80991.703125, 103317.718750, 126772.898438, 1, 256, 1,0.0,0.0,0.0,0.0,0.0, 12:14:57.864
68060.570313, 69254.843750, 187500.015625, 128334.929688, 141589.250000, 80805.171875, 103195.921875, 126660.085938, 1, 256, 1,0.0,0.0,0.0,0.0,0.0, 12:14:57.864
68117.835938, 69321.203125, 187500.015625, 127982.265625, 141688.171875, 80507.492188, 103118.070313, 126607.046875, 1, 256, 1,0.0,0.0,0.0,0.0,0.0, 12:14:57.864
68071.210938, 69270.914063, 187500.015625, 128065.882813, 141621.593750, 80659.976563, 103213.648438, 126700.789063, 1, 256, 1,0.0,0.0,0.0,0.0,0.0, 12:14:57.865
68003.835938, 69205.046875, 187500.015625, 128440.960938, 141539.328125, 80977.078125, 103325.648438, 126787.156250, 1, 256, 1,0.0,0.0,0.0,0.0,0.0, 12:14:57.865
68040.648438, 69247.648438, 187500.015625, 128400.640625, 141593.000000, 80862.867188, 103245.656250, 126676.515625, 1, 256, 1,0.0,0.0,0.0,0.0,0.0, 12:14:57.865
68083.609375, 69298.789063, 187500.015625, 128027.078125, 141661.437500, 80531.898438, 103119.593750, 126576.070313, 1, 256, 1,0.0,0.0,0.0,0.0,0.0, 12:14:57.865
68057.195313, 69267.562500, 187500.015625, 128032.687500, 141657.343750, 80628.507813, 103222.453125, 126709.218750, 1, 256, 1,0.0,0.0,0.0,0.0,0.0, 12:14:57.865
68005.203125, 69214.992188, 187500.015625, 128389.062500, 141602.187500, 80958.281250, 103384.835938, 126814.828125, 1, 256, 1,0.0,0.0,0.0,0.0,0.0, 12:14:57.865
68000.398438, 69216.062500, 187500.015625, 128451.070313, 141566.640625, 80923.281250, 103299.859375, 126699.117188, 1, 256, 1,0.0,0.0,0.0,0.0,0.0, 12:14:57.865
68047.132813, 69268.296875, 187500.015625, 128092.414063, 141620.640625, 80559.976563, 103127.101563, 126535.054688, 1, 256, 1,0.0,0.0,0.0,0.0,0.0, 12:14:57.866
68047.406250, 69268.234375, 187500.015625, 127988.742188, 141628.671875, 80538.609375, 103178.554688, 126622.000000, 1, 256, 1,0.0,0.0,0.0,0.0,0.0, 12:14:57.866
67974.875000, 69195.789063, 187500.015625, 128324.468750, 141575.140625, 80865.296875, 103341.859375, 126753.539063, 1, 256, 1,0.0,0.0,0.0,0.0,0.0, 12:14:57.866
67950.890625, 69174.195313, 187500.015625, 128459.921875, 141553.062500, 80909.960938, 103317.539063, 126687.898438, 1, 256, 1,0.0,0.0,0.0,0.0,0.0, 12:14:57.866
68024.382813, 69254.843750, 187500.015625, 128142.257813, 141633.203125, 80587.804688, 103175.156250, 126563.593750, 1, 256, 1,0.0,0.0,0.0,0.0,0.0, 12:14:57.866
68054.710938, 69284.906250, 187500.015625, 127945.093750, 141663.734375, 80482.859375, 103191.539063, 126610.421875, 1, 256, 1,0.0,0.0,0.0,0.0,0.0, 12:14:57.866
67974.695313, 69202.164063, 187500.015625, 128249.429688, 141596.078125, 80795.492188, 103356.429688, 126746.992188, 1, 256, 1,0.0,0.0,0.0,0.0,0.0, 12:14:57.866
67933.054688, 69155.687500, 187500.015625, 128481.890625, 141551.781250, 80930.007813, 103374.203125, 126707.742188, 1, 256, 1,0.0,0.0,0.0,0.0,0.0, 12:14:57.866
67999.187500, 69220.757813, 187500.015625, 128209.937500, 141606.328125, 80632.664063, 103217.734375, 126557.156250, 1, 256, 1,0.0,0.0,0.0,0.0,0.0, 12:14:57.866
68056.632813, 69277.085938, 187500.015625, 127928.101563, 141655.984375, 80436.929688, 103172.789063, 126551.328125, 1, 256, 1,0.0,0.0,0.0,0.0,0.0, 12:14:57.867
68011.460938, 69232.242188, 187500.015625, 128154.078125, 141598.437500, 80701.820313, 103323.507813, 126694.507813, 1, 256, 1,0.0,0.0,0.0,0.0,0.0, 12:14:57.867
67993.937500, 69207.929688, 187500.015625, 128451.578125, 141555.937500, 80908.328125, 103385.507813, 126704.593750, 1, 256, 1,0.0,0.0,0.0,0.0,0.0, 12:14:57.867
68058.757813, 69267.335938, 187500.015625, 128253.273438, 141617.421875, 80669.882813, 103248.671875, 126571.578125, 1, 256, 1,0.0,0.0,0.0,0.0,0.0, 12:14:57.867
68101.226563, 69319.148438, 187500.015625, 127925.335938, 141679.500000, 80427.875000, 103184.921875, 126550.945313, 1, 256, 1,0.0,0.0,0.0,0.0,0.0, 12:14:57.867
68054.171875, 69271.695313, 187500.015625, 128092.968750, 141641.281250, 80655.976563, 103333.718750, 126701.593750, 1, 256, 1,0.0,0.0,0.0,0.0,0.0, 12:14:57.867
68021.851563, 69228.492188, 187500.015625, 128443.804688, 141580.687500, 80931.710938, 103430.570313, 126748.781250, 1, 256, 1,0.0,0.0,0.0,0.0,0.0, 12:14:57.867
68050.914063, 69256.382813, 187500.015625, 128329.203125, 141602.593750, 80748.890625, 103296.507813, 126608.257813, 1, 256, 1,0.0,0.0,0.0,0.0,0.0, 12:14:57.867
68112.828125, 69320.867188, 187500.015625, 127957.140625, 141672.031250, 80440.929688, 103181.390625, 126539.617188, 1, 256, 1,0.0,0.0,0.0,0.0,0.0, 12:14:57.868
68090.609375, 69292.640625, 187500.015625, 128006.960938, 141648.453125, 80571.531250, 103284.320313, 126666.882813, 1, 256, 1,0.0,0.0,0.0,0.0,0.0, 12:14:57.868
68032.023438, 69226.125000, 187500.015625, 128363.406250, 141581.578125, 80876.523438, 103399.187500, 126744.375000, 1, 256, 1,0.0,0.0,0.0,0.0,0.0, 12:14:57.868
68038.976563, 69229.476563, 187500.015625, 128344.539063, 141594.921875, 80782.062500, 103308.101563, 126636.554688, 1, 256, 1,0.0,0.0,0.0,0.0,0.0, 12:14:57.868
68094.968750, 69294.695313, 187500.015625, 127961.765625, 141670.531250, 80452.125000, 103174.218750, 126549.406250, 1, 256, 1,0.0,0.0,0.0,0.0,0.0, 12:14:57.868
68078.312500, 69280.414063, 187500.015625, 127929.757813, 141663.421875, 80507.203125, 103253.429688, 126657.921875, 1, 256, 1,0.0,0.0,0.0,0.0,0.0, 12:14:57.868
68006.859375, 69203.476563, 187500.015625, 128287.476563, 141588.843750, 80826.695313, 103387.968750, 126757.835938, 1, 256, 1,0.0,0.0,0.0,0.0,0.0, 12:14:57.869
68014.234375, 69211.015625, 187500.015625, 128361.859375, 141589.921875, 80809.468750, 103329.898438, 126667.132813, 1, 256, 1,0.0,0.0,0.0,0.0,0.0, 12:14:57.869
68085.109375, 69287.921875, 187500.015625, 128005.664063, 141670.468750, 80480.179688, 103188.593750, 126558.234375, 1, 256, 1,0.0,0.0,0.0,0.0,0.0, 12:14:57.869
68079.367188, 69285.289063, 187500.015625, 127879.710938, 141670.453125, 80447.210938, 103224.890625, 126638.187500, 1, 256, 1,0.0,0.0,0.0,0.0,0.0, 12:14:57.869
68008.687500, 69208.773438, 187500.015625, 128204.171875, 141591.296875, 80761.562500, 103358.796875, 126757.406250, 1, 256, 1,0.0,0.0,0.0,0.0,0.0, 12:14:57.869
68003.187500, 69196.570313, 187500.015625, 128368.789063, 141578.203125, 80835.171875, 103344.625000, 126707.429688, 1, 256, 1,0.0,0.0,0.0,0.0,0.0, 12:14:57.869
68071.875000, 69279.296875, 187500.015625, 128062.054688, 141659.546875, 80524.257813, 103195.343750, 126578.773438, 1, 256, 1,0.0,0.0,0.0,0.0,0.0, 12:14:57.869
68090.812500, 69306.500000, 187500.015625, 127853.937500, 141682.765625, 80408.226563, 103194.359375, 126628.125000, 1, 256, 1,0.0,0.0,0.0,0.0,0.0, 12:14:57.869
68023.929688, 69232.046875, 187500.015625, 128137.632813, 141601.968750, 80705.437500, 103336.406250, 126756.718750, 1, 256, 1,0.0,0.0,0.0,0.0,0.0, 12:14:57.870
67989.132813, 69188.460938, 187500.015625, 128386.226563, 141563.375000, 80851.757813, 103350.460938, 126717.554688, 1, 256, 1,0.0,0.0,0.0,0.0,0.0, 12:14:57.870
68068.304688, 69271.046875, 187500.015625, 128137.492188, 141661.343750, 80581.812500, 103212.398438, 126593.953125, 1, 256, 1,0.0,0.0,0.0,0.0,0.0, 12:14:57.870
68093.562500, 69307.546875, 187500.015625, 127857.179688, 141684.656250, 80391.109375, 103163.445313, 126594.171875, 1, 256, 1,0.0,0.0,0.0,0.0,0.0, 12:14:57.870
68055.250000, 69252.359375, 187500.015625, 128078.421875, 141617.937500, 80647.125000, 103305.179688, 126735.859375, 1, 256, 1,0.0,0.0,0.0,0.0,0.0, 12:14:57.870
68028.539063, 69206.476563, 187500.015625, 128379.835938, 141562.437500, 80856.585938, 103358.085938, 126741.539063, 1, 256, 1,0.0,0.0,0.0,0.0,0.0, 12:14:57.870
68059.335938, 69257.679688, 187500.015625, 128201.664063, 141595.125000, 80627.187500, 103211.210938, 126598.554688, 1, 256, 1,0.0,0.0,0.0,0.0,0.0, 12:14:57.870
68127.195313, 69336.273438, 187500.015625, 127857.406250, 141678.109375, 80364.937500, 103140.734375, 126575.578125, 1, 256, 1,0.0,0.0,0.0,0.0,0.0, 12:14:57.871
68093.179688, 69281.445313, 187500.015625, 127997.531250, 141627.125000, 80563.484375, 103264.765625, 126709.109375, 1, 256, 1,0.0,0.0,0.0,0.0,0.0, 12:14:57.871
68046.242188, 69221.492188, 187500.015625, 128357.078125, 141559.453125, 80846.953125, 103357.859375, 126753.539063, 1, 256, 1,0.0,0.0,0.0,0.0,0.0, 12:14:57.871
68079.031250, 69258.289063, 187500.015625, 128269.929688, 141596.750000, 80694.421875, 103245.210938, 126623.789063, 1, 256, 1,0.0,0.0,0.0,0.0,0.0, 12:14:57.871
68149.820313, 69332.921875, 187500.015625, 127878.304688, 141689.421875, 80380.421875, 103133.492188, 126560.625000, 1, 256, 1,0.0,0.0,0.0,0.0,0.0, 12:14:57.871
68132.093750, 69307.460938, 187500.015625, 127892.765625, 141670.000000, 80491.132813, 103226.968750, 126689.796875, 1, 256, 1,0.0,0.0,0.0,0.0,0.0, 12:14:57.871
68064.906250, 69229.140625, 187500.015625, 128270.976563, 141574.406250, 80819.632813, 103344.671875, 126781.234375, 1, 256, 1,0.0,0.0,0.0,0.0,0.0, 12:14:57.871
68081.335938, 69243.937500, 187500.015625, 128299.703125, 141574.765625, 80761.562500, 103273.906250, 126681.882813, 1, 256, 1,0.0,0.0,0.0,0.0,0.0, 12:14:57.871
68147.156250, 69312.687500, 187500.015625, 127931.882813, 141652.765625, 80432.726563, 103143.710938, 126583.984375, 1, 256, 1,0.0,0.0,0.0,0.0,0.0, 12:14:57.872
68143.515625, 69313.468750, 187500.015625, 127856.984375, 141665.171875, 80454.117188, 103207.882813, 126681.054688, 1, 256, 1,0.0,0.0,0.0,0.0,0.0, 12:14:57.872
68074.601563, 69249.007813, 187500.015625, 128212.218750, 141591.640625, 80790.132813, 103357.523438, 126798.203125, 1, 256, 1,0.0,0.0,0.0,0.0,0.0, 12:14:57.872
68061.867188, 69239.601563, 187500.015625, 128325.945313, 141571.250000, 80802.515625, 103313.562500, 126709.617188, 1, 256, 1,0.0,0.0,0.0,0.0,0.0, 12:14:57.872
68138.773438, 69310.500000, 187500.015625, 127991.898438, 141649.453125, 80478.500000, 103169.992188, 126590.578125, 1, 256, 1,0.0,0.0,0.0,0.0,0.0, 12:14:57.872
68161.617188, 69327.617188, 187500.015625, 127829.640625, 141674.265625, 80415.765625, 103193.953125, 126653.585938, 1, 256, 1,0.0,0.0,0.0,0.0,0.0, 12:14:57.873
68101.562500, 69266.289063, 187500.015625, 128144.000000, 141604.000000, 80739.882813, 103343.664063, 126775.875000, 1, 256, 1,0.0,0.0,0.0,0.0,0.0, 12:14:57.873
68078.898438, 69246.281250, 187500.015625, 128336.265625, 141577.484375, 80841.226563, 103347.062500, 126734.187500, 1, 256, 1,0.0,0.0,0.0,0.0,0.0, 12:14:57.873
68149.390625, 69323.062500, 187500.015625, 128038.835938, 141650.234375, 80526.781250, 103185.039063, 126582.867188, 1, 256, 1,0.0,0.0,0.0,0.0,0.0, 12:14:57.873
68186.476563, 69360.257813, 187500.015625, 127792.492188, 141704.906250, 80380.601563, 103183.468750, 126614.875000, 1, 256, 1,0.0,0.0,0.0,0.0,0.0, 12:14:57.873
68108.687500, 69282.156250, 187500.015625, 128074.953125, 141610.812500, 80681.859375, 103334.859375, 126765.992188, 1, 256, 1,0.0,0.0,0.0,0.0,0.0, 12:14:57.873
68053.703125, 69239.484375, 187500.015625, 128346.976563, 141571.812500, 80854.617188, 103373.773438, 126741.023438, 1, 256, 1,0.0,0.0,0.0,0.0,0.0, 12:14:57.874
68091.835938, 69265.664063, 187500.015625, 128127.835938, 141631.203125, 80593.523438, 103224.578125, 126587.203125, 1, 256, 1,0.0,0.0,0.0,0.0,0.0, 12:14:57.874
68151.179688, 69338.554688, 187500.015625, 127813.437500, 141696.796875, 80361.359375, 103166.796875, 126569.406250, 1, 256, 1,0.0,0.0,0.0,0.0,0.0, 12:14:57.874
68091.812500, 69289.289063, 187500.015625, 128002.335938, 141624.921875, 80605.507813, 103311.773438, 126713.132813, 1, 256, 1,0.0,0.0,0.0,0.0,0.0, 12:14:57.874
68026.773438, 69228.203125, 187500.015625, 128342.054688, 141532.937500, 80857.656250, 103384.773438, 126733.382813, 1, 256, 1,0.0,0.0,0.0,0.0,0.0, 12:14:57.874
68061.593750, 69262.781250, 187500.015625, 128215.523438, 141575.875000, 80661.429688, 103258.281250, 126599.515625, 1, 256, 1,0.0,0.0,0.0,0.0,0.0, 12:14:57.874
68121.765625, 69323.531250, 187500.015625, 127859.867188, 141663.140625, 80374.437500, 103167.421875, 126552.601563, 1, 256, 1,0.0,0.0,0.0,0.0,0.0, 12:14:57.874
68085.085938, 69293.289063, 187500.015625, 127940.953125, 141636.562500, 80535.164063, 103294.382813, 126695.695313, 1, 256, 1,0.0,0.0,0.0,0.0,0.0, 12:14:57.875
68027.625000, 69238.679688, 187500.015625, 128300.304688, 141568.359375, 80831.148438, 103403.125000, 126752.625000, 1, 256, 1,0.0,0.0,0.0,0.0,0.0, 12:14:57.875
68047.804688, 69258.148438, 187500.015625, 128255.671875, 141593.406250, 80703.117188, 103304.554688, 126626.960938, 1, 256, 1,0.0,0.0,0.0,0.0,0.0, 12:14:57.875
68110.992188, 69325.367188, 187500.015625, 127884.984375, 141670.093750, 80379.062500, 103182.062500, 126538.320313, 1, 256, 1,0.0,0.0,0.0,0.0,0.0, 12:14:57.875
68086.515625, 69304.132813, 187500.015625, 127880.179688, 141663.500000, 80465.000000, 103277.531250, 126655.414063, 1, 256, 1,0.0,0.0,0.0,0.0,0.0, 12:14:57.875
67999.210938, 69216.734375, 187500.015625, 128278.398438, 141580.656250, 80812.328125, 103418.859375, 126748.781250, 1, 256, 1,0.0,0.0,0.0,0.0,0.0, 12:14:57.875
68009.742188, 69234.015625, 187500.015625, 128343.531250, 141590.156250, 80766.039063, 103354.039063, 126636.507813, 1, 256, 1,0.0,0.0,0.0,0.0,0.0, 12:14:57.875
68080.750000, 69313.117188, 187500.015625, 127991.695313, 141666.484375, 80427.609375, 103206.804688, 126522.179688, 1, 256, 1,0.0,0.0,0.0,0.0,0.0, 12:14:57.875
68075.210938, 69311.171875, 187500.015625, 127916.367188, 141676.437500, 80437.242188, 103262.195313, 126601.750000, 1, 256, 1,0.0,0.0,0.0,0.0,0.0, 12:14:57.875
68012.445313, 69251.867188, 187500.015625, 128268.835938, 141621.078125, 80770.687500, 103431.398438, 126720.570313, 1, 256, 1,0.0,0.0,0.0,0.0,0.0, 12:14:57.875
67993.265625, 69234.640625, 187500.015625, 128428.851563, 141607.109375, 80818.656250, 103417.023438, 126648.156250, 1, 256, 1,0.0,0.0,0.0,0.0,0.0, 12:14:57.876
68051.585938, 69302.187500, 187500.015625, 128118.765625, 141646.312500, 80489.945313, 103234.765625, 126509.546875, 1, 256, 1,0.0,0.0,0.0,0.0,0.0, 12:14:57.876
68056.234375, 69312.242188, 187500.015625, 127955.085938, 141665.375000, 80401.968750, 103240.695313, 126557.562500, 1, 256, 1,0.0,0.0,0.0,0.0,0.0, 12:14:57.876
67970.085938, 69228.062500, 187500.015625, 128295.140625, 141574.171875, 80736.218750, 103403.773438, 126699.945313, 1, 256, 1,0.0,0.0,0.0,0.0,0.0, 12:14:57.876
67951.648438, 69215.210938, 187500.015625, 128528.132813, 141552.187500, 80858.304688, 103412.062500, 126664.984375, 1, 256, 1,0.0,0.0,0.0,0.0,0.0, 12:14:57.876
68027.507813, 69291.570313, 187500.015625, 128254.820313, 141629.296875, 80557.515625, 103256.648438, 126529.960938, 1, 256, 1,0.0,0.0,0.0,0.0,0.0, 12:14:57.876
68065.218750, 69333.992188, 187500.015625, 127989.570313, 141694.390625, 80388.250000, 103229.000000, 126563.195313, 1, 256, 1,0.0,0.0,0.0,0.0,0.0, 12:14:57.876
67992.125000, 69258.843750, 187500.015625, 128236.109375, 141635.218750, 80677.320313, 103381.304688, 126718.335938, 1, 256, 1,0.0,0.0,0.0,0.0,0.0, 12:14:57.876
67935.781250, 69203.929688, 187500.015625, 128544.812500, 141576.031250, 80892.679688, 103432.359375, 126729.070313, 1, 256, 1,0.0,0.0,0.0,0.0,0.0, 12:14:57.876
67992.375000, 69260.945313, 187500.015625, 128345.921875, 141624.453125, 80640.484375, 103272.117188, 126585.773438, 1, 256, 1,0.0,0.0,0.0,0.0,0.0, 12:14:57.877
68054.109375, 69326.523438, 187500.015625, 128006.781250, 141694.390625, 80383.640625, 103191.984375, 126562.257813, 1, 256, 1,0.0,0.0,0.0,0.0,0.0, 12:14:57.877
68015.218750, 69284.679688, 187500.015625, 128176.945313, 141656.750000, 80619.523438, 103343.781250, 126720.687500, 1, 256, 1,0.0,0.0,0.0,0.0,0.0, 12:14:57.877
67945.882813, 69212.664063, 187500.015625, 128536.203125, 141584.968750, 80897.976563, 103431.640625, 126759.132813, 1, 256, 1,0.0,0.0,0.0,0.0,0.0, 12:14:57.877
67983.187500, 69255.625000, 187500.015625, 128418.726563, 141636.343750, 80709.890625, 103296.039063, 126624.437500, 1, 256, 1,0.0,0.0,0.0,0.0,0.0, 12:14:57.877
68033.500000, 69313.382813, 187500.015625, 128058.750000, 141698.468750, 80410.710938, 103174.218750, 126560.242188, 1, 256, 1,0.0,0.0,0.0,0.0,0.0, 12:14:57.877
67993.531250, 69282.421875, 187500.015625, 128127.593750, 141662.421875, 80559.218750, 103282.554688, 126699.718750, 1, 256, 1,0.0,0.0,0.0,0.0,0.0, 12:14:57.877
67921.312500, 69216.328125, 187500.015625, 128511.375000, 141589.109375, 80881.390625, 103406.585938, 126780.007813, 1, 256, 1,0.0,0.0,0.0,0.0,0.0, 12:14:57.877
67939.820313, 69242.101563, 187500.015625, 128499.078125, 141613.968750, 80778.710938, 103309.781250, 126657.070313, 1, 256, 1,0.0,0.0,0.0,0.0,0.0, 12:14:57.878
68003.906250, 69310.093750, 187500.015625, 128137.562500, 141683.171875, 80446.492188, 103161.921875, 126565.429688, 1, 256, 1,0.0,0.0,0.0,0.0,0.0, 12:14:57.878
67997.445313, 69302.789063, 187500.015625, 128101.976563, 141680.421875, 80502.289063, 103235.039063, 126665.789063, 1, 256, 1,0.0,0.0,0.0,0.0,0.0, 12:14:58.342
67919.703125, 69228.960938, 187500.015625, 128476.570313, 141593.921875, 80843.593750, 103387.812500, 126765.789063, 1, 256, 1,0.0,0.0,0.0,0.0,0.0, 12:14:58.342
67924.085938, 69237.031250, 187500.015625, 128558.085938, 141602.781250, 80824.664063, 103335.601563, 126667.625000, 1, 256, 1,0.0,0.0,0.0,0.0,0.0, 12:14:58.342
68000.734375, 69320.179688, 187500.015625, 128206.742188, 141680.750000, 80488.453125, 103169.101563, 126545.562500, 1, 256, 1,0.0,0.0,0.0,0.0,0.0, 12:14:58.342
68005.757813, 69327.664063, 187500.015625, 128076.765625, 141693.937500, 80459.953125, 103196.835938, 126614.289063, 1, 256, 1,0.0,0.0,0.0,0.0,0.0, 12:14:58.342
67935.218750, 69253.304688, 187500.015625, 128429.164063, 141621.500000, 80808.078125, 103359.914063, 126754.523438, 1, 256, 1,0.0,0.0,0.0,0.0,0.0, 12:14:58.343
67909.093750, 69230.640625, 187500.015625, 128597.875000, 141614.406250, 80885.125000, 103347.648438, 126704.187500, 1, 256, 1,0.0,0.0,0.0,0.0,0.0, 12:14:58.343
67968.609375, 69301.335938, 187500.015625, 128281.171875, 141680.468750, 80560.890625, 103171.382813, 126558.234375, 1, 256, 1,0.0,0.0,0.0,0.0,0.0, 12:14:58.343
68003.304688, 69341.343750, 187500.015625, 128062.210938, 141714.609375, 80441.843750, 103166.484375, 126601.101563, 1, 256, 1,0.0,0.0,0.0,0.0,0.0, 12:14:58.343
67920.265625, 69254.914063, 187500.015625, 128345.632813, 141634.328125, 80753.812500, 103333.500000, 126757.429688, 1, 256, 1,0.0,0.0,0.0,0.0,0.0, 12:14:58.343
67871.312500, 69203.882813, 187500.015625, 128596.445313, 141589.484375, 80913.695313, 103359.539063, 126745.273438, 1, 256, 1,0.0,0.0,0.0,0.0,0.0, 12:14:58.343
67924.757813, 69266.132813, 187500.015625, 128342.796875, 141636.703125, 80615.656250, 103179.625000, 126572.804688, 1, 256, 1,0.0,0.0,0.0,0.0,0.0, 12:14:58.343
67959.757813, 69307.640625, 187500.015625, 128053.609375, 141687.718750, 80410.421875, 103128.796875, 126559.906250, 1, 256, 1,0.0,0.0,0.0,0.0,0.0, 12:14:58.343
67889.375000, 69244.429688, 187500.015625, 128260.203125, 141642.125000, 80674.976563, 103296.726563, 126711.226563, 1, 256, 1,0.0,0.0,0.0,0.0,0.0, 12:14:58.343
67828.984375, 69183.921875, 187500.015625, 128570.937500, 141571.156250, 80902.203125, 103346.773438, 126717.890625, 1, 256, 1,0.0,0.0,0.0,0.0,0.0, 12:14:58.344
67878.804688, 69239.820313, 187500.015625, 128394.960938, 141620.687500, 80668.492188, 103183.468750, 126561.453125, 1, 256, 1,0.0,0.0,0.0,0.0,0.0, 12:14:58.344
67923.398438, 69293.085938, 187500.015625, 128059.375000, 141678.531250, 80404.671875, 103101.218750, 126516.750000, 1, 256, 1,0.0,0.0,0.0,0.0,0.0, 12:14:58.344
67884.187500, 69251.914063, 187500.015625, 128186.039063, 141643.171875, 80608.031250, 103237.406250, 126663.242188, 1, 256, 1,0.0,0.0,0.0,0.0,0.0, 12:14:58.344
67828.687500, 69201.804688, 187500.015625, 128536.296875, 141599.281250, 80899.562500, 103346.726563, 126734.875000, 1, 256, 1,0.0,0.0,0.0,0.0,0.0, 12:14:58.344
67857.007813, 69228.625000, 187500.015625, 128451.265625, 141612.828125, 80738.546875, 103216.304688, 126593.328125, 1, 256, 1,0.0,0.0,0.0,0.0,0.0, 12:14:58.344
67915.953125, 69287.210938, 187500.015625, 128077.523438, 141672.031250, 80420.187500, 103090.265625, 126512.632813, 1, 256, 1,0.0,0.0,0.0,0.0,0.0, 12:14:58.344
67870.000000, 69241.054688, 187500.015625, 128118.656250, 141644.140625, 80551.796875, 103213.000000, 126639.859375, 1, 256, 1,0.0,0.0,0.0,0.0,0.0, 12:14:58.344
67799.054688, 69175.875000, 187500.015625, 128485.289063, 141564.406250, 80878.640625, 103353.390625, 126722.648438, 1, 256, 1,0.0,0.0,0.0,0.0,0.0, 12:14:58.344
67823.820313, 69202.250000, 187500.015625, 128503.507813, 141587.296875, 80809.421875, 103265.546875, 126618.445313, 1, 256, 1,0.0,0.0,0.0,0.0,0.0, 12:14:58.345
67897.062500, 69271.921875, 187500.015625, 128131.304688, 141666.375000, 80469.789063, 103114.898438, 126492.789063, 1, 256, 1,0.0,0.0,0.0,0.0,0.0, 12:14:58.345
67897.468750, 69271.070313, 187500.015625, 128057.187500, 141669.203125, 80500.562500, 103190.046875, 126597.304688, 1, 256, 1,0.0,0.0,0.0,0.0,0.0, 12:14:58.345
67815.570313, 69190.382813, 187500.015625, 128425.226563, 141588.437500, 80855.601563, 103356.273438, 126729.914063, 1, 256, 1,0.0,0.0,0.0,0.0,0.0, 12:14:58.346
67806.296875, 69182.828125, 187500.015625, 128540.765625, 141578.937500, 80878.421875, 103320.109375, 126647.304688, 1, 256, 1,0.0,0.0,0.0,0.0,0.0, 12:14:58.346
67889.640625, 69269.664063, 187500.015625, 128192.367188, 141672.640625, 80539.789063, 103163.890625, 126518.335938, 1, 256, 1,0.0,0.0,0.0,0.0,0.0, 12:14:58.346
67895.789063, 69279.742188, 187500.015625, 128038.742188, 141698.453125, 80489.164063, 103206.625000, 126599.492188, 1, 256, 1,0.0,0.0,0.0,0.0,0.0, 12:14:58.347
67798.898438, 69186.179688, 187500.015625, 128366.445313, 141596.750000, 80825.781250, 103367.070313, 126731.343750, 1, 256, 1,0.0,0.0,0.0,0.0,0.0, 12:14:58.347
67769.835938, 69162.664063, 187500.015625, 128543.289063, 141568.718750, 80910.875000, 103355.734375, 126669.054688, 1, 256, 1,0.0,0.0,0.0,0.0,0.0, 12:14:58.347
67841.968750, 69242.015625, 187500.015625, 128237.968750, 141651.781250, 80593.656250, 103195.140625, 126528.460938, 1, 256, 1,0.0,0.0,0.0,0.0,0.0, 12:14:58.347
67883.921875, 69281.710938, 187500.015625, 128009.148438, 141706.203125, 80463.640625, 103196.859375, 126575.039063, 1, 256, 1,0.0,0.0,0.0,0.0,0.0, 12:14:58.347
67816.796875, 69213.265625, 187500.015625, 128280.968750, 141643.203125, 80771.062500, 103366.132813, 126731.148438, 1, 256, 1,0.0,0.0,0.0,0.0,0.0, 12:14:58.347
67765.929688, 69168.789063, 187500.015625, 128556.031250, 141593.687500, 80954.843750, 103396.976563, 126715.546875, 1, 256, 1,0.0,0.0,0.0,0.0,0.0, 12:14:58.347
67815.343750, 69224.468750, 187500.015625, 128326.343750, 141648.515625, 80685.812500, 103230.585938, 126560.039063, 1, 256, 1,0.0,0.0,0.0,0.0,0.0, 12:14:58.347
67861.570313, 69271.945313, 187500.015625, 128022.070313, 141709.265625, 80470.054688, 103176.632813, 126558.210938, 1, 256, 1,0.0,0.0,0.0,0.0,0.0, 12:14:58.347
67802.984375, 69215.054688, 187500.015625, 128218.992188, 141650.281250, 80726.539063, 103332.554688, 126716.976563, 1, 256, 1,0.0,0.0,0.0,0.0,0.0, 12:14:58.348
67741.320313, 69154.953125, 187500.015625, 128549.796875, 141568.640625, 80972.789063, 103403.164063, 126738.789063, 1, 256, 1,0.0,0.0,0.0,0.0,0.0, 12:14:58.348
67789.398438, 69206.742188, 187500.015625, 128412.085938, 141620.218750, 80764.289063, 103266.304688, 126594.953125, 1, 256, 1,0.0,0.0,0.0,0.0,0.0, 12:14:58.348
67848.539063, 69273.398438, 187500.015625, 128069.343750, 141690.656250, 80489.906250, 103175.335938, 126549.898438, 1, 256, 1,0.0,0.0,0.0,0.0,0.0, 12:14:58.348
67804.171875, 69230.437500, 187500.015625, 128166.843750, 141661.546875, 80669.031250, 103303.234375, 126686.953125, 1, 256, 1,0.0,0.0,0.0,0.0,0.0, 12:14:58.348
67742.234375, 69162.929688, 187500.015625, 128525.250000, 141595.390625, 80971.562500, 103414.320313, 126749.226563, 1, 256, 1,0.0,0.0,0.0,0.0,0.0, 12:14:58.348
67774.890625, 69196.796875, 187500.015625, 128472.187500, 141621.906250, 80843.617188, 103314.742188, 126625.062500, 1, 256, 1,0.0,0.0,0.0,0.0,0.0, 12:14:58.348
67834.007813, 69260.164063, 187500.015625, 128107.210938, 141689.953125, 80521.843750, 103188.656250, 126536.484375, 1, 256, 1,0.0,0.0,0.0,0.0,0.0, 12:14:58.348
67816.734375, 69239.710938, 187500.015625, 128101.281250, 141683.140625, 80608.125000, 103285.085938, 126655.617188, 1, 256, 1,0.0,0.0,0.0,0.0,0.0, 12:14:58.348
67748.781250, 69163.757813, 187500.015625, 128473.148438, 141603.578125, 80947.421875, 103431.039063, 126758.148438, 1, 256, 1,0.0,0.0,0.0,0.0,0.0, 12:14:58.349
67753.007813, 69172.140625, 187500.015625, 128514.968750, 141604.515625, 80897.554688, 103353.773438, 126648.890625, 1, 256, 1,0.0,0.0,0.0,0.0,0.0, 12:14:58.349
67831.570313, 69258.085938, 187500.015625, 128139.304688, 141685.796875, 80550.632813, 103205.843750, 126533.398438, 1, 256, 1,0.0,0.0,0.0,0.0,0.0, 12:14:58.349
67830.656250, 69257.820313, 187500.015625, 128050.968750, 141694.000000, 80560.312500, 103272.234375, 126630.492188, 1, 256, 1,0.0,0.0,0.0,0.0,0.0, 12:14:58.349
67746.835938, 69170.648438, 187500.015625, 128425.406250, 141602.812500, 80908.437500, 103428.539063, 126749.093750, 1, 256, 1,0.0,0.0,0.0,0.0,0.0, 12:14:58.349
67746.148438, 69173.390625, 187500.015625, 128561.773438, 141592.656250, 80932.359375, 103393.218750, 126668.250000, 1, 256, 1,0.0,0.0,0.0,0.0,0.0, 12:14:58.349
67816.195313, 69246.640625, 187500.015625, 128245.679688, 141681.046875, 80604.320313, 103232.687500, 126536.171875, 1, 256, 1,0.0,0.0,0.0,0.0,0.0, 12:14:58.349
67842.992188, 69272.593750, 187500.015625, 128058.726563, 141723.265625, 80520.164063, 103248.601563, 126595.625000, 1, 256, 1,0.0,0.0,0.0,0.0,0.0, 12:14:58.349
67782.039063, 69206.007813, 187500.015625, 128357.953125, 141623.203125, 80842.546875, 103408.687500, 126733.468750, 1, 256, 1,0.0,0.0,0.0,0.0,0.0, 12:14:58.349
67751.976563, 69174.914063, 187500.015625, 128580.617188, 141582.625000, 80970.484375, 103423.906250, 126693.148438, 1, 256, 1,0.0,0.0,0.0,0.0,0.0, 12:14:58.349
67809.937500, 69241.390625, 187500.015625, 128285.843750, 141663.453125, 80658.257813, 103265.968750, 126543.257813, 1, 256, 1,0.0,0.0,0.0,0.0,0.0, 12:14:58.350
67843.914063, 69279.812500, 187500.015625, 128026.320313, 141705.734375, 80497.953125, 103244.851563, 126572.156250, 1, 256, 1,0.0,0.0,0.0,0.0,0.0, 12:14:58.350
67773.570313, 69207.953125, 187500.015625, 128287.812500, 141638.625000, 80792.031250, 103403.726563, 126724.437500, 1, 256, 1,0.0,0.0,0.0,0.0,0.0, 12:14:58.350
67723.187500, 69162.242188, 187500.015625, 128567.031250, 141592.734375, 80976.210938, 103445.453125, 126711.632813, 1, 256, 1,0.0,0.0,0.0,0.0,0.0, 12:14:58.350
67783.695313, 69227.398438, 187500.015625, 128363.226563, 141647.468750, 80722.117188, 103295.679688, 126563.218750, 1, 256, 1,0.0,0.0,0.0,0.0,0.0, 12:14:58.350
67835.796875, 69279.585938, 187500.015625, 128044.671875, 141712.796875, 80484.828125, 103228.664063, 126542.875000, 1, 256, 1,0.0,0.0,0.0,0.0,0.0, 12:14:58.350
67782.781250, 69219.617188, 187500.015625, 128212.085938, 141654.953125, 80716.664063, 103373.281250, 126686.148438, 1, 256, 1,0.0,0.0,0.0,0.0,0.0, 12:14:58.350
67735.906250, 69169.039063, 187500.015625, 128540.296875, 141603.578125, 80977.593750, 103458.484375, 126721.085938, 1, 256, 1,0.0,0.0,0.0,0.0,0.0, 12:14:58.350
67771.781250, 69211.031250, 187500.015625, 128422.812500, 141628.609375, 80792.656250, 103336.671875, 126588.632813, 1, 256, 1,0.0,0.0,0.0,0.0,0.0, 12:14:58.350
67840.695313, 69282.875000, 187500.015625, 128065.679688, 141712.453125, 80502.085938, 103242.968750, 126538.179688, 1, 256, 1,0.0,0.0,0.0,0.0,0.0, 12:14:58.351
67811.992188, 69254.304688, 187500.015625, 128138.140625, 141690.656250, 80660.757813, 103366.781250, 126681.437500, 1, 256, 1,0.0,0.0,0.0,0.0,0.0, 12:14:58.351
67733.539063, 69174.843750, 187500.015625, 128513.609375, 141606.093750, 80980.125000, 103485.648438, 126754.125000, 1, 256, 1,0.0,0.0,0.0,0.0,0.0, 12:14:58.351
67747.460938, 69195.187500, 187500.015625, 128488.953125, 141631.828125, 80867.085938, 103384.726563, 126628.125000, 1, 256, 1,0.0,0.0,0.0,0.0,0.0, 12:14:58.351
67814.539063, 69270.578125, 187500.015625, 128119.500000, 141720.812500, 80538.898438, 103247.664063, 126539.570313, 1, 256, 1,0.0,0.0,0.0,0.0,0.0, 12:14:58.351
67800.039063, 69255.492188, 187500.015625, 128096.656250, 141692.796875, 80610.578125, 103334.367188, 126655.085938, 1, 256, 1,0.0,0.0,0.0,0.0,0.0, 12:14:58.351
67721.070313, 69174.109375, 187500.015625, 128465.843750, 141610.640625, 80951.085938, 103479.054688, 126758.882813, 1, 256, 1,0.0,0.0,0.0,0.0,0.0, 12:14:58.351
67713.515625, 69171.742188, 187500.015625, 128545.343750, 141609.203125, 80931.976563, 103418.656250, 126658.187500, 1, 256, 1,0.0,0.0,0.0,0.0,0.0, 12:14:58.351
67787.296875, 69252.609375, 187500.015625, 128178.242188, 141688.187500, 80587.109375, 103263.109375, 126537.375000, 1, 256, 1,0.0,0.0,0.0,0.0,0.0, 12:14:58.351
67787.453125, 69259.156250, 187500.015625, 128044.531250, 141707.953125, 80559.484375, 103310.007813, 126619.007813, 1, 256, 1,0.0,0.0,0.0,0.0,0.0, 12:14:58.351
67707.007813, 69182.000000, 187500.015625, 128391.906250, 141641.328125, 80903.546875, 103470.515625, 126748.000000, 1, 256, 1,0.0,0.0,0.0,0.0,0.0, 12:14:58.352
67708.484375, 69182.132813, 187500.015625, 128558.132813, 141613.156250, 80975.335938, 103453.617188, 126686.601563, 1, 256, 1,0.0,0.0,0.0,0.0,0.0, 12:14:58.352
67777.507813, 69248.429688, 187500.015625, 128239.640625, 141692.796875, 80652.242188, 103294.781250, 126553.023438, 1, 256, 1,0.0,0.0,0.0,0.0,0.0, 12:14:58.352
67799.742188, 69275.789063, 187500.015625, 128016.929688, 141731.578125, 80532.375000, 103293.640625, 126597.125000, 1, 256, 1,0.0,0.0,0.0,0.0,0.0, 12:14:58.352
67724.796875, 69199.906250, 187500.015625, 128312.132813, 141652.000000, 80851.640625, 103446.617188, 126730.765625, 1, 256, 1,0.0,0.0,0.0,0.0,0.0, 12:14:58.352
67688.210938, 69159.000000, 187500.015625, 128569.171875, 141600.468750, 81004.710938, 103470.218750, 126706.515625, 1, 256, 1,0.0,0.0,0.0,0.0,0.0, 12:14:58.352
67744.421875, 69226.789063, 187500.015625, 128312.890625, 141664.953125, 80708.304688, 103317.335938, 126563.062500, 1, 256, 1,0.0,0.0,0.0,0.0,0.0, 12:14:58.352
67782.265625, 69268.210938, 187500.015625, 128031.187500, 141725.328125, 80513.304688, 103290.179688, 126573.070313, 1, 256, 1,0.0,0.0,0.0,0.0,0.0, 12:14:58.353
67730.742188, 69207.437500, 187500.015625, 128250.375000, 141663.984375, 80780.562500, 103439.062500, 126722.648438, 1, 256, 1,0.0,0.0,0.0,0.0,0.0, 12:14:58.353
67684.742188, 69159.515625, 187500.015625, 128557.664063, 141604.796875, 81001.085938, 103503.976563, 126732.445313, 1, 256, 1,0.0,0.0,0.0,0.0,0.0, 12:14:58.353
67727.617188, 69210.273438, 187500.015625, 128370.984375, 141656.593750, 80761.562500, 103358.867188, 126580.875000, 1, 256, 1,0.0,0.0,0.0,0.0,0.0, 12:14:58.353
67783.359375, 69274.242188, 187500.015625, 128040.445313, 141723.890625, 80509.281250, 103284.140625, 126551.234375, 1, 256, 1,0.0,0.0,0.0,0.0,0.0, 12:14:58.353
67733.921875, 69225.203125, 187500.015625, 128184.476563, 141675.234375, 80717.664063, 103424.960938, 126694.867188, 1, 256, 1,0.0,0.0,0.0,0.0,0.0, 12:14:58.353
67668.140625, 69154.773438, 187500.015625, 128526.234375, 141608.671875, 80985.773438, 103516.671875, 126739.281250, 1, 256, 1,0.0,0.0,0.0,0.0,0.0, 12:14:58.354
67697.953125, 69185.617188, 187500.015625, 128448.585938, 141632.828125, 80823.320313, 103395.726563, 126605.195313, 1, 256, 1,0.0,0.0,0.0,0.0,0.0, 12:14:58.354
67767.539063, 69260.546875, 187500.015625, 128094.335938, 141715.468750, 80517.953125, 103284.726563, 126538.453125, 1, 256, 1,0.0,0.0,0.0,0.0,0.0, 12:14:58.354
67729.132813, 69223.039063, 187500.015625, 128143.640625, 141716.625000, 80648.062500, 103392.437500, 126660.109375, 1, 256, 1,0.0,0.0,0.0,0.0,0.0, 12:14:58.354
67659.531250, 69154.750000, 187500.015625, 128510.906250, 141613.093750, 80963.937500, 103521.320313, 126736.937500, 1, 256, 1,0.0,0.0,0.0,0.0,0.0, 12:14:58.354
67687.093750, 69188.460938, 187500.015625, 128496.617188, 141620.953125, 80864.070313, 103437.234375, 126622.742188, 1, 256, 1,0.0,0.0,0.0,0.0,0.0, 12:14:58.354
67755.109375, 69264.054688, 187500.015625, 128134.632813, 141708.562500, 80532.796875, 103305.492188, 126528.171875, 1, 256, 1,0.0,0.0,0.0,0.0,0.0, 12:14:58.355
67740.851563, 69256.187500, 187500.015625, 128091.851563, 141704.937500, 80574.859375, 103375.359375, 126632.125000, 1, 256, 1,0.0,0.0,0.0,0.0,0.0, 12:14:58.355
67672.296875, 69179.812500, 187500.015625, 128459.742188, 141644.437500, 80918.718750, 103527.507813, 126743.460938, 1, 256, 1,0.0,0.0,0.0,0.0,0.0, 12:14:58.355
67670.328125, 69171.312500, 187500.015625, 128557.281250, 141622.140625, 80920.953125, 103470.109375, 126640.617188, 1, 256, 1,0.0,0.0,0.0,0.0,0.0, 12:14:58.355
67747.445313, 69247.265625, 187500.015625, 128205.062500, 141703.500000, 80582.796875, 103320.398438, 126533.039063, 1, 256, 1,0.0,0.0,0.0,0.0,0.0, 12:14:58.355
67757.273438, 69260.429688, 187500.015625, 128055.929688, 141724.828125, 80533.132813, 103360.742188, 126623.164063, 1, 256, 1,0.0,0.0,0.0,0.0,0.0, 12:14:58.355
67675.984375, 69178.734375, 187500.015625, 128385.937500, 141644.703125, 80863.335938, 103515.593750, 126752.851563, 1, 256, 1,0.0,0.0,0.0,0.0,0.0, 12:14:58.355
67651.757813, 69153.765625, 187500.015625, 128596.218750, 141603.921875, 80963.562500, 103503.703125, 126692.859375, 1, 256, 1,0.0,0.0,0.0,0.0,0.0, 12:14:58.355
67716.171875, 69228.085938, 187500.015625, 128299.546875, 141674.109375, 80643.351563, 103336.312500, 126537.648438, 1, 256, 1,0.0,0.0,0.0,0.0,0.0, 12:14:58.356
67755.375000, 69270.312500, 187500.015625, 128064.875000, 141733.875000, 80503.070313, 103332.468750, 126575.507813, 1, 256, 1,0.0,0.0,0.0,0.0,0.0, 12:14:58.356
67697.890625, 69207.437500, 187500.015625, 128329.671875, 141679.250000, 80803.140625, 103497.359375, 126720.507813, 1, 256, 1,0.0,0.0,0.0,0.0,0.0, 12:14:58.356
67651.484375, 69165.101563, 187500.015625, 128603.437500, 141610.250000, 80982.804688, 103534.710938, 126709.304688, 1, 256, 1,0.0,0.0,0.0,0.0,0.0, 12:14:58.356
67706.179688, 69228.242188, 187500.015625, 128361.976563, 141670.656250, 80698.132813, 103377.171875, 126558.007813, 1, 256, 1,0.0,0.0,0.0,0.0,0.0, 12:14:58.356
67748.585938, 69274.132813, 187500.015625, 128065.093750, 141722.140625, 80489.882813, 103326.140625, 126555.390625, 1, 256, 1,0.0,0.0,0.0,0.0,0.0, 12:14:58.356
67691.453125, 69213.515625, 187500.015625, 128262.437500, 141660.343750, 80745.718750, 103468.453125, 126700.570313, 1, 256, 1,0.0,0.0,0.0,0.0,0.0, 12:14:58.356
67642.257813, 69160.031250, 187500.015625, 128588.734375, 141601.453125, 80991.296875, 103542.304688, 126720.195313, 1, 256, 1,0.0,0.0,0.0,0.0,0.0, 12:14:58.356
67690.492188, 69210.835938, 187500.015625, 128432.046875, 141654.875000, 80774.375000, 103410.609375, 126580.312500, 1, 256, 1,0.0,0.0,0.0,0.0,0.0, 12:14:58.357
67756.468750, 69284.820313, 187500.015625, 128088.609375, 141738.687500, 80505.257813, 103327.195313, 126548.757813, 1, 256, 1,0.0,0.0,0.0,0.0,0.0, 12:14:58.357
67706.359375, 69238.367188, 187500.015625, 128207.992188, 141700.750000, 80690.601563, 103449.054688, 126684.695313, 1, 256, 1,0.0,0.0,0.0,0.0,0.0, 12:14:58.357
67637.765625, 69167.562500, 187500.015625, 128552.234375, 141613.890625, 80967.468750, 103551.718750, 126733.898438, 1, 256, 1,0.0,0.0,0.0,0.0,0.0, 12:14:58.357
67660.382813, 69197.687500, 187500.015625, 128492.242188, 141657.062500, 80835.351563, 103461.570313, 126614.960938, 1, 256, 1,0.0,0.0,0.0,0.0,0.0, 12:14:58.357
67737.945313, 69266.179688, 187500.015625, 128123.703125, 141738.359375, 80517.554688, 103336.445313, 126536.773438, 1, 256, 1,0.0,0.0,0.0,0.0,0.0, 12:14:58.357
67712.929688, 69235.015625, 187500.015625, 128144.804688, 141707.859375, 80627.476563, 103433.546875, 126664.250000, 1, 256, 1,0.0,0.0,0.0,0.0,0.0, 12:14:58.357
67636.015625, 69160.070313, 187500.015625, 128499.187500, 141629.859375, 80946.171875, 103558.914063, 126748.578125, 1, 256, 1,0.0,0.0,0.0,0.0,0.0, 12:14:58.357
67648.046875, 69178.242188, 187500.015625, 128527.000000, 141637.328125, 80886.554688, 103485.468750, 126647.976563, 1, 256, 1,0.0,0.0,0.0,0.0,0.0, 12:14:58.357
67720.328125, 69258.796875, 187500.015625, 128171.578125, 141722.437500, 80556.687500, 103340.875000, 126539.679688, 1, 256, 1,0.0,0.0,0.0,0.0,0.0, 12:14:58.820
67708.460938, 69246.750000, 187500.015625, 128080.320313, 141713.703125, 80567.398438, 103395.273438, 126623.679688, 1, 256, 1,0.0,0.0,0.0,0.0,0.0, 12:14:58.820
67644.335938, 69174.843750, 187500.015625, 128428.625000, 141633.203125, 80903.945313, 103548.406250, 126743.617188, 1, 256, 1,0.0,0.0,0.0,0.0,0.0, 12:14:58.820
67648.312500, 69179.632813, 187500.015625, 128562.554688, 141616.828125, 80937.500000, 103515.710938, 126676.140625, 1, 256, 1,0.0,0.0,0.0,0.0,0.0, 12:14:58.820
67705.265625, 69249.546875, 187500.015625, 128231.398438, 141698.031250, 80598.867188, 103352.250000, 126544.421875, 1, 256, 1,0.0,0.0,0.0,0.0,0.0, 12:14:58.821
67722.765625, 69271.453125, 187500.015625, 128053.609375, 141736.031250, 80523.250000, 103381.578125, 126610.515625, 1, 256, 1,0.0,0.0,0.0,0.0,0.0, 12:14:58.821
67646.281250, 69186.265625, 187500.015625, 128372.343750, 141658.515625, 80852.203125, 103538.062500, 126746.929688, 1, 256, 1,0.0,0.0,0.0,0.0,0.0, 12:14:58.821
67613.843750, 69158.125000, 187500.015625, 128582.140625, 141611.421875, 80958.710938, 103530.906250, 126693.171875, 1, 256, 1,0.0,0.0,0.0,0.0,0.0, 12:14:58.821
67689.843750, 69239.601563, 187500.015625, 128315.101563, 141694.671875, 80662.835938, 103382.359375, 126554.921875, 1, 256, 1,0.0,0.0,0.0,0.0,0.0, 12:14:58.822
67724.484375, 69275.968750, 187500.015625, 128062.125000, 141749.937500, 80499.781250, 103372.859375, 126580.515625, 1, 256, 1,0.0,0.0,0.0,0.0,0.0, 12:14:58.822
67659.890625, 69210.031250, 187500.015625, 128313.562500, 141681.515625, 80790.781250, 103525.273438, 126726.515625, 1, 256, 1,0.0,0.0,0.0,0.0,0.0, 12:14:58.823
67611.609375, 69161.234375, 187500.015625, 128595.281250, 141617.671875, 80985.507813, 103557.101563, 126713.062500, 1, 256, 1,0.0,0.0,0.0,0.0,0.0, 12:14:58.823
67675.468750, 69218.007813, 187500.015625, 128375.500000, 141679.750000, 80726.203125, 103408.132813, 126571.304688, 1, 256, 1,0.0,0.0,0.0,0.0,0.0, 12:14:58.823
67722.968750, 69269.773438, 187500.015625, 128060.179688, 141732.421875, 80496.921875, 103344.742188, 126560.671875, 1, 256, 1,0.0,0.0,0.0,0.0,0.0, 12:14:58.823
67660.335938, 69207.437500, 187500.015625, 128236.625000, 141678.062500, 80732.460938, 103486.468750, 126698.039063, 1, 256, 1,0.0,0.0,0.0,0.0,0.0, 12:14:58.824
67610.265625, 69154.773438, 187500.015625, 128559.226563, 141620.515625, 80981.039063, 103559.828125, 126725.046875, 1, 256, 1,0.0,0.0,0.0,0.0,0.0, 12:14:58.824
67642.703125, 69193.937500, 187500.015625, 128441.390625, 141663.343750, 80798.890625, 103434.054688, 126600.273438, 1, 256, 1,0.0,0.0,0.0,0.0,0.0, 12:14:58.824
67708.171875, 69263.000000, 187500.015625, 128094.531250, 141739.812500, 80516.546875, 103348.117188, 126559.234375, 1, 256, 1,0.0,0.0,0.0,0.0,0.0, 12:14:58.824
67661.453125, 69215.773438, 187500.015625, 128183.179688, 141701.531250, 80674.101563, 103474.179688, 126678.484375, 1, 256, 1,0.0,0.0,0.0,0.0,0.0, 12:14:58.824
67592.609375, 69141.859375, 187500.015625, 128543.226563, 141632.671875, 80974.265625, 103589.515625, 126735.257813, 1, 256, 1,0.0,0.0,0.0,0.0,0.0, 12:14:58.825
67628.531250, 69188.125000, 187500.015625, 128511.328125, 141652.671875, 80859.984375, 103485.312500, 126619.367188, 1, 256, 1,0.0,0.0,0.0,0.0,0.0, 12:14:58.825
67699.585938, 69265.218750, 187500.015625, 128158.218750, 141728.421875, 80543.343750, 103365.882813, 126551.726563, 1, 256, 1,0.0,0.0,0.0,0.0,0.0, 12:14:58.825
67675.984375, 69240.023438, 187500.015625, 128147.265625, 141718.453125, 80615.406250, 103444.273438, 126647.687500, 1, 256, 1,0.0,0.0,0.0,0.0,0.0, 12:14:58.825
67599.585938, 69161.078125, 187500.015625, 128509.945313, 141632.203125, 80938.500000, 103562.734375, 126727.835938, 1, 256, 1,0.0,0.0,0.0,0.0,0.0, 12:14:58.825
67616.820313, 69174.421875, 187500.015625, 128566.242188, 141635.890625, 80911.125000, 103499.812500, 126655.351563, 1, 256, 1,0.0,0.0,0.0,0.0,0.0, 12:14:58.825
67677.859375, 69250.796875, 187500.015625, 128216.640625, 141711.421875, 80581.234375, 103355.398438, 126529.578125, 1, 256, 1,0.0,0.0,0.0,0.0,0.0, 12:14:58.825
67679.445313, 69256.812500, 187500.015625, 128107.390625, 141716.109375, 80568.359375, 103403.304688, 126607.117188, 1, 256, 1,0.0,0.0,0.0,0.0,0.0, 12:14:58.825
67617.468750, 69185.664063, 187500.015625, 128454.218750, 141645.640625, 80909.109375, 103564.546875, 126739.953125, 1, 256, 1,0.0,0.0,0.0,0.0,0.0, 12:14:58.825
67625.539063, 69195.570313, 187500.015625, 128585.710938, 141626.796875, 80952.789063, 103532.203125, 126673.140625, 1, 256, 1,0.0,0.0,0.0,0.0,0.0, 12:14:58.826
67695.429688, 69270.335938, 187500.015625, 128267.984375, 141702.015625, 80630.695313, 103374.625000, 126535.906250, 1, 256, 1,0.0,0.0,0.0,0.0,0.0, 12:14:58.826
67720.281250, 69297.046875, 187500.015625, 128093.976563, 141721.437500, 80540.734375, 103382.085938, 126586.421875, 1, 256, 1,0.0,0.0,0.0,0.0,0.0, 12:14:58.826
67680.453125, 69254.265625, 187500.015625, 128397.695313, 141652.546875, 80851.148438, 103537.343750, 126718.609375, 1, 256, 1,0.0,0.0,0.0,0.0,0.0, 12:14:58.826
67669.835938, 69241.031250, 187500.015625, 128618.976563, 141629.703125, 80979.515625, 103556.390625, 126684.093750, 1, 256, 1,0.0,0.0,0.0,0.0,0.0, 12:14:58.826
67744.359375, 69319.976563, 187500.015625, 128380.726563, 141705.984375, 80710.070313, 103439.531250, 126568.023438, 1, 256, 1,0.0,0.0,0.0,0.0,0.0, 12:14:58.826
67817.601563, 69393.804688, 187500.015625, 128118.656250, 141752.640625, 80531.859375, 103396.953125, 126580.515625, 1, 256, 1,0.0,0.0,0.0,0.0,0.0, 12:14:58.826
67782.195313, 69350.640625, 187500.015625, 128347.710938, 141675.093750, 80795.984375, 103518.125000, 126704.304688, 1, 256, 1,0.0,0.0,0.0,0.0,0.0, 12:14:58.826
67751.734375, 69328.421875, 187500.015625, 128637.835938, 141621.500000, 80995.609375, 103569.460938, 126702.335938, 1, 256, 1,0.0,0.0,0.0,0.0,0.0, 12:14:58.826
67823.257813, 69404.757813, 187500.015625, 128454.664063, 141668.640625, 80758.078125, 103420.554688, 126559.484375, 1, 256, 1,0.0,0.0,0.0,0.0,0.0, 12:14:58.826
67908.664063, 69490.476563, 187500.015625, 128135.039063, 141734.656250, 80518.554688, 103347.039063, 126541.312500, 1, 256, 1,0.0,0.0,0.0,0.0,0.0, 12:14:58.827
67873.218750, 69452.031250, 187500.015625, 128283.562500, 141696.203125, 80734.523438, 103487.164063, 126685.812500, 1, 256, 1,0.0,0.0,0.0,0.0,0.0, 12:14:58.827
67816.796875, 69393.804688, 187500.015625, 128615.578125, 141634.171875, 80996.390625, 103576.750000, 126721.468750, 1, 256, 1,0.0,0.0,0.0,0.0,0.0, 12:14:58.827
67866.085938, 69449.078125, 187500.015625, 128514.281250, 141667.937500, 80830.718750, 103461.773438, 126602.218750, 1, 256, 1,0.0,0.0,0.0,0.0,0.0, 12:14:58.827
67935.578125, 69523.578125, 187500.015625, 128162.125000, 141740.250000, 80541.648438, 103360.835938, 126563.843750, 1, 256, 1,0.0,0.0,0.0,0.0,0.0, 12:14:58.827
67908.039063, 69491.750000, 187500.015625, 128214.671875, 141722.234375, 80674.796875, 103469.593750, 126683.000000, 1, 256, 1,0.0,0.0,0.0,0.0,0.0, 12:14:58.827
67823.484375, 69404.625000, 187500.015625, 128577.242188, 141646.437500, 80979.515625, 103588.843750, 126731.546875, 1, 256, 1,0.0,0.0,0.0,0.0,0.0, 12:14:58.827
67831.414063, 69418.679688, 187500.015625, 128564.125000, 141651.562500, 80874.914063, 103491.453125, 126610.156250, 1, 256, 1,0.0,0.0,0.0,0.0,0.0, 12:14:58.827
67913.226563, 69501.609375, 187500.015625, 128187.007813, 141740.343750, 80543.476563, 103366.171875, 126523.093750, 1, 256, 1,0.0,0.0,0.0,0.0,0.0, 12:14:58.827
67888.750000, 69474.070313, 187500.015625, 128150.953125, 141743.265625, 80599.132813, 103458.781250, 126634.789063, 1, 256, 1,0.0,0.0,0.0,0.0,0.0, 12:14:58.828
67794.445313, 69377.687500, 187500.015625, 128524.000000, 141661.484375, 80936.648438, 103608.421875, 126761.812500, 1, 256, 1,0.0,0.0,0.0,0.0,0.0, 12:14:58.828
67771.265625, 69362.843750, 187500.015625, 128610.367188, 141640.578125, 80921.585938, 103542.929688, 126649.765625, 1, 256, 1,0.0,0.0,0.0,0.0,0.0, 12:14:58.828
67821.273438, 69413.140625, 187500.015625, 128246.992188, 141725.812500, 80573.765625, 103391.656250, 126519.851563, 1, 256, 1,0.0,0.0,0.0,0.0,0.0, 12:14:58.828
67822.859375, 69413.140625, 187500.015625, 128109.804688, 141745.968750, 80539.234375, 103439.218750, 126608.101563, 1, 256, 1,0.0,0.0,0.0,0.0,0.0, 12:14:58.828
67724.531250, 69320.648438, 187500.015625, 128444.203125, 141659.234375, 80867.625000, 103589.359375, 126724.710938, 1, 256, 1,0.0,0.0,0.0,0.0,0.0, 12:14:58.828
67686.531250, 69289.195313, 187500.015625, 128606.007813, 141638.171875, 80934.859375, 103572.835938, 126664.578125, 1, 256, 1,0.0,0.0,0.0,0.0,0.0, 12:14:58.828
67730.835938, 69340.359375, 187500.015625, 128295.609375, 141697.562500, 80619.140625, 103408.531250, 126538.562500, 1, 256, 1,0.0,0.0,0.0,0.0,0.0, 12:14:58.828
67741.789063, 69348.789063, 187500.015625, 128065.703125, 141728.359375, 80483.804688, 103400.867188, 126545.445313, 1, 256, 1,0.0,0.0,0.0,0.0,0.0, 12:14:58.828
67668.539063, 69268.429688, 187500.015625, 128354.085938, 141660.078125, 80794.468750, 103556.679688, 126703.921875, 1, 256, 1,0.0,0.0,0.0,0.0,0.0, 12:14:58.829
67612.234375, 69213.718750, 187500.015625, 128603.351563, 141622.687500, 80946.726563, 103579.835938, 126664.515625, 1, 256, 1,0.0,0.0,0.0,0.0,0.0, 12:14:58.829
67647.351563, 69256.789063, 187500.015625, 128352.359375, 141690.875000, 80666.859375, 103435.734375, 126529.960938, 1, 256, 1,0.0,0.0,0.0,0.0,0.0, 12:14:58.829
67673.617188, 69287.187500, 187500.015625, 128068.765625, 141732.312500, 80475.015625, 103395.054688, 126533.421875, 1, 256, 1,0.0,0.0,0.0,0.0,0.0, 12:14:58.829
67605.015625, 69218.679688, 187500.015625, 128268.164063, 141679.296875, 80725.023438, 103538.281250, 126673.726563, 1, 256, 1,0.0,0.0,0.0,0.0,0.0, 12:14:58.829
67542.117188, 69151.289063, 187500.015625, 128583.773438, 141621.906250, 80951.578125, 103605.312500, 126682.531250, 1, 256, 1,0.0,0.0,0.0,0.0,0.0, 12:14:58.829
67593.375000, 69209.289063, 187500.015625, 128414.117188, 141685.093750, 80727.164063, 103475.851563, 126547.125000, 1, 256, 1,0.0,0.0,0.0,0.0,0.0, 12:14:58.829
67631.546875, 69255.734375, 187500.015625, 128084.718750, 141735.453125, 80468.625000, 103395.429688, 126517.554688, 1, 256, 1,0.0,0.0,0.0,0.0,0.0, 12:14:58.829
67584.765625, 69206.921875, 187500.015625, 128207.968750, 141690.859375, 80656.085938, 103515.734375, 126648.468750, 1, 256, 1,0.0,0.0,0.0,0.0,0.0, 12:14:58.830
67523.367188, 69144.601563, 187500.015625, 128557.867188, 141635.328125, 80932.937500, 103615.328125, 126689.328125, 1, 256, 1,0.0,0.0,0.0,0.0,0.0, 12:14:58.830
67544.015625, 69165.570313, 187500.015625, 128490.429688, 141660.484375, 80791.093750, 103512.156250, 126568.289063, 1, 256, 1,0.0,0.0,0.0,0.0,0.0, 12:14:58.830
67605.796875, 69231.148438, 187500.015625, 128102.000000, 141737.125000, 80472.421875, 103395.679688, 126496.226563, 1, 256, 1,0.0,0.0,0.0,0.0,0.0, 12:14:58.830
67571.312500, 69194.156250, 187500.015625, 128134.429688, 141712.109375, 80591.695313, 103498.250000, 126642.093750, 1, 256, 1,0.0,0.0,0.0,0.0,0.0, 12:14:58.831
67500.429688, 69116.664063, 187500.015625, 128509.539063, 141634.593750, 80906.429688, 103616.289063, 126695.273438, 1, 256, 1,0.0,0.0,0.0,0.0,0.0, 12:14:58.831
67514.875000, 69137.273438, 187500.015625, 128517.742188, 141647.093750, 80825.851563, 103533.585938, 126574.882813, 1, 256, 1,0.0,0.0,0.0,0.0,0.0, 12:14:58.831
67578.953125, 69213.203125, 187500.015625, 128141.164063, 141743.937500, 80495.359375, 103413.671875, 126487.085938, 1, 256, 1,0.0,0.0,0.0,0.0,0.0, 12:14:58.831
67560.023438, 69193.484375, 187500.015625, 128079.781250, 141734.906250, 80532.687500, 103484.015625, 126592.093750, 1, 256, 1,0.0,0.0,0.0,0.0,0.0, 12:14:58.831
67474.351563, 69097.218750, 187500.015625, 128445.101563, 141642.703125, 80862.062500, 103609.492188, 126690.601563, 1, 256, 1,0.0,0.0,0.0,0.0,0.0, 12:14:58.831
67465.609375, 69094.382813, 187500.015625, 128545.304688, 141640.906250, 80869.390625, 103564.367188, 126616.726563, 1, 256, 1,0.0,0.0,0.0,0.0,0.0, 12:14:58.831
67523.546875, 69166.937500, 187500.015625, 128199.429688, 141717.656250, 80546.164063, 103425.046875, 126502.976563, 1, 256, 1,0.0,0.0,0.0,0.0,0.0, 12:14:58.832
67533.914063, 69173.148438, 187500.015625, 128031.617188, 141727.468750, 80481.523438, 103448.968750, 126562.656250, 1, 256, 1,0.0,0.0,0.0,0.0,0.0, 12:14:58.832
67468.000000, 69102.023438, 187500.015625, 128344.875000, 141660.328125, 80798.000000, 103606.835938, 126694.242188, 1, 256, 1,0.0,0.0,0.0,0.0,0.0, 12:14:58.832
67434.898438, 69069.367188, 187500.015625, 128537.367188, 141618.750000, 80889.820313, 103594.117188, 126638.093750, 1, 256, 1,0.0,0.0,0.0,0.0,0.0, 12:14:58.832
67493.703125, 69129.789063, 187500.015625, 128239.929688, 141692.265625, 80584.117188, 103442.976563, 126504.390625, 1, 256, 1,0.0,0.0,0.0,0.0,0.0, 12:14:58.832
67522.515625, 69161.570313, 187500.015625, 127996.968750, 141743.812500, 80444.640625, 103446.195313, 126547.882813, 1, 256, 1,0.0,0.0,0.0,0.0,0.0, 12:14:58.832
67453.273438, 69087.921875, 187500.015625, 128264.695313, 141678.312500, 80736.148438, 103602.546875, 126693.304688, 1, 256, 1,0.0,0.0,0.0,0.0,0.0, 12:14:58.832
67409.062500, 69037.070313, 187500.015625, 128536.359375, 141617.359375, 80905.734375, 103618.726563, 126675.937500, 1, 256, 1,0.0,0.0,0.0,0.0,0.0, 12:14:58.832
67463.171875, 69094.289063, 187500.015625, 128313.000000, 141674.890625, 80643.976563, 103468.367188, 126535.273438, 1, 256, 1,0.0,0.0,0.0,0.0,0.0, 12:14:58.832
67512.234375, 69154.304688, 187500.015625, 128001.062500, 141748.328125, 80427.226563, 103430.546875, 126537.734375, 1, 256, 1,0.0,0.0,0.0,0.0,0.0, 12:14:58.833
67457.648438, 69098.468750, 187500.015625, 128196.390625, 141693.718750, 80669.406250, 103571.585938, 126679.085938, 1, 256, 1,0.0,0.0,0.0,0.0,0.0, 12:14:58.833
67399.742188, 69041.500000, 187500.015625, 128524.023438, 141635.109375, 80910.632813, 103641.437500, 126703.179688, 1, 256, 1,0.0,0.0,0.0,0.0,0.0, 12:14:58.833
67434.921875, 69080.210938, 187500.015625, 128390.226563, 141674.656250, 80717.937500, 103516.289063, 126570.054688, 1, 256, 1,0.0,0.0,0.0,0.0,0.0, 12:14:58.833
67487.312500, 69140.179688, 187500.015625, 128044.421875, 141738.015625, 80443.453125, 103424.421875, 126517.484375, 1, 256, 1,0.0,0.0,0.0,0.0,0.0, 12:14:58.833
67450.429688, 69103.296875, 187500.015625, 128135.773438, 141715.734375, 80607.453125, 103549.328125, 126647.039063, 1, 256, 1,0.0,0.0,0.0,0.0,0.0, 12:14:58.833
67379.601563, 69031.796875, 187500.015625, 128487.140625, 141641.859375, 80894.781250, 103654.960938, 126708.929688, 1, 256, 1,0.0,0.0,0.0,0.0,0.0, 12:14:58.833
67399.382813, 69055.507813, 187500.015625, 128432.492188, 141652.312500, 80763.218750, 103552.546875, 126593.125000, 1, 256, 1,0.0,0.0,0.0,0.0,0.0, 12:14:58.833
67467.843750, 69132.515625, 187500.015625, 128055.289063, 141736.453125, 80452.109375, 103437.429688, 126535.140625, 1, 256, 1,0.0,0.0,0.0,0.0,0.0, 12:14:58.833
67436.171875, 69098.898438, 187500.015625, 128062.679688, 141705.250000, 80549.000000, 103520.226563, 126655.195313, 1, 256, 1,0.0,0.0,0.0,0.0,0.0, 12:14:58.834
67367.414063, 69022.789063, 187500.015625, 128429.054688, 141633.671875, 80865.390625, 103643.429688, 126743.125000, 1, 256, 1,0.0,0.0,0.0,0.0,0.0, 12:14:58.834
67374.171875, 69028.531250, 187500.015625, 128473.664063, 141639.875000, 80817.265625, 103581.687500, 126652.828125, 1, 256, 1,0.0,0.0,0.0,0.0,0.0, 12:14:58.834
67432.867188, 69094.578125, 187500.015625, 128131.281250, 141712.093750, 80499.757813, 103451.265625, 126551.906250, 1, 256, 1,0.0,0.0,0.0,0.0,0.0, 12:14:58.834
67443.343750, 69105.085938, 187500.015625, 128034.742188, 141727.359375, 80502.148438, 103510.585938, 126644.507813, 1, 256, 1,0.0,0.0,0.0,0.0,0.0, 12:14:58.834
67376.203125, 69028.625000, 187500.015625, 128389.492188, 141646.203125, 80833.273438, 103649.953125, 126762.796875, 1, 256, 1,0.0,0.0,0.0,0.0,0.0, 12:14:58.834
67367.171875, 69021.804688, 187500.015625, 128519.484375, 141639.468750, 80863.578125, 103615.062500, 126686.085938, 1, 256, 1,0.0,0.0,0.0,0.0,0.0, 12:14:58.834
67448.937500, 69105.492188, 187500.015625, 128169.906250, 141733.171875, 80530.671875, 103471.343750, 126567.242188, 1, 256, 1,0.0,0.0,0.0,0.0,0.0, 12:14:58.834
67471.890625, 69128.421875, 187500.015625, 127988.070313, 141764.843750, 80451.078125, 103499.500000, 126635.007813, 1, 256, 1,0.0,0.0,0.0,0.0,0.0, 12:14:58.834
67390.664063, 69043.171875, 187500.015625, 128314.859375, 141672.531250, 80768.515625, 103641.054688, 126760.851563, 1, 256, 1,0.0,0.0,0.0,0.0,0.0, 12:14:58.835
67355.703125, 69012.484375, 187500.015625, 128545.640625, 141633.203125, 80888.773438, 103641.820313, 126715.078125, 1, 256, 1,0.0,0.0,0.0,0.0,0.0, 12:14:58.835
67412.609375, 69076.210938, 187500.015625, 128275.335938, 141697.000000, 80598.734375, 103491.945313, 126576.156250, 1, 256, 1,0.0,0.0,0.0,0.0,0.0, 12:14:58.835
67454.789063, 69119.953125, 187500.015625, 128019.945313, 141746.875000, 80436.859375, 103471.406250, 126599.335938, 1, 256, 1,0.0,0.0,0.0,0.0,0.0, 12:14:58.835
67396.250000, 69059.398438, 187500.015625, 128265.726563, 141684.328125, 80705.351563, 103608.625000, 126735.367188, 1, 256, 1,0.0,0.0,0.0,0.0,0.0, 12:14:58.835
67348.109375, 69013.531250, 187500.015625, 128551.648438, 141631.953125, 80894.226563, 103648.921875, 126728.265625, 1, 256, 1,0.0,0.0,0.0,0.0,0.0, 12:14:58.835
67399.382813, 69070.796875, 187500.015625, 128338.929688, 141697.187500, 80647.351563, 103518.617188, 126587.382813, 1, 256, 1,0.0,0.0,0.0,0.0,0.0, 12:14:58.835
67445.625000, 69121.406250, 187500.015625, 128027.140625, 141760.187500, 80422.375000, 103466.421875, 126573.429688, 1, 256, 1,0.0,0.0,0.0,0.0,0.0, 12:14:58.835
67388.695313, 69067.804688, 187500.015625, 128187.007813, 141706.609375, 80629.265625, 103587.500000, 126700.164063, 1, 256, 1,0.0,0.0,0.0,0.0,0.0, 12:14:58.835
67320.546875, 68999.476563, 187500.015625, 128528.515625, 141636.109375, 80878.328125, 103660.656250, 126724.304688, 1, 256, 1,0.0,0.0,0.0,0.0,0.0, 12:14:58.835
67359.906250, 69041.007813, 187500.015625, 128420.867188, 141682.859375, 80702.515625, 103548.429688, 126589.812500, 1, 256, 1,0.0,0.0,0.0,0.0,0.0, 12:14:58.836
67429.757813, 69110.945313, 187500.015625, 128072.320313, 141752.796875, 80417.750000, 103454.507813, 126536.257813, 1, 256, 1,0.0,0.0,0.0,0.0,0.0, 12:14:58.836
67405.015625, 69079.203125, 187500.015625, 128157.054688, 141723.687500, 80569.273438, 103569.375000, 126663.734375, 1, 256, 1,0.0,0.0,0.0,0.0,0.0, 12:14:58.836
67352.085938, 69024.531250, 187500.015625, 128510.164063, 141658.062500, 80853.835938, 103672.843750, 126724.218750, 1, 256, 1,0.0,0.0,0.0,0.0,0.0, 12:14:58.836
67364.265625, 69037.945313, 187500.015625, 128494.164063, 141662.781250, 80755.484375, 103582.585938, 126614.757813, 1, 256, 1,0.0,0.0,0.0,0.0,0.0, 12:14:58.836
67424.078125, 69101.960938, 187500.015625, 128135.148438, 141740.937500, 80449.046875, 103463.718750, 126527.390625, 1, 256, 1,0.0,0.0,0.0,0.0,0.0, 12:14:58.836
67408.859375, 69095.296875, 187500.015625, 128110.046875, 141731.625000, 80516.281250, 103538.843750, 126629.937500, 1, 256, 1,0.0,0.0,0.0,0.0,0.0, 12:14:58.836
67342.609375, 69027.125000, 187500.015625, 128466.734375, 141660.640625, 80831.328125, 103663.140625, 126718.140625, 1, 256, 1,0.0,0.0,0.0,0.0,0.0, 12:14:58.836
67331.140625, 69022.695313, 187500.015625, 128543.804688, 141644.781250, 80813.687500, 103604.492188, 126624.234375, 1, 256, 1,0.15740854,0.3093831,0.09434495,0.1127161,0.061886396, 12:14:59.300
67392.945313, 69095.609375, 187500.015625, 128191.656250, 141727.937500, 80492.140625, 103468.234375, 126513.171875, 1, 256, 1,0.15740854,0.3093831,0.09434495,0.1127161,0.061886396, 12:14:59.300
67396.093750, 69100.101563, 187500.015625, 128073.945313, 141746.937500, 80467.078125, 103520.242188, 126597.054688, 1, 256, 1,0.15740854,0.3093831,0.09434495,0.1127161,0.061886396, 12:14:59.300
67319.023438, 69021.312500, 187500.015625, 128412.578125, 141653.750000, 80780.609375, 103650.421875, 126715.523438, 1, 256, 1,0.15740854,0.3093831,0.09434495,0.1127161,0.061886396, 12:14:59.300
67300.585938, 69002.757813, 187500.015625, 128576.281250, 141629.406250, 80838.078125, 103617.539063, 126651.414063, 1, 256, 1,0.15740854,0.3093831,0.09434495,0.1127161,0.061886396, 12:14:59.300
67365.898438, 69073.992188, 187500.015625, 128262.554688, 141712.265625, 80530.468750, 103474.289063, 126531.296875, 1, 256, 1,0.15740854,0.3093831,0.09434495,0.1127161,0.061886396, 12:14:59.301
67395.109375, 69106.828125, 187500.015625, 128050.929688, 141756.765625, 80425.976563, 103489.625000, 126586.617188, 1, 256, 1,0.15740854,0.3093831,0.09434495,0.1127161,0.061886396, 12:14:59.301
67321.617188, 69032.734375, 187500.015625, 128349.656250, 141667.906250, 80729.492188, 103627.398438, 126718.000000, 1, 256, 1,0.15740854,0.3093831,0.09434495,0.1127161,0.061886396, 12:14:59.301
67299.757813, 69003.656250, 187500.015625, 128571.859375, 141633.750000, 80856.000000, 103635.312500, 126680.984375, 1, 256, 1,0.15740854,0.3093831,0.09434495,0.1127161,0.061886396, 12:14:59.301
67365.226563, 69076.703125, 187500.015625, 128311.617188, 141712.218750, 80582.078125, 103500.109375, 126555.039063, 1, 256, 1,0.15740854,0.3093831,0.09434495,0.1127161,0.061886396, 12:14:59.301
67398.132813, 69117.046875, 187500.015625, 128046.367188, 141761.265625, 80408.187500, 103472.476563, 126570.171875, 1, 256, 1,0.15740854,0.3093831,0.09434495,0.1127161,0.061886396, 12:14:59.301
67341.039063, 69055.625000, 187500.015625, 128272.453125, 141698.718750, 80663.773438, 103606.343750, 126701.125000, 1, 256, 1,0.15740854,0.3093831,0.09434495,0.1127161,0.061886396, 12:14:59.301
67300.765625, 69012.710938, 187500.015625, 128560.750000, 141649.265625, 80859.960938, 103651.851563, 126699.320313, 1, 256, 1,0.15740854,0.3093831,0.09434495,0.1127161,0.061886396, 12:14:59.301
67350.046875, 69064.539063, 187500.015625, 128385.890625, 141700.640625, 80641.179688, 103525.343750, 126567.773438, 1, 256, 1,0.15740854,0.3093831,0.09434495,0.1127161,0.061886396, 12:14:59.301
67404.343750, 69120.578125, 187500.015625, 128067.375000, 141760.031250, 80399.851563, 103459.468750, 126537.265625, 1, 256, 1,0.15740854,0.3093831,0.09434495,0.1127161,0.061886396, 12:14:59.302
67359.750000, 69073.796875, 187500.015625, 128205.000000, 141716.937500, 80588.609375, 103581.312500, 126667.601563, 1, 256, 1,0.15740854,0.3093831,0.09434495,0.1127161,0.061886396, 12:14:59.302
67311.851563, 69022.273438, 187500.015625, 128540.921875, 141652.250000, 80844.398438, 103661.328125, 126709.148438, 1, 256, 1,0.15740854,0.3093831,0.09434495,0.1127161,0.061886396, 12:14:59.302
67339.906250, 69055.351563, 187500.015625, 128459.468750, 141680.343750, 80691.203125, 103552.093750, 126588.273438, 1, 256, 1,0.15740854,0.3093831,0.09434495,0.1127161,0.061886396, 12:14:59.302
67391.937500, 69114.695313, 187500.015625, 128108.437500, 141748.515625, 80402.148438, 103455.562500, 126529.039063, 1, 256, 1,0.15740854,0.3093831,0.09434495,0.1127161,0.061886396, 12:14:59.302
67369.250000, 69088.054688, 187500.015625, 128162.796875, 141721.953125, 80523.992188, 103555.875000, 126647.703125, 1, 256, 1,0.15740854,0.3093831,0.09434495,0.1127161,0.061886396, 12:14:59.302
67314.531250, 69029.179688, 187500.015625, 128509.359375, 141659.515625, 80817.218750, 103665.867188, 126721.828125, 1, 256, 1,0.15740854,0.3093831,0.09434495,0.1127161,0.061886396, 12:14:59.302
67322.828125, 69045.523438, 187500.015625, 128506.476563, 141676.453125, 80743.015625, 103588.507813, 126619.742188, 1, 256, 1,0.15740854,0.3093831,0.09434495,0.1127161,0.061886396, 12:14:59.302
67386.664063, 69109.000000, 187500.015625, 128152.625000, 141754.828125, 80439.164063, 103467.023438, 126532.257813, 1, 256, 1,0.15740854,0.3093831,0.09434495,0.1127161,0.061886396, 12:14:59.303
67373.500000, 69096.906250, 187500.015625, 128110.046875, 141735.203125, 80477.031250, 103534.843750, 126623.453125, 1, 256, 1,0.15740854,0.3093831,0.09434495,0.1127161,0.061886396, 12:14:59.303
67297.210938, 69023.054688, 187500.015625, 128468.929688, 141650.625000, 80788.054688, 103660.726563, 126716.750000, 1, 256, 1,0.15740854,0.3093831,0.09434495,0.1127161,0.061886396, 12:14:59.303
67287.218750, 69016.281250, 187500.015625, 128560.007813, 141644.390625, 80779.734375, 103602.210938, 126629.156250, 1, 256, 1,0.15740854,0.3093831,0.09434495,0.1127161,0.061886396, 12:14:59.303
67358.992188, 69094.156250, 187500.015625, 128231.484375, 141729.187500, 80470.390625, 103468.929688, 126524.593750, 1, 256, 1,0.15740854,0.3093831,0.09434495,0.1127161,0.061886396, 12:14:59.303
67389.859375, 69109.695313, 187500.015625, 128079.695313, 141759.718750, 80422.554688, 103507.367188, 126598.351563, 1, 256, 1,0.15740854,0.3093831,0.09434495,0.1127161,0.061886396, 12:14:59.303
67320.476563, 69028.531250, 187500.015625, 128400.750000, 141684.781250, 80734.679688, 103644.656250, 126728.375000, 1, 256, 1,0.15740854,0.3093831,0.09434495,0.1127161,0.061886396, 12:14:59.303
67281.656250, 69011.273438, 187500.015625, 128578.648438, 141636.546875, 80805.953125, 103616.179688, 126666.187500, 1, 256, 1,0.15740854,0.3093831,0.09434495,0.1127161,0.061886396, 12:14:59.303
67358.078125, 69091.851563, 187500.015625, 128280.500000, 141709.500000, 80508.078125, 103469.734375, 126537.375000, 1, 256, 1,0.15740854,0.3093831,0.09434495,0.1127161,0.061886396, 12:14:59.303
67403.828125, 69135.437500, 187500.015625, 128063.625000, 141773.109375, 80397.812500, 103483.679688, 126592.296875, 1, 256, 1,0.15740854,0.3093831,0.09434495,0.1127161,0.061886396, 12:14:59.304
67330.250000, 69059.867188, 187500.015625, 128310.203125, 141692.312500, 80671.890625, 103615.085938, 126716.304688, 1, 256, 1,0.15740854,0.3093831,0.09434495,0.1127161,0.061886396, 12:14:59.304
67284.265625, 69012.726563, 187500.015625, 128552.656250, 141652.515625, 80825.671875, 103640.632813, 126690.710938, 1, 256, 1,0.15740854,0.3093831,0.09434495,0.1127161,0.061886396, 12:14:59.304
67345.218750, 69078.468750, 187500.015625, 128341.273438, 141726.171875, 80582.882813, 103525.609375, 126574.593750, 1, 256, 1,0.15740854,0.3093831,0.09434495,0.1127161,0.061886396, 12:14:59.304
67386.281250, 69128.062500, 187500.015625, 128047.867188, 141764.703125, 80381.320313, 103470.312500, 126576.250000, 1, 256, 1,0.15740854,0.3093831,0.09434495,0.1127161,0.061886396, 12:14:59.304
67313.257813, 69058.390625, 187500.015625, 128231.750000, 141692.531250, 80602.218750, 103587.390625, 126697.195313, 1, 256, 1,0.15740854,0.3093831,0.09434495,0.1127161,0.061886396, 12:14:59.304
67279.171875, 69008.484375, 187500.015625, 128552.945313, 141637.453125, 80831.101563, 103653.554688, 126717.218750, 1, 256, 1,0.15740854,0.3093831,0.09434495,0.1127161,0.061886396, 12:14:59.304
67325.554688, 69057.273438, 187500.015625, 128425.046875, 141689.312500, 80640.554688, 103538.906250, 126588.812500, 1, 256, 1,0.15740854,0.3093831,0.09434495,0.1127161,0.061886396, 12:14:59.304
67391.890625, 69133.070313, 187500.015625, 128093.242188, 141766.812500, 80382.101563, 103469.218750, 126559.554688, 1, 256, 1,0.15740854,0.3093831,0.09434495,0.1127161,0.061886396, 12:14:59.305
67352.757813, 69090.289063, 187500.015625, 128193.281250, 141726.484375, 80549.250000, 103583.140625, 126688.523438, 1, 256, 1,0.15740854,0.3093831,0.09434495,0.1127161,0.061886396, 12:14:59.305
67291.804688, 69025.515625, 187500.015625, 128533.812500, 141650.015625, 80822.320313, 103670.585938, 126735.328125, 1, 256, 1,0.15740854,0.3093831,0.09434495,0.1127161,0.061886396, 12:14:59.305
67312.523438, 69055.015625, 187500.015625, 128467.007813, 141681.515625, 80686.148438, 103569.304688, 126615.296875, 1, 256, 1,0.15740854,0.3093831,0.09434495,0.1127161,0.061886396, 12:14:59.305
67384.203125, 69135.890625, 187500.015625, 128126.046875, 141765.171875, 80405.164063, 103480.281250, 126560.359375, 1, 256, 1,0.15740854,0.3093831,0.09434495,0.1127161,0.061886396, 12:14:59.305
67380.273438, 69124.039063, 187500.015625, 128148.312500, 141751.578125, 80505.750000, 103574.273438, 126679.203125, 1, 256, 1,0.15740854,0.3093831,0.09434495,0.1127161,0.061886396, 12:14:59.305
67314.468750, 69053.273438, 187500.015625, 128508.289063, 141675.281250, 80806.898438, 103690.390625, 126757.609375, 1, 256, 1,0.15740854,0.3093831,0.09434495,0.1127161,0.061886396, 12:14:59.305
67311.023438, 69059.335938, 187500.015625, 128542.460938, 141660.750000, 80751.484375, 103608.984375, 126643.078125, 1, 256, 1,0.15740854,0.3093831,0.09434495,0.1127161,0.061886396, 12:14:59.305
67381.992188, 69134.367188, 187500.015625, 128191.828125, 141745.906250, 80438.046875, 103477.218750, 126545.109375, 1, 256, 1,0.15740854,0.3093831,0.09434495,0.1127161,0.061886396, 12:14:59.306
67402.820313, 69153.390625, 187500.015625, 128110.023438, 141770.828125, 80450.656250, 103547.359375, 126643.437500, 1, 256, 1,0.15740854,0.3093831,0.09434495,0.1127161,0.061886396, 12:14:59.306
67337.804688, 69081.234375, 187500.015625, 128447.085938, 141693.843750, 80762.304688, 103678.695313, 126753.921875, 1, 256, 1,0.15740854,0.3093831,0.09434495,0.1127161,0.061886396, 12:14:59.306
67325.734375, 69069.125000, 187500.015625, 128563.656250, 141683.718750, 80788.609375, 103645.171875, 126681.546875, 1, 256, 1,0.15740854,0.3093831,0.09434495,0.1127161,0.061886396, 12:14:59.306
67382.437500, 69137.992188, 187500.015625, 128238.234375, 141751.421875, 80477.539063, 103499.007813, 126555.843750, 1, 256, 1,0.15740854,0.3093831,0.09434495,0.1127161,0.061886396, 12:14:59.306
67405.437500, 69167.093750, 187500.015625, 128063.242188, 141781.609375, 80404.992188, 103529.320313, 126620.546875, 1, 256, 1,0.15740854,0.3093831,0.09434495,0.1127161,0.061886396, 12:14:59.306
67333.601563, 69093.617188, 187500.015625, 128376.632813, 141709.828125, 80709.265625, 103675.789063, 126748.734375, 1, 256, 1,0.15740854,0.3093831,0.09434495,0.1127161,0.061886396, 12:14:59.306
67299.109375, 69060.429688, 187500.015625, 128600.109375, 141666.609375, 80823.367188, 103676.195313, 126702.132813, 1, 256, 1,0.15740854,0.3093831,0.09434495,0.1127161,0.061886396, 12:14:59.306
67350.632813, 69114.226563, 187500.015625, 128333.226563, 141721.515625, 80538.320313, 103525.367188, 126566.187500, 1, 256, 1,0.15740854,0.3093831,0.09434495,0.1127161,0.061886396, 12:14:59.306
67398.015625, 69159.960938, 187500.015625, 128088.835938, 141778.265625, 80386.992188, 103517.335938, 126597.726563, 1, 256, 1,0.15740854,0.3093831,0.09434495,0.1127161,0.061886396, 12:14:59.306
67345.601563, 69102.781250, 187500.015625, 128323.710938, 141716.734375, 80652.937500, 103655.562500, 126734.429688, 1, 256, 1,0.15740854,0.3093831,0.09434495,0.1127161,0.061886396, 12:14:59.307
67281.968750, 69037.718750, 187500.015625, 128588.265625, 141652.859375, 80825.515625, 103675.453125, 126712.546875, 1, 256, 1,0.15740854,0.3093831,0.09434495,0.1127161,0.061886396, 12:14:59.307
67337.242188, 69097.421875, 187500.015625, 128374.578125, 141715.703125, 80578.414063, 103545.031250, 126585.320313, 1, 256, 1,0.15740854,0.3093831,0.09434495,0.1127161,0.061886396, 12:14:59.307
67399.382813, 69163.937500, 187500.015625, 128074.195313, 141784.515625, 80369.406250, 103508.492188, 126587.179688, 1, 256, 1,0.15740854,0.3093831,0.09434495,0.1127161,0.061886396, 12:14:59.307
67339.367188, 69107.812500, 187500.015625, 128246.125000, 141718.140625, 80585.414063, 103622.773438, 126710.335938, 1, 256, 1,0.15740854,0.3093831,0.09434495,0.1127161,0.061886396, 12:14:59.307
67290.640625, 69061.929688, 187500.015625, 128569.015625, 141658.687500, 80823.148438, 103681.757813, 126730.765625, 1, 256, 1,0.15740854,0.3093831,0.09434495,0.1127161,0.061886396, 12:14:59.307
67333.710938, 69106.742188, 187500.015625, 128432.093750, 141702.203125, 80637.226563, 103568.078125, 126604.429688, 1, 256, 1,0.15740854,0.3093831,0.09434495,0.1127161,0.061886396, 12:14:59.307
67382.953125, 69159.242188, 187500.015625, 128093.398438, 141759.093750, 80371.015625, 103482.492188, 126558.945313, 1, 256, 1,0.15740854,0.3093831,0.09434495,0.1127161,0.061886396, 12:14:59.307
67343.101563, 69120.953125, 187500.015625, 128181.507813, 141717.078125, 80522.757813, 103588.507813, 126679.960938, 1, 256, 1,0.15740854,0.3093831,0.09434495,0.1127161,0.061886396, 12:14:59.307
67271.750000, 69045.632813, 187500.015625, 128539.515625, 141634.703125, 80805.218750, 103679.437500, 126734.367188, 1, 256, 1,0.15740854,0.3093831,0.09434495,0.1127161,0.061886396, 12:14:59.308
67298.414063, 69073.015625, 187500.015625, 128503.148438, 141671.593750, 80691.937500, 103596.687500, 126626.898438, 1, 256, 1,0.15740854,0.3093831,0.09434495,0.1127161,0.061886396, 12:14:59.308
67369.023438, 69154.304688, 187500.015625, 128150.500000, 141760.703125, 80390.304688, 103491.296875, 126556.867188, 1, 256, 1,0.15740854,0.3093831,0.09434495,0.1127161,0.061886396, 12:14:59.308
67360.914063, 69144.937500, 187500.015625, 128127.484375, 141752.281250, 80456.265625, 103566.382813, 126665.562500, 1, 256, 1,0.15740854,0.3093831,0.09434495,0.1127161,0.061886396, 12:14:59.308
67273.539063, 69055.085938, 187500.015625, 128487.921875, 141648.078125, 80768.046875, 103676.750000, 126746.476563, 1, 256, 1,0.15740854,0.3093831,0.09434495,0.1127161,0.061886396, 12:14:59.308
67275.867188, 69058.546875, 187500.015625, 128551.468750, 141649.500000, 80738.835938, 103611.195313, 126651.078125, 1, 256, 1,0.15740854,0.3093831,0.09434495,0.1127161,0.061886396, 12:14:59.308
67362.703125, 69138.992188, 187500.015625, 128201.976563, 141736.109375, 80422.000000, 103483.117188, 126551.195313, 1, 256, 1,0.15740854,0.3093831,0.09434495,0.1127161,0.061886396, 12:14:59.308
67374.171875, 69153.593750, 187500.015625, 128093.867188, 141754.125000, 80407.226563, 103533.835938, 126635.617188, 1, 256, 1,0.15740854,0.3093831,0.09434495,0.1127161,0.061886396, 12:14:59.309
67299.539063, 69080.632813, 187500.015625, 128432.828125, 141666.890625, 80721.601563, 103661.953125, 126744.062500, 1, 256, 1,0.15740854,0.3093831,0.09434495,0.1127161,0.061886396, 12:14:59.309
67290.039063, 69072.070313, 187500.015625, 128570.601563, 141654.000000, 80766.078125, 103630.750000, 126677.101563, 1, 256, 1,0.15740854,0.3093831,0.09434495,0.1127161,0.061886396, 12:14:59.309
67343.500000, 69129.804688, 187500.015625, 128261.007813, 141720.109375, 80457.671875, 103487.031250, 126550.140625, 1, 256, 1,0.15740854,0.3093831,0.09434495,0.1127161,0.061886396, 12:14:59.309
67374.906250, 69157.390625, 187500.015625, 128071.554688, 141754.625000, 80365.156250, 103500.289063, 126599.359375, 1, 256, 1,0.15740854,0.3093831,0.09434495,0.1127161,0.061886396, 12:14:59.309
67319.359375, 69094.070313, 187500.015625, 128361.679688, 141691.968750, 80662.031250, 103645.726563, 126734.296875, 1, 256, 1,0.15740854,0.3093831,0.09434495,0.1127161,0.061886396, 12:14:59.309
67275.867188, 69054.617188, 187500.015625, 128586.828125, 141643.734375, 80788.296875, 103648.523438, 126696.257813, 1, 256, 1,0.15740854,0.3093831,0.09434495,0.1127161,0.061886396, 12:14:59.309
67325.820313, 69115.101563, 187500.015625, 128337.406250, 141700.484375, 80520.968750, 103509.585938, 126563.554688, 1, 256, 1,0.15740854,0.3093831,0.09434495,0.1127161,0.061886396, 12:14:59.309
67364.242188, 69158.554688, 187500.015625, 128080.406250, 141754.578125, 80357.781250, 103488.414063, 126583.781250, 1, 256, 1,0.15740854,0.3093831,0.09434495,0.1127161,0.061886396, 12:14:59.309
67313.664063, 69103.414063, 187500.015625, 128308.867188, 141692.687500, 80617.757813, 103623.890625, 126716.617188, 1, 256, 1,0.15740854,0.3093831,0.09434495,0.1127161,0.061886396, 12:14:59.310
67278.632813, 69062.710938, 187500.015625, 128587.031250, 141646.062500, 80809.867188, 103662.625000, 126713.289063, 1, 256, 1,0.15740854,0.3093831,0.09434495,0.1127161,0.061886396, 12:14:59.310
67320.078125, 69111.140625, 187500.015625, 128410.968750, 141689.312500, 80582.125000, 103528.875000, 126578.687500, 1, 256, 1,0.15740854,0.3093831,0.09434495,0.1127161,0.061886396, 12:14:59.310
67373.679688, 69171.539063, 187500.015625, 128083.179688, 141755.421875, 80335.093750, 103464.390625, 126554.390625, 1, 256, 1,0.15740854,0.3093831,0.09434495,0.1127161,0.061886396, 12:14:59.310
67340.976563, 69131.085938, 187500.015625, 128218.187500, 141709.515625, 80528.281250, 103582.875000, 126686.687500, 1, 256, 1,0.15740854,0.3093831,0.09434495,0.1127161,0.061886396, 12:14:59.310
67286.328125, 69073.640625, 187500.015625, 128542.218750, 141644.750000, 80778.531250, 103653.867188, 126719.992188, 1, 256, 1,0.15740854,0.3093831,0.09434495,0.1127161,0.061886396, 12:14:59.310
67309.460938, 69101.710938, 187500.015625, 128465.843750, 141676.968750, 80630.093750, 103553.390625, 126601.703125, 1, 256, 1,0.15740854,0.3093831,0.09434495,0.1127161,0.061886396, 12:14:59.310
67375.328125, 69175.648438, 187500.015625, 128120.195313, 141759.937500, 80347.609375, 103464.257813, 126541.023438, 1, 256, 1,0.15740854,0.3093831,0.09434495,0.1127161,0.061886396, 12:14:59.310
67360.976563, 69162.218750, 187500.015625, 128164.250000, 141756.015625, 80467.437500, 103561.195313, 126659.820313, 1, 256, 1,0.15740854,0.3093831,0.09434495,0.1127161,0.061886396, 12:14:59.310
67293.140625, 69087.140625, 187500.015625, 128532.898438, 141688.781250, 80776.273438, 103668.750000, 126734.187500, 1, 256, 1,0.15740854,0.3093831,0.09434495,0.1127161,0.061886396, 12:14:59.311
67306.617188, 69105.351563, 187500.015625, 128532.945313, 141652.953125, 80692.585938, 103588.687500, 126628.078125, 1, 256, 1,0.15740854,0.3093831,0.09434495,0.1127161,0.061886396, 12:14:59.311
67369.359375, 69177.015625, 187500.015625, 128164.671875, 141728.765625, 80369.984375, 103467.828125, 126535.945313, 1, 256, 1,0.15740854,0.3093831,0.09434495,0.1127161,0.061886396, 12:14:59.311
67358.570313, 69166.734375, 187500.015625, 128129.406250, 141731.937500, 80421.750000, 103542.328125, 126641.265625, 1, 256, 1,0.15740854,0.3093831,0.09434495,0.1127161,0.061886396, 12:14:59.311
67298.507813, 69097.015625, 187500.015625, 128475.945313, 141660.953125, 80734.367188, 103665.867188, 126736.554688, 1, 256, 1,0.15740854,0.3093831,0.09434495,0.1127161,0.061886396, 12:14:59.311
67284.203125, 69083.000000, 187500.015625, 128574.093750, 141644.046875, 80736.890625, 103611.664063, 126655.734375, 1, 256, 1,0.15740854,0.3093831,0.09434495,0.1127161,0.061886396, 12:14:59.311
67357.335938, 69163.132813, 187500.015625, 128225.718750, 141738.859375, 80411.562500, 103475.539063, 126542.992188, 1, 256, 1,0.15740854,0.3093831,0.09434495,0.1127161,0.061886396, 12:14:59.311
67371.664063, 69178.109375, 187500.015625, 128093.078125, 141752.968750, 80379.062500, 103520.312500, 126618.695313, 1, 256, 1,0.15740854,0.3093831,0.09434495,0.1127161,0.061886396, 12:14:59.311
67308.343750, 69110.515625, 187500.015625, 128417.453125, 141683.203125, 80696.117188, 103659.500000, 126736.351563, 1, 256, 1,0.15740854,0.3093831,0.09434495,0.1127161,0.061886396, 12:14:59.311
67295.218750, 69099.429688, 187500.015625, 128578.023438, 141652.390625, 80766.414063, 103630.593750, 126680.359375, 1, 256, 1,0.15740854,0.3093831,0.09434495,0.1127161,0.061886396, 12:14:59.312
67354.054688, 69160.875000, 187500.015625, 128290.828125, 141715.515625, 80471.554688, 103487.054688, 126553.898438, 1, 256, 1,0.15740854,0.3093831,0.09434495,0.1127161,0.061886396, 12:14:59.312
67384.156250, 69196.460938, 187500.015625, 128072.250000, 141763.187500, 80347.523438, 103494.476563, 126587.578125, 1, 256, 1,0.15740854,0.3093831,0.09434495,0.1127161,0.061886396, 12:14:59.312
67315.203125, 69130.164063, 187500.015625, 128343.000000, 141694.718750, 80633.468750, 103636.898438, 126720.687500, 1, 256, 1,0.15740854,0.3093831,0.09434495,0.1127161,0.061886396, 12:14:59.312
67282.484375, 69093.125000, 187500.015625, 128603.281250, 141656.234375, 80794.781250, 103660.320313, 126696.500000, 1, 256, 1,0.15740854,0.3093831,0.09434495,0.1127161,0.061886396, 12:14:59.312
67343.164063, 69158.085938, 187500.015625, 128379.382813, 141714.875000, 80540.906250, 103524.671875, 126566.812500, 1, 256, 1,0.15740854,0.3093831,0.09434495,0.1127161,0.061886396, 12:14:59.312
67385.414063, 69203.835938, 187500.015625, 128082.531250, 141772.421875, 80336.726563, 103483.429688, 126569.562500, 1, 256, 1,0.15740854,0.3093831,0.09434495,0.1127161,0.061886396, 12:14:59.312
67331.187500, 69147.132813, 187500.015625, 128286.382813, 141715.359375, 80581.882813, 103620.648438, 126707.046875, 1, 256, 1,0.15740854,0.3093831,0.09434495,0.1127161,0.061886396, 12:14:59.312
67283.085938, 69092.617188, 187500.015625, 128598.500000, 141663.078125, 80801.085938, 103679.031250, 126719.117188, 1, 256, 1,0.15740854,0.3093831,0.09434495,0.1127161,0.061886396, 12:14:59.312
67330.093750, 69145.453125, 187500.015625, 128429.343750, 141728.656250, 80590.460938, 103559.828125, 126593.015625, 1, 256, 1,0.15740854,0.3093831,0.09434495,0.1127161,0.061886396, 12:14:59.312
67384.179688, 69204.304688, 187500.015625, 128098.828125, 141781.453125, 80337.757813, 103492.085938, 126564.539063, 1, 256, 1,0.15740854,0.3093831,0.09434495,0.1127161,0.061886396, 12:14:59.313
67345.445313, 69162.843750, 187500.015625, 128223.859375, 141727.640625, 80521.578125, 103600.468750, 126694.312500, 1, 256, 1,0.15740854,0.3093831,0.09434495,0.1127161,0.061886396, 12:14:59.313
67288.671875, 69098.671875, 187500.015625, 128577.648438, 141652.359375, 80794.312500, 103676.531250, 126734.054688, 1, 256, 1,0.15740854,0.3093831,0.09434495,0.1127161,0.061886396, 12:14:59.313
67313.328125, 69125.492188, 187500.015625, 128513.007813, 141688.234375, 80653.382813, 103582.203125, 126609.617188, 1, 256, 1,0.15740854,0.3093831,0.09434495,0.1127161,0.061886396, 12:14:59.313
67386.375000, 69206.992188, 187500.015625, 128151.398438, 141781.953125, 80355.101563, 103481.375000, 126548.890625, 1, 256, 1,0.15740854,0.3093831,0.09434495,0.1127161,0.061886396, 12:14:59.313
67365.945313, 69189.796875, 187500.015625, 128169.125000, 141761.203125, 80460.664063, 103583.320313, 126675.757813, 1, 256, 1,0.15740854,0.3093831,0.09434495,0.1127161,0.061886396, 12:14:59.313
67285.093750, 69107.593750, 187500.015625, 128527.601563, 141670.093750, 80768.945313, 103702.593750, 126755.890625, 1, 256, 1,0.15740854,0.3093831,0.09434495,0.1127161,0.061886396, 12:14:59.313
67283.289063, 69115.929688, 187500.015625, 128552.031250, 141672.296875, 80701.867188, 103624.671875, 126644.960938, 1, 256, 1,0.15740854,0.3093831,0.09434495,0.1127161,0.061886396, 12:14:59.313
67369.406250, 69207.164063, 187500.015625, 128186.039063, 141753.062500, 80375.125000, 103489.734375, 126544.460938, 1, 256, 1,0.15740854,0.3093831,0.09434495,0.1127161,0.061886396, 12:14:59.313
67376.406250, 69212.484375, 187500.015625, 128100.054688, 141761.156250, 80388.132813, 103549.171875, 126637.851563, 1, 256, 1,0.15740854,0.3093831,0.09434495,0.1127161,0.061886396, 12:14:59.314
67304.210938, 69137.046875, 187500.015625, 128445.617188, 141682.296875, 80708.992188, 103680.953125, 126743.570313, 1, 256, 1,0.15318355,0.3148257,0.07038591,0.036469243,0.021450205, 12:14:59.780
67284.718750, 69115.390625, 187500.015625, 128578.898438, 141655.421875, 80741.921875, 103641.148438, 126665.585938, 1, 256, 1,0.15318355,0.3148257,0.07038591,0.036469243,0.021450205, 12:14:59.781
67345.062500, 69179.023438, 187500.015625, 128256.984375, 141729.140625, 80430.937500, 103497.242188, 126546.273438, 1, 256, 1,0.15318355,0.3148257,0.07038591,0.036469243,0.021450205, 12:14:59.781
67361.406250, 69196.664063, 187500.015625, 128088.921875, 141746.484375, 80360.265625, 103514.320313, 126608.656250, 1, 256, 1,0.15318355,0.3148257,0.07038591,0.036469243,0.021450205, 12:14:59.781
67304.921875, 69140.335938, 187500.015625, 128392.750000, 141685.328125, 80665.226563, 103655.828125, 126740.398438, 1, 256, 1,0.15318355,0.3148257,0.07038591,0.036469243,0.021450205, 12:14:59.781
67277.765625, 69111.656250, 187500.015625, 128599.843750, 141653.078125, 80771.085938, 103659.250000, 126691.937500, 1, 256, 1,0.15318355,0.3148257,0.07038591,0.036469243,0.021450205, 12:14:59.781
67345.000000, 69180.859375, 187500.015625, 128322.523438, 141724.515625, 80479.132813, 103522.640625, 126562.031250, 1, 256, 1,0.15318355,0.3148257,0.07038591,0.036469243,0.021450205, 12:14:59.781
67378.750000, 69216.890625, 187500.015625, 128082.148438, 141765.125000, 80331.898438, 103508.757813, 126591.023438, 1, 256, 1,0.15318355,0.3148257,0.07038591,0.036469243,0.021450205, 12:14:59.781
67323.789063, 69160.359375, 187500.015625, 128332.109375, 141705.984375, 80606.242188, 103647.695313, 126724.375000, 1, 256, 1,0.15318355,0.3148257,0.07038591,0.036469243,0.021450205, 12:14:59.781
67282.171875, 69117.156250, 187500.015625, 128609.007813, 141648.609375, 80783.359375, 103679.632813, 126706.984375, 1, 256, 1,0.15318355,0.3148257,0.07038591,0.036469243,0.021450205, 12:14:59.781
67332.976563, 69168.187500, 187500.015625, 128394.156250, 141702.390625, 80531.273438, 103542.554688, 126572.984375, 1, 256, 1,0.15318355,0.3148257,0.07038591,0.036469243,0.021450205, 12:14:59.782
67376.335938, 69207.968750, 187500.015625, 128098.625000, 141758.109375, 80319.562500, 103493.289063, 126563.750000, 1, 256, 1,0.15318355,0.3148257,0.07038591,0.036469243,0.021450205, 12:14:59.782
67337.914063, 69169.484375, 187500.015625, 128269.437500, 141721.031250, 80544.281250, 103628.093750, 126704.234375, 1, 256, 1,0.15318355,0.3148257,0.07038591,0.036469243,0.021450205, 12:14:59.782
67287.937500, 69112.953125, 187500.015625, 128589.382813, 141662.921875, 80785.773438, 103696.937500, 126732.132813, 1, 256, 1,0.15318355,0.3148257,0.07038591,0.036469243,0.021450205, 12:14:59.782
67319.023438, 69145.765625, 187500.015625, 128468.234375, 141694.312500, 80605.906250, 103575.609375, 126600.882813, 1, 256, 1,0.15318355,0.3148257,0.07038591,0.036469243,0.021450205, 12:14:59.782
67377.140625, 69207.125000, 187500.015625, 128130.703125, 141752.562500, 80337.617188, 103486.468750, 126552.804688, 1, 256, 1,0.15318355,0.3148257,0.07038591,0.036469243,0.021450205, 12:14:59.782
67353.718750, 69181.328125, 187500.015625, 128217.203125, 141731.250000, 80497.031250, 103598.859375, 126680.812500, 1, 256, 1,0.15318355,0.3148257,0.07038591,0.036469243,0.021450205, 12:14:59.782
67290.304688, 69111.007813, 187500.015625, 128553.171875, 141651.187500, 80775.179688, 103691.437500, 126734.679688, 1, 256, 1,0.15318355,0.3148257,0.07038591,0.036469243,0.021450205, 12:14:59.783
67325.039063, 69141.007813, 187500.015625, 128496.867188, 141674.453125, 80652.531250, 103598.296875, 126620.507813, 1, 256, 1,0.15318355,0.3148257,0.07038591,0.036469243,0.021450205, 12:14:59.783
67417.484375, 69228.671875, 187500.015625, 128150.171875, 141771.546875, 80366.078125, 103508.171875, 126570.125000, 1, 256, 1,0.15318355,0.3148257,0.07038591,0.036469243,0.021450205, 12:14:59.783
67393.992188, 69195.765625, 187500.015625, 128160.921875, 141749.953125, 80452.281250, 103589.804688, 126674.882813, 1, 256, 1,0.15318355,0.3148257,0.07038591,0.036469243,0.021450205, 12:14:59.783
67331.632813, 69137.359375, 187500.015625, 128521.679688, 141681.156250, 80764.093750, 103711.578125, 126756.781250, 1, 256, 1,0.15318355,0.3148257,0.07038591,0.036469243,0.021450205, 12:14:59.783
67331.429688, 69143.015625, 187500.015625, 128577.062500, 141683.843750, 80728.929688, 103650.757813, 126671.242188, 1, 256, 1,0.15318355,0.3148257,0.07038591,0.036469243,0.021450205, 12:14:59.783
67394.421875, 69202.828125, 187500.015625, 128224.109375, 141761.375000, 80403.289063, 103513.492188, 126567.710938, 1, 256, 1,0.15318355,0.3148257,0.07038591,0.036469243,0.021450205, 12:14:59.783
67397.929688, 69206.406250, 187500.015625, 128116.750000, 141772.421875, 80389.031250, 103554.039063, 126646.921875, 1, 256, 1,0.15318355,0.3148257,0.07038591,0.036469243,0.021450205, 12:14:59.783
67327.140625, 69137.539063, 187500.015625, 128461.773438, 141684.328125, 80711.210938, 103687.820313, 126759.062500, 1, 256, 1,0.15318355,0.3148257,0.07038591,0.036469243,0.021450205, 12:14:59.784
67316.906250, 69122.609375, 187500.015625, 128604.515625, 141668.890625, 80756.109375, 103653.437500, 126688.500000, 1, 256, 1,0.15318355,0.3148257,0.07038591,0.036469243,0.021450205, 12:14:59.784
67375.976563, 69192.125000, 187500.015625, 128283.226563, 141740.234375, 80443.609375, 103510.742188, 126565.945313, 1, 256, 1,0.15318355,0.3148257,0.07038591,0.036469243,0.021450205, 12:14:59.784
67412.007813, 69222.992188, 187500.015625, 128083.898438, 141769.828125, 80346.382813, 103523.757813, 126620.031250, 1, 256, 1,0.15318355,0.3148257,0.07038591,0.036469243,0.021450205, 12:14:59.784
67351.148438, 69153.101563, 187500.015625, 128382.875000, 141701.812500, 80654.929688, 103662.406250, 126747.929688, 1, 256, 1,0.15318355,0.3148257,0.07038591,0.036469243,0.021450205, 12:14:59.784
67319.851563, 69119.367188, 187500.015625, 128613.140625, 141655.968750, 80787.765625, 103675.234375, 126713.468750, 1, 256, 1,0.15318355,0.3148257,0.07038591,0.036469243,0.021450205, 12:14:59.784
67380.445313, 69184.031250, 187500.015625, 128336.648438, 141711.109375, 80495.625000, 103536.203125, 126578.484375, 1, 256, 1,0.15318355,0.3148257,0.07038591,0.036469243,0.021450205, 12:14:59.784
67424.187500, 69223.281250, 187500.015625, 128074.929688, 141766.734375, 80326.265625, 103517.273438, 126594.445313, 1, 256, 1,0.15318355,0.3148257,0.07038591,0.036469243,0.021450205, 12:14:59.784
67378.484375, 69172.390625, 187500.015625, 128315.257813, 141719.156250, 80596.789063, 103666.179688, 126735.750000, 1, 256, 1,0.15318355,0.3148257,0.07038591,0.036469243,0.021450205, 12:14:59.784
67323.203125, 69115.882813, 187500.015625, 128606.476563, 141658.062500, 80794.804688, 103710.148438, 126725.242188, 1, 256, 1,0.15318355,0.3148257,0.07038591,0.036469243,0.021450205, 12:14:59.785
67377.250000, 69174.109375, 187500.015625, 128413.921875, 141715.062500, 80561.382813, 103575.500000, 126588.515625, 1, 256, 1,0.15318355,0.3148257,0.07038591,0.036469243,0.021450205, 12:14:59.785
67433.843750, 69233.875000, 187500.015625, 128095.945313, 141780.062500, 80326.625000, 103521.812500, 126575.445313, 1, 256, 1,0.15318355,0.3148257,0.07038591,0.036469243,0.021450205, 12:14:59.785
67394.531250, 69194.921875, 187500.015625, 128243.062500, 141737.703125, 80530.492188, 103656.343750, 126717.914063, 1, 256, 1,0.15318355,0.3148257,0.07038591,0.036469243,0.021450205, 12:14:59.785
67353.382813, 69147.937500, 187500.015625, 128561.578125, 141677.718750, 80780.054688, 103738.132813, 126758.281250, 1, 256, 1,0.15318355,0.3148257,0.07038591,0.036469243,0.021450205, 12:14:59.785
67382.906250, 69172.968750, 187500.015625, 128466.687500, 141698.718750, 80619.812500, 103620.429688, 126632.101563, 1, 256, 1,0.15318355,0.3148257,0.07038591,0.036469243,0.021450205, 12:14:59.785
67438.023438, 69224.289063, 187500.015625, 128130.164063, 141761.234375, 80343.585938, 103519.664063, 126572.984375, 1, 256, 1,0.15318355,0.3148257,0.07038591,0.036469243,0.021450205, 12:14:59.785
67419.789063, 69196.882813, 187500.015625, 128185.554688, 141738.265625, 80479.625000, 103626.171875, 126692.320313, 1, 256, 1,0.15318355,0.3148257,0.07038591,0.036469243,0.021450205, 12:14:59.785
67354.656250, 69126.609375, 187500.015625, 128545.234375, 141659.234375, 80781.664063, 103734.421875, 126757.539063, 1, 256, 1,0.15318355,0.3148257,0.07038591,0.036469243,0.021450205, 12:14:59.785
67387.531250, 69154.195313, 187500.015625, 128542.578125, 141681.171875, 80691.898438, 103652.789063, 126644.554688, 1, 256, 1,0.15318355,0.3148257,0.07038591,0.036469243,0.021450205, 12:14:59.786
67465.031250, 69227.890625, 187500.015625, 128180.585938, 141768.640625, 80375.796875, 103536.539063, 126561.515625, 1, 256, 1,0.15318355,0.3148257,0.07038591,0.036469243,0.021450205, 12:14:59.786
67457.718750, 69211.187500, 187500.015625, 128139.015625, 141767.968750, 80428.750000, 103614.304688, 126663.460938, 1, 256, 1,0.15318355,0.3148257,0.07038591,0.036469243,0.021450205, 12:14:59.786
67389.078125, 69145.164063, 187500.015625, 128491.320313, 141694.906250, 80754.304688, 103743.296875, 126764.406250, 1, 256, 1,0.15318355,0.3148257,0.07038591,0.036469243,0.021450205, 12:14:59.786
67388.296875, 69140.562500, 187500.015625, 128589.601563, 141683.609375, 80756.890625, 103688.421875, 126681.234375, 1, 256, 1,0.15318355,0.3148257,0.07038591,0.036469243,0.021450205, 12:14:59.786
67457.476563, 69208.976563, 187500.015625, 128242.328125, 141755.406250, 80426.359375, 103543.937500, 126558.632813, 1, 256, 1,0.15318355,0.3148257,0.07038591,0.036469243,0.021450205, 12:14:59.786
67463.281250, 69216.015625, 187500.015625, 128100.164063, 141772.218750, 80384.132813, 103581.289063, 126627.992188, 1, 256, 1,0.15318355,0.3148257,0.07038591,0.036469243,0.021450205, 12:14:59.787
67387.289063, 69136.000000, 187500.015625, 128425.500000, 141684.062500, 80701.328125, 103719.937500, 126751.687500, 1, 256, 1,0.15318355,0.3148257,0.07038591,0.036469243,0.021450205, 12:14:59.787
67365.226563, 69113.000000, 187500.015625, 128609.164063, 141662.765625, 80785.171875, 103710.796875, 126698.984375, 1, 256, 1,0.15318355,0.3148257,0.07038591,0.036469243,0.021450205, 12:14:59.787
67450.835938, 69198.609375, 187500.015625, 128295.945313, 141754.781250, 80473.343750, 103569.445313, 126573.585938, 1, 256, 1,0.15318355,0.3148257,0.07038591,0.036469243,0.021450205, 12:14:59.787
67488.273438, 69236.109375, 187500.015625, 128068.804688, 141799.390625, 80353.312500, 103573.796875, 126622.000000, 1, 256, 1,0.15318355,0.3148257,0.07038591,0.036469243,0.021450205, 12:14:59.787
67412.546875, 69155.890625, 187500.015625, 128360.523438, 141721.031250, 80662.125000, 103722.460938, 126756.781250, 1, 256, 1,0.15318355,0.3148257,0.07038591,0.036469243,0.021450205, 12:14:59.787
67376.625000, 69117.023438, 187500.015625, 128609.609375, 141670.828125, 80812.726563, 103738.171875, 126725.203125, 1, 256, 1,0.15318355,0.3148257,0.07038591,0.036469243,0.021450205, 12:14:59.787
67421.890625, 69172.093750, 187500.015625, 128362.312500, 141729.250000, 80535.656250, 103590.140625, 126585.929688, 1, 256, 1,0.15318355,0.3148257,0.07038591,0.036469243,0.021450205, 12:14:59.788
67444.640625, 69193.554688, 187500.015625, 128079.421875, 141768.812500, 80335.789063, 103544.765625, 126585.679688, 1, 256, 1,0.15318355,0.3148257,0.07038591,0.036469243,0.021450205, 12:14:59.788
67421.617188, 69166.484375, 187500.015625, 128291.320313, 141730.750000, 80593.929688, 103701.742188, 126740.914063, 1, 256, 1,0.15318355,0.3148257,0.07038591,0.036469243,0.021450205, 12:14:59.788
67372.757813, 69112.351563, 187500.015625, 128596.218750, 141681.828125, 80817.218750, 103769.289063, 126756.757813, 1, 256, 1,0.15318355,0.3148257,0.07038591,0.036469243,0.021450205, 12:14:59.788
67408.632813, 69151.648438, 187500.015625, 128433.453125, 141727.109375, 80601.210938, 103636.789063, 126618.515625, 1, 256, 1,0.15318355,0.3148257,0.07038591,0.036469243,0.021450205, 12:14:59.788
67476.382813, 69222.945313, 187500.015625, 128095.140625, 141806.375000, 80345.109375, 103559.226563, 126588.765625, 1, 256, 1,0.15318355,0.3148257,0.07038591,0.036469243,0.021450205, 12:14:59.788
67433.023438, 69171.515625, 187500.015625, 128220.132813, 141765.593750, 80538.632813, 103682.835938, 126725.156250, 1, 256, 1,0.15318355,0.3148257,0.07038591,0.036469243,0.021450205, 12:14:59.788
67362.812500, 69098.984375, 187500.015625, 128573.960938, 141683.203125, 80819.257813, 103767.257813, 126765.210938, 1, 256, 1,0.15318355,0.3148257,0.07038591,0.036469243,0.021450205, 12:14:59.789
67390.929688, 69130.679688, 187500.015625, 128507.820313, 141708.921875, 80677.078125, 103658.203125, 126640.781250, 1, 256, 1,0.15318355,0.3148257,0.07038591,0.036469243,0.021450205, 12:14:59.789
67450.390625, 69187.945313, 187500.015625, 128147.578125, 141780.828125, 80371.328125, 103545.031250, 126567.125000, 1, 256, 1,0.15318355,0.3148257,0.07038591,0.036469243,0.021450205, 12:14:59.789
67425.218750, 69162.195313, 187500.015625, 128161.703125, 141764.968750, 80470.343750, 103640.539063, 126679.375000, 1, 256, 1,0.15318355,0.3148257,0.07038591,0.036469243,0.021450205, 12:14:59.789
67378.187500, 69111.187500, 187500.015625, 128514.101563, 141708.406250, 80782.531250, 103775.968750, 126770.281250, 1, 256, 1,0.15318355,0.3148257,0.07038591,0.036469243,0.021450205, 12:14:59.789
67376.046875, 69110.671875, 187500.015625, 128534.687500, 141709.656250, 80720.953125, 103700.242188, 126662.343750, 1, 256, 1,0.15318355,0.3148257,0.07038591,0.036469243,0.021450205, 12:14:59.789
67458.523438, 69195.921875, 187500.015625, 128182.984375, 141798.765625, 80406.015625, 103575.093750, 126567.601563, 1, 256, 1,0.15318355,0.3148257,0.07038591,0.036469243,0.021450205, 12:14:59.789
67454.007813, 69188.523438, 187500.015625, 128126.945313, 141788.953125, 80438.828125, 103641.367188, 126665.476563, 1, 256, 1,0.15318355,0.3148257,0.07038591,0.036469243,0.021450205, 12:14:59.789
67382.664063, 69113.625000, 187500.015625, 128470.539063, 141718.968750, 80757.898438, 103781.250000, 126774.507813, 1, 256, 1,0.15318355,0.3148257,0.07038591,0.036469243,0.021450205, 12:14:59.790
67381.367188, 69113.578125, 187500.015625, 128579.429688, 141725.703125, 80772.429688, 103749.796875, 126704.007813, 1, 256, 1,0.15318355,0.3148257,0.07038591,0.036469243,0.021450205, 12:14:59.790
67457.046875, 69195.210938, 187500.015625, 128245.835938, 141796.937500, 80452.914063, 103607.085938, 126587.984375, 1, 256, 1,0.15318355,0.3148257,0.07038591,0.036469243,0.021450205, 12:14:59.790
67471.640625, 69211.750000, 187500.015625, 128080.992188, 141808.937500, 80390.773438, 103621.500000, 126645.898438, 1, 256, 1,0.15318355,0.3148257,0.07038591,0.036469243,0.021450205, 12:14:59.790
67388.648438, 69120.265625, 187500.015625, 128397.531250, 141721.671875, 80708.546875, 103754.804688, 126772.632813, 1, 256, 1,0.15318355,0.3148257,0.07038591,0.036469243,0.021450205, 12:14:59.790
67356.796875, 69085.664063, 187500.015625, 128595.328125, 141687.406250, 80805.218750, 103749.664063, 126717.109375, 1, 256, 1,0.15318355,0.3148257,0.07038591,0.036469243,0.021450205, 12:14:59.790
67436.257813, 69170.398438, 187500.015625, 128322.945313, 141768.375000, 80511.625000, 103611.375000, 126588.296875, 1, 256, 1,0.15318355,0.3148257,0.07038591,0.036469243,0.021450205, 12:14:59.791
67479.492188, 69212.953125, 187500.015625, 128083.093750, 141814.218750, 80362.875000, 103602.031250, 126620.750000, 1, 256, 1,0.15318355,0.3148257,0.07038591,0.036469243,0.021450205, 12:14:59.791
67407.000000, 69133.968750, 187500.015625, 128350.242188, 141751.937500, 80655.414063, 103751.945313, 126777.343750, 1, 256, 1,0.15318355,0.3148257,0.07038591,0.036469243,0.021450205, 12:14:59.791
