%OpenBCI Raw EEG Data
%
%Sample Rate = 250.0 Hz
%First Column = SampleIndex
%Last Column = Timestamp 
%Other Columns = EEG data in microvolts followed by Accel Data (in G) interleaved with Aux Data
0, -187500.02, -187500.02, -187500.02, -187500.02, -187500.02, -187500.02, -187500.02, -187500.02, 0, 1, 1, 0, 1, 12:54:47.410
1, -187500.02, -187500.02, -187500.02, -187500.02, -187500.02, -187500.02, -187500.02, -187500.02, 0, 1, 1, 0, 1, 12:54:47.412
2, -187500.02, -187500.02, -187500.02, -187500.02, -187500.02, -187500.02, -187500.02, -187500.02, 0, 1, 1, 0, 1, 12:54:47.413
3, -187500.02, -187500.02, -187500.02, -187500.02, -187500.02, -187500.02, -187500.02, -187500.02, 0, 1, 1, 0, 1, 12:54:47.414
4, -187500.02, -187500.02, -187500.02, -187500.02, -187500.02, -187500.02, -187500.02, -187500.02, 0, 1, 1, 0, 1, 12:54:47.414
5, -187500.02, -187500.02, -187500.02, -187500.02, -187500.02, -187500.02, -187500.02, -187500.02, 0, 1, 1, 0, 1, 12:54:47.415
6, -187500.02, -187500.02, -187500.02, -187500.02, -187500.02, -187500.02, -187500.02, -187500.02, 0, 1, 1, 0, 1, 12:54:47.415
7, -187500.02, -187500.02, -187500.02, -187500.02, -187500.02, -187500.02, -187500.02, -187500.02, 0, 1, 1, 0, 1, 12:54:47.416
8, -187500.02, -187500.02, -187500.02, -187500.02, -187500.02, -187500.02, -187500.02, -187500.02, 0, 1, 1, 0, 1, 12:54:47.416
9, -187500.02, -187500.02, -187500.02, -187500.02, -187500.02, -187500.02, -187500.02, -187500.02, 0, 1, 1, 0, 1, 12:54:47.417
10, -187500.02, -187500.02, -187500.02, -187500.02, -187500.02, -187500.02, -187500.02, -187500.02, 0, 1, 1, 0, 1, 12:54:47.417
11, -187500.02, -187500.02, -187500.02, -187500.02, -187500.02, -187500.02, -187500.02, -187500.02, 0, 1, 1, 0, 1, 12:54:47.418
12, -187500.02, -187500.02, -187500.02, -187500.02, -187500.02, -187500.02, -187500.02, -187500.02, 0, 1, 1, 0, 1, 12:54:47.418
13, -187500.02, -187500.02, -187500.02, -187500.02, -187500.02, -187500.02, -187500.02, -187500.02, 0, 1, 1, 0, 1, 12:54:47.419
14, -187500.02, -187500.02, -187500.02, -187500.02, -187500.02, -187500.02, -187500.02, -187500.02, 0, 1, 1, 0, 1, 12:54:47.419
15, -187500.02, -187500.02, -187500.02, -187500.02, -187500.02, -187500.02, -187500.02, -187500.02, 0, 1, 1, 0, 1, 12:54:47.420
16, -187500.02, -187500.02, -187500.02, -187500.02, -187500.02, -187500.02, -187500.02, -187500.02, 0, 1, 1, 0, 1, 12:54:47.420
17, -187500.02, -187500.02, -187500.02, -187500.02, -187500.02, -187500.02, -187500.02, -187500.02, 0, 1, 1, 0, 1, 12:54:47.421
18, -187500.02, -187500.02, -187500.02, -187500.02, -187500.02, -187500.02, -187500.02, -187500.02, 0, 1, 1, 0, 1, 12:54:47.421
19, -187500.02, -187500.02, -187500.02, -187500.02, -187500.02, -187500.02, -187500.02, -187500.02, 0, 1, 1, 0, 1, 12:54:47.422
20, -187500.02, -187500.02, -187500.02, -187500.02, -187500.02, -187500.02, -187500.02, -187500.02, 0, 1, 1, 0, 1, 12:54:47.422
21, -187500.02, -187500.02, -187500.02, -187500.02, -187500.02, -187500.02, -187500.02, -187500.02, 0, 1, 1, 0, 1, 12:54:47.423
22, -187500.02, -187500.02, -187500.02, -187500.02, -187500.02, -187500.02, -187500.02, -187500.02, 0, 1, 1, 0, 1, 12:54:47.423
23, -187500.02, -187500.02, -187500.02, -187500.02, -187500.02, -187500.02, -187500.02, -187500.02, 0, 1, 1, 0, 1, 12:54:47.423
24, -187500.02, -187500.02, -187500.02, -187500.02, -187500.02, -187500.02, -187500.02, -187500.02, 0, 1, 1, 0, 1, 12:54:47.424
25, -187500.02, -187500.02, -187500.02, -187500.02, -187500.02, -187500.02, -187500.02, -187500.02, 0, 1, 1, 0, 1, 12:54:47.425
26, -187500.02, -187500.02, -187500.02, -187500.02, -187500.02, -187500.02, -187500.02, -187500.02, 0, 1, 1, 0, 1, 12:54:47.425
27, -187500.02, -187500.02, -187500.02, -187500.02, -187500.02, -187500.02, -187500.02, -187500.02, 0, 1, 1, 0, 1, 12:54:47.425
28, -187500.02, -187500.02, -187500.02, -187500.02, -187500.02, -187500.02, -187500.02, -187500.02, 0, 1, 1, 0, 1, 12:54:47.426
29, -187500.02, -187500.02, -187500.02, -187500.02, -187500.02, -187500.02, -187500.02, -187500.02, 0, 1, 1, 0, 1, 12:54:47.426
30, -187500.02, -187500.02, -187500.02, -187500.02, -187500.02, -187500.02, -187500.02, -187500.02, 0, 1, 1, 0, 1, 12:54:47.427
31, -187500.02, -187500.02, -187500.02, -187500.02, -187500.02, -187500.02, -187500.02, -187500.02, 0, 1, 1, 0, 1, 12:54:47.427
32, -187500.02, -187500.02, -187500.02, -187500.02, -187500.02, -187500.02, -187500.02, -187500.02, 0, 1, 1, 0, 1, 12:54:47.428
33, -187500.02, -187500.02, -187500.02, -187500.02, -187500.02, -187500.02, -187500.02, -187500.02, 0, 1, 1, 0, 1, 12:54:47.428
34, -187500.02, -187500.02, -187500.02, -187500.02, -187500.02, -187500.02, -187500.02, -187500.02, 0, 1, 1, 0, 1, 12:54:47.429
35, -187500.02, -187500.02, -187500.02, -187500.02, -187500.02, -187500.02, -187500.02, -187500.02, 0, 1, 1, 0, 1, 12:54:47.429
36, -187500.02, -187500.02, -187500.02, -187500.02, -187500.02, -187500.02, -187500.02, -187500.02, 0, 1, 1, 0, 1, 12:54:47.430
37, -187500.02, -187500.02, -187500.02, -187500.02, -187500.02, -187500.02, -187500.02, -187500.02, 0, 1, 1, 0, 1, 12:54:47.430
38, -187500.02, -187500.02, -187500.02, -187500.02, -187500.02, -187500.02, -187500.02, -187500.02, 0, 1, 1, 0, 1, 12:54:47.431
39, -187500.02, -187500.02, -187500.02, -187500.02, -187500.02, -187500.02, -187500.02, -187500.02, 0, 1, 1, 0, 1, 12:54:47.431
40, -187500.02, -187500.02, -187500.02, -187500.02, -187500.02, -187500.02, -187500.02, -187500.02, 0, 1, 1, 0, 1, 12:54:47.432
41, -187500.02, -187500.02, -187500.02, -187500.02, -187500.02, -187500.02, -187500.02, -187500.02, 0, 1, 1, 0, 1, 12:54:47.432
42, -187500.02, -187500.02, -187500.02, -187500.02, -187500.02, -187500.02, -187500.02, -187500.02, 0, 1, 1, 0, 1, 12:54:47.432
43, -187500.02, -187500.02, -187500.02, -187500.02, -187500.02, -187500.02, -187500.02, -187500.02, 0, 1, 1, 0, 1, 12:54:47.433
44, -187500.02, -187500.02, -187500.02, -187500.02, -187500.02, -187500.02, -187500.02, -187500.02, 0, 1, 1, 0, 1, 12:54:47.433
45, -187500.02, -187500.02, -187500.02, -187500.02, -187500.02, -187500.02, -187500.02, -187500.02, 0, 1, 1, 0, 1, 12:54:47.433
46, -187500.02, -187500.02, -187500.02, -187500.02, -187500.02, -187500.02, -187500.02, -187500.02, 0, 1, 1, 0, 1, 12:54:47.434
47, -187500.02, -187500.02, -187500.02, -187500.02, -187500.02, -187500.02, -187500.02, -187500.02, 0, 1, 1, 0, 1, 12:54:47.434
48, -187500.02, -187500.02, -187500.02, -187500.02, -187500.02, -187500.02, -187500.02, -187500.02, 0, 1, 1, 0, 1, 12:54:47.434
49, -187500.02, -187500.02, -187500.02, -187500.02, -187500.02, -187500.02, -187500.02, -187500.02, 0, 1, 1, 0, 1, 12:54:47.434
50, -187500.02, -187500.02, -187500.02, -187500.02, -187500.02, -187500.02, -187500.02, -187500.02, 0, 1, 1, 0, 1, 12:54:47.434
51, -187500.02, -187500.02, -187500.02, -187500.02, -187500.02, -187500.02, -187500.02, -187500.02, 0, 1, 1, 0, 1, 12:54:47.435
52, -187500.02, -187500.02, -187500.02, -187500.02, -187500.02, -187500.02, -187500.02, -187500.02, 0, 1, 1, 0, 1, 12:54:47.435
53, -187500.02, -187500.02, -187500.02, -187500.02, -187500.02, -187500.02, -187500.02, -187500.02, 0, 1, 1, 0, 1, 12:54:47.435
54, -187500.02, -187500.02, -187500.02, -187500.02, -187500.02, -187500.02, -187500.02, -187500.02, 0, 1, 1, 0, 1, 12:54:47.436
55, -187500.02, -187500.02, -187500.02, -187500.02, -187500.02, -187500.02, -187500.02, -187500.02, 0, 1, 1, 0, 1, 12:54:47.436
56, -187500.02, -187500.02, -187500.02, -187500.02, -187500.02, -187500.02, -187500.02, -187500.02, 0, 1, 1, 0, 1, 12:54:47.436
57, -187500.02, -187500.02, -187500.02, -187500.02, -187500.02, -187500.02, -187500.02, -187500.02, 0, 1, 1, 0, 1, 12:54:47.437
58, -187500.02, -187500.02, -187500.02, -187500.02, -187500.02, -187500.02, -187500.02, -187500.02, 0, 1, 1, 0, 1, 12:54:47.437
59, -187500.02, -187500.02, -187500.02, -187500.02, -187500.02, -187500.02, -187500.02, -187500.02, 0, 1, 1, 0, 1, 12:54:47.437
60, -187500.02, -187500.02, -187500.02, -187500.02, -187500.02, -187500.02, -187500.02, -187500.02, 0, 1, 1, 0, 1, 12:54:47.438
61, -187500.02, -187500.02, -187500.02, -187500.02, -187500.02, -187500.02, -187500.02, -187500.02, 0, 1, 1, 0, 1, 12:54:47.438
62, -187500.02, -187500.02, -187500.02, -187500.02, -187500.02, -187500.02, -187500.02, -187500.02, 0, 1, 1, 0, 1, 12:54:47.438
63, -187500.02, -187500.02, -187500.02, -187500.02, -187500.02, -187500.02, -187500.02, -187500.02, 0, 1, 1, 0, 1, 12:54:47.439
64, -187500.02, -187500.02, -187500.02, -187500.02, -187500.02, -187500.02, -187500.02, -187500.02, 0, 1, 1, 0, 1, 12:54:47.446
65, -187500.02, -187500.02, -187500.02, -187500.02, -187500.02, -187500.02, -187500.02, -187500.02, 0, 1, 1, 0, 1, 12:54:47.446
66, -187500.02, -187500.02, -187500.02, -187500.02, -187500.02, -187500.02, -187500.02, -187500.02, 0, 1, 1, 0, 1, 12:54:47.446
67, -187500.02, -187500.02, -187500.02, -187500.02, -187500.02, -187500.02, -187500.02, -187500.02, 0, 1, 1, 0, 1, 12:54:47.447
68, -187500.02, -187500.02, -187500.02, -187500.02, -187500.02, -187500.02, -187500.02, -187500.02, 0, 1, 1, 0, 1, 12:54:47.447
69, -187500.02, -187500.02, -187500.02, -187500.02, -187500.02, -187500.02, -187500.02, -187500.02, 0, 1, 1, 0, 1, 12:54:47.447
70, -187500.02, -187500.02, -187500.02, -187500.02, -187500.02, -187500.02, -187500.02, -187500.02, 0, 1, 1, 0, 1, 12:54:47.448
71, -187500.02, -187500.02, -187500.02, -187500.02, -187500.02, -187500.02, -187500.02, -187500.02, 0, 1, 1, 0, 1, 12:54:47.448
72, -187500.02, -187500.02, -187500.02, -187500.02, -187500.02, -187500.02, -187500.02, -187500.02, 0, 1, 1, 0, 1, 12:54:47.448
73, -187500.02, -187500.02, -187500.02, -187500.02, -187500.02, -187500.02, -187500.02, -187500.02, 0, 1, 1, 0, 1, 12:54:47.448
74, -187500.02, -187500.02, -187500.02, -187500.02, -187500.02, -187500.02, -187500.02, -187500.02, 0, 1, 1, 0, 1, 12:54:47.449
75, -187500.02, -187500.02, -187500.02, -187500.02, -187500.02, -187500.02, -187500.02, -187500.02, 0, 1, 1, 0, 1, 12:54:47.449
76, -187500.02, -187500.02, -187500.02, -187500.02, -187500.02, -187500.02, -187500.02, -187500.02, 0, 1, 1, 0, 1, 12:54:47.450
77, -187500.02, -187500.02, -187500.02, -187500.02, -187500.02, -187500.02, -187500.02, -187500.02, 0, 1, 1, 0, 1, 12:54:47.450
78, -187500.02, -187500.02, -187500.02, -187500.02, -187500.02, -187500.02, -187500.02, -187500.02, 0, 1, 1, 0, 1, 12:54:47.450
79, -187500.02, -187500.02, -187500.02, -187500.02, -187500.02, -187500.02, -187500.02, -187500.02, 0, 1, 1, 0, 1, 12:54:47.450
80, -187500.02, -187500.02, -187500.02, -187500.02, -187500.02, -187500.02, -187500.02, -187500.02, 0, 1, 1, 0, 1, 12:54:47.451
81, -187500.02, -187500.02, -187500.02, -187500.02, -187500.02, -187500.02, -187500.02, -187500.02, 0, 1, 1, 0, 1, 12:54:47.451
82, -187500.02, -187500.02, -187500.02, -187500.02, -187500.02, -187500.02, -187500.02, -187500.02, 0, 1, 1, 0, 1, 12:54:47.451
83, -187500.02, -187500.02, -187500.02, -187500.02, -187500.02, -187500.02, -187500.02, -187500.02, 0, 1, 1, 0, 1, 12:54:47.451
84, -187500.02, -187500.02, -187500.02, -187500.02, -187500.02, -187500.02, -187500.02, -187500.02, 0, 1, 1, 0, 1, 12:54:47.452
85, -187500.02, -187500.02, -187500.02, -187500.02, -187500.02, -187500.02, -187500.02, -187500.02, 0, 1, 1, 0, 1, 12:54:47.452
86, -187500.02, -187500.02, -187500.02, -187500.02, -187500.02, -187500.02, -187500.02, -187500.02, 0, 1, 1, 0, 1, 12:54:47.452
87, -187500.02, -187500.02, -187500.02, -187500.02, -187500.02, -187500.02, -187500.02, -187500.02, 0, 1, 1, 0, 1, 12:54:47.453
88, -187500.02, -187500.02, -187500.02, -187500.02, -187500.02, -187500.02, -187500.02, -187500.02, 0, 1, 1, 0, 1, 12:54:47.453
89, -187500.02, -187500.02, -187500.02, -187500.02, -187500.02, -187500.02, -187500.02, -187500.02, 0, 1, 1, 0, 1, 12:54:47.453
90, -187500.02, -187500.02, -187500.02, -187500.02, -187500.02, -187500.02, -187500.02, -187500.02, 0, 1, 1, 0, 1, 12:54:47.453
91, -187500.02, -187500.02, -187500.02, -187500.02, -187500.02, -187500.02, -187500.02, -187500.02, 0, 1, 1, 0, 1, 12:54:47.454
92, -187500.02, -187500.02, -187500.02, -187500.02, -187500.02, -187500.02, -187500.02, -187500.02, 0, 1, 1, 0, 1, 12:54:47.454
93, -187500.02, -187500.02, -187500.02, -187500.02, -187500.02, -187500.02, -187500.02, -187500.02, 0, 1, 1, 0, 1, 12:54:47.454
94, -187500.02, -187500.02, -187500.02, -187500.02, -187500.02, -187500.02, -187500.02, -187500.02, 0, 1, 1, 0, 1, 12:54:47.454
95, -187500.02, -187500.02, -187500.02, -187500.02, -187500.02, -187500.02, -187500.02, -187500.02, 0, 1, 1, 0, 1, 12:54:47.455
96, -187500.02, -187500.02, -187500.02, -187500.02, -187500.02, -187500.02, -187500.02, -187500.02, 0, 1, 1, 0, 1, 12:54:47.455
97, -187500.02, -187500.02, -187500.02, -187500.02, -187500.02, -187500.02, -187500.02, -187500.02, 0, 1, 1, 0, 1, 12:54:47.455
98, -187500.02, -187500.02, -187500.02, -187500.02, -187500.02, -187500.02, -187500.02, -187500.02, 0, 1, 1, 0, 1, 12:54:47.456
99, -187500.02, -187500.02, -187500.02, -187500.02, -187500.02, -187500.02, -187500.02, -187500.02, 0, 1, 1, 0, 1, 12:54:47.456
100, -187500.02, -187500.02, -187500.02, -187500.02, -187500.02, -187500.02, -187500.02, -187500.02, 0, 1, 1, 0, 1, 12:54:47.456
101, -187500.02, -187500.02, -187500.02, -187500.02, -187500.02, -187500.02, -187500.02, -187500.02, 0, 1, 1, 0, 1, 12:54:47.457
102, -187500.02, -187500.02, -187500.02, -187500.02, -187500.02, -187500.02, -187500.02, -187500.02, 0, 1, 1, 0, 1, 12:54:47.457
103, -187500.02, -187500.02, -187500.02, -187500.02, -187500.02, -187500.02, -187500.02, -187500.02, 0, 1, 1, 0, 1, 12:54:47.457
104, -187500.02, -187500.02, -187500.02, -187500.02, -187500.02, -187500.02, -187500.02, -187500.02, 0, 1, 1, 0, 1, 12:54:47.458
105, -187500.02, -187500.02, -187500.02, -187500.02, -187500.02, -187500.02, -187500.02, -187500.02, 0, 1, 1, 0, 1, 12:54:47.458
106, -187500.02, -187500.02, -187500.02, -187500.02, -187500.02, -187500.02, -187500.02, -187500.02, 0, 1, 1, 0, 1, 12:54:47.458
107, -187500.02, -187500.02, -187500.02, -187500.02, -187500.02, -187500.02, -187500.02, -187500.02, 0, 1, 1, 0, 1, 12:54:47.458
108, -187500.02, -187500.02, -187500.02, -187500.02, -187500.02, -187500.02, -187500.02, -187500.02, 0, 1, 1, 0, 1, 12:54:47.459
109, -187500.02, -187500.02, -187500.02, -187500.02, -187500.02, -187500.02, -187500.02, -187500.02, 0, 1, 1, 0, 1, 12:54:47.459
110, -187500.02, -187500.02, -187500.02, -187500.02, -187500.02, -187500.02, -187500.02, -187500.02, 0, 1, 1, 0, 1, 12:54:47.459
111, -187500.02, -187500.02, -187500.02, -187500.02, -187500.02, -187500.02, -187500.02, -187500.02, 0, 1, 1, 0, 1, 12:54:47.459
112, -187500.02, -187500.02, -187500.02, -187500.02, -187500.02, -187500.02, -187500.02, -187500.02, 0, 1, 1, 0, 1, 12:54:47.460
113, -187500.02, -187500.02, -187500.02, -187500.02, -187500.02, -187500.02, -187500.02, -187500.02, 0, 1, 1, 0, 1, 12:54:47.460
114, -187500.02, -187500.02, -187500.02, -187500.02, -187500.02, -187500.02, -187500.02, -187500.02, 0, 1, 1, 0, 1, 12:54:47.460
115, -187500.02, -187500.02, -187500.02, -187500.02, -187500.02, -187500.02, -187500.02, -187500.02, 0, 1, 1, 0, 1, 12:54:47.461
116, -187500.02, -187500.02, -187500.02, -187500.02, -187500.02, -187500.02, -187500.02, -187500.02, 0, 1, 1, 0, 1, 12:54:47.461
117, -187500.02, -187500.02, -187500.02, -187500.02, -187500.02, -187500.02, -187500.02, -187500.02, 0, 1, 1, 0, 1, 12:54:47.462
118, -187500.02, -187500.02, -187500.02, -187500.02, -187500.02, -187500.02, -187500.02, -187500.02, 0, 1, 1, 0, 1, 12:54:47.462
119, -187500.02, -187500.02, -187500.02, -187500.02, -187500.02, -187449.20, -187500.02, -187500.02, 0, 1, 1, 0, 1, 12:54:47.462
120, -187500.02, -187500.02, -187500.02, -187500.02, -187500.02, -187349.31, -187500.02, -187500.02, 0, 1, 1, 0, 1, 12:54:47.888
121, -187500.02, -187500.02, -187500.02, -187500.02, -187500.02, -187260.14, -187500.02, -187500.02, 0, 1, 1, 0, 1, 12:54:47.889
122, -187500.02, -187500.02, -187500.02, -187500.02, -187500.02, -187001.55, -187500.02, -187500.02, 0, 1, 1, 0, 1, 12:54:47.889
123, -187500.02, -187500.02, -187500.02, -187500.02, -187500.02, -186997.95, -187500.02, -187500.02, 0, 1, 1, 0, 1, 12:54:47.889
124, -187500.02, -187500.02, -187500.02, -187500.02, -187500.02, -187272.98, -187500.02, -187500.02, 0, 1, 1, 0, 1, 12:54:47.890
125, -187500.02, -187500.02, -187500.02, -187500.02, -187500.02, -187421.56, -187500.02, -187500.02, 0, 1, 1, 0, 1, 12:54:47.890
126, -187500.02, -187500.02, -187500.02, -187500.02, -187500.02, -187205.33, -187500.02, -187500.02, 0, 1, 1, 0, 1, 12:54:47.890
127, -187500.02, -187500.02, -187500.02, -187500.02, -187500.02, -186939.25, -187500.02, -187500.02, 0, 1, 1, 0, 1, 12:54:47.891
128, -187500.02, -187500.02, -187500.02, -187500.02, -187500.02, -186961.03, -187500.02, -187500.02, 0, 1, 1, 0, 1, 12:54:47.891
129, -187500.02, -187500.02, -187500.02, -187500.02, -187500.02, -187002.20, -187500.02, -187500.02, 0, 1, 1, 0, 1, 12:54:47.891
130, -187500.02, -187500.02, -187500.02, -187500.02, -187500.02, -186690.23, -187500.02, -187500.02, 0, 1, 1, 0, 1, 12:54:47.891
131, -187500.02, -187500.02, -187500.02, -187500.02, -187500.02, -186338.16, -187500.02, -187500.02, 0, 1, 1, 0, 1, 12:54:47.892
132, -187500.02, -187500.02, -187500.02, -187500.02, -187500.02, -186283.81, -187500.02, -187500.02, 0, 1, 1, 0, 1, 12:54:47.892
133, -187500.02, -187500.02, -187500.02, -187500.02, -187500.02, -186351.78, -187500.02, -187500.02, 0, 1, 1, 0, 1, 12:54:47.892
134, -187500.02, -187500.02, -187500.02, -187500.02, -187500.02, -186098.36, -187500.02, -187500.02, 0, 1, 1, 0, 1, 12:54:47.893
135, -187500.02, -187500.02, -187500.02, -187500.02, -187500.02, -185673.03, -187500.02, -187500.02, 0, 1, 1, 0, 1, 12:54:47.893
136, -187500.02, -187500.02, -187500.02, -187500.02, -187500.02, -185522.38, -187500.02, -187500.02, 0, 1, 1, 0, 1, 12:54:47.893
137, -187500.02, -187500.02, -187500.02, -187500.02, -187500.02, -185570.81, -187500.02, -187500.02, 0, 1, 1, 0, 1, 12:54:47.893
138, -187500.02, -187500.02, -187500.02, -187500.02, -187500.02, -185414.16, -187500.02, -187500.02, 0, 1, 1, 0, 1, 12:54:47.894
139, -187500.02, -187500.02, -187500.02, -187500.02, -187500.02, -185077.09, -187500.02, -187500.02, 0, 1, 1, 0, 1, 12:54:47.894
140, -187500.02, -187500.02, -187500.02, -187500.02, -187500.02, -185023.36, -187500.02, -187500.02, 0, 1, 1, 0, 1, 12:54:47.894
141, -187500.02, -187500.02, -187500.02, -187500.02, -187500.02, -185255.81, -187500.02, -187500.02, 0, 1, 1, 0, 1, 12:54:47.895
142, -187500.02, -187500.02, -187500.02, -187500.02, -187500.02, -185290.70, -187500.02, -187500.02, 0, 1, 1, 0, 1, 12:54:47.895
143, -187500.02, -187500.02, -187500.02, -187500.02, -187500.02, -185039.41, -187500.02, -187500.02, 0, 1, 1, 0, 1, 12:54:47.895
144, -187500.02, -187500.02, -187500.02, -187500.02, -187500.02, -185033.59, -187500.02, -187500.02, 0, 1, 1, 0, 1, 12:54:47.895
145, -187500.02, -187500.02, -187500.02, -187500.02, -187500.02, -185368.67, -187500.02, -187500.02, 0, 1, 1, 0, 1, 12:54:47.896
146, -187500.02, -187500.02, -187500.02, -187500.02, -187500.02, -185529.13, -187500.02, -187500.02, 0, 1, 1, 0, 1, 12:54:47.896
147, -187500.02, -187500.02, -187500.02, -187500.02, -187500.02, -185258.88, -187500.02, -187500.02, 0, 1, 1, 0, 1, 12:54:47.896
148, -187500.02, -187500.02, -187500.02, -187500.02, -187500.02, -185119.73, -187500.02, -187500.02, 0, 1, 1, 0, 1, 12:54:47.896
149, -187500.02, -187500.02, -187500.02, -187500.02, -187500.02, -185412.11, -187500.02, -187500.02, 0, 1, 1, 0, 1, 12:54:47.897
150, -187500.02, -187500.02, -187500.02, -187500.02, -187500.02, -185738.77, -187500.02, -187500.02, 0, 1, 1, 0, 1, 12:54:47.897
151, -187500.02, -187500.02, -187500.02, -187500.02, -187500.02, -185664.80, -187500.02, -187500.02, 0, 1, 1, 0, 1, 12:54:47.898
152, -187500.02, -187500.02, -187500.02, -187500.02, -187500.02, -185633.94, -187500.02, -187500.02, 0, 1, 1, 0, 1, 12:54:47.898
153, -187500.02, -187500.02, -187500.02, -187500.02, -187500.02, -186048.92, -187500.02, -187500.02, 0, 1, 1, 0, 1, 12:54:47.898
154, -187500.02, -187500.02, -187500.02, -187500.02, -187500.02, -186566.50, -187500.02, -187500.02, 0, 1, 1, 0, 1, 12:54:47.898
155, -187500.02, -187500.02, -187500.02, -187500.02, -187500.02, -186626.27, -187500.02, -187500.02, 0, 1, 1, 0, 1, 12:54:47.898
156, -187500.02, -187500.02, -187500.02, -187500.02, -187500.02, -186600.83, -187500.02, -187500.02, 0, 1, 1, 0, 1, 12:54:47.899
157, -187500.02, -187500.02, -187500.02, -187500.02, -187500.02, -187038.83, -187500.02, -187500.02, 0, 1, 1, 0, 1, 12:54:47.899
158, -187500.02, -187500.02, -187500.02, -187500.02, -187500.02, -187500.02, -187500.02, -187500.02, 0, 1, 1, 0, 1, 12:54:47.899
159, -187500.02, -187500.02, -187500.02, -187500.02, -187500.02, -187500.02, -187500.02, -187500.02, 0, 1, 1, 0, 1, 12:54:47.899
160, -187500.02, -187500.02, -187500.02, -187500.02, -187500.02, -187500.02, -187500.02, -187500.02, 0, 1, 1, 0, 1, 12:54:47.899
161, -187500.02, -187500.02, -187500.02, -187500.02, -187500.02, -187500.02, -187500.02, -187500.02, 0, 1, 1, 0, 1, 12:54:47.899
162, -187500.02, -187500.02, -187500.02, -187500.02, -187500.02, -187500.02, -187500.02, -187500.02, 0, 1, 1, 0, 1, 12:54:47.900
163, -187500.02, -187500.02, -187500.02, -187500.02, -187500.02, -187500.02, -187500.02, -187500.02, 0, 1, 1, 0, 1, 12:54:47.900
164, -187500.02, -187500.02, -187500.02, -187500.02, -187500.02, -187500.02, -187500.02, -187500.02, 0, 1, 1, 0, 1, 12:54:47.900
165, -187500.02, -187500.02, -187500.02, -187500.02, -187500.02, -187500.02, -187500.02, -187500.02, 0, 1, 1, 0, 1, 12:54:47.900
166, -187500.02, -187500.02, -187500.02, -187500.02, -187500.02, -187500.02, -187500.02, -187500.02, 0, 1, 1, 0, 1, 12:54:47.901
167, -187500.02, -187500.02, -187500.02, -187500.02, -187500.02, -187500.02, -187500.02, -187500.02, 0, 1, 1, 0, 1, 12:54:47.901
168, -187500.02, -187500.02, -187500.02, -187500.02, -187500.02, -187500.02, -187500.02, -187500.02, 0, 1, 1, 0, 1, 12:54:47.901
169, -187500.02, -187500.02, -187500.02, -187500.02, -187500.02, -187500.02, -187500.02, -187500.02, 0, 1, 1, 0, 1, 12:54:47.901
170, -187500.02, -187500.02, -187500.02, -187500.02, -187500.02, -187500.02, -187500.02, -187500.02, 0, 1, 1, 0, 1, 12:54:47.901
171, -187500.02, -187500.02, -187500.02, -187500.02, -187500.02, -187500.02, -187500.02, -187500.02, 0, 1, 1, 0, 1, 12:54:47.901
172, -187500.02, -187500.02, -187500.02, -187500.02, -187500.02, -187500.02, -187500.02, -187500.02, 0, 1, 1, 0, 1, 12:54:47.901
173, -187500.02, -187500.02, -187500.02, -187500.02, -187500.02, -187500.02, -187500.02, -187500.02, 0, 1, 1, 0, 1, 12:54:47.902
174, -187500.02, -187500.02, -187500.02, -187500.02, -187500.02, -187500.02, -187500.02, -187500.02, 0, 1, 1, 0, 1, 12:54:47.902
175, -187500.02, -187500.02, -187500.02, -187500.02, -187500.02, -187500.02, -187500.02, -187500.02, 0, 1, 1, 0, 1, 12:54:47.902
176, -187500.02, -187500.02, -187500.02, -187500.02, -187500.02, -187500.02, -187500.02, -187500.02, 0, 1, 1, 0, 1, 12:54:47.902
177, -187500.02, -187500.02, -187500.02, -187500.02, -187500.02, -187500.02, -187500.02, -187500.02, 0, 1, 1, 0, 1, 12:54:47.902
178, -187500.02, -187500.02, -187500.02, -187500.02, -187500.02, -187500.02, -187500.02, -187500.02, 0, 1, 1, 0, 1, 12:54:47.902
179, -187500.02, -187500.02, -187500.02, -187500.02, -187500.02, -187500.02, -187500.02, -187500.02, 0, 1, 1, 0, 1, 12:54:47.903
180, -187500.02, -187500.02, -187500.02, -187500.02, -187500.02, -187500.02, -187500.02, -187500.02, 0, 1, 1, 0, 1, 12:54:47.903
181, -187500.02, -187500.02, -187500.02, -187500.02, -187500.02, -187500.02, -187500.02, -187500.02, 0, 1, 1, 0, 1, 12:54:47.903
182, -187500.02, -187500.02, -187500.02, -187500.02, -187500.02, -187500.02, -187500.02, -187500.02, 0, 1, 1, 0, 1, 12:54:47.903
183, -187500.02, -187500.02, -187500.02, -187500.02, -187500.02, -187500.02, -187500.02, -187500.02, 0, 1, 1, 0, 1, 12:54:47.903
184, -187500.02, -187500.02, -187500.02, -187500.02, -187500.02, -187500.02, -187500.02, -187500.02, 0, 1, 1, 0, 1, 12:54:47.903
185, -187500.02, -187500.02, -187500.02, -187500.02, -187500.02, -187500.02, -187500.02, -187500.02, 0, 1, 1, 0, 1, 12:54:47.904
186, -187500.02, -187500.02, -187500.02, -187500.02, -187500.02, -187500.02, -187500.02, -187500.02, 0, 1, 1, 0, 1, 12:54:47.904
187, -187500.02, -187500.02, -187500.02, -187500.02, -187500.02, -187500.02, -187500.02, -187500.02, 0, 1, 1, 0, 1, 12:54:47.904
188, -187500.02, -187500.02, -187500.02, -187500.02, -187500.02, -187500.02, -187500.02, -187500.02, 0, 1, 1, 0, 1, 12:54:47.904
189, -187500.02, -187500.02, -187500.02, -187500.02, -187500.02, -187500.02, -187500.02, -187500.02, 0, 1, 1, 0, 1, 12:54:47.904
190, -187500.02, -187500.02, -187500.02, -187500.02, -187500.02, -187500.02, -187500.02, -187500.02, 0, 1, 1, 0, 1, 12:54:47.904
191, -187500.02, -187500.02, -187500.02, -187500.02, -187500.02, -187500.02, -187500.02, -187500.02, 0, 1, 1, 0, 1, 12:54:47.905
192, -187500.02, -187500.02, -187500.02, -187500.02, -187500.02, -187500.02, -187500.02, -187500.02, 0, 1, 1, 0, 1, 12:54:47.905
193, -187500.02, -187500.02, -187500.02, -187500.02, -187500.02, -187500.02, -187500.02, -187500.02, 0, 1, 1, 0, 1, 12:54:47.905
194, -187500.02, -187500.02, -187500.02, -187500.02, -187500.02, -187500.02, -187500.02, -187500.02, 0, 1, 1, 0, 1, 12:54:47.905
195, -187500.02, -187500.02, -187500.02, -187500.02, -187500.02, -187500.02, -187500.02, -187500.02, 0, 1, 1, 0, 1, 12:54:47.905
196, -187500.02, -187500.02, -187500.02, -187500.02, -187500.02, -187500.02, -187500.02, -187500.02, 0, 1, 1, 0, 1, 12:54:47.905
197, -187500.02, -187500.02, -187500.02, -187500.02, -187500.02, -187500.02, -187500.02, -187500.02, 0, 1, 1, 0, 1, 12:54:47.905
198, -187500.02, -187500.02, -187500.02, -187500.02, -187500.02, -187500.02, -187500.02, -187500.02, 0, 1, 1, 0, 1, 12:54:47.906
199, -187500.02, -187500.02, -187500.02, -187500.02, -187500.02, -187500.02, -187500.02, -187500.02, 0, 1, 1, 0, 1, 12:54:47.906
200, -187500.02, -187500.02, -187500.02, -187500.02, -187500.02, -187500.02, -187500.02, -187500.02, 0, 1, 1, 0, 1, 12:54:47.906
201, -187500.02, -187500.02, -187500.02, -187500.02, -187500.02, -187500.02, -187500.02, -187500.02, 0, 1, 1, 0, 1, 12:54:47.906
202, -187500.02, -187500.02, -187500.02, -187500.02, -187500.02, -187500.02, -187500.02, -187500.02, 0, 1, 1, 0, 1, 12:54:47.906
203, -187500.02, -187500.02, -187500.02, -187500.02, -187500.02, -187500.02, -187500.02, -187500.02, 0, 1, 1, 0, 1, 12:54:47.906
204, -187500.02, -187500.02, -187500.02, -187500.02, -187500.02, -187500.02, -187500.02, -187500.02, 0, 1, 1, 0, 1, 12:54:47.907
205, -187500.02, -187500.02, -187500.02, -187500.02, -187500.02, -187500.02, -187500.02, -187500.02, 0, 1, 1, 0, 1, 12:54:47.907
206, -187500.02, -187500.02, -187500.02, -187500.02, -187500.02, -187500.02, -187500.02, -187500.02, 0, 1, 1, 0, 1, 12:54:47.907
207, -187500.02, -187500.02, -187500.02, -187500.02, -187500.02, -187500.02, -187500.02, -187500.02, 0, 1, 1, 0, 1, 12:54:47.907
208, -187500.02, -187500.02, -187500.02, -187500.02, -187500.02, -187500.02, -187500.02, -187500.02, 0, 1, 1, 0, 1, 12:54:47.907
209, -187500.02, -187500.02, -187500.02, -187500.02, -187500.02, -187500.02, -187500.02, -187500.02, 0, 1, 1, 0, 1, 12:54:47.907
210, -187500.02, -187500.02, -187500.02, -187500.02, -187500.02, -187500.02, -187500.02, -187500.02, 0, 1, 1, 0, 1, 12:54:47.908
211, -187500.02, -187500.02, -187500.02, -187500.02, -187500.02, -187500.02, -187500.02, -187500.02, 0, 1, 1, 0, 1, 12:54:47.908
212, -187500.02, -187500.02, -187500.02, -187500.02, -187500.02, -187500.02, -187500.02, -187500.02, 0, 1, 1, 0, 1, 12:54:47.908
213, -187500.02, -187500.02, -187500.02, -187500.02, -187500.02, -187500.02, -187500.02, -187500.02, 0, 1, 1, 0, 1, 12:54:47.909
214, -187500.02, -187500.02, -187500.02, -187500.02, -187500.02, -187500.02, -187500.02, -187500.02, 0, 1, 1, 0, 1, 12:54:47.909
215, -187500.02, -187500.02, -187500.02, -187500.02, -187500.02, -187500.02, -187500.02, -187500.02, 0, 1, 1, 0, 1, 12:54:47.909
216, -187500.02, -187500.02, -187500.02, -187500.02, -187500.02, -187500.02, -187500.02, -187500.02, 0, 1, 1, 0, 1, 12:54:47.909
217, -187500.02, -187500.02, -187500.02, -187500.02, -187500.02, -187500.02, -187500.02, -187500.02, 0, 1, 1, 0, 1, 12:54:47.909
218, -187500.02, -187500.02, -187500.02, -187500.02, -187500.02, -187500.02, -187500.02, -187500.02, 0, 1, 1, 0, 1, 12:54:47.909
219, -187500.02, -187500.02, -187500.02, -187500.02, -187500.02, -187500.02, -187500.02, -187500.02, 0, 1, 1, 0, 1, 12:54:47.910
220, -187500.02, -187500.02, -187500.02, -187500.02, -187500.02, -187500.02, -187500.02, -187500.02, 0, 1, 1, 0, 1, 12:54:47.910
221, -187500.02, -187500.02, -187500.02, -187500.02, -187500.02, -187500.02, -187500.02, -187500.02, 0, 1, 1, 0, 1, 12:54:47.910
222, -187500.02, -187500.02, -187500.02, -187500.02, -187500.02, -187500.02, -187500.02, -187500.02, 0, 1, 1, 0, 1, 12:54:47.910
223, -187500.02, -187500.02, -187500.02, -187500.02, -187500.02, -187500.02, -187500.02, -187500.02, 0, 1, 1, 0, 1, 12:54:47.910
224, -187500.02, -187500.02, -187500.02, -187500.02, -187500.02, -187500.02, -187500.02, -187500.02, 0, 1, 1, 0, 1, 12:54:47.910
225, -187500.02, -187500.02, -187500.02, -187500.02, -187500.02, -187500.02, -187500.02, -187500.02, 0, 1, 1, 0, 1, 12:54:47.911
226, -187500.02, -186970.02, -187500.02, -187500.02, -187500.02, -187500.02, -187500.02, -187500.02, 0, 1, 1, 0, 1, 12:54:47.911
227, -187500.02, -185496.86, -187500.02, -187500.02, -187500.02, -187500.02, -187500.02, -187500.02, 0, 1, 1, 0, 1, 12:54:47.911
228, -187500.02, -183720.56, -187500.02, -187500.02, -187500.02, -187500.02, -187500.02, -187500.02, 0, 1, 1, 0, 1, 12:54:47.911
229, -187500.02, -181737.92, -187500.02, -187500.02, -187500.02, -187500.02, -187500.02, -187500.02, 0, 1, 1, 0, 1, 12:54:47.911
230, -187500.02, -179784.03, -187500.02, -187500.02, -187500.02, -187500.02, -187500.02, -187500.02, 0, 1, 1, 0, 1, 12:54:47.912
231, -187500.02, -178008.92, -187500.02, -187500.02, -187500.02, -187500.02, -187500.02, -187500.02, 0, 1, 1, 0, 1, 12:54:47.912
232, -187500.02, -176080.00, -187500.02, -187500.02, -187500.02, -187500.02, -187500.02, -187500.02, 0, 1, 1, 0, 1, 12:54:47.912
233, -187500.02, -174595.38, -187500.02, -187500.02, -187500.02, -187500.02, -187500.02, -187500.02, 0, 1, 1, 0, 1, 12:54:47.913
234, -187500.02, -173053.61, -187500.02, -187500.02, -187500.02, -187500.02, -187500.02, -187500.02, 0, 1, 1, 0, 1, 12:54:47.913
235, -187500.02, -170766.22, -187500.02, -187500.02, -187500.02, -187500.02, -187500.02, -187500.02, 0, 1, 1, 0, 1, 12:54:47.913
236, -187500.02, -168479.38, -187500.02, -187500.02, -187500.02, -187500.02, -187500.02, -187500.02, 0, 1, 1, 0, 1, 12:54:47.913
237, -187500.02, -165549.83, -187500.02, -187500.02, -187500.02, -187500.02, -187500.02, -187500.02, 0, 1, 1, 0, 1, 12:54:47.914
238, -187500.02, -163016.05, -187500.02, -187500.02, -187500.02, -187500.02, -187500.02, -187500.02, 0, 1, 1, 0, 1, 12:54:47.914
239, -187500.02, -161506.66, -187500.02, -187500.02, -187500.02, -187500.02, -187500.02, -187500.02, 0, 1, 1, 0, 1, 12:54:47.914
240, -187500.02, -158704.16, -187500.02, -187500.02, -187500.02, -187500.02, -187500.02, -187500.02, 0, 1, 1, 0, 1, 12:54:48.368
241, -187500.02, -155157.22, -187500.02, -187500.02, -187500.02, -187500.02, -187500.02, -187500.02, 0, 1, 1, 0, 1, 12:54:48.368
242, -187500.02, -151681.08, -187500.02, -187500.02, -187500.02, -187500.02, -187500.02, -187500.02, 0, 1, 1, 0, 1, 12:54:48.369
243, -187500.02, -148149.39, -187500.02, -187500.02, -187500.02, -187500.02, -187500.02, -187500.02, 0, 1, 1, 0, 1, 12:54:48.369
244, -187500.02, -144477.25, -187500.02, -187500.02, -187500.02, -187500.02, -187500.02, -187500.02, 0, 1, 1, 0, 1, 12:54:48.369
245, -187500.02, -140086.58, -187500.02, -187500.02, -187500.02, -187500.02, -187500.02, -187500.02, 0, 1, 1, 0, 1, 12:54:48.369
246, -187500.02, -135856.64, -187500.02, -187500.02, -187500.02, -187500.02, -187500.02, -187500.02, 0, 1, 1, 0, 1, 12:54:48.370
247, -187500.02, -133027.81, -187500.02, -187500.02, -187500.02, -187500.02, -187500.02, -187500.02, 0, 1, 1, 0, 1, 12:54:48.370
248, -187500.02, -131008.02, -187500.02, -187500.02, -187500.02, -187500.02, -187500.02, -187500.02, 0, 1, 1, 0, 1, 12:54:48.370
249, -187500.02, -128718.15, -187500.02, -187500.02, -187500.02, -187500.02, -187500.02, -187500.02, 0, 1, 1, 0, 1, 12:54:48.370
250, -187500.02, -126758.05, -187500.02, -187500.02, -187500.02, -187500.02, -187500.02, -187500.02, 0, 1, 1, 0, 1, 12:54:48.370
251, -187500.02, -125246.37, -187500.02, -187500.02, -187500.02, -187500.02, -187500.02, -187500.02, 0, 1, 1, 0, 1, 12:54:48.370
252, -187500.02, -122049.15, -187500.02, -187500.02, -187500.02, -187500.02, -187500.02, -187500.02, 0, 1, 1, 0, 1, 12:54:48.370
253, -187500.02, -116448.65, -187500.02, -187500.02, -187500.02, -187500.02, -187500.02, -187500.02, 0, 1, 1, 0, 1, 12:54:48.371
254, -187500.02, -111844.02, -187500.02, -187500.02, -187500.02, -187500.02, -187500.02, -187500.02, 0, 1, 1, 0, 1, 12:54:48.371
255, -187500.02, -107877.00, -187500.02, -187500.02, -187500.02, -187500.02, -187500.02, -187500.02, 0, 1, 1, 0, 1, 12:54:48.371
0, -187500.02, -104005.99, -187500.02, -187500.02, -187500.02, -187500.02, -187500.02, -187500.02, 0, 1, 1, 0, 1, 12:54:48.371
1, -187500.02, -100039.09, -187500.02, -187500.02, -187500.02, -187500.02, -187500.02, -187500.02, 0, 1, 1, 0, 1, 12:54:48.372
2, -187500.02, -96303.45, -187500.02, -187500.02, -187500.02, -187500.02, -187500.02, -187500.02, 0, 1, 1, 0, 1, 12:54:48.372
3, -187500.02, -93161.20, -187500.02, -187500.02, -187500.02, -187500.02, -187500.02, -187500.02, 0, 1, 1, 0, 1, 12:54:48.372
4, -187500.02, -90682.50, -187500.02, -187500.02, -187500.02, -187500.02, -187500.02, -187500.02, 0, 1, 1, 0, 1, 12:54:48.372
5, -187500.02, -89786.98, -187500.02, -187500.02, -187500.02, -187500.02, -187500.02, -187500.02, 0, 1, 1, 0, 1, 12:54:48.373
6, -187500.02, -91274.64, -187500.02, -187500.02, -187500.02, -187500.02, -187500.02, -187500.02, 0, 1, 1, 0, 1, 12:54:48.373
7, -187500.02, -91795.91, -187500.02, -187500.02, -187500.02, -187500.02, -187500.02, -187500.02, 0, 1, 1, 0, 1, 12:54:48.373
8, -187500.02, -88431.90, -187500.02, -187500.02, -187500.02, -187500.02, -187500.02, -187500.02, 0, 1, 1, 0, 1, 12:54:48.373
9, -187500.02, -83781.06, -187500.02, -187500.02, -187500.02, -187500.02, -187500.02, -187500.02, 0, 1, 1, 0, 1, 12:54:48.373
10, -187500.02, -78880.96, -187500.02, -187500.02, -187500.02, -187500.02, -187500.02, -187500.02, 0, 1, 1, 0, 1, 12:54:48.374
11, -187500.02, -74191.45, -187500.02, -187500.02, -187500.02, -187500.02, -187500.02, -187500.02, 0, 1, 1, 0, 1, 12:54:48.374
12, -187500.02, -70236.24, -187500.02, -187500.02, -187500.02, -187500.02, -187500.02, -187500.02, 0, 1, 1, 0, 1, 12:54:48.374
13, -187500.02, -67575.24, -187500.02, -187500.02, -187500.02, -187500.02, -187500.02, -187500.02, 0, 1, 1, 0, 1, 12:54:48.374
14, -187500.02, -66905.85, -187500.02, -187500.02, -187500.02, -187500.02, -187500.02, -187500.02, 0, 1, 1, 0, 1, 12:54:48.375
15, -187500.02, -62302.11, -187500.02, -187500.02, -187500.02, -187500.02, -187500.02, -187500.02, 0, 1, 1, 0, 1, 12:54:48.375
16, -187500.02, -55247.81, -187500.02, -187500.02, -187500.02, -187500.02, -187500.02, -187500.02, 0, 1, 1, 0, 1, 12:54:48.375
17, -187500.02, -50395.98, -187500.02, -187500.02, -187500.02, -187500.02, -187500.02, -187500.02, 0, 1, 1, 0, 1, 12:54:48.375
18, -187500.02, -45986.34, -187500.02, -187500.02, -187500.02, -187500.02, -187500.02, -187500.02, 0, 1, 1, 0, 1, 12:54:48.376
19, -187500.02, -41757.01, -187500.02, -187500.02, -187500.02, -187500.02, -187500.02, -187500.02, 0, 1, 1, 0, 1, 12:54:48.376
20, -187500.02, -37956.77, -187500.02, -187500.02, -187500.02, -187500.02, -187500.02, -187500.02, 0, 1, 1, 0, 1, 12:54:48.376
21, -187500.02, -34668.61, -187500.02, -187500.02, -187500.02, -187500.02, -187500.02, -187500.02, 0, 1, 1, 0, 1, 12:54:48.376
22, -187500.02, -31425.57, -187500.02, -187500.02, -187500.02, -187500.02, -187500.02, -187500.02, 0, 1, 1, 0, 1, 12:54:48.376
23, -187500.02, -28288.75, -187500.02, -187500.02, -187500.02, -187500.02, -187500.02, -187500.02, 0, 1, 1, 0, 1, 12:54:48.377
24, -187500.02, -25631.55, -187500.02, -187500.02, -187500.02, -187500.02, -187500.02, -187500.02, 0, 1, 1, 0, 1, 12:54:48.377
25, -187500.02, -23342.06, -187500.02, -187500.02, -187500.02, -187500.02, -187500.02, -187500.02, 0, 1, 1, 0, 1, 12:54:48.377
26, -187500.02, -21065.38, -187500.02, -187500.02, -187500.02, -187500.02, -187500.02, -187500.02, 0, 1, 1, 0, 1, 12:54:48.377
27, -187500.02, -18787.91, -187500.02, -187500.02, -187500.02, -187500.02, -187500.02, -187500.02, 0, 1, 1, 0, 1, 12:54:48.377
28, -187500.02, -16887.37, -187500.02, -187500.02, -187500.02, -187500.02, -187500.02, -187500.02, 0, 1, 1, 0, 1, 12:54:48.377
29, -187500.02, -15374.51, -187500.02, -187500.02, -187500.02, -187500.02, -187500.02, -187500.02, 0, 1, 1, 0, 1, 12:54:48.377
30, -187500.02, -13832.29, -187500.02, -187500.02, -187500.02, -187500.02, -187500.02, -187500.02, 0, 1, 1, 0, 1, 12:54:48.378
31, -187500.02, -12167.66, -187500.02, -187500.02, -187500.02, -187500.02, -187500.02, -187500.02, 0, 1, 1, 0, 1, 12:54:48.378
32, -187500.02, -10750.18, -187500.02, -187500.02, -187500.02, -187500.02, -187500.02, -187500.02, 0, 1, 1, 0, 1, 12:54:48.378
33, -187500.02, -9785.64, -187500.02, -187500.02, -187500.02, -187500.02, -187500.02, -187500.02, 0, 1, 1, 0, 1, 12:54:48.378
34, -187500.02, -8763.58, -187500.02, -187500.02, -187500.02, -187500.02, -187500.02, -187500.02, 0, 1, 1, 0, 1, 12:54:48.379
35, -187500.02, -7579.52, -187500.02, -187500.02, -187500.02, -187500.02, -187500.02, -187500.02, 0, 1, 1, 0, 1, 12:54:48.379
36, -187500.02, -6516.02, -187500.02, -187500.02, -187500.02, -187500.02, -187500.02, -187500.02, 0, 1, 1, 0, 1, 12:54:48.379
37, -187500.02, -5862.12, -187500.02, -187500.02, -187500.02, -187500.02, -187500.02, -187500.02, 0, 1, 1, 0, 1, 12:54:48.379
38, -187500.02, -5189.05, -187500.02, -187500.02, -187500.02, -187500.02, -187500.02, -187500.02, 0, 1, 1, 0, 1, 12:54:48.379
39, -187500.02, -4337.00, -187500.02, -187500.02, -187500.02, -187500.02, -187500.02, -187500.02, 0, 1, 1, 0, 1, 12:54:48.379
40, -187500.02, -3510.81, -187500.02, -187500.02, -187500.02, -187500.02, -187500.02, -187500.02, 0, 1, 1, 0, 1, 12:54:48.380
41, -187500.02, -3004.72, -187500.02, -187500.02, -187500.02, -187500.02, -187500.02, -187500.02, 0, 1, 1, 0, 1, 12:54:48.380
42, -187500.02, -2567.79, -187500.02, -187500.02, -187500.02, -187500.02, -187500.02, -187500.02, 0, 1, 1, 0, 1, 12:54:48.380
43, -187500.02, -1901.69, -187500.02, -187500.02, -187500.02, -187500.02, -187500.02, -187500.02, 0, 1, 1, 0, 1, 12:54:48.380
44, -187500.02, -1207.31, -187500.02, -187500.02, -187500.02, -187500.02, -187500.02, -187500.02, 0, 1, 1, 0, 1, 12:54:48.380
45, -187500.02, -832.29, -187500.02, -187500.02, -187500.02, -187500.02, -187500.02, -187500.02, 0, 1, 1, 0, 1, 12:54:48.380
46, -187500.02, -591.85, -187500.02, -187500.02, -187500.02, -187500.02, -187500.02, -187500.02, 0, 1, 1, 0, 1, 12:54:48.380
47, -187500.02, -139.65, -187500.02, -187500.02, -187500.02, -187500.02, -187500.02, -187500.02, 0, 1, 1, 0, 1, 12:54:48.381
48, -187500.02, 432.69, -187500.02, -187500.02, -187500.02, -187500.02, -187500.02, -187500.02, 0, 1, 1, 0, 1, 12:54:48.381
49, -187500.02, 743.40, -187500.02, -187500.02, -187500.02, -187500.02, -187500.02, -187500.02, 0, 1, 1, 0, 1, 12:54:48.381
50, -187500.02, 858.69, -187500.02, -187500.02, -187500.02, -187500.02, -187500.02, -187500.02, 0, 1, 1, 0, 1, 12:54:48.381
51, -187500.02, 1174.79, -187500.02, -187500.02, -187500.02, -187500.02, -187500.02, -187500.02, 0, 1, 1, 0, 1, 12:54:48.382
52, -187500.02, 1646.05, -187500.02, -187500.02, -187500.02, -187500.02, -187500.02, -187500.02, 0, 1, 1, 0, 1, 12:54:48.382
53, -187500.02, 1903.14, -187500.02, -187500.02, -187500.02, -187500.02, -187500.02, -187500.02, 0, 1, 1, 0, 1, 12:54:48.382
54, -187500.02, 1901.04, -187500.02, -187500.02, -187500.02, -187500.02, -187500.02, -187500.02, 0, 1, 1, 0, 1, 12:54:48.382
55, -187500.02, 2052.52, -187500.02, -187500.02, -187500.02, -187500.02, -187500.02, -187500.02, 0, 1, 1, 0, 1, 12:54:48.383
56, -187500.02, 2397.25, -187500.02, -187500.02, -187500.02, -187500.02, -187500.02, -187500.02, 0, 1, 1, 0, 1, 12:54:48.383
57, -187500.02, 2583.62, -187500.02, -187500.02, -187500.02, -187500.02, -187500.02, -187500.02, 0, 1, 1, 0, 1, 12:54:48.383
58, -187500.02, 2460.88, -187500.02, -187500.02, -187500.02, -187500.02, -187500.02, -187500.02, 0, 1, 1, 0, 1, 12:54:48.383
59, -187500.02, 2425.75, -187500.02, -187500.02, -187500.02, -187500.02, -187500.02, -187500.02, 0, 1, 1, 0, 1, 12:54:48.384
60, -187500.02, 2611.33, -187500.02, -187500.02, -187500.02, -187500.02, -187500.02, -187500.02, 0, 1, 1, 0, 1, 12:54:48.384
61, -187500.02, 2721.59, -187500.02, -187500.02, -187500.02, -187500.02, -187500.02, -187500.02, 0, 1, 1, 0, 1, 12:54:48.384
62, -187500.02, 2499.91, -187500.02, -187500.02, -187500.02, -187500.02, -187500.02, -187500.02, 0, 1, 1, 0, 1, 12:54:48.385
63, -187500.02, 2313.05, -187500.02, -187500.02, -187500.02, -187500.02, -187500.02, -187500.02, 0, 1, 1, 0, 1, 12:54:48.385
64, -187500.02, 2379.41, -187500.02, -187500.02, -187500.02, -187500.02, -187500.02, -187500.02, 0, 1, 1, 0, 1, 12:54:48.385
65, -187500.02, 2459.50, -187500.02, -187500.02, -187500.02, -187500.02, -187500.02, -187500.02, 0, 1, 1, 0, 1, 12:54:48.385
66, -187500.02, 2224.09, -187500.02, -187500.02, -187500.02, -187500.02, -187500.02, -187500.02, 0, 1, 1, 0, 1, 12:54:48.386
67, -187500.02, 1949.07, -187500.02, -187500.02, -187500.02, -187500.02, -187500.02, -187500.02, 0, 1, 1, 0, 1, 12:54:48.386
68, -187500.02, 1922.43, -187500.02, -187500.02, -187500.02, -187500.02, -187500.02, -187500.02, 0, 1, 1, 0, 1, 12:54:48.386
69, -187500.02, 1975.16, -187500.02, -187500.02, -187500.02, -187500.02, -187500.02, -187500.02, 0, 1, 1, 0, 1, 12:54:48.386
70, -187500.02, 1720.19, -187500.02, -187500.02, -187500.02, -187500.02, -187500.02, -187500.02, 0, 1, 1, 0, 1, 12:54:48.387
71, -187500.02, 1354.61, -187500.02, -187500.02, -187500.02, -187500.02, -187500.02, -187500.02, 0, 1, 1, 0, 1, 12:54:48.387
72, -187500.02, 1243.25, -187500.02, -187500.02, -187500.02, -187500.02, -187500.02, -187500.02, 0, 1, 1, 0, 1, 12:54:48.387
73, -187500.02, 1296.98, -187500.02, -187500.02, -187500.02, -187500.02, -187500.02, -187500.02, 0, 1, 1, 0, 1, 12:54:48.387
74, -187500.02, 1115.20, -187500.02, -187500.02, -187500.02, -187500.02, -187500.02, -187500.02, 0, 1, 1, 0, 1, 12:54:48.388
75, -187500.02, 745.81, -187500.02, -187500.02, -187500.02, -187500.02, -187500.02, -187500.02, 0, 1, 1, 0, 1, 12:54:48.388
76, -187500.02, 589.06, -187500.02, -187500.02, -187500.02, -187500.02, -187500.02, -187500.02, 0, 1, 1, 0, 1, 12:54:48.388
77, -187500.02, 639.89, -187500.02, -187500.02, -187500.02, -187500.02, -187500.02, -187500.02, 0, 1, 1, 0, 1, 12:54:48.388
78, -187500.02, 513.71, -187500.02, -187500.02, -187500.02, -187500.02, -187500.02, -187500.02, 0, 1, 1, 0, 1, 12:54:48.389
79, -187500.02, 139.54, -187500.02, -187500.02, -187500.02, -187500.02, -187500.02, -187500.02, 0, 1, 1, 0, 1, 12:54:48.389
80, -187500.02, -66.88, -187500.02, -187500.02, -187500.02, -187500.02, -187500.02, -187500.02, 0, 1, 1, 0, 1, 12:54:48.389
81, -187500.02, -21.68, -187500.02, -187500.02, -187500.02, -187500.02, -187500.02, -187500.02, 0, 1, 1, 0, 1, 12:54:48.389
82, -187500.02, -73.00, -187500.02, -187500.02, -187500.02, -187500.02, -187500.02, -187500.02, 0, 1, 1, 0, 1, 12:54:48.390
83, -187500.02, -435.05, -187500.02, -187500.02, -187500.02, -187500.02, -187500.02, -187500.02, 0, 1, 1, 0, 1, 12:54:48.390
84, -187500.02, -701.76, -187500.02, -187500.02, -187500.02, -187500.02, -187500.02, -187500.02, 0, 1, 1, 0, 1, 12:54:48.390
85, -187500.02, -713.53, -187500.02, -187500.02, -187500.02, -187500.02, -187500.02, -187500.02, 0, 1, 1, 0, 1, 12:54:48.390
86, -187500.02, -756.54, -187500.02, -187500.02, -187500.02, -187500.02, -187500.02, -187500.02, 0, 1, 1, 0, 1, 12:54:48.391
87, -187500.02, -1125.37, -187500.02, -187500.02, -187500.02, -187500.02, -187500.02, -187500.02, 0, 1, 1, 0, 1, 12:54:48.391
88, -187500.02, -1470.57, -187500.02, -187500.02, -187500.02, -187500.02, -187500.02, -187500.02, 0, 1, 1, 0, 1, 12:54:48.391
89, -187500.02, -1528.99, -187500.02, -187500.02, -187500.02, -187500.02, -187500.02, -187500.02, 0, 1, 1, 0, 1, 12:54:48.391
90, -187500.02, -1523.96, -187500.02, -187500.02, -187500.02, -187500.02, -187500.02, -187500.02, 0, 1, 1, 0, 1, 12:54:48.392
91, -187500.02, -1834.92, -187500.02, -187500.02, -187500.02, -187500.02, -187500.02, -187500.02, 0, 1, 1, 0, 1, 12:54:48.392
92, -187500.02, -2211.68, -187500.02, -187500.02, -187500.02, -187500.02, -187500.02, -187500.02, 0, 1, 1, 0, 1, 12:54:48.392
93, -187500.02, -2303.84, -187500.02, -187500.02, -187500.02, -187500.02, -187500.02, -187500.02, 0, 1, 1, 0, 1, 12:54:48.392
94, -187500.02, -2266.04, -187500.02, -187500.02, -187500.02, -187500.02, -187500.02, -187500.02, 0, 1, 1, 0, 1, 12:54:48.393
95, -187500.02, -2527.07, -187500.02, -187500.02, -187500.02, -187500.02, -187500.02, -187500.02, 0, 1, 1, 0, 1, 12:54:48.393
96, -187500.02, -2924.03, -187500.02, -187500.02, -187500.02, -187500.02, -187500.02, -187500.02, 0, 1, 1, 0, 1, 12:54:48.393
97, -187500.02, -3076.07, -187500.02, -187500.02, -187500.02, -187500.02, -187500.02, -187500.02, 0, 1, 1, 0, 1, 12:54:48.393
98, -187500.02, -3046.54, -187500.02, -187500.02, -187500.02, -187500.02, -187500.02, -187500.02, 0, 1, 1, 0, 1, 12:54:48.394
99, -187500.02, -3252.96, -187500.02, -187500.02, -187500.02, -187500.02, -187500.02, -187500.02, 0, 1, 1, 0, 1, 12:54:48.394
100, -187500.02, -3689.40, -187500.02, -187500.02, -187500.02, -187500.02, -187500.02, -187500.02, 0, 1, 1, 0, 1, 12:54:48.394
101, -187500.02, -3886.92, -187500.02, -187500.02, -187500.02, -187500.02, -187500.02, -187500.02, 0, 1, 1, 0, 1, 12:54:48.394
102, -187500.02, -3841.26, -187500.02, -187500.02, -187500.02, -187500.02, -187500.02, -187500.02, 0, 1, 1, 0, 1, 12:54:48.395
103, -187500.02, -3949.69, -187500.02, -187500.02, -187500.02, -187500.02, -187500.02, -187500.02, 0, 1, 1, 0, 1, 12:54:48.395
104, -187500.02, -4335.10, -187500.02, -187500.02, -187500.02, -187500.02, -187500.02, -187500.02, 0, 1, 1, 0, 1, 12:54:48.848
105, -187500.02, -4555.20, -187500.02, -187500.02, -187500.02, -187500.02, -187500.02, -187500.02, 0, 1, 1, 0, 1, 12:54:48.848
106, -187500.02, -4485.50, -187500.02, -187500.02, -187500.02, -187500.02, -187500.02, -187500.02, 0, 1, 1, 0, 1, 12:54:48.848
107, -187500.02, -4476.38, -187500.02, -187500.02, -187500.02, -187500.02, -187500.02, -187500.02, 0, 1, 1, 0, 1, 12:54:48.849
108, -187500.02, -4779.03, -187500.02, -187500.02, -187500.02, -187500.02, -187500.02, -187500.02, 0, 1, 1, 0, 1, 12:54:48.849
109, -187500.02, -4984.55, -187500.02, -187500.02, -187500.02, -187500.02, -187500.02, -187500.02, 0, 1, 1, 0, 1, 12:54:48.849
110, -187500.02, -4895.28, -187500.02, -187500.02, -187500.02, -187500.02, -187500.02, -187500.02, 0, 1, 1, 0, 1, 12:54:48.849
111, -187500.02, -4792.39, -187500.02, -187500.02, -187500.02, -187500.02, -187500.02, -187500.02, 0, 1, 1, 0, 1, 12:54:48.849
112, -187500.02, -5019.91, -187500.02, -187500.02, -187500.02, -187500.02, -187500.02, -187500.02, 0, 1, 1, 0, 1, 12:54:48.850
113, -187500.02, -5240.19, -187500.02, -187500.02, -187500.02, -187500.02, -187500.02, -187500.02, 0, 1, 1, 0, 1, 12:54:48.850
114, -187500.02, -5166.52, -187500.02, -187500.02, -187500.02, -187500.02, -187500.02, -187500.02, 0, 1, 1, 0, 1, 12:54:48.850
115, -187500.02, -5010.50, -187500.02, -187500.02, -187500.02, -187500.02, -187500.02, -187500.02, 0, 1, 1, 0, 1, 12:54:48.850
116, -187500.02, -5175.90, -187500.02, -187500.02, -187500.02, -187500.02, -187500.02, -187500.02, 0, 1, 1, 0, 1, 12:54:48.850
117, -187500.02, -5425.39, -187500.02, -187500.02, -187500.02, -187500.02, -187500.02, -187500.02, 0, 1, 1, 0, 1, 12:54:48.851
118, -187500.02, -5391.84, -187500.02, -187500.02, -187500.02, -187500.02, -187500.02, -187500.02, 0, 1, 1, 0, 1, 12:54:48.851
119, -187500.02, -5198.03, -187500.02, -187500.02, -187500.02, -187500.02, -187500.02, -187500.02, 0, 1, 1, 0, 1, 12:54:48.851
120, -187500.02, -5281.81, -187500.02, -187500.02, -187500.02, -187500.02, -187500.02, -187500.02, 0, 1, 1, 0, 1, 12:54:48.851
121, -187500.02, -5541.49, -187500.02, -187500.02, -187500.02, -187500.02, -187500.02, -187500.02, 0, 1, 1, 0, 1, 12:54:48.851
122, -187500.02, -5536.33, -187500.02, -187500.02, -187500.02, -187500.02, -187500.02, -187500.02, 0, 1, 1, 0, 1, 12:54:48.851
123, -187500.02, -5334.06, -187500.02, -187500.02, -187500.02, -187500.02, -187500.02, -187500.02, 0, 1, 1, 0, 1, 12:54:48.851
124, -187500.02, -5357.09, -187500.02, -187500.02, -187500.02, -187500.02, -187500.02, -187500.02, 0, 1, 1, 0, 1, 12:54:48.852
125, -187500.02, -5626.63, -187500.02, -187500.02, -187500.02, -187500.02, -187500.02, -187500.02, 0, 1, 1, 0, 1, 12:54:48.852
126, -187500.02, -5676.76, -187500.02, -187500.02, -187500.02, -187500.02, -187500.02, -187500.02, 0, 1, 1, 0, 1, 12:54:48.852
127, -187500.02, -5471.64, -187500.02, -187500.02, -187500.02, -187500.02, -187500.02, -187500.02, 0, 1, 1, 0, 1, 12:54:48.852
128, -187500.02, -5416.05, -187500.02, -187500.02, -187500.02, -187500.02, -187500.02, -187500.02, 0, 1, 1, 0, 1, 12:54:48.852
129, -187500.02, -5666.21, -187500.02, -187500.02, -187500.02, -187500.02, -187500.02, -187500.02, 0, 1, 1, 0, 1, 12:54:48.853
130, -187500.02, -5762.35, -187500.02, -187500.02, -187500.02, -187500.02, -187500.02, -187500.02, 0, 1, 1, 0, 1, 12:54:48.853
131, -187500.02, -5575.04, -187500.02, -187500.02, -187500.02, -187500.02, -187500.02, -187500.02, 0, 1, 1, 0, 1, 12:54:48.854
132, -187500.02, -5447.81, -187500.02, -187500.02, -187500.02, -187500.02, -187500.02, -187500.02, 0, 1, 1, 0, 1, 12:54:48.854
133, -187500.02, -5646.99, -187500.02, -187500.02, -187500.02, -187500.02, -187500.02, -187500.02, 0, 1, 1, 0, 1, 12:54:48.854
134, -187500.02, -5781.12, -187500.02, -187500.02, -187500.02, -187500.02, -187500.02, -187500.02, 0, 1, 1, 0, 1, 12:54:48.855
135, -187500.02, -5627.21, -187500.02, -187500.02, -187500.02, -187500.02, -187500.02, -187500.02, 0, 1, 1, 0, 1, 12:54:48.855
136, -187500.02, -5437.75, -187500.02, -187500.02, -187500.02, -187500.02, -187500.02, -187500.02, 0, 1, 1, 0, 1, 12:54:48.855
137, -187500.02, -5582.62, -187500.02, -187500.02, -187500.02, -187500.02, -187500.02, -187500.02, 0, 1, 1, 0, 1, 12:54:48.855
138, -187500.02, -5750.14, -187500.02, -187500.02, -187500.02, -187500.02, -187500.02, -187500.02, 0, 1, 1, 0, 1, 12:54:48.856
139, -187500.02, -5631.79, -187500.02, -187500.02, -187500.02, -187500.02, -187500.02, -187500.02, 0, 1, 1, 0, 1, 12:54:48.856
140, -187500.02, -5412.32, -187500.02, -187500.02, -187500.02, -187500.02, -187500.02, -187500.02, 0, 1, 1, 0, 1, 12:54:48.856
141, -187500.02, -5506.49, -187500.02, -187500.02, -187500.02, -187500.02, -187500.02, -187500.02, 0, 1, 1, 0, 1, 12:54:48.856
142, -187500.02, -5716.44, -187500.02, -187500.02, -187500.02, -187500.02, -187500.02, -187500.02, 0, 1, 1, 0, 1, 12:54:48.856
143, -187500.02, -5663.17, -187500.02, -187500.02, -187500.02, -187500.02, -187500.02, -187500.02, 0, 1, 1, 0, 1, 12:54:48.857
144, -187500.02, -5445.51, -187500.02, -187500.02, -187500.02, -187500.02, -187500.02, -187500.02, 0, 1, 1, 0, 1, 12:54:48.857
145, -187500.02, -5492.14, -187500.02, -187500.02, -187500.02, -187500.02, -187500.02, -187500.02, 0, 1, 1, 0, 1, 12:54:48.857
146, -187500.02, -5742.36, -187500.02, -187500.02, -187500.02, -187500.02, -187500.02, -187500.02, 0, 1, 1, 0, 1, 12:54:48.857
147, -187500.02, -5765.92, -187500.02, -187500.02, -187500.02, -187500.02, -187500.02, -187500.02, 0, 1, 1, 0, 1, 12:54:48.858
148, -187500.02, -5586.62, -187500.02, -187500.02, -187500.02, -187500.02, -187500.02, -187500.02, 0, 1, 1, 0, 1, 12:54:48.858
149, -187500.02, -5611.32, -187500.02, -187500.02, -187500.02, -187500.02, -187500.02, -187500.02, 0, 1, 1, 0, 1, 12:54:48.858
150, -187500.02, -5904.75, -187500.02, -187500.02, -187500.02, -187500.02, -187500.02, -187500.02, 0, 1, 1, 0, 1, 12:54:48.858
151, -187500.02, -6009.31, -187500.02, -187500.02, -187500.02, -187500.02, -187500.02, -187500.02, 0, 1, 1, 0, 1, 12:54:48.858
152, -187500.02, -5869.93, -187500.02, -187500.02, -187500.02, -187500.02, -187500.02, -187500.02, 0, 1, 1, 0, 1, 12:54:48.859
153, -187500.02, -5879.87, -187500.02, -187500.02, -187500.02, -187500.02, -187500.02, -187500.02, 0, 1, 1, 0, 1, 12:54:48.859
154, -187500.02, -6219.69, -187500.02, -187500.02, -187500.02, -187500.02, -187500.02, -187500.02, 0, 1, 1, 0, 1, 12:54:48.859
155, -187500.02, -6442.89, -187500.02, -187500.02, -187500.02, -187500.02, -187500.02, -187500.02, 0, 1, 1, 0, 1, 12:54:48.859
156, -187500.02, -6406.70, -187500.02, -187500.02, -187500.02, -187500.02, -187500.02, -187500.02, 0, 1, 1, 0, 1, 12:54:48.859
157, -187500.02, -6429.46, -187500.02, -187500.02, -187500.02, -187500.02, -187500.02, -187500.02, 0, 1, 1, 0, 1, 12:54:48.860
158, -187500.02, -6811.40, -187500.02, -187500.02, -187500.02, -187500.02, -187500.02, -187500.02, 0, 1, 1, 0, 1, 12:54:48.860
159, -187500.02, -7153.99, -187500.02, -187500.02, -187500.02, -187500.02, -187500.02, -187500.02, 0, 1, 1, 0, 1, 12:54:48.860
160, -187500.02, -7212.53, -187500.02, -187500.02, -187500.02, -187500.02, -187500.02, -187500.02, 0, 1, 1, 0, 1, 12:54:48.860
161, -187500.02, -7237.56, -187500.02, -187500.02, -187500.02, -187500.02, -187500.02, -187500.02, 0, 1, 1, 0, 1, 12:54:48.860
162, -187500.02, -7610.97, -187500.02, -187500.02, -187500.02, -187500.02, -187500.02, -187500.02, 0, 1, 1, 0, 1, 12:54:48.861
163, -187500.02, -8020.23, -187500.02, -187500.02, -187500.02, -187500.02, -187500.02, -187500.02, 0, 1, 1, 0, 1, 12:54:48.861
164, -187500.02, -8146.09, -187500.02, -187500.02, -187500.02, -187500.02, -187500.02, -187500.02, 0, 1, 1, 0, 1, 12:54:48.861
165, -187500.02, -8161.18, -187500.02, -187500.02, -187500.02, -187500.02, -187500.02, -187500.02, 0, 1, 1, 0, 1, 12:54:48.861
166, -187500.02, -8494.27, -187500.02, -187500.02, -187500.02, -187500.02, -187500.02, -187500.02, 0, 1, 1, 0, 1, 12:54:48.862
167, -187500.02, -8954.02, -187500.02, -187500.02, -187500.02, -187500.02, -187500.02, -187500.02, 0, 1, 1, 0, 1, 12:54:48.862
168, -187500.02, -9142.13, -187500.02, -187500.02, -187500.02, -187500.02, -187500.02, -187500.02, 0, 1, 1, 0, 1, 12:54:48.862
169, -187500.02, -9146.18, -187500.02, -187500.02, -187500.02, -187500.02, -187500.02, -187500.02, 0, 1, 1, 0, 1, 12:54:48.862
170, -187500.02, -9401.68, -187500.02, -187500.02, -187500.02, -187500.02, -187500.02, -187500.02, 0, 1, 1, 0, 1, 12:54:48.862
171, -187500.02, -9868.54, -187500.02, -187500.02, -187500.02, -187500.02, -187500.02, -187500.02, 0, 1, 1, 0, 1, 12:54:48.863
172, -187500.02, -10095.61, -187500.02, -187500.02, -187500.02, -187500.02, -187500.02, -187500.02, 0, 1, 1, 0, 1, 12:54:48.863
173, -187500.02, -10080.37, -187500.02, -187500.02, -187500.02, -187500.02, -187500.02, -187500.02, 0, 1, 1, 0, 1, 12:54:48.863
174, -187500.02, -10245.01, -187500.02, -187500.02, -187500.02, -187500.02, -187500.02, -187500.02, 0, 1, 1, 0, 1, 12:54:48.863
175, -187500.02, -10685.50, -187500.02, -187500.02, -187500.02, -187500.02, -187500.02, -187500.02, 0, 1, 1, 0, 1, 12:54:48.863
176, -187500.02, -10943.01, -187500.02, -187500.02, -187500.02, -187500.02, -187500.02, -187500.02, 0, 1, 1, 0, 1, 12:54:48.864
177, -187500.02, -10931.01, -187500.02, -187500.02, -187500.02, -187500.02, -187500.02, -187500.02, 0, 1, 1, 0, 1, 12:54:48.864
178, -187500.02, -11028.71, -187500.02, -187500.02, -187500.02, -187500.02, -187500.02, -187500.02, 0, 1, 1, 0, 1, 12:54:48.864
179, -187500.02, -11475.03, -187500.02, -187500.02, -187500.02, -187500.02, -187500.02, -187500.02, 0, 1, 1, 0, 1, 12:54:48.864
180, -187500.02, -11807.73, -187500.02, -187500.02, -187500.02, -187500.02, -187500.02, -187500.02, 0, 1, 1, 0, 1, 12:54:48.865
181, -187500.02, -11838.33, -187500.02, -187500.02, -187500.02, -187500.02, -187500.02, -187500.02, 0, 1, 1, 0, 1, 12:54:48.865
182, -187500.02, -11891.33, -187500.02, -187500.02, -187500.02, -187500.02, -187500.02, -187500.02, 0, 1, 1, 0, 1, 12:54:48.865
183, -187500.02, -12299.96, -187500.02, -187500.02, -187500.02, -187500.02, -187500.02, -187500.02, 0, 1, 1, 0, 1, 12:54:48.865
184, -187500.02, -12670.06, -187500.02, -187500.02, -187500.02, -187500.02, -187500.02, -187500.02, 0, 1, 1, 0, 1, 12:54:48.865
185, -187500.02, -12735.73, -187500.02, -187500.02, -187500.02, -187500.02, -187500.02, -187500.02, 0, 1, 1, 0, 1, 12:54:48.866
186, -187500.02, -12745.93, -187500.02, -187500.02, -187500.02, -187500.02, -187500.02, -187500.02, 0, 1, 1, 0, 1, 12:54:48.866
187, -187500.02, -13109.12, -187500.02, -187500.02, -187500.02, -187500.02, -187500.02, -187500.02, 0, 1, 1, 0, 1, 12:54:48.866
188, -187500.02, -13540.33, -187500.02, -187500.02, -187500.02, -187500.02, -187500.02, -187500.02, 0, 1, 1, 0, 1, 12:54:48.866
189, -187500.02, -13683.27, -187500.02, -187500.02, -187500.02, -187500.02, -187500.02, -187500.02, 0, 1, 1, 0, 1, 12:54:48.866
190, -187500.02, -13678.02, -187500.02, -187500.02, -187500.02, -187500.02, -187500.02, -187500.02, 0, 1, 1, 0, 1, 12:54:48.867
191, -187500.02, -13981.49, -187500.02, -187500.02, -187500.02, -187500.02, -187500.02, -187500.02, 0, 1, 1, 0, 1, 12:54:48.867
192, -187500.02, -14443.12, -187500.02, -187500.02, -187500.02, -187500.02, -187500.02, -187500.02, 0, 1, 1, 0, 1, 12:54:48.867
193, -187500.02, -14635.68, -187500.02, -187500.02, -187500.02, -187500.02, -187500.02, -187500.02, 0, 1, 1, 0, 1, 12:54:48.867
194, -187500.02, -14621.64, -187500.02, -187500.02, -187500.02, -187500.02, -187500.02, -187500.02, 0, 1, 1, 0, 1, 12:54:48.868
195, -187500.02, -14853.18, -187500.02, -187500.02, -187500.02, -187500.02, -187500.02, -187500.02, 0, 1, 1, 0, 1, 12:54:48.868
196, -187500.02, -15318.25, -187500.02, -187500.02, -187500.02, -187500.02, -187500.02, -187500.02, 0, 1, 1, 0, 1, 12:54:48.868
197, -187500.02, -15545.77, -187500.02, -187500.02, -187500.02, -187500.02, -187500.02, -187500.02, 0, 1, 1, 0, 1, 12:54:48.868
198, -187500.02, -15518.15, -187500.02, -187500.02, -187500.02, -187500.02, -187500.02, -187500.02, 0, 1, 1, 0, 1, 12:54:48.868
199, -187500.02, -15651.79, -187500.02, -187500.02, -187500.02, -187500.02, -187500.02, -187500.02, 0, 1, 1, 0, 1, 12:54:48.869
200, -187500.02, -16070.17, -187500.02, -187500.02, -187500.02, -187500.02, -187500.02, -187500.02, 0, 1, 1, 0, 1, 12:54:48.869
201, -187500.02, -16311.72, -187500.02, -187500.02, -187500.02, -187500.02, -187500.02, -187500.02, 0, 1, 1, 0, 1, 12:54:48.869
202, -187500.02, -16267.40, -187500.02, -187500.02, -187500.02, -187500.02, -187500.02, -187500.02, 0, 1, 1, 0, 1, 12:54:48.869
203, -187500.02, -16305.28, -187500.02, -187500.02, -187500.02, -187500.02, -187500.02, -187500.02, 0, 1, 1, 0, 1, 12:54:48.869
204, -187500.02, -16666.20, -187500.02, -187500.02, -187500.02, -187500.02, -187500.02, -187500.02, 0, 1, 1, 0, 1, 12:54:48.870
205, -187500.02, -16915.53, -187500.02, -187500.02, -187500.02, -187500.02, -187500.02, -187500.02, 0, 1, 1, 0, 1, 12:54:48.870
206, -187500.02, -16864.68, -187500.02, -187500.02, -187500.02, -187500.02, -187500.02, -187500.02, 0, 1, 1, 0, 1, 12:54:48.870
207, -187500.02, -16825.90, -187500.02, -187500.02, -187500.02, -187500.02, -187500.02, -187500.02, 0, 1, 1, 0, 1, 12:54:48.870
208, -187500.02, -17117.86, -187500.02, -187500.02, -187500.02, -187500.02, -187500.02, -187500.02, 0, 1, 1, 0, 1, 12:54:48.870
209, -187500.02, -17388.18, -187500.02, -187500.02, -187500.02, -187500.02, -187500.02, -187500.02, 0, 1, 1, 0, 1, 12:54:48.871
210, -187500.02, -17353.92, -187500.02, -187500.02, -187500.02, -187500.02, -187500.02, -187500.02, 0, 1, 1, 0, 1, 12:54:48.871
211, -187500.02, -17245.35, -187500.02, -187500.02, -187500.02, -187500.02, -187500.02, -187500.02, 0, 1, 1, 0, 1, 12:54:48.871
212, -187500.02, -17461.99, -187500.02, -187500.02, -187500.02, -187500.02, -187500.02, -187500.02, 0, 1, 1, 0, 1, 12:54:48.871
213, -187500.02, -17755.71, -187500.02, -187500.02, -187500.02, -187500.02, -187500.02, -187500.02, 0, 1, 1, 0, 1, 12:54:48.872
214, -187500.02, -17761.41, -187500.02, -187500.02, -187500.02, -187500.02, -187500.02, -187500.02, 0, 1, 1, 0, 1, 12:54:48.872
215, -187500.02, -17636.00, -187500.02, -187500.02, -187500.02, -187500.02, -187500.02, -187500.02, 0, 1, 1, 0, 1, 12:54:48.872
216, -187500.02, -17781.68, -187500.02, -187500.02, -187500.02, -187500.02, -187500.02, -187500.02, 0, 1, 1, 0, 1, 12:54:48.872
217, -187500.02, -18107.79, -187500.02, -187500.02, -187500.02, -187500.02, -187500.02, -187500.02, 0, 1, 1, 0, 1, 12:54:48.872
218, -187500.02, -18179.59, -187500.02, -187500.02, -187500.02, -187500.02, -187500.02, -187500.02, 0, 1, 1, 0, 1, 12:54:48.873
219, -187500.02, -18055.45, -187500.02, -187500.02, -187500.02, -187500.02, -187500.02, -187500.02, 0, 1, 1, 0, 1, 12:54:48.873
220, -187500.02, -18144.21, -187500.02, -187500.02, -187500.02, -187500.02, -187500.02, -187500.02, 0, 1, 1, 0, 1, 12:54:48.873
221, -187500.02, -18480.11, -187500.02, -187500.02, -187500.02, -187500.02, -187500.02, -187500.02, 0, 1, 1, 0, 1, 12:54:48.873
222, -187500.02, -18618.35, -187500.02, -187500.02, -187500.02, -187500.02, -187500.02, -187500.02, 0, 1, 1, 0, 1, 12:54:48.874
223, -187500.02, -18505.14, -187500.02, -187500.02, -187500.02, -187500.02, -187500.02, -187500.02, 0, 1, 1, 0, 1, 12:54:48.874
224, -187500.02, -18526.22, -187500.02, -187500.02, -187500.02, -187500.02, -187500.02, -187500.02, 0, 1, 1, 0, 1, 12:54:49.328
225, -187500.02, -18847.75, -187500.02, -187500.02, -187500.02, -187500.02, -187500.02, -187500.02, 0, 1, 1, 0, 1, 12:54:49.329
226, -187500.02, -19026.52, -187500.02, -187500.02, -187500.02, -187500.02, -187500.02, -187500.02, 0, 1, 1, 0, 1, 12:54:49.329
227, -187500.02, -18939.79, -187500.02, -187500.02, -187500.02, -187500.02, -187500.02, -187500.02, 0, 1, 1, 0, 1, 12:54:49.329
228, -187500.02, -18914.00, -187500.02, -187500.02, -187500.02, -187500.02, -187500.02, -187500.02, 0, 1, 1, 0, 1, 12:54:49.329
229, -187500.02, -19207.63, -187500.02, -187500.02, -187500.02, -187500.02, -187500.02, -187500.02, 0, 1, 1, 0, 1, 12:54:49.330
230, -187500.02, -19448.01, -187500.02, -187500.02, -187500.02, -187500.02, -187500.02, -187500.02, 0, 1, 1, 0, 1, 12:54:49.330
231, -187500.02, -19410.30, -187500.02, -187500.02, -187500.02, -187500.02, -187500.02, -187500.02, 0, 1, 1, 0, 1, 12:54:49.330
232, -187500.02, -19346.13, -187500.02, -187500.02, -187500.02, -187500.02, -187500.02, -187500.02, 0, 1, 1, 0, 1, 12:54:49.330
233, -187500.02, -19596.09, -187500.02, -187500.02, -187500.02, -187500.02, -187500.02, -187500.02, 0, 1, 1, 0, 1, 12:54:49.331
234, -187500.02, -19870.83, -187500.02, -187500.02, -187500.02, -187500.02, -187500.02, -187500.02, 0, 1, 1, 0, 1, 12:54:49.331
235, -187500.02, -19871.95, -187500.02, -187500.02, -187500.02, -187500.02, -187500.02, -187500.02, 0, 1, 1, 0, 1, 12:54:49.331
236, -187500.02, -19775.37, -187500.02, -187500.02, -187500.02, -187500.02, -187500.02, -187500.02, 0, 1, 1, 0, 1, 12:54:49.331
237, -187500.02, -19963.10, -187500.02, -187500.02, -187500.02, -187500.02, -187500.02, -187500.02, 0, 1, 1, 0, 1, 12:54:49.331
238, -187500.02, -20255.42, -187500.02, -187500.02, -187500.02, -187500.02, -187500.02, -187500.02, 0, 1, 1, 0, 1, 12:54:49.332
239, -187500.02, -20296.50, -187500.02, -187500.02, -187500.02, -187500.02, -187500.02, -187500.02, 0, 1, 1, 0, 1, 12:54:49.332
240, -187500.02, -20189.14, -187500.02, -187500.02, -187500.02, -187500.02, -187500.02, -187500.02, 0, 1, 1, 0, 1, 12:54:49.332
241, -187500.02, -20324.13, -187500.02, -187500.02, -187500.02, -187500.02, -187500.02, -187500.02, 0, 1, 1, 0, 1, 12:54:49.332
242, -187500.02, -20638.04, -187500.02, -187500.02, -187500.02, -187500.02, -187500.02, -187500.02, 0, 1, 1, 0, 1, 12:54:49.332
243, -187500.02, -20723.13, -187500.02, -187500.02, -187500.02, -187500.02, -187500.02, -187500.02, 0, 1, 1, 0, 1, 12:54:49.332
244, -187500.02, -20617.16, -187500.02, -187500.02, -187500.02, -187500.02, -187500.02, -187500.02, 0, 1, 1, 0, 1, 12:54:49.333
245, -187500.02, -20702.86, -187500.02, -187500.02, -187500.02, -187500.02, -187500.02, -187500.02, 0, 1, 1, 0, 1, 12:54:49.333
246, -187500.02, -21030.44, -187500.02, -187500.02, -187500.02, -187500.02, -187500.02, -187500.02, 0, 1, 1, 0, 1, 12:54:49.333
247, -187500.02, -21144.06, -187500.02, -187500.02, -187500.02, -187500.02, -187500.02, -187500.02, 0, 1, 1, 0, 1, 12:54:49.333
248, -187500.02, -20988.58, -187500.02, -187500.02, -187500.02, -187500.02, -187500.02, -187500.02, 0, 1, 1, 0, 1, 12:54:49.333
249, -187500.02, -20983.79, -187500.02, -187500.02, -187500.02, -187500.02, -187500.02, -187500.02, 0, 1, 1, 0, 1, 12:54:49.334
250, -187500.02, -21310.40, -187500.02, -187500.02, -187500.02, -187500.02, -187500.02, -187500.02, 0, 1, 1, 0, 1, 12:54:49.334
251, -187500.02, -21532.53, -187500.02, -187500.02, -187500.02, -187500.02, -187500.02, -187500.02, 0, 1, 1, 0, 1, 12:54:49.335
252, -187500.02, -21490.13, -187500.02, -187500.02, -187500.02, -187500.02, -187500.02, -187500.02, 0, 1, 1, 0, 1, 12:54:49.335
253, -187500.02, -21498.00, -187500.02, -187500.02, -187500.02, -187500.02, -187500.02, -187500.02, 0, 1, 1, 0, 1, 12:54:49.335
254, -187500.02, -21820.35, -187500.02, -187500.02, -187500.02, -187500.02, -187500.02, -187500.02, 0, 1, 1, 0, 1, 12:54:49.335
255, -187500.02, -22117.65, -187500.02, -187500.02, -187500.02, -187500.02, -187500.02, -187500.02, 0, 1, 1, 0, 1, 12:54:49.335
0, -187500.02, -22138.35, -187500.02, -187500.02, -187500.02, -187500.02, -187500.02, -187500.02, 0, 1, 1, 0, 1, 12:54:49.335
1, -187500.02, -22118.64, -187500.02, -187500.02, -187500.02, -187500.02, -187500.02, -187500.02, 0, 1, 1, 0, 1, 12:54:49.335
2, -187500.02, -22416.45, -187500.02, -187500.02, -187500.02, -187500.02, -187500.02, -187500.02, 0, 1, 1, 0, 1, 12:54:49.336
3, -187500.02, -22741.07, -187500.02, -187500.02, -187500.02, -187500.02, -187500.02, -187500.02, 0, 1, 1, 0, 1, 12:54:49.336
4, -187500.02, -22795.89, -187500.02, -187500.02, -187500.02, -187500.02, -187500.02, -187500.02, 0, 1, 1, 0, 1, 12:54:49.336
5, -187500.02, -22747.68, -187500.02, -187500.02, -187500.02, -187500.02, -187500.02, -187500.02, 0, 1, 1, 0, 1, 12:54:49.336
6, -187500.02, -22968.96, -187500.02, -187500.02, -187500.02, -187500.02, -187500.02, -187500.02, 0, 1, 1, 0, 1, 12:54:49.336
7, -187500.02, -23306.37, -187500.02, -187500.02, -187500.02, -187500.02, -187500.02, -187500.02, 0, 1, 1, 0, 1, 12:54:49.336
8, -187500.02, -23392.78, -187500.02, -187500.02, -187500.02, -187500.02, -187500.02, -187500.02, 0, 1, 1, 0, 1, 12:54:49.336
9, -187500.02, -23327.22, -187500.02, -187500.02, -187500.02, -187500.02, -187500.02, -187500.02, 0, 1, 1, 0, 1, 12:54:49.337
10, -187500.02, -23500.18, -187500.02, -187500.02, -187500.02, -187500.02, -187500.02, -187500.02, 0, 1, 1, 0, 1, 12:54:49.337
11, -187500.02, -23868.31, -187500.02, -187500.02, -187500.02, -187500.02, -187500.02, -187500.02, 0, 1, 1, 0, 1, 12:54:49.337
12, -187500.02, -24017.42, -187500.02, -187500.02, -187500.02, -187500.02, -187500.02, -187500.02, 0, 1, 1, 0, 1, 12:54:49.337
13, -187500.02, -23955.91, -187500.02, -187500.02, -187500.02, -187500.02, -187500.02, -187500.02, 0, 1, 1, 0, 1, 12:54:49.337
14, -187500.02, -24045.92, -187500.02, -187500.02, -187500.02, -187500.02, -187500.02, -187500.02, 0, 1, 1, 0, 1, 12:54:49.337
15, -187500.02, -24388.46, -187500.02, -187500.02, -187500.02, -187500.02, -187500.02, -187500.02, 0, 1, 1, 0, 1, 12:54:49.338
16, -187500.02, -24570.60, -187500.02, -187500.02, -187500.02, -187500.02, -187500.02, -187500.02, 0, 1, 1, 0, 1, 12:54:49.338
17, -187500.02, -24481.55, -187500.02, -187500.02, -187500.02, -187500.02, -187500.02, -187500.02, 0, 1, 1, 0, 1, 12:54:49.338
18, -187500.02, -24494.11, -187500.02, -187500.02, -187500.02, -187500.02, -187500.02, -187500.02, 0, 1, 1, 0, 1, 12:54:49.338
19, -187500.02, -24806.88, -187500.02, -187500.02, -187500.02, -187500.02, -187500.02, -187500.02, 0, 1, 1, 0, 1, 12:54:49.338
20, -187500.02, -25019.51, -187500.02, -187500.02, -187500.02, -187500.02, -187500.02, -187500.02, 0, 1, 1, 0, 1, 12:54:49.339
21, -187500.02, -24956.41, -187500.02, -187500.02, -187500.02, -187500.02, -187500.02, -187500.02, 0, 1, 1, 0, 1, 12:54:49.339
22, -187500.02, -24926.66, -187500.02, -187500.02, -187500.02, -187500.02, -187500.02, -187500.02, 0, 1, 1, 0, 1, 12:54:49.339
23, -187500.02, -25212.70, -187500.02, -187500.02, -187500.02, -187500.02, -187500.02, -187500.02, 0, 1, 1, 0, 1, 12:54:49.339
24, -187500.02, -25473.03, -187500.02, -187500.02, -187500.02, -187500.02, -187500.02, -187500.02, 0, 1, 1, 0, 1, 12:54:49.339
25, -187500.02, -25456.11, -187500.02, -187500.02, -187500.02, -187500.02, -187500.02, -187500.02, 0, 1, 1, 0, 1, 12:54:49.340
26, -187500.02, -25385.12, -187500.02, -187500.02, -187500.02, -187500.02, -187500.02, -187500.02, 0, 1, 1, 0, 1, 12:54:49.340
27, -187500.02, -25606.87, -187500.02, -187500.02, -187500.02, -187500.02, -187500.02, -187500.02, 0, 1, 1, 0, 1, 12:54:49.340
28, -187500.02, -25895.05, -187500.02, -187500.02, -187500.02, -187500.02, -187500.02, -187500.02, 0, 1, 1, 0, 1, 12:54:49.340
29, -187500.02, -25917.43, -187500.02, -187500.02, -187500.02, -187500.02, -187500.02, -187500.02, 0, 1, 1, 0, 1, 12:54:49.340
30, -187500.02, -25823.33, -187500.02, -187500.02, -187500.02, -187500.02, -187500.02, -187500.02, 0, 1, 1, 0, 1, 12:54:49.341
31, -187500.02, -25992.42, -187500.02, -187500.02, -187500.02, -187500.02, -187500.02, -187500.02, 0, 1, 1, 0, 1, 12:54:49.341
32, -187500.02, -26286.97, -187500.02, -187500.02, -187500.02, -187500.02, -187500.02, -187500.02, 0, 1, 1, 0, 1, 12:54:49.341
33, -187500.02, -26310.91, -187500.02, -187500.02, -187500.02, -187500.02, -187500.02, -187500.02, 0, 1, 1, 0, 1, 12:54:49.341
34, -187500.02, -26115.31, -187500.02, -187500.02, -187500.02, -187500.02, -187500.02, -187500.02, 0, 1, 1, 0, 1, 12:54:49.341
35, -187500.02, -26116.76, -187500.02, -187500.02, -187500.02, -187500.02, -187500.02, -187500.02, 0, 1, 1, 0, 1, 12:54:49.342
36, -187500.02, -26336.21, -187500.02, -187500.02, -187500.02, -187500.02, -187500.02, -187500.02, 0, 1, 1, 0, 1, 12:54:49.342
37, -187500.02, -26375.95, -187500.02, -187500.02, -187500.02, -187500.02, -187500.02, -187500.02, 0, 1, 1, 0, 1, 12:54:49.342
38, -187500.02, -26216.63, -187500.02, -187500.02, -187500.02, -187500.02, -187500.02, -187500.02, 0, 1, 1, 0, 1, 12:54:49.342
39, -187500.02, -26228.59, -187500.02, -187500.02, -187500.02, -187500.02, -187500.02, -187500.02, 0, 1, 1, 0, 1, 12:54:49.342
40, -187500.02, -26513.44, -187500.02, -187500.02, -187500.02, -187500.02, -187500.02, -187500.02, 0, 1, 1, 0, 1, 12:54:49.343
41, -187500.02, -26647.84, -187500.02, -187500.02, -187500.02, -187500.02, -187500.02, -187500.02, 0, 1, 1, 0, 1, 12:54:49.343
42, -187500.02, -26539.48, -187500.02, -187500.02, -187500.02, -187500.02, -187500.02, -187500.02, 0, 1, 1, 0, 1, 12:54:49.343
43, -187500.02, -26517.71, -187500.02, -187500.02, -187500.02, -187500.02, -187500.02, -187500.02, 0, 1, 1, 0, 1, 12:54:49.343
44, -187500.02, -26813.73, -187500.02, -187500.02, -187500.02, -187500.02, -187500.02, -187500.02, 0, 1, 1, 0, 1, 12:54:49.343
45, -187500.02, -27027.37, -187500.02, -187500.02, -187500.02, -187500.02, -187500.02, -187500.02, 0, 1, 1, 0, 1, 12:54:49.344
46, -187500.02, -26945.96, -187500.02, -187500.02, -187500.02, -187500.02, -187500.02, -187500.02, 0, 1, 1, 0, 1, 12:54:49.344
47, -187500.02, -26862.57, -187500.02, -187500.02, -187500.02, -187500.02, -187500.02, -187500.02, 0, 1, 1, 0, 1, 12:54:49.344
48, -187500.02, -27107.46, -187500.02, -187500.02, -187500.02, -187500.02, -187500.02, -187500.02, 0, 1, 1, 0, 1, 12:54:49.344
49, -187500.02, -27358.47, -187500.02, -187500.02, -187500.02, -187500.02, -187500.02, -187500.02, 0, 1, 1, 0, 1, 12:54:49.344
50, -187500.02, -27338.17, -187500.02, -187500.02, -187500.02, -187500.02, -187500.02, -187500.02, 0, 1, 1, 0, 1, 12:54:49.345
51, -187500.02, -27281.46, -187500.02, -187500.02, -187500.02, -187500.02, -187500.02, -187500.02, 0, 1, 1, 0, 1, 12:54:49.345
52, -187500.02, -27532.77, -187500.02, -187500.02, -187500.02, -187500.02, -187500.02, -187500.02, 0, 1, 1, 0, 1, 12:54:49.345
53, -187500.02, -27845.04, -187500.02, -187500.02, -187500.02, -187500.02, -187500.02, -187500.02, 0, 1, 1, 0, 1, 12:54:49.345
54, -187500.02, -27870.75, -187500.02, -187500.02, -187500.02, -187500.02, -187500.02, -187500.02, 0, 1, 1, 0, 1, 12:54:49.345
55, -187500.02, -27752.53, -187500.02, -187500.02, -187500.02, -187500.02, -187500.02, -187500.02, 0, 1, 1, 0, 1, 12:54:49.346
56, -187500.02, -27926.18, -187500.02, -187500.02, -187500.02, -187500.02, -187500.02, -187500.02, 0, 1, 1, 0, 1, 12:54:49.346
57, -187500.02, -28245.27, -187500.02, -187500.02, -187500.02, -187500.02, -187500.02, -187500.02, 0, 1, 1, 0, 1, 12:54:49.346
58, -187500.02, -28291.85, -187500.02, -187500.02, -187500.02, -187500.02, -187500.02, -187500.02, 0, 1, 1, 0, 1, 12:54:49.346
59, -187500.02, -28126.54, -187500.02, -187500.02, -187500.02, -187500.02, -187500.02, -187500.02, 0, 1, 1, 0, 1, 12:54:49.347
60, -187500.02, -28165.59, -187500.02, -187500.02, -187500.02, -187500.02, -187500.02, -187500.02, 0, 1, 1, 0, 1, 12:54:49.347
61, -187500.02, -28476.43, -187500.02, -187500.02, -187500.02, -187500.02, -187500.02, -187500.02, 0, 1, 1, 0, 1, 12:54:49.347
62, -187500.02, -28625.23, -187500.02, -187500.02, -187500.02, -187500.02, -187500.02, -187500.02, 0, 1, 1, 0, 1, 12:54:49.347
63, -187500.02, -28532.16, -187500.02, -187500.02, -187500.02, -187500.02, -187500.02, -187500.02, 0, 1, 1, 0, 1, 12:54:49.347
64, -187500.02, -28569.04, -187500.02, -187500.02, -187500.02, -187500.02, -187500.02, -187500.02, 0, 1, 1, 0, 1, 12:54:49.348
65, -187500.02, -28880.89, -187500.02, -187500.02, -187500.02, -187500.02, -187500.02, -187500.02, 0, 1, 1, 0, 1, 12:54:49.348
66, -187500.02, -29022.69, -187500.02, -187500.02, -187500.02, -187500.02, -187500.02, -187500.02, 0, 1, 1, 0, 1, 12:54:49.348
67, -187500.02, -28885.85, -187500.02, -187500.02, -187500.02, -187500.02, -187500.02, -187500.02, 0, 1, 1, 0, 1, 12:54:49.348
68, -187500.02, -28819.69, -187500.02, -187500.02, -187500.02, -187500.02, -187500.02, -187500.02, 0, 1, 1, 0, 1, 12:54:49.348
69, -187500.02, -29088.25, -187500.02, -187500.02, -187500.02, -187500.02, -187500.02, -187500.02, 0, 1, 1, 0, 1, 12:54:49.349
70, -187500.02, -29297.30, -187500.02, -187500.02, -187500.02, -187500.02, -187500.02, -187500.02, 0, 1, 1, 0, 1, 12:54:49.349
71, -187500.02, -29222.78, -187500.02, -187500.02, -187500.02, -187500.02, -187500.02, -187500.02, 0, 1, 1, 0, 1, 12:54:49.349
72, -187500.02, -29148.30, -187500.02, -187500.02, -187500.02, -187500.02, -187500.02, -187500.02, 0, 1, 1, 0, 1, 12:54:49.349
73, -187500.02, -29391.20, -187500.02, -187500.02, -187500.02, -187500.02, -187500.02, -187500.02, 0, 1, 1, 0, 1, 12:54:49.349
74, -187500.02, -29671.25, -187500.02, -187500.02, -187500.02, -187500.02, -187500.02, -187500.02, 0, 1, 1, 0, 1, 12:54:49.350
75, -187500.02, -29689.51, -187500.02, -187500.02, -187500.02, -187500.02, -187500.02, -187500.02, 0, 1, 1, 0, 1, 12:54:49.350
76, -187500.02, -29615.17, -187500.02, -187500.02, -187500.02, -187500.02, -187500.02, -187500.02, 0, 1, 1, 0, 1, 12:54:49.350
77, -187500.02, -29838.84, -187500.02, -187500.02, -187500.02, -187500.02, -187500.02, -187500.02, 0, 1, 1, 0, 1, 12:54:49.350
78, -187500.02, -30176.89, -187500.02, -187500.02, -187500.02, -187500.02, -187500.02, -187500.02, 0, 1, 1, 0, 1, 12:54:49.350
79, -187500.02, -30270.27, -187500.02, -187500.02, -187500.02, -187500.02, -187500.02, -187500.02, 0, 1, 1, 0, 1, 12:54:49.351
80, -187500.02, -30208.94, -187500.02, -187500.02, -187500.02, -187500.02, -187500.02, -187500.02, 0, 1, 1, 0, 1, 12:54:49.351
81, -187500.02, -30392.65, -187500.02, -187500.02, -187500.02, -187500.02, -187500.02, -187500.02, 0, 1, 1, 0, 1, 12:54:49.351
82, -187500.02, -30757.68, -187500.02, -187500.02, -187500.02, -187500.02, -187500.02, -187500.02, 0, 1, 1, 0, 1, 12:54:49.351
83, -187500.02, -30892.01, -187500.02, -187500.02, -187500.02, -187500.02, -187500.02, -187500.02, 0, 1, 1, 0, 1, 12:54:49.351
84, -187500.02, -30809.82, -187500.02, -187500.02, -187500.02, -187500.02, -187500.02, -187500.02, 0, 1, 1, 0, 1, 12:54:49.351
85, -187500.02, -30912.33, -187500.02, -187500.02, -187500.02, -187500.02, -187500.02, -187500.02, 0, 1, 1, 0, 1, 12:54:49.352
86, -187500.02, -31273.82, -187500.02, -187500.02, -187500.02, -187500.02, -187500.02, -187500.02, 0, 1, 1, 0, 1, 12:54:49.352
87, -187500.02, -31447.90, -187500.02, -187500.02, -187500.02, -187500.02, -187500.02, -187500.02, 0, 1, 1, 0, 1, 12:54:49.352
88, -187500.02, -31365.80, -187500.02, -187500.02, -187500.02, -187500.02, -187500.02, -187500.02, 0, 1, 1, 0, 1, 12:54:49.352
89, -187500.02, -31406.44, -187500.02, -187500.02, -187500.02, -187500.02, -187500.02, -187500.02, 0, 1, 1, 0, 1, 12:54:49.809
90, -187500.02, -31760.24, -187500.02, -187500.02, -187500.02, -187500.02, -187500.02, -187500.02, 0, 1, 1, 0, 1, 12:54:49.809
91, -187500.02, -31996.79, -187500.02, -187500.02, -187500.02, -187500.02, -187500.02, -187500.02, 0, 1, 1, 0, 1, 12:54:49.809
92, -187500.02, -31949.74, -187500.02, -187500.02, -187500.02, -187500.02, -187500.02, -187500.02, 0, 1, 1, 0, 1, 12:54:49.809
93, -187500.02, -31942.18, -187500.02, -187500.02, -187500.02, -187500.02, -187500.02, -187500.02, 0, 1, 1, 0, 1, 12:54:49.809
94, -187500.02, -32269.17, -187500.02, -187500.02, -187500.02, -187500.02, -187500.02, -187500.02, 0, 1, 1, 0, 1, 12:54:49.810
95, -187500.02, -32585.65, -187500.02, -187500.02, -187500.02, -187500.02, -187500.02, -187500.02, 0, 1, 1, 0, 1, 12:54:49.810
96, -187500.02, -32614.26, -187500.02, -187500.02, -187500.02, -187500.02, -187500.02, -187500.02, 0, 1, 1, 0, 1, 12:54:49.810
97, -187500.02, -32605.56, -187500.02, -187500.02, -187500.02, -187500.02, -187500.02, -187500.02, 0, 1, 1, 0, 1, 12:54:49.810
98, -187500.02, -32921.73, -187500.02, -187500.02, -187500.02, -187500.02, -187500.02, -187500.02, 0, 1, 1, 0, 1, 12:54:49.810
99, -187500.02, -33291.45, -187500.02, -187500.02, -187500.02, -187500.02, -187500.02, -187500.02, 0, 1, 1, 0, 1, 12:54:49.811
100, -187500.02, -33381.95, -187500.02, -187500.02, -187500.02, -187500.02, -187500.02, -187500.02, 0, 1, 1, 0, 1, 12:54:49.811
101, -187500.02, -33361.72, -187500.02, -187500.02, -187500.02, -187500.02, -187500.02, -187500.02, 0, 1, 1, 0, 1, 12:54:49.811
102, -187500.02, -33632.98, -187500.02, -187500.02, -187500.02, -187500.02, -187500.02, -187500.02, 0, 1, 1, 0, 1, 12:54:49.812
103, -187500.02, -34029.66, -187500.02, -187500.02, -187500.02, -187500.02, -187500.02, -187500.02, 0, 1, 1, 0, 1, 12:54:49.812
104, -187500.02, -34152.59, -187500.02, -187500.02, -187500.02, -187500.02, -187500.02, -187500.02, 0, 1, 1, 0, 1, 12:54:49.812
105, -187500.02, -34089.80, -187500.02, -187500.02, -187500.02, -187500.02, -187500.02, -187500.02, 0, 1, 1, 0, 1, 12:54:49.812
106, -187500.02, -34274.25, -187500.02, -187500.02, -187500.02, -187500.02, -187500.02, -187500.02, 0, 1, 1, 0, 1, 12:54:49.812
107, -187500.02, -34684.68, -187500.02, -187500.02, -187500.02, -187500.02, -187500.02, -187500.02, 0, 1, 1, 0, 1, 12:54:49.813
108, -187500.02, -34883.56, -187500.02, -187500.02, -187500.02, -187500.02, -187500.02, -187500.02, 0, 1, 1, 0, 1, 12:54:49.813
109, -187500.02, -34849.03, -187500.02, -187500.02, -187500.02, -187500.02, -187500.02, -187500.02, 0, 1, 1, 0, 1, 12:54:49.813
110, -187500.02, -34984.50, -187500.02, -187500.02, -187500.02, -187500.02, -187500.02, -187500.02, 0, 1, 1, 0, 1, 12:54:49.813
111, -187500.02, -35393.92, -187500.02, -187500.02, -187500.02, -187500.02, -187500.02, -187500.02, 0, 1, 1, 0, 1, 12:54:49.813
112, -187500.02, -35615.74, -187500.02, -187500.02, -187500.02, -187500.02, -187500.02, -187500.02, 0, 1, 1, 0, 1, 12:54:49.813
113, -187500.02, -35568.98, -187500.02, -187500.02, -187500.02, -187500.02, -187500.02, -187500.02, 0, 1, 1, 0, 1, 12:54:49.813
114, -187500.02, -35626.42, -187500.02, -187500.02, -187500.02, -187500.02, -187500.02, -187500.02, 0, 1, 1, 0, 1, 12:54:49.814
115, -187500.02, -36010.87, -187500.02, -187500.02, -187500.02, -187500.02, -187500.02, -187500.02, 0, 1, 1, 0, 1, 12:54:49.814
116, -187500.02, -36295.19, -187500.02, -187500.02, -187500.02, -187500.02, -187500.02, -187500.02, 0, 1, 1, 0, 1, 12:54:49.814
117, -187500.02, -36296.57, -187500.02, -187500.02, -187500.02, -187500.02, -187500.02, -187500.02, 0, 1, 1, 0, 1, 12:54:49.814
118, -187500.02, -36318.03, -187500.02, -187500.02, -187500.02, -187500.02, -187500.02, -187500.02, 0, 1, 1, 0, 1, 12:54:49.814
119, -187500.02, -36661.93, -187500.02, -187500.02, -187500.02, -187500.02, -187500.02, -187500.02, 0, 1, 1, 0, 1, 12:54:49.814
120, -187500.02, -36972.64, -187500.02, -187500.02, -187500.02, -187500.02, -187500.02, -187500.02, 0, 1, 1, 0, 1, 12:54:49.815
121, -187500.02, -36969.76, -187500.02, -187500.02, -187500.02, -187500.02, -187500.02, -187500.02, 0, 1, 1, 0, 1, 12:54:49.815
122, -187500.02, -36913.32, -187500.02, -187500.02, -187500.02, -187500.02, -187500.02, -187500.02, 0, 1, 1, 0, 1, 12:54:49.815
123, -187500.02, -37221.04, -187500.02, -187500.02, -187500.02, -187500.02, -187500.02, -187500.02, 0, 1, 1, 0, 1, 12:54:49.815
124, -187500.02, -37633.50, -187500.02, -187500.02, -187500.02, -187500.02, -187500.02, -187500.02, 0, 1, 1, 0, 1, 12:54:49.815
125, -187500.02, -37768.57, -187500.02, -187500.02, -187500.02, -187500.02, -187500.02, -187500.02, 0, 1, 1, 0, 1, 12:54:49.815
126, -187500.02, -37783.07, -187500.02, -187500.02, -187500.02, -187500.02, -187500.02, -187500.02, 0, 1, 1, 0, 1, 12:54:49.816
127, -187500.02, -38094.90, -187500.02, -187500.02, -187500.02, -187500.02, -187500.02, -187500.02, 0, 1, 1, 0, 1, 12:54:49.816
128, -187500.02, -38561.09, -187500.02, -187500.02, -187500.02, -187500.02, -187500.02, -187500.02, 0, 1, 1, 0, 1, 12:54:49.816
129, -187500.02, -38743.60, -187500.02, -187500.02, -187500.02, -187500.02, -187500.02, -187500.02, 0, 1, 1, 0, 1, 12:54:49.816
130, -187500.02, -38714.76, -187500.02, -187500.02, -187500.02, -187500.02, -187500.02, -187500.02, 0, 1, 1, 0, 1, 12:54:49.816
131, -187500.02, -38915.57, -187500.02, -187500.02, -187500.02, -187500.02, -187500.02, -187500.02, 0, 1, 1, 0, 1, 12:54:49.816
132, -187500.02, -39357.33, -187500.02, -187500.02, -187500.02, -187500.02, -187500.02, -187500.02, 0, 1, 1, 0, 1, 12:54:49.817
133, -187500.02, -39566.18, -187500.02, -187500.02, -187500.02, -187500.02, -187500.02, -187500.02, 0, 1, 1, 0, 1, 12:54:49.817
134, -187500.02, -39532.39, -187500.02, -187500.02, -187500.02, -187500.02, -187500.02, -187500.02, 0, 1, 1, 0, 1, 12:54:49.817
135, -187500.02, -39673.36, -187500.02, -187500.02, -187500.02, -187500.02, -187500.02, -187500.02, 0, 1, 1, 0, 1, 12:54:49.817
136, -187500.02, -40112.59, -187500.02, -187500.02, -187500.02, -187500.02, -187500.02, -187500.02, 0, 1, 1, 0, 1, 12:54:49.817
137, -187500.02, -40379.41, -187500.02, -187500.02, -187500.02, -187500.02, -187500.02, -187500.02, 0, 1, 1, 0, 1, 12:54:49.818
138, -187500.02, -40342.24, -187500.02, -187500.02, -187500.02, -187500.02, -187500.02, -187500.02, 0, 1, 1, 0, 1, 12:54:49.818
139, -187500.02, -40370.54, -187500.02, -187500.02, -187500.02, -187500.02, -187500.02, -187500.02, 0, 1, 1, 0, 1, 12:54:49.818
140, -187500.02, -40758.54, -187500.02, -187500.02, -187500.02, -187500.02, -187500.02, -187500.02, 0, 1, 1, 0, 1, 12:54:49.818
141, -187500.02, -41070.84, -187500.02, -187500.02, -187500.02, -187500.02, -187500.02, -187500.02, 0, 1, 1, 0, 1, 12:54:49.818
142, -187500.02, -41054.72, -187500.02, -187500.02, -187500.02, -187500.02, -187500.02, -187500.02, 0, 1, 1, 0, 1, 12:54:49.818
143, -187500.02, -41024.99, -187500.02, -187500.02, -187500.02, -187500.02, -187500.02, -187500.02, 0, 1, 1, 0, 1, 12:54:49.819
144, -187500.02, -41360.85, -187500.02, -187500.02, -187500.02, -187500.02, -187500.02, -187500.02, 0, 1, 1, 0, 1, 12:54:49.819
145, -187500.02, -41716.98, -187500.02, -187500.02, -187500.02, -187500.02, -187500.02, -187500.02, 0, 1, 1, 0, 1, 12:54:49.819
146, -187500.02, -41765.51, -187500.02, -187500.02, -187500.02, -187500.02, -187500.02, -187500.02, 0, 1, 1, 0, 1, 12:54:49.819
147, -187500.02, -41735.20, -187500.02, -187500.02, -187500.02, -187500.02, -187500.02, -187500.02, 0, 1, 1, 0, 1, 12:54:49.819
148, -187500.02, -42064.28, -187500.02, -187500.02, -187500.02, -187500.02, -187500.02, -187500.02, 0, 1, 1, 0, 1, 12:54:49.819
149, -187500.02, -42504.34, -187500.02, -187500.02, -187500.02, -187500.02, -187500.02, -187500.02, 0, 1, 1, 0, 1, 12:54:49.820
150, -187500.02, -42659.89, -187500.02, -187500.02, -187500.02, -187500.02, -187500.02, -187500.02, 0, 1, 1, 0, 1, 12:54:49.820
151, -187500.02, -42695.16, -187500.02, -187500.02, -187500.02, -187500.02, -187500.02, -187500.02, 0, 1, 1, 0, 1, 12:54:49.820
152, -187500.02, -43063.76, -187500.02, -187500.02, -187500.02, -187500.02, -187500.02, -187500.02, 0, 1, 1, 0, 1, 12:54:49.820
153, -187500.02, -43619.09, -187500.02, -187500.02, -187500.02, -187500.02, -187500.02, -187500.02, 0, 1, 1, 0, 1, 12:54:49.820
154, -187500.02, -43896.84, -187500.02, -187500.02, -187500.02, -187500.02, -187500.02, -187500.02, 0, 1, 1, 0, 1, 12:54:49.820
155, -187500.02, -43948.85, -187500.02, -187500.02, -187500.02, -187500.02, -187500.02, -187500.02, 0, 1, 1, 0, 1, 12:54:49.820
156, -187500.02, -44259.43, -187500.02, -187500.02, -187500.02, -187500.02, -187500.02, -187500.02, 0, 1, 1, 0, 1, 12:54:49.821
157, -187500.02, -44809.37, -187500.02, -187500.02, -187500.02, -187500.02, -187500.02, -187500.02, 0, 1, 1, 0, 1, 12:54:49.821
158, -187500.02, -45051.97, -187500.02, -187500.02, -187500.02, -187500.02, -187500.02, -187500.02, 0, 1, 1, 0, 1, 12:54:49.821
159, -187500.02, -44930.56, -187500.02, -187500.02, -187500.02, -187500.02, -187500.02, -187500.02, 0, 1, 1, 0, 1, 12:54:49.821
160, -187500.02, -44876.64, -187500.02, -187500.02, -187500.02, -187500.02, -187500.02, -187500.02, 0, 1, 1, 0, 1, 12:54:49.821
161, -187500.02, -45134.03, -187500.02, -187500.02, -187500.02, -187500.02, -187500.02, -187500.02, 0, 1, 1, 0, 1, 12:54:49.821
162, -187500.02, -45369.10, -187500.02, -187500.02, -187500.02, -187500.02, -187500.02, -187500.02, 0, 1, 1, 0, 1, 12:54:49.822
163, -187500.02, -45379.76, -187500.02, -187500.02, -187500.02, -187500.02, -187500.02, -187500.02, 0, 1, 1, 0, 1, 12:54:49.822
164, -187500.02, -45505.71, -187500.02, -187500.02, -187500.02, -187500.02, -187500.02, -187500.02, 0, 1, 1, 0, 1, 12:54:49.822
165, -187500.02, -46038.04, -187500.02, -187500.02, -187500.02, -187500.02, -187500.02, -187500.02, 0, 1, 1, 0, 1, 12:54:49.822
166, -187500.02, -46491.79, -187500.02, -187500.02, -187500.02, -187500.02, -187500.02, -187500.02, 0, 1, 1, 0, 1, 12:54:49.822
167, -187500.02, -46586.40, -187500.02, -187500.02, -187500.02, -187500.02, -187500.02, -187500.02, 0, 1, 1, 0, 1, 12:54:49.822
168, -187500.02, -46656.56, -187500.02, -187500.02, -187500.02, -187500.02, -187500.02, -187500.02, 0, 1, 1, 0, 1, 12:54:49.822
169, -187500.02, -47114.28, -187500.02, -187500.02, -187500.02, -187500.02, -187500.02, -187500.02, 0, 1, 1, 0, 1, 12:54:49.823
170, -187500.02, -47609.91, -187500.02, -187500.02, -187500.02, -187500.02, -187500.02, -187500.02, 0, 1, 1, 0, 1, 12:54:49.823
171, -187500.02, -47773.99, -187500.02, -187500.02, -187500.02, -187500.02, -187500.02, -187500.02, 0, 1, 1, 0, 1, 12:54:49.823
172, -187500.02, -47850.01, -187500.02, -187500.02, -187500.02, -187500.02, -187500.02, -187500.02, 0, 1, 1, 0, 1, 12:54:49.823
173, -187500.02, -48312.36, -187500.02, -187500.02, -187500.02, -187500.02, -187500.02, -187500.02, 0, 1, 1, 0, 1, 12:54:49.823
174, -187500.02, -48918.02, -187500.02, -187500.02, -187500.02, -187500.02, -187500.02, -187500.02, 0, 1, 1, 0, 1, 12:54:49.823
175, -187500.02, -49166.26, -187500.02, -187500.02, -187500.02, -187500.02, -187500.02, -187500.02, 0, 1, 1, 0, 1, 12:54:49.823
176, -187500.02, -49171.63, -187500.02, -187500.02, -187500.02, -187500.02, -187500.02, -187500.02, 0, 1, 1, 0, 1, 12:54:49.824
177, -187500.02, -49426.46, -187500.02, -187500.02, -187500.02, -187500.02, -187500.02, -187500.02, 0, 1, 1, 0, 1, 12:54:49.824
178, -187500.02, -49854.27, -187500.02, -187500.02, -187500.02, -187500.02, -187500.02, -187500.02, 0, 1, 1, 0, 1, 12:54:49.824
179, -187500.02, -49959.25, -187500.02, -187500.02, -187500.02, -187500.02, -187500.02, -187500.02, 0, 1, 1, 0, 1, 12:54:49.824
180, -187500.02, -49868.68, -187500.02, -187500.02, -187500.02, -187500.02, -187500.02, -187500.02, 0, 1, 1, 0, 1, 12:54:49.824
181, -187500.02, -50085.81, -187500.02, -187500.02, -187500.02, -187500.02, -187500.02, -187500.02, 0, 1, 1, 0, 1, 12:54:49.824
182, -187500.02, -50626.34, -187500.02, -187500.02, -187500.02, -187500.02, -187500.02, -187500.02, 0, 1, 1, 0, 1, 12:54:49.824
183, -187500.02, -50974.31, -187500.02, -187500.02, -187500.02, -187500.02, -187500.02, -187500.02, 0, 1, 1, 0, 1, 12:54:49.824
184, -187500.02, -51201.36, -187500.02, -187500.02, -187500.02, -187500.02, -187500.02, -187500.02, 0, 1, 1, 0, 1, 12:54:49.824
185, -187500.02, -51789.91, -187500.02, -187500.02, -187500.02, -187500.02, -187500.02, -187500.02, 0, 1, 1, 0, 1, 12:54:49.824
186, -187500.02, -52857.43, -187500.02, -187500.02, -187500.02, -187500.02, -187500.02, -187500.02, 0, 1, 1, 0, 1, 12:54:49.825
187, -187500.02, -53810.57, -187500.02, -187500.02, -187500.02, -187500.02, -187500.02, -187500.02, 0, 1, 1, 0, 1, 12:54:49.825
188, -187500.02, -54352.31, -187500.02, -187500.02, -187500.02, -187500.02, -187500.02, -187500.02, 0, 1, 1, 0, 1, 12:54:49.825
189, -187500.02, -54839.13, -187500.02, -187500.02, -187500.02, -187500.02, -187500.02, -187500.02, 0, 1, 1, 0, 1, 12:54:49.825
190, -187500.02, -55601.97, -187500.02, -187500.02, -187500.02, -187500.02, -187500.02, -187500.02, 0, 1, 1, 0, 1, 12:54:49.825
191, -187500.02, -56242.44, -187500.02, -187500.02, -187500.02, -187500.02, -187500.02, -187500.02, 0, 1, 1, 0, 1, 12:54:49.825
192, -187500.02, -56480.31, -187500.02, -187500.02, -187500.02, -187500.02, -187500.02, -187500.02, 0, 1, 1, 0, 1, 12:54:49.825
193, -187500.02, -56608.63, -187500.02, -187500.02, -187500.02, -187500.02, -187500.02, -187500.02, 0, 1, 1, 0, 1, 12:54:49.825
194, -187500.02, -57036.75, -187500.02, -187500.02, -187500.02, -187500.02, -187500.02, -187500.02, 0, 1, 1, 0, 1, 12:54:49.826
195, -187500.02, -57512.18, -187500.02, -187500.02, -187500.02, -187500.02, -187500.02, -187500.02, 0, 1, 1, 0, 1, 12:54:49.826
196, -187500.02, -57613.63, -187500.02, -187500.02, -187500.02, -187500.02, -187500.02, -187500.02, 0, 1, 1, 0, 1, 12:54:49.826
197, -187500.02, -57533.66, -187500.02, -187500.02, -187500.02, -187500.02, -187500.02, -187500.02, 0, 1, 1, 0, 1, 12:54:49.826
198, -187500.02, -57783.88, -187500.02, -187500.02, -187500.02, -187500.02, -187500.02, -187500.02, 0, 1, 1, 0, 1, 12:54:49.826
199, -187500.02, -58241.38, -187500.02, -187500.02, -187500.02, -187500.02, -187500.02, -187500.02, 0, 1, 1, 0, 1, 12:54:49.826
200, -187500.02, -58406.87, -187500.02, -187500.02, -187500.02, -187500.02, -187500.02, -187500.02, 0, 1, 1, 0, 1, 12:54:49.826
201, -187500.02, -58364.63, -187500.02, -187500.02, -187500.02, -187500.02, -187500.02, -187500.02, 0, 1, 1, 0, 1, 12:54:49.826
202, -187500.02, -58634.34, -187500.02, -187500.02, -187500.02, -187500.02, -187500.02, -187500.02, 0, 1, 1, 0, 1, 12:54:49.826
203, -187500.02, -59200.23, -187500.02, -187500.02, -187500.02, -187500.02, -187500.02, -187500.02, 0, 1, 1, 0, 1, 12:54:49.826
204, -187500.02, -59537.63, -187500.02, -187500.02, -187500.02, -187500.02, -187500.02, -187500.02, 0, 1, 1, 0, 1, 12:54:49.827
205, -187500.02, -59574.10, -187500.02, -187500.02, -187500.02, -187500.02, -187500.02, -187500.02, 0, 1, 1, 0, 1, 12:54:49.827
206, -187500.02, -59702.78, -187500.02, -187500.02, -187500.02, -187500.02, -187500.02, -187500.02, 0, 1, 1, 0, 1, 12:54:49.827
207, -187500.02, -60108.29, -187500.02, -187500.02, -187500.02, -187500.02, -187500.02, -187500.02, 0, 1, 1, 0, 1, 12:54:49.827
208, -187500.02, -60230.93, -187500.02, -187500.02, -187500.02, -187500.02, -187500.02, -187500.02, 0, 1, 1, 0, 1, 12:54:49.827
209, -187500.02, -59963.58, -187500.02, -187500.02, -187500.02, -187500.02, -187500.02, -187500.02, 0, 1, 1, 0, 1, 12:54:50.288
210, -187500.02, -59734.23, -187500.02, -187500.02, -187500.02, -187500.02, -187500.02, -187500.02, 0, 1, 1, 0, 1, 12:54:50.289
211, -187500.02, -59731.61, -187500.02, -187500.02, -187500.02, -187500.02, -187500.02, -187500.02, 0, 1, 1, 0, 1, 12:54:50.289
212, -187500.02, -59411.70, -187500.02, -187500.02, -187500.02, -187500.02, -187500.02, -187500.02, 0, 1, 1, 0, 1, 12:54:50.289
213, -187500.02, -58498.04, -187500.02, -187500.02, -187500.02, -187500.02, -187500.02, -187500.02, 0, 1, 1, 0, 1, 12:54:50.289
214, -187500.02, -57439.38, -187500.02, -187500.02, -187500.02, -187500.02, -187500.02, -187500.02, 0, 1, 1, 0, 1, 12:54:50.289
215, -187500.02, -57322.63, -187500.02, -187500.02, -187500.02, -187500.02, -187500.02, -187500.02, 0, 1, 1, 0, 1, 12:54:50.289
216, -187500.02, -57508.51, -187500.02, -187500.02, -187500.02, -187500.02, -187500.02, -187500.02, 0, 1, 1, 0, 1, 12:54:50.289
217, -187500.02, -57439.91, -187500.02, -187500.02, -187500.02, -187500.02, -187500.02, -187500.02, 0, 1, 1, 0, 1, 12:54:50.289
218, -187500.02, -57332.54, -187500.02, -187500.02, -187500.02, -187500.02, -187500.02, -187500.02, 0, 1, 1, 0, 1, 12:54:50.289
219, -187500.02, -57681.11, -187500.02, -187500.02, -187500.02, -187500.02, -187500.02, -187500.02, 0, 1, 1, 0, 1, 12:54:50.290
220, -187500.02, -58149.89, -187500.02, -187500.02, -187500.02, -187500.02, -187500.02, -187500.02, 0, 1, 1, 0, 1, 12:54:50.290
221, -187500.02, -58310.91, -187500.02, -187500.02, -187500.02, -187500.02, -187500.02, -187500.02, 0, 1, 1, 0, 1, 12:54:50.290
222, -187500.02, -58318.92, -187500.02, -187500.02, -187500.02, -187500.02, -187500.02, -187500.02, 0, 1, 1, 0, 1, 12:54:50.290
223, -187500.02, -58649.90, -187500.02, -187500.02, -187500.02, -187500.02, -187500.02, -187500.02, 0, 1, 1, 0, 1, 12:54:50.290
224, -187500.02, -59157.53, -187500.02, -187500.02, -187500.02, -187500.02, -187500.02, -187500.02, 0, 1, 1, 0, 1, 12:54:50.290
225, -187500.02, -59350.03, -187500.02, -187500.02, -187500.02, -187500.02, -187500.02, -187500.02, 0, 1, 1, 0, 1, 12:54:50.290
226, -187500.02, -59293.16, -187500.02, -187500.02, -187500.02, -187500.02, -187500.02, -187500.02, 0, 1, 1, 0, 1, 12:54:50.290
227, -187500.02, -59498.75, -187500.02, -187500.02, -187500.02, -187500.02, -187500.02, -187500.02, 0, 1, 1, 0, 1, 12:54:50.290
228, -187500.02, -59985.91, -187500.02, -187500.02, -187500.02, -187500.02, -187500.02, -187500.02, 0, 1, 1, 0, 1, 12:54:50.290
229, -187500.02, -60240.99, -187500.02, -187500.02, -187500.02, -187500.02, -187500.02, -187500.02, 0, 1, 1, 0, 1, 12:54:50.290
230, -187500.02, -60231.85, -187500.02, -187500.02, -187500.02, -187500.02, -187500.02, -187500.02, 0, 1, 1, 0, 1, 12:54:50.291
231, -187500.02, -60424.77, -187500.02, -187500.02, -187500.02, -187500.02, -187500.02, -187500.02, 0, 1, 1, 0, 1, 12:54:50.291
232, -187500.02, -60963.93, -187500.02, -187500.02, -187500.02, -187500.02, -187500.02, -187500.02, 0, 1, 1, 0, 1, 12:54:50.291
233, -187500.02, -61379.43, -187500.02, -187500.02, -187500.02, -187500.02, -187500.02, -187500.02, 0, 1, 1, 0, 1, 12:54:50.291
234, -187500.02, -61494.83, -187500.02, -187500.02, -187500.02, -187500.02, -187500.02, -187500.02, 0, 1, 1, 0, 1, 12:54:50.291
235, -187500.02, -61629.73, -187500.02, -187500.02, -187500.02, -187500.02, -187500.02, -187500.02, 0, 1, 1, 0, 1, 12:54:50.291
236, -187500.02, -62093.39, -187500.02, -187500.02, -187500.02, -187500.02, -187500.02, -187500.02, 0, 1, 1, 0, 1, 12:54:50.291
237, -187500.02, -62409.42, -187500.02, -187500.02, -187500.02, -187500.02, -187500.02, -187500.02, 0, 1, 1, 0, 1, 12:54:50.291
238, -187500.02, -62324.95, -187500.02, -187500.02, -187500.02, -187500.02, -187500.02, -187500.02, 0, 1, 1, 0, 1, 12:54:50.291
239, -187500.02, -62239.28, -187500.02, -187500.02, -187500.02, -187500.02, -187500.02, -187500.02, 0, 1, 1, 0, 1, 12:54:50.291
240, -187500.02, -62572.57, -187500.02, -187500.02, -187500.02, -187500.02, -187500.02, -187500.02, 0, 1, 1, 0, 1, 12:54:50.292
241, -187500.02, -62926.89, -187500.02, -187500.02, -187500.02, -187500.02, -187500.02, -187500.02, 0, 1, 1, 0, 1, 12:54:50.292
242, -187500.02, -62946.36, -187500.02, -187500.02, -187500.02, -187500.02, -187500.02, -187500.02, 0, 1, 1, 0, 1, 12:54:50.292
243, -187500.02, -62868.50, -187500.02, -187500.02, -187500.02, -187500.02, -187500.02, -187500.02, 0, 1, 1, 0, 1, 12:54:50.292
244, -187500.02, -63162.72, -187500.02, -187500.02, -187500.02, -187500.02, -187500.02, -187500.02, 0, 1, 1, 0, 1, 12:54:50.292
245, -187500.02, -63580.63, -187500.02, -187500.02, -187500.02, -187500.02, -187500.02, -187500.02, 0, 1, 1, 0, 1, 12:54:50.292
246, -187500.02, -63676.90, -187500.02, -187500.02, -187500.02, -187500.02, -187500.02, -187500.02, 0, 1, 1, 0, 1, 12:54:50.292
247, -187500.02, -63587.13, -187500.02, -187500.02, -187500.02, -187500.02, -187500.02, -187500.02, 0, 1, 1, 0, 1, 12:54:50.292
248, -187500.02, -63794.69, -187500.02, -187500.02, -187500.02, -187500.02, -187500.02, -187500.02, 0, 1, 1, 0, 1, 12:54:50.292
249, -187500.02, -64212.92, -187500.02, -187500.02, -187500.02, -187500.02, -187500.02, -187500.02, 0, 1, 1, 0, 1, 12:54:50.292
250, -187500.02, -64353.17, -187500.02, -187500.02, -187500.02, -187500.02, -187500.02, -187500.02, 0, 1, 1, 0, 1, 12:54:50.293
251, -187500.02, -64253.21, -187500.02, -187500.02, -187500.02, -187500.02, -187500.02, -187500.02, 0, 1, 1, 0, 1, 12:54:50.293
252, -187500.02, -64410.55, -187500.02, -187500.02, -187500.02, -187500.02, -187500.02, -187500.02, 0, 1, 1, 0, 1, 12:54:50.293
253, -187500.02, -64873.52, -187500.02, -187500.02, -187500.02, -187500.02, -187500.02, -187500.02, 0, 1, 1, 0, 1, 12:54:50.293
254, -187500.02, -65127.82, -187500.02, -187500.02, -187500.02, -187500.02, -187500.02, -187500.02, 0, 1, 1, 0, 1, 12:54:50.293
255, -187500.02, -65089.42, -187500.02, -187500.02, -187500.02, -187500.02, -187500.02, -187500.02, 0, 1, 1, 0, 1, 12:54:50.293
0, -187500.02, -65200.48, -187500.02, -187500.02, -187500.02, -187500.02, -187500.02, -187500.02, 0, 1, 1, 0, 1, 12:54:50.293
1, -187500.02, -65663.55, -187500.02, -187500.02, -187500.02, -187500.02, -187500.02, -187500.02, 0, 1, 1, 0, 1, 12:54:50.293
2, -187500.02, -65970.75, -187500.02, -187500.02, -187500.02, -187500.02, -187500.02, -187500.02, 0, 1, 1, 0, 1, 12:54:50.293
3, -187500.02, -65943.32, -187500.02, -187500.02, -187500.02, -187500.02, -187500.02, -187500.02, 0, 1, 1, 0, 1, 12:54:50.294
4, -187500.02, -65974.23, -187500.02, -187500.02, -187500.02, -187500.02, -187500.02, -187500.02, 0, 1, 1, 0, 1, 12:54:50.294
5, -187500.02, -66387.83, -187500.02, -187500.02, -187500.02, -187500.02, -187500.02, -187500.02, 0, 1, 1, 0, 1, 12:54:50.294
6, -187500.02, -66739.73, -187500.02, -187500.02, -187500.02, -187500.02, -187500.02, -187500.02, 0, 1, 1, 0, 1, 12:54:50.294
7, -187500.02, -66756.74, -187500.02, -187500.02, -187500.02, -187500.02, -187500.02, -187500.02, 0, 1, 1, 0, 1, 12:54:50.294
8, -187500.02, -66749.75, -187500.02, -187500.02, -187500.02, -187500.02, -187500.02, -187500.02, 0, 1, 1, 0, 1, 12:54:50.294
9, -187500.02, -67122.48, -187500.02, -187500.02, -187500.02, -187500.02, -187500.02, -187500.02, 0, 1, 1, 0, 1, 12:54:50.294
10, -187500.02, -67533.29, -187500.02, -187500.02, -187500.02, -187500.02, -187500.02, -187500.02, 0, 1, 1, 0, 1, 12:54:50.294
11, -187500.02, -67596.12, -187500.02, -187500.02, -187500.02, -187500.02, -187500.02, -187500.02, 0, 1, 1, 0, 1, 12:54:50.294
12, -187500.02, -67532.28, -187500.02, -187500.02, -187500.02, -187500.02, -187500.02, -187500.02, 0, 1, 1, 0, 1, 12:54:50.295
13, -187500.02, -67806.85, -187500.02, -187500.02, -187500.02, -187500.02, -187500.02, -187500.02, 0, 1, 1, 0, 1, 12:54:50.295
14, -187500.02, -68207.09, -187500.02, -187500.02, -187500.02, -187500.02, -187500.02, -187500.02, 0, 1, 1, 0, 1, 12:54:50.295
15, -187500.02, -68279.30, -187500.02, -187500.02, -187500.02, -187500.02, -187500.02, -187500.02, 0, 1, 1, 0, 1, 12:54:50.295
16, -187500.02, -68152.16, -187500.02, -187500.02, -187500.02, -187500.02, -187500.02, -187500.02, 0, 1, 1, 0, 1, 12:54:50.295
17, -187500.02, -68307.35, -187500.02, -187500.02, -187500.02, -187500.02, -187500.02, -187500.02, 0, 1, 1, 0, 1, 12:54:50.295
18, -187500.02, -68687.89, -187500.02, -187500.02, -187500.02, -187500.02, -187500.02, -187500.02, 0, 1, 1, 0, 1, 12:54:50.295
19, -187500.02, -68781.50, -187500.02, -187500.02, -187500.02, -187500.02, -187500.02, -187500.02, 0, 1, 1, 0, 1, 12:54:50.295
20, -187500.02, -68616.99, -187500.02, -187500.02, -187500.02, -187500.02, -187500.02, -187500.02, 0, 1, 1, 0, 1, 12:54:50.295
21, -187500.02, -68715.88, -187500.02, -187500.02, -187500.02, -187500.02, -187500.02, -187500.02, 0, 1, 1, 0, 1, 12:54:50.295
22, -187500.02, -69159.71, -187500.02, -187500.02, -187500.02, -187500.02, -187500.02, -187500.02, 0, 1, 1, 0, 1, 12:54:50.296
23, -187500.02, -69404.22, -187500.02, -187500.02, -187500.02, -187500.02, -187500.02, -187500.02, 0, 1, 1, 0, 1, 12:54:50.296
24, -187500.02, -69336.72, -187500.02, -187500.02, -187500.02, -187500.02, -187500.02, -187500.02, 0, 1, 1, 0, 1, 12:54:50.296
25, -187500.02, -69413.97, -187500.02, -187500.02, -187500.02, -187500.02, -187500.02, -187500.02, 0, 1, 1, 0, 1, 12:54:50.296
26, -187500.02, -69890.69, -187500.02, -187500.02, -187500.02, -187500.02, -187500.02, -187500.02, 0, 1, 1, 0, 1, 12:54:50.296
27, -187500.02, -70276.43, -187500.02, -187500.02, -187500.02, -187500.02, -187500.02, -187500.02, 0, 1, 1, 0, 1, 12:54:50.296
28, -187500.02, -70369.50, -187500.02, -187500.02, -187500.02, -187500.02, -187500.02, -187500.02, 0, 1, 1, 0, 1, 12:54:50.296
29, -187500.02, -70487.16, -187500.02, -187500.02, -187500.02, -187500.02, -187500.02, -187500.02, 0, 1, 1, 0, 1, 12:54:50.296
30, -187500.02, -70954.78, -187500.02, -187500.02, -187500.02, -187500.02, -187500.02, -187500.02, 0, 1, 1, 0, 1, 12:54:50.296
31, -187500.02, -71360.76, -187500.02, -187500.02, -187500.02, -187500.02, -187500.02, -187500.02, 0, 1, 1, 0, 1, 12:54:50.296
32, -187500.02, -71420.77, -187500.02, -187500.02, -187500.02, -187500.02, -187500.02, -187500.02, 0, 1, 1, 0, 1, 12:54:50.297
33, -187500.02, -71441.00, -187500.02, -187500.02, -187500.02, -187500.02, -187500.02, -187500.02, 0, 1, 1, 0, 1, 12:54:50.297
34, -187500.02, -71873.57, -187500.02, -187500.02, -187500.02, -187500.02, -187500.02, -187500.02, 0, 1, 1, 0, 1, 12:54:50.297
35, -187500.02, -72403.80, -187500.02, -187500.02, -187500.02, -187500.02, -187500.02, -187500.02, 0, 1, 1, 0, 1, 12:54:50.297
36, -187500.02, -72630.29, -187500.02, -187500.02, -187500.02, -187500.02, -187500.02, -187500.02, 0, 1, 1, 0, 1, 12:54:50.297
37, -187500.02, -72722.43, -187500.02, -187500.02, -187500.02, -187500.02, -187500.02, -187500.02, 0, 1, 1, 0, 1, 12:54:50.297
38, -187500.02, -73156.97, -187500.02, -187500.02, -187500.02, -187500.02, -187500.02, -187500.02, 0, 1, 1, 0, 1, 12:54:50.297
39, -187500.02, -73741.53, -187500.02, -187500.02, -187500.02, -187500.02, -187500.02, -187500.02, 0, 1, 1, 0, 1, 12:54:50.297
40, -187500.02, -73973.54, -187500.02, -187500.02, -187500.02, -187500.02, -187500.02, -187500.02, 0, 1, 1, 0, 1, 12:54:50.297
41, -187500.02, -73953.38, -187500.02, -187500.02, -187500.02, -187500.02, -187500.02, -187500.02, 0, 1, 1, 0, 1, 12:54:50.297
42, -187500.02, -74184.05, -187500.02, -187500.02, -187500.02, -187500.02, -187500.02, -187500.02, 0, 1, 1, 0, 1, 12:54:50.297
43, -187500.02, -74651.41, -187500.02, -187500.02, -187500.02, -187500.02, -187500.02, -187500.02, 0, 1, 1, 0, 1, 12:54:50.298
44, -187500.02, -74861.33, -187500.02, -187500.02, -187500.02, -187500.02, -187500.02, -187500.02, 0, 1, 1, 0, 1, 12:54:50.298
45, -187500.02, -74843.18, -187500.02, -187500.02, -187500.02, -187500.02, -187500.02, -187500.02, 0, 1, 1, 0, 1, 12:54:50.298
46, -187500.02, -75058.81, -187500.02, -187500.02, -187500.02, -187500.02, -187500.02, -187500.02, 0, 1, 1, 0, 1, 12:54:50.298
47, -187500.02, -75631.33, -187500.02, -187500.02, -187500.02, -187500.02, -187500.02, -187500.02, 0, 1, 1, 0, 1, 12:54:50.298
48, -187500.02, -76038.15, -187500.02, -187500.02, -187500.02, -187500.02, -187500.02, -187500.02, 0, 1, 1, 0, 1, 12:54:50.298
49, -187500.02, -76156.44, -187500.02, -187500.02, -187500.02, -187500.02, -187500.02, -187500.02, 0, 1, 1, 0, 1, 12:54:50.298
50, -187500.02, -76421.88, -187500.02, -187500.02, -187500.02, -187500.02, -187500.02, -187500.02, 0, 1, 1, 0, 1, 12:54:50.298
51, -187500.02, -77087.12, -187500.02, -187500.02, -187500.02, -187500.02, -187500.02, -187500.02, 0, 1, 1, 0, 1, 12:54:50.298
52, -187500.02, -77655.92, -187500.02, -187500.02, -187500.02, -187500.02, -187500.02, -187500.02, 0, 1, 1, 0, 1, 12:54:50.298
53, -187500.02, -77881.68, -187500.02, -187500.02, -187500.02, -187500.02, -187500.02, -187500.02, 0, 1, 1, 0, 1, 12:54:50.298
54, -187500.02, -78099.25, -187500.02, -187500.02, -187500.02, -187500.02, -187500.02, -187500.02, 0, 1, 1, 0, 1, 12:54:50.299
55, -187500.02, -78662.24, -187500.02, -187500.02, -187500.02, -187500.02, -187500.02, -187500.02, 0, 1, 1, 0, 1, 12:54:50.299
56, -187500.02, -79123.25, -187500.02, -187500.02, -187500.02, -187500.02, -187500.02, -187500.02, 0, 1, 1, 0, 1, 12:54:50.299
57, -187500.02, -79183.31, -187500.02, -187500.02, -187500.02, -187500.02, -187500.02, -187500.02, 0, 1, 1, 0, 1, 12:54:50.299
58, -187500.02, -79137.53, -187500.02, -187500.02, -187500.02, -187500.02, -187500.02, -187500.02, 0, 1, 1, 0, 1, 12:54:50.299
59, -187500.02, -79412.57, -187500.02, -187500.02, -187500.02, -187500.02, -187500.02, -187500.02, 0, 1, 1, 0, 1, 12:54:50.299
60, -187500.02, -79725.54, -187500.02, -187500.02, -187500.02, -187500.02, -187500.02, -187500.02, 0, 1, 1, 0, 1, 12:54:50.299
61, -187500.02, -79721.20, -187500.02, -187500.02, -187500.02, -187500.02, -187500.02, -187500.02, 0, 1, 1, 0, 1, 12:54:50.299
62, -187500.02, -79574.02, -187500.02, -187500.02, -187500.02, -187500.02, -187500.02, -187500.02, 0, 1, 1, 0, 1, 12:54:50.300
63, -187500.02, -79759.38, -187500.02, -187500.02, -187500.02, -187500.02, -187500.02, -187500.02, 0, 1, 1, 0, 1, 12:54:50.300
64, -187500.02, -80162.95, -187500.02, -187500.02, -187500.02, -187500.02, -187500.02, -187500.02, 0, 1, 1, 0, 1, 12:54:50.300
65, -187500.02, -80306.53, -187500.02, -187500.02, -187500.02, -187500.02, -187500.02, -187500.02, 0, 1, 1, 0, 1, 12:54:50.300
66, -187500.02, -80238.65, -187500.02, -187500.02, -187500.02, -187500.02, -187500.02, -187500.02, 0, 1, 1, 0, 1, 12:54:50.300
67, -187500.02, -80435.21, -187500.02, -187500.02, -187500.02, -187500.02, -187500.02, -187500.02, 0, 1, 1, 0, 1, 12:54:50.300
68, -187500.02, -80911.21, -187500.02, -187500.02, -187500.02, -187500.02, -187500.02, -187500.02, 0, 1, 1, 0, 1, 12:54:50.300
69, -187500.02, -81157.69, -187500.02, -187500.02, -187500.02, -187500.02, -187500.02, -187500.02, 0, 1, 1, 0, 1, 12:54:50.300
70, -187500.02, -81130.15, -187500.02, -187500.02, -187500.02, -187500.02, -187500.02, -187500.02, 0, 1, 1, 0, 1, 12:54:50.300
71, -187500.02, -81284.95, -187500.02, -187500.02, -187500.02, -187500.02, -187500.02, -187500.02, 0, 1, 1, 0, 1, 12:54:50.301
72, -187500.02, -81770.41, -187500.02, -187500.02, -187500.02, -187500.02, -187500.02, -187500.02, 0, 1, 1, 0, 1, 12:54:50.301
73, -187500.02, -82072.30, -187500.02, -187500.02, -187500.02, -187500.02, -187500.02, -187500.02, 0, 1, 1, 0, 1, 12:54:50.768
74, -187500.02, -82028.02, -187500.02, -187500.02, -187500.02, -187500.02, -187500.02, -187500.02, 0, 1, 1, 0, 1, 12:54:50.768
75, -187500.02, -82067.49, -187500.02, -187500.02, -187500.02, -187500.02, -187500.02, -187500.02, 0, 1, 1, 0, 1, 12:54:50.768
76, -187500.02, -82467.48, -187500.02, -187500.02, -187500.02, -187500.02, -187500.02, -187500.02, 0, 1, 1, 0, 1, 12:54:50.768
77, -187500.02, -82772.69, -187500.02, -187500.02, -187500.02, -187500.02, -187500.02, -187500.02, 0, 1, 1, 0, 1, 12:54:50.769
78, -187500.02, -82726.24, -187500.02, -187500.02, -187500.02, -187500.02, -187500.02, -187500.02, 0, 1, 1, 0, 1, 12:54:50.769
79, -187500.02, -82667.08, -187500.02, -187500.02, -187500.02, -187500.02, -187500.02, -187500.02, 0, 1, 1, 0, 1, 12:54:50.769
80, -187500.02, -82983.73, -187500.02, -187500.02, -187500.02, -187500.02, -187500.02, -187500.02, 0, 1, 1, 0, 1, 12:54:50.769
81, -187500.02, -83307.25, -187500.02, -187500.02, -187500.02, -187500.02, -187500.02, -187500.02, 0, 1, 1, 0, 1, 12:54:50.769
82, -187500.02, -83294.71, -187500.02, -187500.02, -187500.02, -187500.02, -187500.02, -187500.02, 0, 1, 1, 0, 1, 12:54:50.770
83, -187500.02, -83208.75, -187500.02, -187500.02, -187500.02, -187500.02, -187500.02, -187500.02, 0, 1, 1, 0, 1, 12:54:50.770
84, -187500.02, -83504.70, -187500.02, -187500.02, -187500.02, -187500.02, -187500.02, -187500.02, 0, 1, 1, 0, 1, 12:54:50.770
85, -187500.02, -83924.18, -187500.02, -187500.02, -187500.02, -187500.02, -187500.02, -187500.02, 0, 1, 1, 0, 1, 12:54:50.770
86, -187500.02, -84023.09, -187500.02, -187500.02, -187500.02, -187500.02, -187500.02, -187500.02, 0, 1, 1, 0, 1, 12:54:50.770
87, -187500.02, -83941.66, -187500.02, -187500.02, -187500.02, -187500.02, -187500.02, -187500.02, 0, 1, 1, 0, 1, 12:54:50.770
88, -187500.02, -84180.89, -187500.02, -187500.02, -187500.02, -187500.02, -187500.02, -187500.02, 0, 1, 1, 0, 1, 12:54:50.770
89, -187500.02, -84667.00, -187500.02, -187500.02, -187500.02, -187500.02, -187500.02, -187500.02, 0, 1, 1, 0, 1, 12:54:50.770
90, -187500.02, -84840.54, -187500.02, -187500.02, -187500.02, -187500.02, -187500.02, -187500.02, 0, 1, 1, 0, 1, 12:54:50.771
91, -187500.02, -84734.99, -187500.02, -187500.02, -187500.02, -187500.02, -187500.02, -187500.02, 0, 1, 1, 0, 1, 12:54:50.771
92, -187500.02, -84817.52, -187500.02, -187500.02, -187500.02, -187500.02, -187500.02, -187500.02, 0, 1, 1, 0, 1, 12:54:50.771
93, -187500.02, -85135.27, -187500.02, -187500.02, -187500.02, -187500.02, -187500.02, -187500.02, 0, 1, 1, 0, 1, 12:54:50.771
94, -187500.02, -85241.55, -187500.02, -187500.02, -187500.02, -187500.02, -187500.02, -187500.02, 0, 1, 1, 0, 1, 12:54:50.771
95, -187500.02, -85070.65, -187500.02, -187500.02, -187500.02, -187500.02, -187500.02, -187500.02, 0, 1, 1, 0, 1, 12:54:50.771
96, -187500.02, -85019.30, -187500.02, -187500.02, -187500.02, -187500.02, -187500.02, -187500.02, 0, 1, 1, 0, 1, 12:54:50.771
97, -187500.02, -85313.97, -187500.02, -187500.02, -187500.02, -187500.02, -187500.02, -187500.02, 0, 1, 1, 0, 1, 12:54:50.771
98, -187500.02, -85501.84, -187500.02, -187500.02, -187500.02, -187500.02, -187500.02, -187500.02, 0, 1, 1, 0, 1, 12:54:50.771
99, -187500.02, -85405.63, -187500.02, -187500.02, -187500.02, -187500.02, -187500.02, -187500.02, 0, 1, 1, 0, 1, 12:54:50.771
100, -187500.02, -85377.31, -187500.02, -187500.02, -187500.02, -187500.02, -187500.02, -187500.02, 0, 1, 1, 0, 1, 12:54:50.772
101, -187500.02, -85728.81, -187500.02, -187500.02, -187500.02, -187500.02, -187500.02, -187500.02, 0, 1, 1, 0, 1, 12:54:50.772
102, -187500.02, -86026.20, -187500.02, -187500.02, -187500.02, -187500.02, -187500.02, -187500.02, 0, 1, 1, 0, 1, 12:54:50.772
103, -187500.02, -86009.27, -187500.02, -187500.02, -187500.02, -187500.02, -187500.02, -187500.02, 0, 1, 1, 0, 1, 12:54:50.772
104, -187500.02, -85980.99, -187500.02, -187500.02, -187500.02, -187500.02, -187500.02, -187500.02, 0, 1, 1, 0, 1, 12:54:50.772
105, -187500.02, -86338.84, -187500.02, -187500.02, -187500.02, -187500.02, -187500.02, -187500.02, 0, 1, 1, 0, 1, 12:54:50.772
106, -187500.02, -86733.39, -187500.02, -187500.02, -187500.02, -187500.02, -187500.02, -187500.02, 0, 1, 1, 0, 1, 12:54:50.772
107, -187500.02, -86789.01, -187500.02, -187500.02, -187500.02, -187500.02, -187500.02, -187500.02, 0, 1, 1, 0, 1, 12:54:50.772
108, -187500.02, -86732.48, -187500.02, -187500.02, -187500.02, -187500.02, -187500.02, -187500.02, 0, 1, 1, 0, 1, 12:54:50.772
109, -187500.02, -87020.79, -187500.02, -187500.02, -187500.02, -187500.02, -187500.02, -187500.02, 0, 1, 1, 0, 1, 12:54:50.772
110, -187500.02, -87440.91, -187500.02, -187500.02, -187500.02, -187500.02, -187500.02, -187500.02, 0, 1, 1, 0, 1, 12:54:50.773
111, -187500.02, -87532.83, -187500.02, -187500.02, -187500.02, -187500.02, -187500.02, -187500.02, 0, 1, 1, 0, 1, 12:54:50.773
112, -187500.02, -87447.48, -187500.02, -187500.02, -187500.02, -187500.02, -187500.02, -187500.02, 0, 1, 1, 0, 1, 12:54:50.773
113, -187500.02, -87663.27, -187500.02, -187500.02, -187500.02, -187500.02, -187500.02, -187500.02, 0, 1, 1, 0, 1, 12:54:50.773
114, -187500.02, -88102.33, -187500.02, -187500.02, -187500.02, -187500.02, -187500.02, -187500.02, 0, 1, 1, 0, 1, 12:54:50.773
115, -187500.02, -88270.86, -187500.02, -187500.02, -187500.02, -187500.02, -187500.02, -187500.02, 0, 1, 1, 0, 1, 12:54:50.773
116, -187500.02, -88186.44, -187500.02, -187500.02, -187500.02, -187500.02, -187500.02, -187500.02, 0, 1, 1, 0, 1, 12:54:50.773
117, -187500.02, -88310.42, -187500.02, -187500.02, -187500.02, -187500.02, -187500.02, -187500.02, 0, 1, 1, 0, 1, 12:54:50.773
118, -187500.02, -88735.55, -187500.02, -187500.02, -187500.02, -187500.02, -187500.02, -187500.02, 0, 1, 1, 0, 1, 12:54:50.773
119, -187500.02, -88962.22, -187500.02, -187500.02, -187500.02, -187500.02, -187500.02, -187500.02, 0, 1, 1, 0, 1, 12:54:50.773
120, -187500.02, -88890.52, -187500.02, -187500.02, -187500.02, -187500.02, -187500.02, -187500.02, 0, 1, 1, 0, 1, 12:54:50.774
121, -187500.02, -88925.16, -187500.02, -187500.02, -187500.02, -187500.02, -187500.02, -187500.02, 0, 1, 1, 0, 1, 12:54:50.774
122, -187500.02, -89296.27, -187500.02, -187500.02, -187500.02, -187500.02, -187500.02, -187500.02, 0, 1, 1, 0, 1, 12:54:50.774
123, -187500.02, -89536.66, -187500.02, -187500.02, -187500.02, -187500.02, -187500.02, -187500.02, 0, 1, 1, 0, 1, 12:54:50.774
124, -187500.02, -89458.48, -187500.02, -187500.02, -187500.02, -187500.02, -187500.02, -187500.02, 0, 1, 1, 0, 1, 12:54:50.774
125, -187500.02, -89398.52, -187500.02, -187500.02, -187500.02, -187500.02, -187500.02, -187500.02, 0, 1, 1, 0, 1, 12:54:50.774
126, -187500.02, -89687.66, -187500.02, -187500.02, -187500.02, -187500.02, -187500.02, -187500.02, 0, 1, 1, 0, 1, 12:54:50.774
127, -187500.02, -89964.25, -187500.02, -187500.02, -187500.02, -187500.02, -187500.02, -187500.02, 0, 1, 1, 0, 1, 12:54:50.774
128, -187500.02, -89904.63, -187500.02, -187500.02, -187500.02, -187500.02, -187500.02, -187500.02, 0, 1, 1, 0, 1, 12:54:50.774
129, -187500.02, -89778.21, -187500.02, -187500.02, -187500.02, -187500.02, -187500.02, -187500.02, 0, 1, 1, 0, 1, 12:54:50.774
130, -187500.02, -90002.23, -187500.02, -187500.02, -187500.02, -187500.02, -187500.02, -187500.02, 0, 1, 1, 0, 1, 12:54:50.775
131, -187500.02, -90275.32, -187500.02, -187500.02, -187500.02, -187500.02, -187500.02, -187500.02, 0, 1, 1, 0, 1, 12:54:50.775
132, -187500.02, -90216.47, -187500.02, -187500.02, -187500.02, -187500.02, -187500.02, -187500.02, 0, 1, 1, 0, 1, 12:54:50.775
133, -187500.02, -90005.82, -187500.02, -187500.02, -187500.02, -187500.02, -187500.02, -187500.02, 0, 1, 1, 0, 1, 12:54:50.775
134, -187500.02, -90095.66, -187500.02, -187500.02, -187500.02, -187500.02, -187500.02, -187500.02, 0, 1, 1, 0, 1, 12:54:50.775
135, -187500.02, -90306.21, -187500.02, -187500.02, -187500.02, -187500.02, -187500.02, -187500.02, 0, 1, 1, 0, 1, 12:54:50.775
136, -187500.02, -90187.32, -187500.02, -187500.02, -187500.02, -187500.02, -187500.02, -187500.02, 0, 1, 1, 0, 1, 12:54:50.775
137, -187500.02, -89842.21, -187500.02, -187500.02, -187500.02, -187500.02, -187500.02, -187500.02, 0, 1, 1, 0, 1, 12:54:50.775
138, -187500.02, -89739.28, -187500.02, -187500.02, -187500.02, -187500.02, -187500.02, -187500.02, 0, 1, 1, 0, 1, 12:54:50.775
139, -187500.02, -89853.54, -187500.02, -187500.02, -187500.02, -187500.02, -187500.02, -187500.02, 0, 1, 1, 0, 1, 12:54:50.775
140, -187500.02, -89727.48, -187500.02, -187500.02, -187500.02, -187500.02, -187500.02, -187500.02, 0, 1, 1, 0, 1, 12:54:50.776
141, -187500.02, -89366.98, -187500.02, -187500.02, -187500.02, -187500.02, -187500.02, -187500.02, 0, 1, 1, 0, 1, 12:54:50.776
142, -187500.02, -89210.03, -187500.02, -187500.02, -187500.02, -187500.02, -187500.02, -187500.02, 0, 1, 1, 0, 1, 12:54:50.776
143, -187500.02, -89370.12, -187500.02, -187500.02, -187500.02, -187500.02, -187500.02, -187500.02, 0, 1, 1, 0, 1, 12:54:50.776
144, -187500.02, -89343.92, -187500.02, -187500.02, -187500.02, -187500.02, -187500.02, -187500.02, 0, 1, 1, 0, 1, 12:54:50.777
145, -187500.02, -88992.82, -187500.02, -187500.02, -187500.02, -187500.02, -187500.02, -187500.02, 0, 1, 1, 0, 1, 12:54:50.777
146, -187500.02, -88701.77, -187500.02, -187500.02, -187500.02, -187500.02, -187500.02, -187500.02, 0, 1, 1, 0, 1, 12:54:50.777
147, -187500.02, -88786.42, -187500.02, -187500.02, -187500.02, -187500.02, -187500.02, -187500.02, 0, 1, 1, 0, 1, 12:54:50.777
148, -187500.02, -88815.15, -187500.02, -187500.02, -187500.02, -187500.02, -187500.02, -187500.02, 0, 1, 1, 0, 1, 12:54:50.778
149, -187500.02, -88580.66, -187500.02, -187500.02, -187500.02, -187500.02, -187500.02, -187500.02, 0, 1, 1, 0, 1, 12:54:50.778
150, -187500.02, -88398.60, -187500.02, -187500.02, -187500.02, -187500.02, -187500.02, -187500.02, 0, 1, 1, 0, 1, 12:54:50.778
151, -187500.02, -88600.91, -187500.02, -187500.02, -187500.02, -187500.02, -187500.02, -187500.02, 0, 1, 1, 0, 1, 12:54:50.778
152, -187500.02, -88833.23, -187500.02, -187500.02, -187500.02, -187500.02, -187500.02, -187500.02, 0, 1, 1, 0, 1, 12:54:50.778
153, -187500.02, -88764.43, -187500.02, -187500.02, -187500.02, -187500.02, -187500.02, -187500.02, 0, 1, 1, 0, 1, 12:54:50.778
154, -187500.02, -88626.09, -187500.02, -187500.02, -187500.02, -187500.02, -187500.02, -187500.02, 0, 1, 1, 0, 1, 12:54:50.778
155, -187500.02, -88824.80, -187500.02, -187500.02, -187500.02, -187500.02, -187500.02, -187500.02, 0, 1, 1, 0, 1, 12:54:50.778
156, -187500.02, -89142.33, -187500.02, -187500.02, -187500.02, -187500.02, -187500.02, -187500.02, 0, 1, 1, 0, 1, 12:54:50.778
157, -187500.02, -89182.92, -187500.02, -187500.02, -187500.02, -187500.02, -187500.02, -187500.02, 0, 1, 1, 0, 1, 12:54:50.779
158, -187500.02, -89101.60, -187500.02, -187500.02, -187500.02, -187500.02, -187500.02, -187500.02, 0, 1, 1, 0, 1, 12:54:50.779
159, -187500.02, -89331.42, -187500.02, -187500.02, -187500.02, -187500.02, -187500.02, -187500.02, 0, 1, 1, 0, 1, 12:54:50.779
160, -187500.02, -89744.64, -187500.02, -187500.02, -187500.02, -187500.02, -187500.02, -187500.02, 0, 1, 1, 0, 1, 12:54:50.779
161, -187500.02, -89882.91, -187500.02, -187500.02, -187500.02, -187500.02, -187500.02, -187500.02, 0, 1, 1, 0, 1, 12:54:50.779
162, -187500.02, -89801.10, -187500.02, -187500.02, -187500.02, -187500.02, -187500.02, -187500.02, 0, 1, 1, 0, 1, 12:54:50.779
163, -187500.02, -89950.30, -187500.02, -187500.02, -187500.02, -187500.02, -187500.02, -187500.02, 0, 1, 1, 0, 1, 12:54:50.779
164, -187500.02, -90337.84, -187500.02, -187500.02, -187500.02, -187500.02, -187500.02, -187500.02, 0, 1, 1, 0, 1, 12:54:50.779
165, -187500.02, -90539.29, -187500.02, -187500.02, -187500.02, -187500.02, -187500.02, -187500.02, 0, 1, 1, 0, 1, 12:54:50.779
166, -187500.02, -90496.82, -187500.02, -187500.02, -187500.02, -187500.02, -187500.02, -187500.02, 0, 1, 1, 0, 1, 12:54:50.779
167, -187500.02, -90601.97, -187500.02, -187500.02, -187500.02, -187500.02, -187500.02, -187500.02, 0, 1, 1, 0, 1, 12:54:50.779
168, -187500.02, -91012.01, -187500.02, -187500.02, -187500.02, -187500.02, -187500.02, -187500.02, 0, 1, 1, 0, 1, 12:54:50.780
169, -187500.02, -91266.62, -187500.02, -187500.02, -187500.02, -187500.02, -187500.02, -187500.02, 0, 1, 1, 0, 1, 12:54:50.780
