%OpenBCI Raw EEG Data
%
%Sample Rate = 250.0 Hz
%First Column = SampleIndex
%Last Column = Timestamp 
%Other Columns = EEG data in microvolts followed by Accel Data (in G) interleaved with Aux Data
0, -185466.80, -181576.63, -187500.02, -187500.02, -187500.02, -187500.02, -184558.50, -187500.02, 469,0.0, 20:37:40.556
1, -185348.42, -181623.34, -187500.02, -187500.02, -187500.02, -187500.02, -184565.95, -187500.02, 452,0.0, 20:37:40.558
2, -185335.77, -181625.70, -187500.02, -187500.02, -187500.02, -187500.02, -184577.48, -187500.02, 432,0.0, 20:37:40.558
3, -185453.22, -181577.56, -187500.02, -187500.02, -187500.02, -187500.02, -184521.44, -187500.02, 414,0.0, 20:37:40.559
4, -185468.58, -181564.83, -187500.02, -187500.02, -187500.02, -187500.02, -184487.53, -187500.02, 399,0.0, 20:37:40.559
5, -185345.59, -181602.89, -187500.02, -187500.02, -187500.02, -187500.02, -184497.02, -187500.02, 390,0.0, 20:37:40.560
6, -185271.23, -181603.80, -187500.02, -187500.02, -187500.02, -187500.02, -184526.70, -187500.02, 382,0.0, 20:37:40.561
7, -185377.73, -181564.22, -187500.02, -187500.02, -187500.02, -187500.02, -184471.64, -187500.02, 373,0.0, 20:37:40.561
8, -185420.72, -181560.23, -187500.02, -187500.02, -187500.02, -187500.02, -184438.98, -187500.02, 365,0.0, 20:37:40.562
9, -185320.36, -181591.53, -187500.02, -187500.02, -187500.02, -187500.02, -184455.13, -187500.02, 361,0.0, 20:37:40.562
10, -185220.55, -181601.23, -187500.02, -187500.02, -187500.02, -187500.02, -184529.72, -187500.02, 359,0.0, 20:37:40.562
11, -185316.20, -181568.42, -187500.02, -187500.02, -187500.02, -187500.02, -184514.56, -187500.02, 355,0.0, 20:37:40.563
12, -185389.94, -181556.27, -187500.02, -187500.02, -187500.02, -187500.02, -184496.23, -187500.02, 350,0.0, 20:37:40.563
13, -185320.50, -181582.22, -187500.02, -187500.02, -187500.02, -187500.02, -184498.69, -187500.02, 348,0.0, 20:37:40.564
14, -185204.09, -181603.83, -187500.02, -187500.02, -187500.02, -187500.02, -184572.73, -187500.02, 348,0.0, 20:37:40.565
15, -185277.83, -181577.42, -187500.02, -187500.02, -187500.02, -187500.02, -184575.48, -187500.02, 347,0.0, 20:37:40.565
16, -185374.83, -181558.44, -187500.02, -187500.02, -187500.02, -187500.02, -184565.61, -187500.02, 343,0.0, 20:37:40.565
17, -185335.16, -181580.47, -187500.02, -187500.02, -187500.02, -187500.02, -184568.98, -187500.02, 342,0.0, 20:37:40.566
18, -185212.20, -181610.23, -187500.02, -187500.02, -187500.02, -187500.02, -184626.98, -187500.02, 343,0.0, 20:37:40.566
19, -185257.88, -181592.25, -187500.02, -187500.02, -187500.02, -187500.02, -184606.89, -187500.02, 343,0.0, 20:37:40.567
20, -185376.48, -181567.03, -187500.02, -187500.02, -187500.02, -187500.02, -184532.80, -187500.02, 340,0.0, 20:37:40.568
21, -185364.55, -181587.83, -187500.02, -187500.02, -187500.02, -187500.02, -184473.98, -187500.02, 339,0.0, 20:37:40.568
22, -185239.14, -181629.52, -187500.02, -187500.02, -187500.02, -187500.02, -184493.34, -187500.02, 340,0.0, 20:37:40.568
23, -185242.33, -181624.13, -187500.02, -187500.02, -187500.02, -187500.02, -184494.00, -187500.02, 341,0.0, 20:37:40.569
24, -185364.94, -181582.44, -187500.02, -187500.02, -187500.02, -187500.02, -184439.23, -187500.02, 339,0.0, 20:37:40.569
25, -185376.13, -181590.42, -187500.02, -187500.02, -187500.02, -187500.02, -184399.14, -187500.02, 337,0.0, 20:37:40.569
26, -185254.77, -181640.47, -187500.02, -187500.02, -187500.02, -187500.02, -184404.08, -187500.02, 339,0.0, 20:37:40.570
27, -185217.95, -181647.09, -187500.02, -187500.02, -187500.02, -187500.02, -184403.47, -187500.02, 340,0.0, 20:37:40.570
28, -185342.77, -181610.23, -187500.02, -187500.02, -187500.02, -187500.02, -184327.92, -187500.02, 339,0.0, 20:37:40.570
29, -185380.20, -181606.39, -187500.02, -187500.02, -187500.02, -187500.02, -184282.11, -187500.02, 337,0.0, 20:37:40.571
30, -185275.33, -181658.59, -187500.02, -187500.02, -187500.02, -187500.02, -184293.23, -187500.02, 338,0.0, 20:37:40.571
31, -185203.47, -181676.17, -187500.02, -187500.02, -187500.02, -187500.02, -184350.19, -187500.02, 339,0.0, 20:37:40.571
32, -185318.58, -181641.31, -187500.02, -187500.02, -187500.02, -187500.02, -184322.56, -187500.02, 339,0.0, 20:37:40.572
33, -185384.05, -181625.78, -187500.02, -187500.02, -187500.02, -187500.02, -184301.13, -187500.02, 336,0.0, 20:37:40.572
34, -185306.14, -181675.86, -187500.02, -187500.02, -187500.02, -187500.02, -184310.58, -187500.02, 337,0.0, 20:37:40.572
35, -185213.45, -181705.75, -187500.02, -187500.02, -187500.02, -187500.02, -184379.13, -187500.02, 340,0.0, 20:37:40.573
36, -185319.00, -181680.97, -187500.02, -187500.02, -187500.02, -187500.02, -184365.77, -187500.02, 339,0.0, 20:37:40.573
37, -185415.45, -181656.02, -187500.02, -187500.02, -187500.02, -187500.02, -184354.55, -187500.02, 337,0.0, 20:37:40.573
38, -185367.41, -181699.31, -187500.02, -187500.02, -187500.02, -187500.02, -184369.61, -187500.02, 336,0.0, 20:37:40.574
39, -185259.36, -181735.91, -187500.02, -187500.02, -187500.02, -187500.02, -184457.39, -187500.02, 339,0.0, 20:37:40.574
40, -185333.78, -181714.69, -187500.02, -187500.02, -187500.02, -187500.02, -184469.00, -187500.02, 339,0.0, 20:37:40.574
41, -185448.14, -181680.25, -187500.02, -187500.02, -187500.02, -187500.02, -184459.67, -187500.02, 337,0.0, 20:37:40.575
42, -185425.39, -181709.31, -187500.02, -187500.02, -187500.02, -187500.02, -184473.13, -187500.02, 336,0.0, 20:37:40.575
43, -185305.92, -181749.20, -187500.02, -187500.02, -187500.02, -187500.02, -184562.58, -187500.02, 338,0.0, 20:37:40.576
44, -185343.36, -181735.88, -187500.02, -187500.02, -187500.02, -187500.02, -184603.88, -187500.02, 339,0.0, 20:37:40.576
45, -185467.02, -181693.44, -187500.02, -187500.02, -187500.02, -187500.02, -184602.41, -187500.02, 337,0.0, 20:37:40.577
46, -185464.16, -181705.64, -187500.02, -187500.02, -187500.02, -187500.02, -184622.66, -187500.02, 335,0.0, 20:37:40.577
47, -185339.73, -181745.47, -187500.02, -187500.02, -187500.02, -187500.02, -184706.52, -187500.02, 338,0.0, 20:37:40.578
48, -185327.94, -181735.02, -187500.02, -187500.02, -187500.02, -187500.02, -184764.45, -187500.02, 338,0.0, 20:37:40.579
49, -185451.56, -181686.59, -187500.02, -187500.02, -187500.02, -187500.02, -184752.66, -187500.02, 337,0.0, 20:37:40.579
50, -185470.09, -181680.77, -187500.02, -187500.02, -187500.02, -187500.02, -184757.09, -187500.02, 335,0.0, 20:37:40.580
51, -185352.14, -181720.89, -187500.02, -187500.02, -187500.02, -187500.02, -184806.88, -187500.02, 336,0.0, 20:37:40.580
52, -185301.77, -181721.17, -187500.02, -187500.02, -187500.02, -187500.02, -184859.97, -187500.02, 338,0.0, 20:37:40.581
53, -185420.23, -181672.48, -187500.02, -187500.02, -187500.02, -187500.02, -184824.48, -187500.02, 337,0.0, 20:37:40.581
54, -185461.06, -181651.91, -187500.02, -187500.02, -187500.02, -187500.02, -184801.92, -187500.02, 335,0.0, 20:37:40.582
55, -185357.84, -181690.70, -187500.02, -187500.02, -187500.02, -187500.02, -184814.75, -187500.02, 336,0.0, 20:37:40.582
56, -185270.88, -181698.91, -187500.02, -187500.02, -187500.02, -187500.02, -184867.11, -187500.02, 338,0.0, 20:37:40.582
57, -185376.11, -181656.44, -187500.02, -187500.02, -187500.02, -187500.02, -184829.83, -187500.02, 337,0.0, 20:37:40.583
58, -185441.63, -181627.92, -187500.02, -187500.02, -187500.02, -187500.02, -184797.17, -187500.02, 335,0.0, 20:37:40.583
59, -185363.14, -181665.34, -187500.02, -187500.02, -187500.02, -187500.02, -184787.63, -187500.02, 335,0.0, 20:37:40.583
60, -185254.98, -181687.25, -187500.02, -187500.02, -187500.02, -187500.02, -184833.09, -187500.02, 338,0.0, 20:37:40.583
61, -185340.45, -181654.75, -187500.02, -187500.02, -187500.02, -187500.02, -184787.31, -187500.02, 337,0.0, 20:37:40.584
62, -185429.16, -181617.47, -187500.02, -187500.02, -187500.02, -187500.02, -184731.23, -187500.02, 335,0.0, 20:37:40.584
63, -185375.69, -181647.09, -187500.02, -187500.02, -187500.02, -187500.02, -184696.33, -187500.02, 335,0.0, 20:37:40.584
64, -185249.27, -181675.98, -187500.02, -187500.02, -187500.02, -187500.02, -184731.19, -187500.02, 337,0.0, 20:37:40.585
65, -185302.08, -181650.81, -187500.02, -187500.02, -187500.02, -187500.02, -184698.72, -187500.02, 338,0.0, 20:37:40.585
66, -185409.44, -181608.14, -187500.02, -187500.02, -187500.02, -187500.02, -184641.25, -187500.02, 336,0.0, 20:37:40.586
67, -185383.66, -181627.44, -187500.02, -187500.02, -187500.02, -187500.02, -184610.58, -187500.02, 335,0.0, 20:37:40.593
68, -185256.55, -181663.78, -187500.02, -187500.02, -187500.02, -187500.02, -184655.06, -187500.02, 337,0.0, 20:37:40.593
69, -185272.31, -181647.72, -187500.02, -187500.02, -187500.02, -187500.02, -184657.70, -187500.02, 338,0.0, 20:37:40.593
70, -185391.55, -181614.48, -187500.02, -187500.02, -187500.02, -187500.02, -184612.17, -187500.02, 336,0.0, 20:37:40.594
71, -185392.33, -181632.08, -187500.02, -187500.02, -187500.02, -187500.02, -184592.19, -187500.02, 335,0.0, 20:37:40.594
72, -185267.09, -181660.83, -187500.02, -187500.02, -187500.02, -187500.02, -184639.48, -187500.02, 337,0.0, 20:37:40.594
73, -185245.81, -181652.64, -187500.02, -187500.02, -187500.02, -187500.02, -184681.86, -187500.02, 338,0.0, 20:37:40.595
74, -185372.53, -181628.73, -187500.02, -187500.02, -187500.02, -187500.02, -184653.75, -187500.02, 337,0.0, 20:37:40.595
75, -185401.83, -181627.41, -187500.02, -187500.02, -187500.02, -187500.02, -184645.67, -187500.02, 335,0.0, 20:37:40.595
76, -185294.55, -181658.70, -187500.02, -187500.02, -187500.02, -187500.02, -184678.17, -187500.02, 337,0.0, 20:37:40.595
77, -185238.58, -181659.97, -187500.02, -187500.02, -187500.02, -187500.02, -184717.06, -187500.02, 339,0.0, 20:37:40.595
78, -185360.78, -181628.39, -187500.02, -187500.02, -187500.02, -187500.02, -184663.92, -187500.02, 338,0.0, 20:37:40.596
79, -185415.11, -181628.95, -187500.02, -187500.02, -187500.02, -187500.02, -184618.72, -187500.02, 335,0.0, 20:37:40.596
80, -185322.95, -181655.27, -187500.02, -187500.02, -187500.02, -187500.02, -184617.77, -187500.02, 337,0.0, 20:37:40.596
81, -185233.11, -181668.09, -187500.02, -187500.02, -187500.02, -187500.02, -184681.70, -187500.02, 339,0.0, 20:37:40.597
82, -185336.61, -181638.00, -187500.02, -187500.02, -187500.02, -187500.02, -184662.75, -187500.02, 339,0.0, 20:37:40.597
83, -185413.77, -181621.91, -187500.02, -187500.02, -187500.02, -187500.02, -184644.22, -187500.02, 336,0.0, 20:37:40.597
84, -185346.41, -181655.92, -187500.02, -187500.02, -187500.02, -187500.02, -184644.56, -187500.02, 336,0.0, 20:37:40.598
85, -185233.91, -181683.31, -187500.02, -187500.02, -187500.02, -187500.02, -184701.84, -187500.02, 339,0.0, 20:37:40.598
86, -185310.58, -181656.36, -187500.02, -187500.02, -187500.02, -187500.02, -184676.30, -187500.02, 339,0.0, 20:37:40.598
87, -185407.98, -181622.56, -187500.02, -187500.02, -187500.02, -187500.02, -184641.61, -187500.02, 337,0.0, 20:37:40.598
88, -185365.06, -181654.03, -187500.02, -187500.02, -187500.02, -187500.02, -184629.81, -187500.02, 337,0.0, 20:37:40.598
89, -185241.80, -181691.53, -187500.02, -187500.02, -187500.02, -187500.02, -184689.27, -187500.02, 339,0.0, 20:37:40.599
90, -185288.42, -181676.97, -187500.02, -187500.02, -187500.02, -187500.02, -184685.11, -187500.02, 340,0.0, 20:37:40.599
91, -185407.28, -181640.58, -187500.02, -187500.02, -187500.02, -187500.02, -184635.73, -187500.02, 338,0.0, 20:37:40.599
92, -185397.59, -181665.11, -187500.02, -187500.02, -187500.02, -187500.02, -184609.47, -187500.02, 337,0.0, 20:37:40.599
93, -185275.41, -181712.13, -187500.02, -187500.02, -187500.02, -187500.02, -184663.11, -187500.02, 339,0.0, 20:37:40.600
94, -185286.36, -181708.70, -187500.02, -187500.02, -187500.02, -187500.02, -184690.80, -187500.02, 340,0.0, 20:37:40.600
95, -185416.81, -181671.52, -187500.02, -187500.02, -187500.02, -187500.02, -184659.67, -187500.02, 338,0.0, 20:37:40.600
96, -185432.28, -181682.39, -187500.02, -187500.02, -187500.02, -187500.02, -184635.17, -187500.02, 337,0.0, 20:37:40.600
97, -185318.13, -181734.14, -187500.02, -187500.02, -187500.02, -187500.02, -184650.45, -187500.02, 339,0.0, 20:37:40.601
98, -185290.80, -181741.73, -187500.02, -187500.02, -187500.02, -187500.02, -184655.94, -187500.02, 340,0.0, 20:37:40.601
99, -185421.50, -181705.58, -187500.02, -187500.02, -187500.02, -187500.02, -184588.64, -187500.02, 339,0.0, 20:37:40.601
100, -185463.80, -181703.98, -187500.02, -187500.02, -187500.02, -187500.02, -184554.91, -187500.02, 337,0.0, 20:37:40.601
101, -185362.77, -181755.13, -187500.02, -187500.02, -187500.02, -187500.02, -184575.17, -187500.02, 338,0.0, 20:37:40.602
102, -185297.16, -181770.84, -187500.02, -187500.02, -187500.02, -187500.02, -184629.36, -187500.02, 340,0.0, 20:37:40.602
103, -185416.92, -181736.86, -187500.02, -187500.02, -187500.02, -187500.02, -184587.83, -187500.02, 339,0.0, 20:37:40.602
104, -185479.55, -181719.44, -187500.02, -187500.02, -187500.02, -187500.02, -184545.88, -187500.02, 337,0.0, 20:37:40.602
105, -185397.09, -181765.25, -187500.02, -187500.02, -187500.02, -187500.02, -184531.81, -187500.02, 337,0.0, 20:37:40.602
106, -185301.67, -181788.00, -187500.02, -187500.02, -187500.02, -187500.02, -184576.88, -187500.02, 340,0.0, 20:37:40.603
107, -185400.66, -181757.19, -187500.02, -187500.02, -187500.02, -187500.02, -184551.89, -187500.02, 339,0.0, 20:37:40.603
108, -185489.39, -181728.50, -187500.02, -187500.02, -187500.02, -187500.02, -184544.27, -187500.02, 337,0.0, 20:37:40.603
109, -185432.70, -181766.97, -187500.02, -187500.02, -187500.02, -187500.02, -184569.20, -187500.02, 337,0.0, 20:37:40.603
110, -185317.66, -181798.22, -187500.02, -187500.02, -187500.02, -187500.02, -184656.27, -187500.02, 339,0.0, 20:37:40.603
111, -185388.63, -181774.14, -187500.02, -187500.02, -187500.02, -187500.02, -184652.27, -187500.02, 339,0.0, 20:37:40.604
112, -185495.41, -181736.75, -187500.02, -187500.02, -187500.02, -187500.02, -184614.58, -187500.02, 337,0.0, 20:37:40.604
113, -185466.88, -181764.25, -187500.02, -187500.02, -187500.02, -187500.02, -184601.23, -187500.02, 336,0.0, 20:37:40.604
114, -185344.91, -181803.31, -187500.02, -187500.02, -187500.02, -187500.02, -184675.42, -187500.02, 339,0.0, 20:37:40.604
115, -185381.47, -181789.23, -187500.02, -187500.02, -187500.02, -187500.02, -184713.05, -187500.02, 339,0.0, 20:37:40.605
116, -185504.03, -181748.44, -187500.02, -187500.02, -187500.02, -187500.02, -184710.70, -187500.02, 337,0.0, 20:37:40.605
117, -185499.67, -181765.11, -187500.02, -187500.02, -187500.02, -187500.02, -184716.80, -187500.02, 336,0.0, 20:37:40.605
118, -185375.42, -181810.27, -187500.02, -187500.02, -187500.02, -187500.02, -184770.22, -187500.02, 338,0.0, 20:37:40.605
119, -185369.81, -181804.97, -187500.02, -187500.02, -187500.02, -187500.02, -184786.53, -187500.02, 339,0.0, 20:37:40.605
120, -185494.38, -181760.63, -187500.02, -187500.02, -187500.02, -187500.02, -184733.89, -187500.02, 337,8325.6455, 20:37:41.034
121, -185512.75, -181762.23, -187500.02, -187500.02, -187500.02, -187500.02, -184711.33, -187500.02, 336,8325.6455, 20:37:41.034
122, -185396.67, -181809.91, -187500.02, -187500.02, -187500.02, -187500.02, -184751.83, -187500.02, 337,8325.6455, 20:37:41.035
123, -185351.66, -181814.94, -187500.02, -187500.02, -187500.02, -187500.02, -184801.53, -187500.02, 339,8325.6455, 20:37:41.035
124, -185476.94, -181774.97, -187500.02, -187500.02, -187500.02, -187500.02, -184759.69, -187500.02, 337,8325.6455, 20:37:41.035
125, -185522.53, -181763.34, -187500.02, -187500.02, -187500.02, -187500.02, -184716.75, -187500.02, 336,8325.6455, 20:37:41.035
126, -185423.63, -181810.48, -187500.02, -187500.02, -187500.02, -187500.02, -184701.83, -187500.02, 337,8325.6455, 20:37:41.036
127, -185344.59, -181823.70, -187500.02, -187500.02, -187500.02, -187500.02, -184726.67, -187500.02, 339,8325.6455, 20:37:41.036
128, -185455.14, -181785.55, -187500.02, -187500.02, -187500.02, -187500.02, -184672.20, -187500.02, 338,8325.6455, 20:37:41.037
129, -185523.58, -181761.56, -187500.02, -187500.02, -187500.02, -187500.02, -184638.48, -187500.02, 336,8325.6455, 20:37:41.037
130, -185447.97, -181803.61, -187500.02, -187500.02, -187500.02, -187500.02, -184633.97, -187500.02, 336,8325.6455, 20:37:41.037
131, -185345.64, -181828.50, -187500.02, -187500.02, -187500.02, -187500.02, -184680.66, -187500.02, 338,8325.6455, 20:37:41.038
132, -185438.27, -181799.14, -187500.02, -187500.02, -187500.02, -187500.02, -184628.52, -187500.02, 338,8325.6455, 20:37:41.038
133, -185530.05, -181765.78, -187500.02, -187500.02, -187500.02, -187500.02, -184567.41, -187500.02, 336,8325.6455, 20:37:41.038
134, -185482.08, -181800.52, -187500.02, -187500.02, -187500.02, -187500.02, -184533.72, -187500.02, 335,8325.6455, 20:37:41.039
135, -185364.98, -181833.58, -187500.02, -187500.02, -187500.02, -187500.02, -184585.38, -187500.02, 338,8325.6455, 20:37:41.039
136, -185426.09, -181810.95, -187500.02, -187500.02, -187500.02, -187500.02, -184579.20, -187500.02, 338,8325.6455, 20:37:41.039
137, -185537.78, -181771.59, -187500.02, -187500.02, -187500.02, -187500.02, -184554.69, -187500.02, 336,8325.6455, 20:37:41.040
138, -185516.05, -181794.75, -187500.02, -187500.02, -187500.02, -187500.02, -184545.67, -187500.02, 335,8325.6455, 20:37:41.040
139, -185393.45, -181835.38, -187500.02, -187500.02, -187500.02, -187500.02, -184599.00, -187500.02, 338,8325.6455, 20:37:41.040
140, -185421.39, -181824.94, -187500.02, -187500.02, -187500.02, -187500.02, -184603.88, -187500.02, 338,8325.6455, 20:37:41.040
141, -185548.33, -181783.61, -187500.02, -187500.02, -187500.02, -187500.02, -184563.53, -187500.02, 336,8325.6455, 20:37:41.041
142, -185554.61, -181795.83, -187500.02, -187500.02, -187500.02, -187500.02, -184555.38, -187500.02, 335,8325.6455, 20:37:41.041
143, -185437.20, -181842.52, -187500.02, -187500.02, -187500.02, -187500.02, -184617.45, -187500.02, 337,8325.6455, 20:37:41.041
144, -185425.59, -181841.63, -187500.02, -187500.02, -187500.02, -187500.02, -184664.47, -187500.02, 339,8325.6455, 20:37:41.042
145, -185559.97, -181800.61, -187500.02, -187500.02, -187500.02, -187500.02, -184632.36, -187500.02, 337,8325.6455, 20:37:41.042
146, -185594.39, -181799.73, -187500.02, -187500.02, -187500.02, -187500.02, -184610.27, -187500.02, 336,8325.6455, 20:37:41.042
147, -185490.28, -181848.63, -187500.02, -187500.02, -187500.02, -187500.02, -184635.03, -187500.02, 337,8325.6455, 20:37:41.043
148, -185442.47, -181859.52, -187500.02, -187500.02, -187500.02, -187500.02, -184684.44, -187500.02, 339,8325.6455, 20:37:41.043
149, -185570.28, -181820.95, -187500.02, -187500.02, -187500.02, -187500.02, -184654.89, -187500.02, 338,8325.6455, 20:37:41.043
150, -185626.42, -181806.28, -187500.02, -187500.02, -187500.02, -187500.02, -184646.25, -187500.02, 336,8325.6455, 20:37:41.043
151, -185537.94, -181851.89, -187500.02, -187500.02, -187500.02, -187500.02, -184668.67, -187500.02, 337,8325.6455, 20:37:41.043
152, -185452.39, -181869.23, -187500.02, -187500.02, -187500.02, -187500.02, -184727.59, -187500.02, 339,8325.6455, 20:37:41.044
153, -185561.34, -181832.95, -187500.02, -187500.02, -187500.02, -187500.02, -184689.00, -187500.02, 338,8325.6455, 20:37:41.044
154, -185639.33, -181804.52, -187500.02, -187500.02, -187500.02, -187500.02, -184655.33, -187500.02, 336,8325.6455, 20:37:41.044
155, -185572.47, -181843.86, -187500.02, -187500.02, -187500.02, -187500.02, -184651.78, -187500.02, 336,8325.6455, 20:37:41.044
156, -185464.23, -181870.64, -187500.02, -187500.02, -187500.02, -187500.02, -184720.78, -187500.02, 339,8325.6455, 20:37:41.044
157, -185546.00, -181843.34, -187500.02, -187500.02, -187500.02, -187500.02, -184709.09, -187500.02, 339,8325.6455, 20:37:41.045
158, -185643.13, -181808.17, -187500.02, -187500.02, -187500.02, -187500.02, -184686.58, -187500.02, 336,8325.6455, 20:37:41.045
159, -185600.50, -181840.58, -187500.02, -187500.02, -187500.02, -187500.02, -184679.56, -187500.02, 336,8325.6455, 20:37:41.045
160, -185476.80, -181877.17, -187500.02, -187500.02, -187500.02, -187500.02, -184733.86, -187500.02, 338,8325.6455, 20:37:41.045
161, -185525.27, -181860.31, -187500.02, -187500.02, -187500.02, -187500.02, -184719.89, -187500.02, 339,8325.6455, 20:37:41.045
162, -185640.89, -181821.94, -187500.02, -187500.02, -187500.02, -187500.02, -184672.59, -187500.02, 337,8325.6455, 20:37:41.046
163, -185626.97, -181843.81, -187500.02, -187500.02, -187500.02, -187500.02, -184650.61, -187500.02, 336,8325.6455, 20:37:41.046
164, -185505.59, -181887.58, -187500.02, -187500.02, -187500.02, -187500.02, -184706.27, -187500.02, 338,8325.6455, 20:37:41.046
165, -185518.22, -181880.34, -187500.02, -187500.02, -187500.02, -187500.02, -184727.94, -187500.02, 339,8325.6455, 20:37:41.046
166, -185645.73, -181837.72, -187500.02, -187500.02, -187500.02, -187500.02, -184686.64, -187500.02, 337,8325.6455, 20:37:41.046
167, -185657.86, -181843.03, -187500.02, -187500.02, -187500.02, -187500.02, -184658.69, -187500.02, 336,8325.6455, 20:37:41.047
168, -185537.83, -181887.94, -187500.02, -187500.02, -187500.02, -187500.02, -184676.81, -187500.02, 338,8325.6455, 20:37:41.047
169, -185509.17, -181886.78, -187500.02, -187500.02, -187500.02, -187500.02, -184688.30, -187500.02, 339,8325.6455, 20:37:41.047
170, -185636.94, -181843.33, -187500.02, -187500.02, -187500.02, -187500.02, -184630.47, -187500.02, 338,8325.6455, 20:37:41.047
171, -185675.98, -181834.50, -187500.02, -187500.02, -187500.02, -187500.02, -184605.58, -187500.02, 336,8325.6455, 20:37:41.047
172, -185575.83, -181880.83, -187500.02, -187500.02, -187500.02, -187500.02, -184628.69, -187500.02, 337,8325.6455, 20:37:41.048
173, -185511.22, -181889.86, -187500.02, -187500.02, -187500.02, -187500.02, -184678.02, -187500.02, 339,8325.6455, 20:37:41.048
174, -185628.61, -181849.34, -187500.02, -187500.02, -187500.02, -187500.02, -184631.23, -187500.02, 338,8325.6455, 20:37:41.048
175, -185685.97, -181828.23, -187500.02, -187500.02, -187500.02, -187500.02, -184592.41, -187500.02, 336,8325.6455, 20:37:41.048
176, -185596.94, -181869.59, -187500.02, -187500.02, -187500.02, -187500.02, -184590.47, -187500.02, 337,8325.6455, 20:37:41.048
177, -185497.36, -181887.45, -187500.02, -187500.02, -187500.02, -187500.02, -184652.72, -187500.02, 339,8325.6455, 20:37:41.049
178, -185592.97, -181851.97, -187500.02, -187500.02, -187500.02, -187500.02, -184635.48, -187500.02, 339,8325.6455, 20:37:41.049
179, -185672.50, -181819.95, -187500.02, -187500.02, -187500.02, -187500.02, -184622.67, -187500.02, 336,8325.6455, 20:37:41.049
180, -185609.14, -181855.48, -187500.02, -187500.02, -187500.02, -187500.02, -184632.31, -187500.02, 336,8325.6455, 20:37:41.049
181, -185489.91, -181882.44, -187500.02, -187500.02, -187500.02, -187500.02, -184703.50, -187500.02, 339,8325.6455, 20:37:41.049
182, -185555.73, -181854.97, -187500.02, -187500.02, -187500.02, -187500.02, -184694.17, -187500.02, 339,8325.6455, 20:37:41.050
183, -185653.00, -181815.44, -187500.02, -187500.02, -187500.02, -187500.02, -184666.50, -187500.02, 337,8325.6455, 20:37:41.050
184, -185611.42, -181840.28, -187500.02, -187500.02, -187500.02, -187500.02, -184660.88, -187500.02, 336,8325.6455, 20:37:41.050
185, -185480.89, -181875.47, -187500.02, -187500.02, -187500.02, -187500.02, -184730.59, -187500.02, 339,8325.6455, 20:37:41.050
186, -185512.91, -181857.30, -187500.02, -187500.02, -187500.02, -187500.02, -184743.38, -187500.02, 339,8325.6455, 20:37:41.050
187, -185627.59, -181814.92, -187500.02, -187500.02, -187500.02, -187500.02, -184708.94, -187500.02, 337,8325.6455, 20:37:41.051
188, -185618.52, -181830.88, -187500.02, -187500.02, -187500.02, -187500.02, -184690.83, -187500.02, 336,8325.6455, 20:37:41.051
189, -185492.61, -181873.20, -187500.02, -187500.02, -187500.02, -187500.02, -184735.78, -187500.02, 338,8325.6455, 20:37:41.051
190, -185488.67, -181864.88, -187500.02, -187500.02, -187500.02, -187500.02, -184752.56, -187500.02, 339,8325.6455, 20:37:41.051
191, -185613.84, -181820.66, -187500.02, -187500.02, -187500.02, -187500.02, -184704.59, -187500.02, 338,8325.6455, 20:37:41.052
192, -185629.47, -181820.89, -187500.02, -187500.02, -187500.02, -187500.02, -184676.34, -187500.02, 336,8325.6455, 20:37:41.052
193, -185514.36, -181866.44, -187500.02, -187500.02, -187500.02, -187500.02, -184700.73, -187500.02, 338,8325.6455, 20:37:41.052
194, -185474.34, -181869.19, -187500.02, -187500.02, -187500.02, -187500.02, -184732.33, -187500.02, 339,8325.6455, 20:37:41.052
195, -185599.58, -181828.34, -187500.02, -187500.02, -187500.02, -187500.02, -184685.19, -187500.02, 338,8325.6455, 20:37:41.053
196, -185643.92, -181817.89, -187500.02, -187500.02, -187500.02, -187500.02, -184660.39, -187500.02, 336,8325.6455, 20:37:41.053
197, -185546.34, -181864.89, -187500.02, -187500.02, -187500.02, -187500.02, -184674.73, -187500.02, 337,8325.6455, 20:37:41.053
198, -185471.28, -181879.31, -187500.02, -187500.02, -187500.02, -187500.02, -184726.92, -187500.02, 339,8325.6455, 20:37:41.054
199, -185585.05, -181843.30, -187500.02, -187500.02, -187500.02, -187500.02, -184691.75, -187500.02, 339,8325.6455, 20:37:41.054
200, -185651.38, -181821.17, -187500.02, -187500.02, -187500.02, -187500.02, -184664.50, -187500.02, 336,8325.6455, 20:37:41.054
201, -185574.09, -181866.08, -187500.02, -187500.02, -187500.02, -187500.02, -184667.56, -187500.02, 337,8325.6455, 20:37:41.055
202, -185470.66, -181892.13, -187500.02, -187500.02, -187500.02, -187500.02, -184730.39, -187500.02, 339,8325.6455, 20:37:41.055
203, -185561.92, -181864.31, -187500.02, -187500.02, -187500.02, -187500.02, -184708.27, -187500.02, 339,8325.6455, 20:37:41.055
204, -185652.95, -181836.28, -187500.02, -187500.02, -187500.02, -187500.02, -184687.50, -187500.02, 337,8325.6455, 20:37:41.056
205, -185600.55, -181874.17, -187500.02, -187500.02, -187500.02, -187500.02, -184694.09, -187500.02, 336,8325.6455, 20:37:41.056
206, -185480.00, -181909.28, -187500.02, -187500.02, -187500.02, -187500.02, -184771.11, -187500.02, 339,8325.6455, 20:37:41.056
207, -185540.91, -181889.38, -187500.02, -187500.02, -187500.02, -187500.02, -184775.72, -187500.02, 340,8325.6455, 20:37:41.056
208, -185648.80, -181851.16, -187500.02, -187500.02, -187500.02, -187500.02, -184755.80, -187500.02, 337,8325.6455, 20:37:41.056
209, -185624.06, -181876.23, -187500.02, -187500.02, -187500.02, -187500.02, -184759.27, -187500.02, 336,8325.6455, 20:37:41.057
210, -185500.52, -181918.14, -187500.02, -187500.02, -187500.02, -187500.02, -184836.25, -187500.02, 339,8325.6455, 20:37:41.057
211, -185528.84, -181908.38, -187500.02, -187500.02, -187500.02, -187500.02, -184868.13, -187500.02, 339,8325.6455, 20:37:41.057
212, -185656.80, -181868.50, -187500.02, -187500.02, -187500.02, -187500.02, -184852.11, -187500.02, 337,8325.6455, 20:37:41.057
213, -185662.30, -181880.94, -187500.02, -187500.02, -187500.02, -187500.02, -184854.80, -187500.02, 336,8325.6455, 20:37:41.057
214, -185543.70, -181926.67, -187500.02, -187500.02, -187500.02, -187500.02, -184914.80, -187500.02, 338,8325.6455, 20:37:41.058
215, -185532.81, -181923.56, -187500.02, -187500.02, -187500.02, -187500.02, -184953.77, -187500.02, 339,8325.6455, 20:37:41.058
216, -185662.56, -181879.09, -187500.02, -187500.02, -187500.02, -187500.02, -184918.20, -187500.02, 337,8325.6455, 20:37:41.058
217, -185691.61, -181875.95, -187500.02, -187500.02, -187500.02, -187500.02, -184902.70, -187500.02, 336,8325.6455, 20:37:41.058
218, -185582.89, -181921.94, -187500.02, -187500.02, -187500.02, -187500.02, -184935.47, -187500.02, 337,8325.6455, 20:37:41.058
219, -185533.47, -181927.25, -187500.02, -187500.02, -187500.02, -187500.02, -184978.14, -187500.02, 339,8325.6455, 20:37:41.059
220, -185659.48, -181884.78, -187500.02, -187500.02, -187500.02, -187500.02, -184927.06, -187500.02, 337,8325.6455, 20:37:41.059
221, -185712.53, -181866.92, -187500.02, -187500.02, -187500.02, -187500.02, -184884.59, -187500.02, 335,8325.6455, 20:37:41.059
222, -185621.31, -181910.69, -187500.02, -187500.02, -187500.02, -187500.02, -184875.56, -187500.02, 336,8325.6455, 20:37:41.059
223, -185535.72, -181926.98, -187500.02, -187500.02, -187500.02, -187500.02, -184917.86, -187500.02, 338,8325.6455, 20:37:41.059
224, -185641.53, -181890.02, -187500.02, -187500.02, -187500.02, -187500.02, -184876.02, -187500.02, 338,8325.6455, 20:37:41.060
225, -185716.30, -181863.78, -187500.02, -187500.02, -187500.02, -187500.02, -184844.89, -187500.02, 335,8325.6455, 20:37:41.060
226, -185647.69, -181906.16, -187500.02, -187500.02, -187500.02, -187500.02, -184835.53, -187500.02, 336,8325.6455, 20:37:41.060
227, -185539.70, -181936.11, -187500.02, -187500.02, -187500.02, -187500.02, -184878.06, -187500.02, 338,8325.6455, 20:37:41.060
228, -185624.34, -181912.75, -187500.02, -187500.02, -187500.02, -187500.02, -184826.86, -187500.02, 338,8325.6455, 20:37:41.060
229, -185723.44, -181881.38, -187500.02, -187500.02, -187500.02, -187500.02, -184762.70, -187500.02, 336,8325.6455, 20:37:41.061
230, -185681.44, -181916.42, -187500.02, -187500.02, -187500.02, -187500.02, -184728.75, -187500.02, 335,8325.6455, 20:37:41.061
231, -185559.77, -181953.70, -187500.02, -187500.02, -187500.02, -187500.02, -184777.38, -187500.02, 338,8325.6455, 20:37:41.061
232, -185610.17, -181935.58, -187500.02, -187500.02, -187500.02, -187500.02, -184771.67, -187500.02, 339,8325.6455, 20:37:41.061
233, -185723.81, -181896.45, -187500.02, -187500.02, -187500.02, -187500.02, -184741.56, -187500.02, 337,8325.6455, 20:37:41.061
234, -185707.09, -181916.86, -187500.02, -187500.02, -187500.02, -187500.02, -184729.55, -187500.02, 335,8325.6455, 20:37:41.062
235, -185583.27, -181958.27, -187500.02, -187500.02, -187500.02, -187500.02, -184783.31, -187500.02, 338,8325.6455, 20:37:41.062
236, -185597.81, -181948.83, -187500.02, -187500.02, -187500.02, -187500.02, -184796.44, -187500.02, 339,8325.6455, 20:37:41.062
237, -185723.91, -181905.13, -187500.02, -187500.02, -187500.02, -187500.02, -184753.61, -187500.02, 337,8325.6455, 20:37:41.062
238, -185734.23, -181909.69, -187500.02, -187500.02, -187500.02, -187500.02, -184740.63, -187500.02, 335,8325.6455, 20:37:41.062
239, -185616.50, -181951.95, -187500.02, -187500.02, -187500.02, -187500.02, -184797.11, -187500.02, 338,8325.6455, 20:37:41.062
240, -185590.31, -181947.55, -187500.02, -187500.02, -187500.02, -187500.02, -184850.17, -187500.02, 339,1025948.75, 20:37:41.514
241, -185719.70, -181902.17, -187500.02, -187500.02, -187500.02, -187500.02, -184824.38, -187500.02, 337,1025948.75, 20:37:41.515
242, -185758.39, -181892.33, -187500.02, -187500.02, -187500.02, -187500.02, -184809.41, -187500.02, 336,1025948.75, 20:37:41.515
243, -185657.42, -181935.42, -187500.02, -187500.02, -187500.02, -187500.02, -184832.52, -187500.02, 337,1025948.75, 20:37:41.515
244, -185600.56, -181942.66, -187500.02, -187500.02, -187500.02, -187500.02, -184877.59, -187500.02, 339,1025948.75, 20:37:41.515
245, -185726.09, -181899.78, -187500.02, -187500.02, -187500.02, -187500.02, -184827.39, -187500.02, 338,1025948.75, 20:37:41.515
246, -185789.80, -181877.50, -187500.02, -187500.02, -187500.02, -187500.02, -184790.16, -187500.02, 336,1025948.75, 20:37:41.515
247, -185707.25, -181918.42, -187500.02, -187500.02, -187500.02, -187500.02, -184784.53, -187500.02, 336,1025948.75, 20:37:41.516
248, -185616.75, -181935.59, -187500.02, -187500.02, -187500.02, -187500.02, -184828.78, -187500.02, 339,1025948.75, 20:37:41.516
249, -185722.53, -181900.95, -187500.02, -187500.02, -187500.02, -187500.02, -184787.52, -187500.02, 338,1025948.75, 20:37:41.516
250, -185806.11, -181872.61, -187500.02, -187500.02, -187500.02, -187500.02, -184754.47, -187500.02, 336,1025948.75, 20:37:41.516
251, -185746.39, -181911.67, -187500.02, -187500.02, -187500.02, -187500.02, -184742.23, -187500.02, 336,1025948.75, 20:37:41.517
252, -185634.94, -181944.06, -187500.02, -187500.02, -187500.02, -187500.02, -184788.89, -187500.02, 338,1025948.75, 20:37:41.517
253, -185709.44, -181921.94, -187500.02, -187500.02, -187500.02, -187500.02, -184742.55, -187500.02, 339,1025948.75, 20:37:41.517
254, -185812.27, -181888.56, -187500.02, -187500.02, -187500.02, -187500.02, -184675.03, -187500.02, 336,1025948.75, 20:37:41.518
255, -185776.23, -181919.59, -187500.02, -187500.02, -187500.02, -187500.02, -184636.28, -187500.02, 336,1025948.75, 20:37:41.518
0, -185648.67, -181958.81, -187500.02, -187500.02, -187500.02, -187500.02, -184683.61, -187500.02, 339,1025948.75, 20:37:41.519
1, -185686.42, -181944.98, -187500.02, -187500.02, -187500.02, -187500.02, -184689.16, -187500.02, 339,1025948.75, 20:37:41.519
2, -185803.94, -181907.25, -187500.02, -187500.02, -187500.02, -187500.02, -184668.45, -187500.02, 337,1025948.75, 20:37:41.519
3, -185795.34, -181927.95, -187500.02, -187500.02, -187500.02, -187500.02, -184674.06, -187500.02, 336,1025948.75, 20:37:41.519
4, -185671.67, -181976.78, -187500.02, -187500.02, -187500.02, -187500.02, -184743.47, -187500.02, 338,1025948.75, 20:37:41.519
5, -185674.17, -181975.14, -187500.02, -187500.02, -187500.02, -187500.02, -184773.95, -187500.02, 339,1025948.75, 20:37:41.520
6, -185804.70, -181937.31, -187500.02, -187500.02, -187500.02, -187500.02, -184729.70, -187500.02, 338,1025948.75, 20:37:41.520
7, -185824.81, -181945.41, -187500.02, -187500.02, -187500.02, -187500.02, -184700.14, -187500.02, 336,1025948.75, 20:37:41.520
8, -185711.16, -181996.02, -187500.02, -187500.02, -187500.02, -187500.02, -184727.61, -187500.02, 338,1025948.75, 20:37:41.520
9, -185676.61, -182004.03, -187500.02, -187500.02, -187500.02, -187500.02, -184766.38, -187500.02, 340,1025948.75, 20:37:41.520
10, -185806.00, -181967.28, -187500.02, -187500.02, -187500.02, -187500.02, -184739.39, -187500.02, 338,1025948.75, 20:37:41.521
11, -185852.20, -181960.89, -187500.02, -187500.02, -187500.02, -187500.02, -184734.84, -187500.02, 336,1025948.75, 20:37:41.521
12, -185756.56, -182011.19, -187500.02, -187500.02, -187500.02, -187500.02, -184768.55, -187500.02, 337,1025948.75, 20:37:41.521
13, -185685.09, -182026.72, -187500.02, -187500.02, -187500.02, -187500.02, -184824.89, -187500.02, 339,1025948.75, 20:37:41.521
14, -185802.45, -181990.73, -187500.02, -187500.02, -187500.02, -187500.02, -184784.30, -187500.02, 339,1025948.75, 20:37:41.521
15, -185869.67, -181968.52, -187500.02, -187500.02, -187500.02, -187500.02, -184760.41, -187500.02, 336,1025948.75, 20:37:41.521
16, -185789.73, -182010.45, -187500.02, -187500.02, -187500.02, -187500.02, -184778.64, -187500.02, 337,1025948.75, 20:37:41.522
17, -185686.34, -182032.75, -187500.02, -187500.02, -187500.02, -187500.02, -184867.67, -187500.02, 339,1025948.75, 20:37:41.522
18, -185777.91, -182000.89, -187500.02, -187500.02, -187500.02, -187500.02, -184869.22, -187500.02, 339,1025948.75, 20:37:41.522
19, -185863.84, -181968.55, -187500.02, -187500.02, -187500.02, -187500.02, -184867.98, -187500.02, 336,1025948.75, 20:37:41.522
20, -185807.91, -182005.13, -187500.02, -187500.02, -187500.02, -187500.02, -184891.77, -187500.02, 336,1025948.75, 20:37:41.522
21, -185686.02, -182037.45, -187500.02, -187500.02, -187500.02, -187500.02, -184983.23, -187500.02, 339,1025948.75, 20:37:41.522
22, -185747.92, -182014.42, -187500.02, -187500.02, -187500.02, -187500.02, -185000.38, -187500.02, 339,1025948.75, 20:37:41.523
23, -185853.72, -181975.38, -187500.02, -187500.02, -187500.02, -187500.02, -184993.45, -187500.02, 337,1025948.75, 20:37:41.523
24, -185822.83, -181999.97, -187500.02, -187500.02, -187500.02, -187500.02, -185004.53, -187500.02, 336,1025948.75, 20:37:41.523
25, -185696.77, -182040.06, -187500.02, -187500.02, -187500.02, -187500.02, -185085.41, -187500.02, 338,1025948.75, 20:37:41.523
26, -185725.52, -182027.92, -187500.02, -187500.02, -187500.02, -187500.02, -185113.28, -187500.02, 339,1025948.75, 20:37:41.524
27, -185850.56, -181986.44, -187500.02, -187500.02, -187500.02, -187500.02, -185090.50, -187500.02, 337,1025948.75, 20:37:41.524
28, -185854.59, -182000.28, -187500.02, -187500.02, -187500.02, -187500.02, -185085.17, -187500.02, 336,1025948.75, 20:37:41.524
29, -185734.08, -182046.48, -187500.02, -187500.02, -187500.02, -187500.02, -185133.61, -187500.02, 338,1025948.75, 20:37:41.525
30, -185724.55, -182043.13, -187500.02, -187500.02, -187500.02, -187500.02, -185157.17, -187500.02, 339,1025948.75, 20:37:41.525
31, -185854.17, -181999.88, -187500.02, -187500.02, -187500.02, -187500.02, -185105.86, -187500.02, 338,1025948.75, 20:37:41.525
32, -185878.42, -181998.83, -187500.02, -187500.02, -187500.02, -187500.02, -185074.77, -187500.02, 336,1025948.75, 20:37:41.526
33, -185764.48, -182045.81, -187500.02, -187500.02, -187500.02, -187500.02, -185097.41, -187500.02, 337,1025948.75, 20:37:41.526
34, -185711.73, -182053.97, -187500.02, -187500.02, -187500.02, -187500.02, -185132.72, -187500.02, 339,1025948.75, 20:37:41.526
35, -185834.23, -182015.36, -187500.02, -187500.02, -187500.02, -187500.02, -185076.55, -187500.02, 338,1025948.75, 20:37:41.527
36, -185882.89, -182003.59, -187500.02, -187500.02, -187500.02, -187500.02, -185033.30, -187500.02, 336,1025948.75, 20:37:41.527
37, -185785.22, -182051.64, -187500.02, -187500.02, -187500.02, -187500.02, -185024.14, -187500.02, 337,1025948.75, 20:37:41.527
38, -185697.19, -182069.13, -187500.02, -187500.02, -187500.02, -187500.02, -185056.72, -187500.02, 339,1025948.75, 20:37:41.528
39, -185801.39, -182034.14, -187500.02, -187500.02, -187500.02, -187500.02, -184996.64, -187500.02, 338,1025948.75, 20:37:41.528
40, -185869.41, -182008.44, -187500.02, -187500.02, -187500.02, -187500.02, -184947.09, -187500.02, 336,1025948.75, 20:37:41.528
41, -185794.05, -182049.19, -187500.02, -187500.02, -187500.02, -187500.02, -184932.50, -187500.02, 336,917060.6, 20:37:41.528
42, -185680.38, -182072.92, -187500.02, -187500.02, -187500.02, -187500.02, -184984.23, -187500.02, 339,917060.6, 20:37:41.529
43, -185758.88, -182039.06, -187500.02, -187500.02, -187500.02, -187500.02, -184947.02, -187500.02, 339,917060.6, 20:37:41.529
44, -185851.19, -182002.97, -187500.02, -187500.02, -187500.02, -187500.02, -184902.56, -187500.02, 336,917060.6, 20:37:41.529
45, -185804.39, -182034.86, -187500.02, -187500.02, -187500.02, -187500.02, -184879.50, -187500.02, 336,917060.6, 20:37:41.530
46, -185681.09, -182068.88, -187500.02, -187500.02, -187500.02, -187500.02, -184927.39, -187500.02, 338,917060.6, 20:37:41.530
47, -185734.63, -182049.34, -187500.02, -187500.02, -187500.02, -187500.02, -184908.70, -187500.02, 339,917060.6, 20:37:41.530
48, -185846.80, -182008.58, -187500.02, -187500.02, -187500.02, -187500.02, -184867.22, -187500.02, 337,917060.6, 20:37:41.531
49, -185827.84, -182028.80, -187500.02, -187500.02, -187500.02, -187500.02, -184858.98, -187500.02, 336,917060.6, 20:37:41.531
50, -185702.41, -182068.97, -187500.02, -187500.02, -187500.02, -187500.02, -184924.17, -187500.02, 338,917060.6, 20:37:41.531
51, -185719.05, -182057.95, -187500.02, -187500.02, -187500.02, -187500.02, -184944.56, -187500.02, 339,917060.6, 20:37:41.532
52, -185846.52, -182015.14, -187500.02, -187500.02, -187500.02, -187500.02, -184904.52, -187500.02, 337,917060.6, 20:37:41.532
53, -185856.17, -182023.92, -187500.02, -187500.02, -187500.02, -187500.02, -184887.19, -187500.02, 336,917060.6, 20:37:41.532
54, -185737.61, -182071.09, -187500.02, -187500.02, -187500.02, -187500.02, -184937.91, -187500.02, 338,917060.6, 20:37:41.532
55, -185714.77, -182071.42, -187500.02, -187500.02, -187500.02, -187500.02, -184987.45, -187500.02, 339,917060.6, 20:37:41.533
56, -185844.36, -182030.66, -187500.02, -187500.02, -187500.02, -187500.02, -184959.98, -187500.02, 338,917060.6, 20:37:41.533
57, -185881.38, -182027.73, -187500.02, -187500.02, -187500.02, -187500.02, -184950.70, -187500.02, 336,917060.6, 20:37:41.533
58, -185778.53, -182075.41, -187500.02, -187500.02, -187500.02, -187500.02, -184986.66, -187500.02, 337,917060.6, 20:37:41.533
59, -185721.00, -182086.16, -187500.02, -187500.02, -187500.02, -187500.02, -185041.53, -187500.02, 339,917060.6, 20:37:41.534
60, -185846.56, -182049.56, -187500.02, -187500.02, -187500.02, -187500.02, -185004.11, -187500.02, 338,917060.6, 20:37:41.534
61, -185906.69, -182031.06, -187500.02, -187500.02, -187500.02, -187500.02, -184981.83, -187500.02, 336,917060.6, 20:37:41.534
62, -185820.58, -182073.55, -187500.02, -187500.02, -187500.02, -187500.02, -185000.55, -187500.02, 337,917060.6, 20:37:41.534
63, -185729.33, -182090.53, -187500.02, -187500.02, -187500.02, -187500.02, -185070.97, -187500.02, 339,917060.6, 20:37:41.535
64, -185832.63, -182054.48, -187500.02, -187500.02, -187500.02, -187500.02, -185042.48, -187500.02, 339,917060.6, 20:37:41.535
65, -185916.64, -182025.61, -187500.02, -187500.02, -187500.02, -187500.02, -185015.28, -187500.02, 336,917060.6, 20:37:41.535
66, -185856.09, -182062.58, -187500.02, -187500.02, -187500.02, -187500.02, -185009.16, -187500.02, 336,917060.6, 20:37:41.536
67, -185745.30, -182090.31, -187500.02, -187500.02, -187500.02, -187500.02, -185066.33, -187500.02, 339,917060.6, 20:37:41.536
68, -185825.64, -182066.80, -187500.02, -187500.02, -187500.02, -187500.02, -185040.31, -187500.02, 339,917060.6, 20:37:41.536
69, -185930.20, -182031.45, -187500.02, -187500.02, -187500.02, -187500.02, -185001.31, -187500.02, 336,917060.6, 20:37:41.536
70, -185893.80, -182060.14, -187500.02, -187500.02, -187500.02, -187500.02, -184988.44, -187500.02, 336,917060.6, 20:37:41.537
71, -185767.89, -182096.69, -187500.02, -187500.02, -187500.02, -187500.02, -185048.61, -187500.02, 339,917060.6, 20:37:41.537
72, -185807.05, -182080.41, -187500.02, -187500.02, -187500.02, -187500.02, -185042.95, -187500.02, 339,917060.6, 20:37:41.537
73, -185923.77, -182042.03, -187500.02, -187500.02, -187500.02, -187500.02, -184995.09, -187500.02, 337,917060.6, 20:37:41.538
74, -185912.64, -182062.00, -187500.02, -187500.02, -187500.02, -187500.02, -184970.56, -187500.02, 336,917060.6, 20:37:41.538
75, -185786.16, -182106.39, -187500.02, -187500.02, -187500.02, -187500.02, -185018.41, -187500.02, 338,917060.6, 20:37:41.538
76, -185790.84, -182102.50, -187500.02, -187500.02, -187500.02, -187500.02, -185036.97, -187500.02, 339,917060.6, 20:37:41.538
77, -185919.09, -182063.22, -187500.02, -187500.02, -187500.02, -187500.02, -184990.08, -187500.02, 337,917060.6, 20:37:41.539
78, -185934.92, -182069.97, -187500.02, -187500.02, -187500.02, -187500.02, -184963.72, -187500.02, 336,917060.6, 20:37:41.539
79, -185817.06, -182117.61, -187500.02, -187500.02, -187500.02, -187500.02, -184993.14, -187500.02, 338,917060.6, 20:37:41.539
80, -185779.78, -182120.00, -187500.02, -187500.02, -187500.02, -187500.02, -185018.13, -187500.02, 339,917060.6, 20:37:41.540
81, -185907.19, -182079.20, -187500.02, -187500.02, -187500.02, -187500.02, -184959.42, -187500.02, 338,917060.6, 20:37:41.540
82, -185948.73, -182070.48, -187500.02, -187500.02, -187500.02, -187500.02, -184921.63, -187500.02, 336,917060.6, 20:37:41.540
83, -185846.72, -182117.56, -187500.02, -187500.02, -187500.02, -187500.02, -184932.45, -187500.02, 337,917060.6, 20:37:41.540
84, -185776.11, -182130.61, -187500.02, -187500.02, -187500.02, -187500.02, -184980.02, -187500.02, 339,917060.6, 20:37:41.541
85, -185893.91, -182092.86, -187500.02, -187500.02, -187500.02, -187500.02, -184935.95, -187500.02, 338,917060.6, 20:37:41.541
86, -185959.36, -182070.38, -187500.02, -187500.02, -187500.02, -187500.02, -184905.42, -187500.02, 336,917060.6, 20:37:41.541
87, -185878.13, -182110.20, -187500.02, -187500.02, -187500.02, -187500.02, -184908.08, -187500.02, 336,917060.6, 20:37:41.541
88, -185776.16, -182128.11, -187500.02, -187500.02, -187500.02, -187500.02, -184965.50, -187500.02, 339,917060.6, 20:37:41.542
89, -185873.02, -182093.00, -187500.02, -187500.02, -187500.02, -187500.02, -184932.67, -187500.02, 338,917060.6, 20:37:41.542
90, -185963.22, -182058.73, -187500.02, -187500.02, -187500.02, -187500.02, -184909.69, -187500.02, 336,917060.6, 20:37:41.542
91, -185909.31, -182091.77, -187500.02, -187500.02, -187500.02, -187500.02, -184927.20, -187500.02, 336,917060.6, 20:37:41.543
92, -185793.33, -182120.33, -187500.02, -187500.02, -187500.02, -187500.02, -185017.70, -187500.02, 339,917060.6, 20:37:41.543
93, -185861.52, -182095.98, -187500.02, -187500.02, -187500.02, -187500.02, -185025.25, -187500.02, 339,917060.6, 20:37:41.543
94, -185971.02, -182056.73, -187500.02, -187500.02, -187500.02, -187500.02, -185005.03, -187500.02, 337,917060.6, 20:37:41.544
95, -185944.09, -182080.52, -187500.02, -187500.02, -187500.02, -187500.02, -185003.30, -187500.02, 336,917060.6, 20:37:41.544
96, -185818.19, -182116.17, -187500.02, -187500.02, -187500.02, -187500.02, -185071.31, -187500.02, 338,917060.6, 20:37:41.544
97, -185848.67, -182101.17, -187500.02, -187500.02, -187500.02, -187500.02, -185086.72, -187500.02, 339,917060.6, 20:37:41.545
98, -185971.98, -182059.05, -187500.02, -187500.02, -187500.02, -187500.02, -185047.66, -187500.02, 337,917060.6, 20:37:41.545
99, -185970.55, -182072.03, -187500.02, -187500.02, -187500.02, -187500.02, -185021.66, -187500.02, 336,917060.6, 20:37:41.545
100, -185847.19, -182116.70, -187500.02, -187500.02, -187500.02, -187500.02, -185058.11, -187500.02, 338,917060.6, 20:37:41.545
101, -185837.00, -182113.41, -187500.02, -187500.02, -187500.02, -187500.02, -185062.47, -187500.02, 339,917060.6, 20:37:41.546
102, -185964.45, -182073.97, -187500.02, -187500.02, -187500.02, -187500.02, -184993.48, -187500.02, 337,917060.6, 20:37:41.546
103, -185986.63, -182076.39, -187500.02, -187500.02, -187500.02, -187500.02, -184952.39, -187500.02, 336,917060.6, 20:37:41.546
104, -185869.59, -182124.44, -187500.02, -187500.02, -187500.02, -187500.02, -184965.95, -187500.02, 337,836.6688, 20:37:41.993
105, -185818.73, -182132.67, -187500.02, -187500.02, -187500.02, -187500.02, -184989.80, -187500.02, 339,836.6688, 20:37:41.993
106, -185941.92, -182096.53, -187500.02, -187500.02, -187500.02, -187500.02, -184918.30, -187500.02, 338,836.6688, 20:37:41.993
107, -185989.34, -182087.91, -187500.02, -187500.02, -187500.02, -187500.02, -184862.78, -187500.02, 336,836.6688, 20:37:41.994
108, -185893.44, -182140.16, -187500.02, -187500.02, -187500.02, -187500.02, -184849.56, -187500.02, 337,836.6688, 20:37:41.994
109, -185809.73, -182161.41, -187500.02, -187500.02, -187500.02, -187500.02, -184885.95, -187500.02, 339,836.6688, 20:37:41.994
110, -185920.91, -182130.48, -187500.02, -187500.02, -187500.02, -187500.02, -184838.69, -187500.02, 338,836.6688, 20:37:41.994
111, -185993.53, -182110.03, -187500.02, -187500.02, -187500.02, -187500.02, -184804.53, -187500.02, 336,836.6688, 20:37:41.994
112, -185920.13, -182154.23, -187500.02, -187500.02, -187500.02, -187500.02, -184798.78, -187500.02, 337,836.6688, 20:37:41.994
113, -185815.98, -182183.52, -187500.02, -187500.02, -187500.02, -187500.02, -184849.64, -187500.02, 339,836.6688, 20:37:41.995
114, -185909.88, -182159.92, -187500.02, -187500.02, -187500.02, -187500.02, -184807.55, -187500.02, 339,836.6688, 20:37:41.995
115, -186011.19, -182132.16, -187500.02, -187500.02, -187500.02, -187500.02, -184767.89, -187500.02, 337,836.6688, 20:37:41.995
116, -185971.72, -182170.48, -187500.02, -187500.02, -187500.02, -187500.02, -184767.61, -187500.02, 336,836.6688, 20:37:41.995
117, -185857.52, -182208.47, -187500.02, -187500.02, -187500.02, -187500.02, -184850.02, -187500.02, 339,836.6688, 20:37:41.995
118, -185920.80, -182192.91, -187500.02, -187500.02, -187500.02, -187500.02, -184864.08, -187500.02, 339,836.6688, 20:37:41.995
119, -186041.16, -182157.34, -187500.02, -187500.02, -187500.02, -187500.02, -184840.25, -187500.02, 338,836.6688, 20:37:41.996
120, -186024.38, -182181.47, -187500.02, -187500.02, -187500.02, -187500.02, -184828.16, -187500.02, 336,836.6688, 20:37:41.996
121, -185901.23, -182225.16, -187500.02, -187500.02, -187500.02, -187500.02, -184892.03, -187500.02, 339,836.6688, 20:37:41.996
122, -185924.13, -182217.50, -187500.02, -187500.02, -187500.02, -187500.02, -184925.05, -187500.02, 340,836.6688, 20:37:41.997
123, -186054.27, -182178.22, -187500.02, -187500.02, -187500.02, -187500.02, -184916.00, -187500.02, 337,836.6688, 20:37:41.997
124, -186064.25, -182190.50, -187500.02, -187500.02, -187500.02, -187500.02, -184936.77, -187500.02, 336,836.6688, 20:37:41.997
125, -185944.64, -182236.77, -187500.02, -187500.02, -187500.02, -187500.02, -185018.30, -187500.02, 338,836.6688, 20:37:41.997
126, -185923.69, -182236.69, -187500.02, -187500.02, -187500.02, -187500.02, -185079.91, -187500.02, 339,836.6688, 20:37:41.998
127, -186052.77, -182195.55, -187500.02, -187500.02, -187500.02, -187500.02, -185054.58, -187500.02, 337,836.6688, 20:37:41.998
128, -186082.42, -182190.50, -187500.02, -187500.02, -187500.02, -187500.02, -185047.67, -187500.02, 336,836.6688, 20:37:41.998
129, -185972.13, -182236.88, -187500.02, -187500.02, -187500.02, -187500.02, -185097.78, -187500.02, 337,836.6688, 20:37:41.998
130, -185910.27, -182245.25, -187500.02, -187500.02, -187500.02, -187500.02, -185180.11, -187500.02, 339,836.6688, 20:37:41.999
131, -186031.28, -182205.53, -187500.02, -187500.02, -187500.02, -187500.02, -185178.14, -187500.02, 338,836.6688, 20:37:41.999
132, -186088.19, -182187.55, -187500.02, -187500.02, -187500.02, -187500.02, -185192.52, -187500.02, 336,836.6688, 20:37:41.999
133, -185998.34, -182230.41, -187500.02, -187500.02, -187500.02, -187500.02, -185232.78, -187500.02, 336,836.6688, 20:37:42.000
134, -185905.75, -182246.86, -187500.02, -187500.02, -187500.02, -187500.02, -185303.44, -187500.02, 338,836.6688, 20:37:42.000
135, -186010.25, -182211.39, -187500.02, -187500.02, -187500.02, -187500.02, -185264.58, -187500.02, 338,836.6688, 20:37:42.000
136, -186088.44, -182180.28, -187500.02, -187500.02, -187500.02, -187500.02, -185222.17, -187500.02, 336,836.6688, 20:37:42.000
137, -186023.75, -182215.39, -187500.02, -187500.02, -187500.02, -187500.02, -185211.23, -187500.02, 336,836.6688, 20:37:42.001
138, -185910.45, -182239.95, -187500.02, -187500.02, -187500.02, -187500.02, -185273.83, -187500.02, 338,836.6688, 20:37:42.001
139, -185991.78, -182213.00, -187500.02, -187500.02, -187500.02, -187500.02, -185255.44, -187500.02, 339,836.6688, 20:37:42.001
140, -186095.81, -182176.91, -187500.02, -187500.02, -187500.02, -187500.02, -185216.94, -187500.02, 336,836.6688, 20:37:42.001
141, -186055.41, -182203.33, -187500.02, -187500.02, -187500.02, -187500.02, -185188.06, -187500.02, 335,836.6688, 20:37:42.002
142, -185928.59, -182235.86, -187500.02, -187500.02, -187500.02, -187500.02, -185215.33, -187500.02, 338,836.6688, 20:37:42.002
143, -185972.56, -182216.98, -187500.02, -187500.02, -187500.02, -187500.02, -185169.33, -187500.02, 339,836.6688, 20:37:42.002
144, -186089.91, -182174.72, -187500.02, -187500.02, -187500.02, -187500.02, -185088.03, -187500.02, 336,836.6688, 20:37:42.003
145, -186075.61, -182188.92, -187500.02, -187500.02, -187500.02, -187500.02, -185038.66, -187500.02, 335,836.6688, 20:37:42.003
146, -185945.91, -182225.98, -187500.02, -187500.02, -187500.02, -187500.02, -185068.22, -187500.02, 338,836.6688, 20:37:42.003
147, -185949.56, -182214.92, -187500.02, -187500.02, -187500.02, -187500.02, -185065.55, -187500.02, 339,836.6688, 20:37:42.004
148, -186079.08, -182171.67, -187500.02, -187500.02, -187500.02, -187500.02, -184997.09, -187500.02, 337,836.6688, 20:37:42.004
149, -186092.02, -182172.50, -187500.02, -187500.02, -187500.02, -187500.02, -184947.77, -187500.02, 335,836.6688, 20:37:42.004
150, -185970.73, -182211.75, -187500.02, -187500.02, -187500.02, -187500.02, -184961.94, -187500.02, 337,836.6688, 20:37:42.004
151, -185934.45, -182208.00, -187500.02, -187500.02, -187500.02, -187500.02, -184986.23, -187500.02, 339,836.6688, 20:37:42.005
152, -186062.86, -182162.39, -187500.02, -187500.02, -187500.02, -187500.02, -184941.33, -187500.02, 337,836.6688, 20:37:42.005
153, -186103.97, -182150.94, -187500.02, -187500.02, -187500.02, -187500.02, -184927.86, -187500.02, 335,836.6688, 20:37:42.005
154, -185999.19, -182190.98, -187500.02, -187500.02, -187500.02, -187500.02, -184960.34, -187500.02, 337,836.6688, 20:37:42.005
155, -185928.31, -182196.94, -187500.02, -187500.02, -187500.02, -187500.02, -185008.00, -187500.02, 339,836.6688, 20:37:42.006
156, -186049.61, -182157.80, -187500.02, -187500.02, -187500.02, -187500.02, -184944.97, -187500.02, 338,836.6688, 20:37:42.006
157, -186115.53, -182135.00, -187500.02, -187500.02, -187500.02, -187500.02, -184885.27, -187500.02, 336,836.6688, 20:37:42.006
158, -186032.47, -182172.67, -187500.02, -187500.02, -187500.02, -187500.02, -184855.16, -187500.02, 336,836.6688, 20:37:42.006
159, -185931.13, -182188.28, -187500.02, -187500.02, -187500.02, -187500.02, -184895.02, -187500.02, 339,836.6688, 20:37:42.006
160, -186028.52, -182154.17, -187500.02, -187500.02, -187500.02, -187500.02, -184866.58, -187500.02, 339,836.6688, 20:37:42.006
161, -186116.13, -182123.33, -187500.02, -187500.02, -187500.02, -187500.02, -184853.48, -187500.02, 336,836.6688, 20:37:42.007
162, -186057.72, -182157.84, -187500.02, -187500.02, -187500.02, -187500.02, -184870.63, -187500.02, 336,836.6688, 20:37:42.007
163, -185938.64, -182185.78, -187500.02, -187500.02, -187500.02, -187500.02, -184947.31, -187500.02, 339,836.6688, 20:37:42.007
164, -186009.41, -182165.08, -187500.02, -187500.02, -187500.02, -187500.02, -184930.64, -187500.02, 339,836.6688, 20:37:42.007
165, -186118.66, -182130.55, -187500.02, -187500.02, -187500.02, -187500.02, -184881.13, -187500.02, 337,836.6688, 20:37:42.007
166, -186087.59, -182158.06, -187500.02, -187500.02, -187500.02, -187500.02, -184855.77, -187500.02, 336,836.6688, 20:37:42.008
167, -185959.63, -182196.17, -187500.02, -187500.02, -187500.02, -187500.02, -184909.61, -187500.02, 339,836.6688, 20:37:42.008
168, -185993.36, -182185.02, -187500.02, -187500.02, -187500.02, -187500.02, -184917.31, -187500.02, 339,836.6688, 20:37:42.008
169, -186119.34, -182149.70, -187500.02, -187500.02, -187500.02, -187500.02, -184881.48, -187500.02, 337,836.6688, 20:37:42.008
170, -186118.09, -182167.03, -187500.02, -187500.02, -187500.02, -187500.02, -184862.58, -187500.02, 336,836.6688, 20:37:42.009
171, -185995.44, -182213.22, -187500.02, -187500.02, -187500.02, -187500.02, -184910.30, -187500.02, 338,836.6688, 20:37:42.009
172, -185993.63, -182215.81, -187500.02, -187500.02, -187500.02, -187500.02, -184938.50, -187500.02, 340,836.6688, 20:37:42.010
173, -186130.53, -182180.97, -187500.02, -187500.02, -187500.02, -187500.02, -184902.92, -187500.02, 338,836.6688, 20:37:42.010
174, -186158.05, -182186.97, -187500.02, -187500.02, -187500.02, -187500.02, -184899.02, -187500.02, 336,836.6688, 20:37:42.010
175, -186045.28, -182236.41, -187500.02, -187500.02, -187500.02, -187500.02, -184946.80, -187500.02, 338,836.6688, 20:37:42.010
176, -186001.48, -182245.50, -187500.02, -187500.02, -187500.02, -187500.02, -184992.00, -187500.02, 340,836.6688, 20:37:42.010
177, -186133.91, -182212.58, -187500.02, -187500.02, -187500.02, -187500.02, -184942.50, -187500.02, 338,836.6688, 20:37:42.011
178, -186186.81, -182205.94, -187500.02, -187500.02, -187500.02, -187500.02, -184911.64, -187500.02, 337,836.6688, 20:37:42.011
179, -186091.00, -182254.47, -187500.02, -187500.02, -187500.02, -187500.02, -184935.11, -187500.02, 338,836.6688, 20:37:42.011
180, -186012.64, -182273.48, -187500.02, -187500.02, -187500.02, -187500.02, -185009.11, -187500.02, 340,836.6688, 20:37:42.011
181, -186129.66, -182243.95, -187500.02, -187500.02, -187500.02, -187500.02, -184995.70, -187500.02, 339,836.6688, 20:37:42.011
182, -186204.83, -182225.00, -187500.02, -187500.02, -187500.02, -187500.02, -184986.30, -187500.02, 337,836.6688, 20:37:42.011
183, -186129.55, -182268.13, -187500.02, -187500.02, -187500.02, -187500.02, -184998.13, -187500.02, 337,836.6688, 20:37:42.011
184, -186020.58, -182292.31, -187500.02, -187500.02, -187500.02, -187500.02, -185059.25, -187500.02, 340,836.6688, 20:37:42.012
185, -186112.52, -182266.88, -187500.02, -187500.02, -187500.02, -187500.02, -185024.34, -187500.02, 339,836.6688, 20:37:42.012
186, -186209.56, -182237.41, -187500.02, -187500.02, -187500.02, -187500.02, -184990.50, -187500.02, 337,836.6688, 20:37:42.012
187, -186160.41, -182270.33, -187500.02, -187500.02, -187500.02, -187500.02, -184993.69, -187500.02, 336,836.6688, 20:37:42.012
188, -186037.83, -182302.83, -187500.02, -187500.02, -187500.02, -187500.02, -185077.63, -187500.02, 339,836.6688, 20:37:42.012
189, -186099.20, -182282.88, -187500.02, -187500.02, -187500.02, -187500.02, -185085.56, -187500.02, 339,836.6688, 20:37:42.013
190, -186216.53, -182244.73, -187500.02, -187500.02, -187500.02, -187500.02, -185054.00, -187500.02, 337,836.6688, 20:37:42.013
191, -186195.66, -182264.44, -187500.02, -187500.02, -187500.02, -187500.02, -185032.14, -187500.02, 336,836.6688, 20:37:42.013
192, -186067.69, -182299.53, -187500.02, -187500.02, -187500.02, -187500.02, -185074.88, -187500.02, 338,836.6688, 20:37:42.013
193, -186090.61, -182287.19, -187500.02, -187500.02, -187500.02, -187500.02, -185073.83, -187500.02, 339,836.6688, 20:37:42.013
194, -186221.34, -182245.39, -187500.02, -187500.02, -187500.02, -187500.02, -185027.31, -187500.02, 337,836.6688, 20:37:42.013
195, -186229.44, -182254.47, -187500.02, -187500.02, -187500.02, -187500.02, -185011.22, -187500.02, 336,836.6688, 20:37:42.013
196, -186107.80, -182297.42, -187500.02, -187500.02, -187500.02, -187500.02, -185062.73, -187500.02, 338,836.6688, 20:37:42.014
197, -186089.02, -182294.08, -187500.02, -187500.02, -187500.02, -187500.02, -185095.06, -187500.02, 339,836.6688, 20:37:42.014
198, -186220.67, -182251.98, -187500.02, -187500.02, -187500.02, -187500.02, -185041.70, -187500.02, 337,836.6688, 20:37:42.014
199, -186250.42, -182247.98, -187500.02, -187500.02, -187500.02, -187500.02, -185001.78, -187500.02, 335,836.6688, 20:37:42.014
200, -186136.52, -182290.63, -187500.02, -187500.02, -187500.02, -187500.02, -185014.08, -187500.02, 337,836.6688, 20:37:42.014
201, -186075.38, -182296.06, -187500.02, -187500.02, -187500.02, -187500.02, -185056.25, -187500.02, 339,836.6688, 20:37:42.014
202, -186197.84, -182256.61, -187500.02, -187500.02, -187500.02, -187500.02, -185016.22, -187500.02, 338,836.6688, 20:37:42.015
203, -186251.38, -182239.17, -187500.02, -187500.02, -187500.02, -187500.02, -184996.91, -187500.02, 335,836.6688, 20:37:42.015
204, -186157.08, -182281.91, -187500.02, -187500.02, -187500.02, -187500.02, -185011.50, -187500.02, 336,836.6688, 20:37:42.015
205, -186062.70, -182297.45, -187500.02, -187500.02, -187500.02, -187500.02, -185066.16, -187500.02, 339,836.6688, 20:37:42.015
206, -186168.61, -182262.84, -187500.02, -187500.02, -187500.02, -187500.02, -185024.58, -187500.02, 338,836.6688, 20:37:42.015
207, -186247.00, -182234.58, -187500.02, -187500.02, -187500.02, -187500.02, -184991.41, -187500.02, 336,836.6688, 20:37:42.016
208, -186175.36, -182269.78, -187500.02, -187500.02, -187500.02, -187500.02, -184992.95, -187500.02, 336,836.6688, 20:37:42.016
209, -186059.09, -182293.42, -187500.02, -187500.02, -187500.02, -187500.02, -185065.53, -187500.02, 338,836.6688, 20:37:42.016
210, -186140.34, -182265.75, -187500.02, -187500.02, -187500.02, -187500.02, -185049.33, -187500.02, 339,836.6688, 20:37:42.016
211, -186242.64, -182228.80, -187500.02, -187500.02, -187500.02, -187500.02, -185012.20, -187500.02, 336,836.6688, 20:37:42.016
212, -186202.92, -182256.23, -187500.02, -187500.02, -187500.02, -187500.02, -184994.14, -187500.02, 335,836.6688, 20:37:42.016
213, -186076.50, -182286.66, -187500.02, -187500.02, -187500.02, -187500.02, -185047.66, -187500.02, 338,836.6688, 20:37:42.017
214, -186123.89, -182265.80, -187500.02, -187500.02, -187500.02, -187500.02, -185036.81, -187500.02, 338,836.6688, 20:37:42.017
215, -186243.53, -182221.94, -187500.02, -187500.02, -187500.02, -187500.02, -184988.42, -187500.02, 336,836.6688, 20:37:42.017
216, -186227.53, -182234.58, -187500.02, -187500.02, -187500.02, -187500.02, -184961.80, -187500.02, 335,836.6688, 20:37:42.017
217, -186097.38, -182271.30, -187500.02, -187500.02, -187500.02, -187500.02, -185004.05, -187500.02, 337,836.6688, 20:37:42.018
218, -186104.00, -182259.69, -187500.02, -187500.02, -187500.02, -187500.02, -185009.77, -187500.02, 338,836.6688, 20:37:42.018
219, -186233.56, -182216.36, -187500.02, -187500.02, -187500.02, -187500.02, -184960.50, -187500.02, 337,836.6688, 20:37:42.018
220, -186247.20, -182219.63, -187500.02, -187500.02, -187500.02, -187500.02, -184945.03, -187500.02, 335,836.6688, 20:37:42.018
221, -186124.38, -182260.00, -187500.02, -187500.02, -187500.02, -187500.02, -184997.77, -187500.02, 337,836.6688, 20:37:42.019
222, -186090.31, -182257.25, -187500.02, -187500.02, -187500.02, -187500.02, -185049.58, -187500.02, 339,836.6688, 20:37:42.019
223, -186221.47, -182215.23, -187500.02, -187500.02, -187500.02, -187500.02, -185011.84, -187500.02, 337,836.6688, 20:37:42.019
224, -186260.52, -182205.27, -187500.02, -187500.02, -187500.02, -187500.02, -184979.95, -187500.02, 335,30.612595, 20:37:42.473
225, -186155.09, -182248.05, -187500.02, -187500.02, -187500.02, -187500.02, -184984.81, -187500.02, 337,30.612595, 20:37:42.473
226, -186088.80, -182257.59, -187500.02, -187500.02, -187500.02, -187500.02, -185014.75, -187500.02, 339,30.612595, 20:37:42.474
227, -186213.89, -182222.02, -187500.02, -187500.02, -187500.02, -187500.02, -184955.97, -187500.02, 338,30.612595, 20:37:42.474
228, -186284.94, -182204.42, -187500.02, -187500.02, -187500.02, -187500.02, -184919.23, -187500.02, 336,30.612595, 20:37:42.474
229, -186204.69, -182245.91, -187500.02, -187500.02, -187500.02, -187500.02, -184920.25, -187500.02, 337,30.612595, 20:37:42.474
230, -186110.03, -182264.34, -187500.02, -187500.02, -187500.02, -187500.02, -184972.02, -187500.02, 339,30.612595, 20:37:42.475
231, -186214.03, -182231.69, -187500.02, -187500.02, -187500.02, -187500.02, -184925.30, -187500.02, 339,30.612595, 20:37:42.475
232, -186302.83, -182199.34, -187500.02, -187500.02, -187500.02, -187500.02, -184876.88, -187500.02, 336,30.612595, 20:37:42.476
233, -186244.50, -182231.00, -187500.02, -187500.02, -187500.02, -187500.02, -184860.14, -187500.02, 336,30.612595, 20:37:42.476
234, -186125.94, -182254.47, -187500.02, -187500.02, -187500.02, -187500.02, -184920.00, -187500.02, 339,30.612595, 20:37:42.476
235, -186197.88, -182228.06, -187500.02, -187500.02, -187500.02, -187500.02, -184906.08, -187500.02, 339,30.612595, 20:37:42.476
236, -186305.16, -182190.20, -187500.02, -187500.02, -187500.02, -187500.02, -184879.14, -187500.02, 337,30.612595, 20:37:42.476
237, -186269.17, -182212.05, -187500.02, -187500.02, -187500.02, -187500.02, -184874.42, -187500.02, 336,30.612595, 20:37:42.476
238, -186136.38, -182243.75, -187500.02, -187500.02, -187500.02, -187500.02, -184944.31, -187500.02, 338,30.612595, 20:37:42.477
239, -186167.53, -182225.77, -187500.02, -187500.02, -187500.02, -187500.02, -184962.02, -187500.02, 339,30.612595, 20:37:42.477
240, -186285.41, -182181.38, -187500.02, -187500.02, -187500.02, -187500.02, -184937.86, -187500.02, 337,30.612595, 20:37:42.477
241, -186274.67, -182193.67, -187500.02, -187500.02, -187500.02, -187500.02, -184937.36, -187500.02, 336,30.612595, 20:37:42.477
242, -186143.64, -182235.11, -187500.02, -187500.02, -187500.02, -187500.02, -185003.50, -187500.02, 338,30.612595, 20:37:42.477
243, -186135.64, -182228.47, -187500.02, -187500.02, -187500.02, -187500.02, -185043.33, -187500.02, 339,30.612595, 20:37:42.477
244, -186265.59, -182187.41, -187500.02, -187500.02, -187500.02, -187500.02, -185012.92, -187500.02, 338,30.612595, 20:37:42.478
245, -186285.25, -182187.97, -187500.02, -187500.02, -187500.02, -187500.02, -184998.59, -187500.02, 336,30.612595, 20:37:42.478
246, -186166.42, -182232.11, -187500.02, -187500.02, -187500.02, -187500.02, -185032.03, -187500.02, 338,30.612595, 20:37:42.478
247, -186120.69, -182235.27, -187500.02, -187500.02, -187500.02, -187500.02, -185064.69, -187500.02, 339,30.612595, 20:37:42.478
248, -186247.30, -182194.16, -187500.02, -187500.02, -187500.02, -187500.02, -185006.55, -187500.02, 338,30.612595, 20:37:42.478
249, -186293.41, -182180.92, -187500.02, -187500.02, -187500.02, -187500.02, -184970.09, -187500.02, 336,30.612595, 20:37:42.478
250, -186191.30, -182223.64, -187500.02, -187500.02, -187500.02, -187500.02, -184982.86, -187500.02, 337,30.612595, 20:37:42.478
251, -186110.75, -182234.92, -187500.02, -187500.02, -187500.02, -187500.02, -185039.33, -187500.02, 339,30.612595, 20:37:42.479
252, -186226.64, -182197.31, -187500.02, -187500.02, -187500.02, -187500.02, -185010.20, -187500.02, 339,30.612595, 20:37:42.479
253, -186297.67, -182169.73, -187500.02, -187500.02, -187500.02, -187500.02, -184992.58, -187500.02, 337,30.612595, 20:37:42.479
254, -186218.70, -182204.98, -187500.02, -187500.02, -187500.02, -187500.02, -184999.70, -187500.02, 337,30.612595, 20:37:42.479
255, -186110.63, -182221.61, -187500.02, -187500.02, -187500.02, -187500.02, -185061.44, -187500.02, 339,30.612595, 20:37:42.479
0, -186201.63, -182186.53, -187500.02, -187500.02, -187500.02, -187500.02, -185027.67, -187500.02, 339,30.612595, 20:37:42.480
1, -186295.38, -182148.77, -187500.02, -187500.02, -187500.02, -187500.02, -184986.86, -187500.02, 337,30.612595, 20:37:42.480
2, -186242.03, -182174.89, -187500.02, -187500.02, -187500.02, -187500.02, -184974.72, -187500.02, 336,30.612595, 20:37:42.480
3, -186118.30, -182198.63, -187500.02, -187500.02, -187500.02, -187500.02, -185043.42, -187500.02, 339,30.612595, 20:37:42.480
4, -186181.17, -182171.00, -187500.02, -187500.02, -187500.02, -187500.02, -185043.56, -187500.02, 340,30.612595, 20:37:42.481
5, -186293.41, -182127.73, -187500.02, -187500.02, -187500.02, -187500.02, -185019.80, -187500.02, 337,30.612595, 20:37:42.481
6, -186269.16, -182140.05, -187500.02, -187500.02, -187500.02, -187500.02, -185024.41, -187500.02, 336,30.612595, 20:37:42.481
7, -186135.17, -182173.11, -187500.02, -187500.02, -187500.02, -187500.02, -185074.83, -187500.02, 339,30.612595, 20:37:42.482
8, -186155.00, -182152.27, -187500.02, -187500.02, -187500.02, -187500.02, -185057.59, -187500.02, 339,30.612595, 20:37:42.482
9, -186279.36, -182106.41, -187500.02, -187500.02, -187500.02, -187500.02, -184986.41, -187500.02, 337,30.612595, 20:37:42.482
10, -186282.69, -182111.08, -187500.02, -187500.02, -187500.02, -187500.02, -184932.38, -187500.02, 336,30.612595, 20:37:42.482
11, -186156.59, -182150.44, -187500.02, -187500.02, -187500.02, -187500.02, -184951.72, -187500.02, 338,30.612595, 20:37:42.482
12, -186137.30, -182145.44, -187500.02, -187500.02, -187500.02, -187500.02, -184981.38, -187500.02, 339,30.612595, 20:37:42.482
13, -186264.86, -182100.30, -187500.02, -187500.02, -187500.02, -187500.02, -184939.72, -187500.02, 338,30.612595, 20:37:42.482
14, -186288.69, -182096.13, -187500.02, -187500.02, -187500.02, -187500.02, -184905.81, -187500.02, 336,30.612595, 20:37:42.483
15, -186170.89, -182140.05, -187500.02, -187500.02, -187500.02, -187500.02, -184901.16, -187500.02, 338,30.612595, 20:37:42.483
16, -186108.67, -182145.45, -187500.02, -187500.02, -187500.02, -187500.02, -184888.95, -187500.02, 339,30.612595, 20:37:42.483
17, -186230.80, -182105.05, -187500.02, -187500.02, -187500.02, -187500.02, -184789.75, -187500.02, 338,30.612595, 20:37:42.483
18, -186281.58, -182091.08, -187500.02, -187500.02, -187500.02, -187500.02, -184726.97, -187500.02, 336,30.612595, 20:37:42.483
19, -186183.86, -182137.00, -187500.02, -187500.02, -187500.02, -187500.02, -184724.41, -187500.02, 337,30.612595, 20:37:42.483
20, -186092.59, -182156.98, -187500.02, -187500.02, -187500.02, -187500.02, -184788.66, -187500.02, 339,30.612595, 20:37:42.483
21, -186201.56, -182126.34, -187500.02, -187500.02, -187500.02, -187500.02, -184769.03, -187500.02, 339,30.612595, 20:37:42.483
22, -186279.41, -182102.25, -187500.02, -187500.02, -187500.02, -187500.02, -184751.84, -187500.02, 336,30.612595, 20:37:42.484
23, -186207.81, -182146.64, -187500.02, -187500.02, -187500.02, -187500.02, -184754.34, -187500.02, 336,30.612595, 20:37:42.484
24, -186093.55, -182176.30, -187500.02, -187500.02, -187500.02, -187500.02, -184816.56, -187500.02, 339,30.612595, 20:37:42.484
25, -186178.30, -182152.31, -187500.02, -187500.02, -187500.02, -187500.02, -184796.44, -187500.02, 339,30.612595, 20:37:42.484
26, -186280.91, -182120.31, -187500.02, -187500.02, -187500.02, -187500.02, -184771.97, -187500.02, 336,30.612595, 20:37:42.484
27, -186240.66, -182155.02, -187500.02, -187500.02, -187500.02, -187500.02, -184775.31, -187500.02, 336,30.612595, 20:37:42.484
28, -186120.48, -182195.08, -187500.02, -187500.02, -187500.02, -187500.02, -184857.89, -187500.02, 339,30.612595, 20:37:42.484
29, -186176.91, -182182.30, -187500.02, -187500.02, -187500.02, -187500.02, -184888.84, -187500.02, 339,30.612595, 20:37:42.485
30, -186303.81, -182147.02, -187500.02, -187500.02, -187500.02, -187500.02, -184886.27, -187500.02, 337,30.612595, 20:37:42.485
31, -186295.92, -182171.06, -187500.02, -187500.02, -187500.02, -187500.02, -184901.77, -187500.02, 336,30.612595, 20:37:42.485
32, -186173.97, -182215.92, -187500.02, -187500.02, -187500.02, -187500.02, -184976.64, -187500.02, 339,30.612595, 20:37:42.485
33, -186193.17, -182209.89, -187500.02, -187500.02, -187500.02, -187500.02, -185001.30, -187500.02, 339,30.612595, 20:37:42.485
34, -186331.28, -182171.53, -187500.02, -187500.02, -187500.02, -187500.02, -184965.69, -187500.02, 337,30.612595, 20:37:42.485
35, -186352.23, -182181.11, -187500.02, -187500.02, -187500.02, -187500.02, -184964.28, -187500.02, 336,30.612595, 20:37:42.485
36, -186238.66, -182230.22, -187500.02, -187500.02, -187500.02, -187500.02, -185036.14, -187500.02, 338,30.612595, 20:37:42.486
37, -186214.44, -182232.14, -187500.02, -187500.02, -187500.02, -187500.02, -185111.70, -187500.02, 339,30.612595, 20:37:42.486
38, -186349.55, -182190.47, -187500.02, -187500.02, -187500.02, -187500.02, -185108.27, -187500.02, 338,30.612595, 20:37:42.486
39, -186388.86, -182181.42, -187500.02, -187500.02, -187500.02, -187500.02, -185110.53, -187500.02, 336,30.612595, 20:37:42.486
40, -186278.89, -182223.80, -187500.02, -187500.02, -187500.02, -187500.02, -185149.42, -187500.02, 337,30.612595, 20:37:42.486
41, -186208.94, -182231.73, -187500.02, -187500.02, -187500.02, -187500.02, -185214.86, -187500.02, 338,30.612595, 20:37:42.486
42, -186328.52, -182190.05, -187500.02, -187500.02, -187500.02, -187500.02, -185190.98, -187500.02, 338,30.612595, 20:37:42.486
43, -186387.59, -182167.56, -187500.02, -187500.02, -187500.02, -187500.02, -185189.50, -187500.02, 335,30.612595, 20:37:42.487
44, -186296.70, -182208.31, -187500.02, -187500.02, -187500.02, -187500.02, -185231.02, -187500.02, 336,30.612595, 20:37:42.487
45, -186193.95, -182225.70, -187500.02, -187500.02, -187500.02, -187500.02, -185324.72, -187500.02, 338,30.612595, 20:37:42.488
46, -186291.70, -182190.56, -187500.02, -187500.02, -187500.02, -187500.02, -185315.77, -187500.02, 338,30.612595, 20:37:42.488
47, -186372.75, -182159.36, -187500.02, -187500.02, -187500.02, -187500.02, -185287.28, -187500.02, 335,30.612595, 20:37:42.488
48, -186305.03, -182194.47, -187500.02, -187500.02, -187500.02, -187500.02, -185264.70, -187500.02, 335,30.612595, 20:37:42.488
49, -186182.84, -182223.28, -187500.02, -187500.02, -187500.02, -187500.02, -185307.41, -187500.02, 338,30.612595, 20:37:42.488
50, -186255.09, -182197.91, -187500.02, -187500.02, -187500.02, -187500.02, -185269.73, -187500.02, 338,30.612595, 20:37:42.489
51, -186362.05, -182160.14, -187500.02, -187500.02, -187500.02, -187500.02, -185213.55, -187500.02, 336,30.612595, 20:37:42.489
52, -186328.22, -182187.16, -187500.02, -187500.02, -187500.02, -187500.02, -185182.91, -187500.02, 335,30.612595, 20:37:42.489
53, -186200.27, -182222.84, -187500.02, -187500.02, -187500.02, -187500.02, -185211.28, -187500.02, 338,30.612595, 20:37:42.489
54, -186238.23, -182205.69, -187500.02, -187500.02, -187500.02, -187500.02, -185164.92, -187500.02, 338,30.612595, 20:37:42.489
55, -186359.92, -182162.75, -187500.02, -187500.02, -187500.02, -187500.02, -185066.02, -187500.02, 336,30.612595, 20:37:42.489
56, -186350.48, -182174.22, -187500.02, -187500.02, -187500.02, -187500.02, -184990.72, -187500.02, 335,30.612595, 20:37:42.489
57, -186220.28, -182213.11, -187500.02, -187500.02, -187500.02, -187500.02, -185000.48, -187500.02, 337,30.612595, 20:37:42.490
58, -186215.11, -182202.30, -187500.02, -187500.02, -187500.02, -187500.02, -185005.83, -187500.02, 339,30.612595, 20:37:42.490
59, -186342.00, -182155.41, -187500.02, -187500.02, -187500.02, -187500.02, -184958.94, -187500.02, 337,30.612595, 20:37:42.490
60, -186356.95, -182152.34, -187500.02, -187500.02, -187500.02, -187500.02, -184938.53, -187500.02, 335,30.612595, 20:37:42.490
61, -186233.08, -182190.50, -187500.02, -187500.02, -187500.02, -187500.02, -184970.48, -187500.02, 337,30.612595, 20:37:42.490
62, -186186.09, -182186.66, -187500.02, -187500.02, -187500.02, -187500.02, -185007.11, -187500.02, 339,30.612595, 20:37:42.490
63, -186309.73, -182138.59, -187500.02, -187500.02, -187500.02, -187500.02, -184966.20, -187500.02, 337,30.612595, 20:37:42.491
64, -186348.47, -182119.19, -187500.02, -187500.02, -187500.02, -187500.02, -184959.86, -187500.02, 335,30.612595, 20:37:42.491
65, -186239.27, -182155.78, -187500.02, -187500.02, -187500.02, -187500.02, -185014.23, -187500.02, 337,30.612595, 20:37:42.491
66, -186155.64, -182160.88, -187500.02, -187500.02, -187500.02, -187500.02, -185107.34, -187500.02, 339,30.612595, 20:37:42.491
67, -186268.64, -182135.67, -187500.02, -187500.02, -187500.02, -187500.02, -185095.03, -187500.02, 338,30.612595, 20:37:42.492
68, -186335.80, -182123.70, -187500.02, -187500.02, -187500.02, -187500.02, -185062.88, -187500.02, 336,30.612595, 20:37:42.492
69, -186251.88, -182146.64, -187500.02, -187500.02, -187500.02, -187500.02, -185036.67, -187500.02, 336,26.724552, 20:37:42.492
70, -186143.69, -182161.95, -187500.02, -187500.02, -187500.02, -187500.02, -185055.77, -187500.02, 339,26.724552, 20:37:42.492
71, -186234.53, -182141.72, -187500.02, -187500.02, -187500.02, -187500.02, -184989.00, -187500.02, 338,26.724552, 20:37:42.493
72, -186321.88, -182140.17, -187500.02, -187500.02, -187500.02, -187500.02, -184940.70, -187500.02, 336,26.724552, 20:37:42.493
73, -186262.69, -182153.39, -187500.02, -187500.02, -187500.02, -187500.02, -184949.30, -187500.02, 336,26.724552, 20:37:42.493
74, -186136.00, -182177.08, -187500.02, -187500.02, -187500.02, -187500.02, -185035.25, -187500.02, 339,26.724552, 20:37:42.493
75, -186197.09, -182153.02, -187500.02, -187500.02, -187500.02, -187500.02, -185031.47, -187500.02, 339,26.724552, 20:37:42.494
76, -186308.95, -182132.13, -187500.02, -187500.02, -187500.02, -187500.02, -184973.36, -187500.02, 337,26.724552, 20:37:42.494
77, -186279.67, -182154.75, -187500.02, -187500.02, -187500.02, -187500.02, -184914.98, -187500.02, 336,26.724552, 20:37:42.494
78, -186148.47, -182186.97, -187500.02, -187500.02, -187500.02, -187500.02, -184927.95, -187500.02, 339,26.724552, 20:37:42.494
79, -186173.19, -182172.09, -187500.02, -187500.02, -187500.02, -187500.02, -184908.47, -187500.02, 339,26.724552, 20:37:42.494
80, -186297.47, -182132.30, -187500.02, -187500.02, -187500.02, -187500.02, -184862.52, -187500.02, 337,26.724552, 20:37:42.495
81, -186296.16, -182149.64, -187500.02, -187500.02, -187500.02, -187500.02, -184854.53, -187500.02, 336,26.724552, 20:37:42.495
82, -186168.48, -182190.88, -187500.02, -187500.02, -187500.02, -187500.02, -184909.63, -187500.02, 338,26.724552, 20:37:42.495
83, -186154.19, -182189.64, -187500.02, -187500.02, -187500.02, -187500.02, -184935.16, -187500.02, 340,26.724552, 20:37:42.495
84, -186288.53, -182150.75, -187500.02, -187500.02, -187500.02, -187500.02, -184879.55, -187500.02, 338,26.724552, 20:37:42.495
85, -186317.25, -182150.78, -187500.02, -187500.02, -187500.02, -187500.02, -184847.09, -187500.02, 336,26.724552, 20:37:42.495
86, -186202.70, -182197.98, -187500.02, -187500.02, -187500.02, -187500.02, -184874.95, -187500.02, 338,26.724552, 20:37:42.496
87, -186148.83, -182205.84, -187500.02, -187500.02, -187500.02, -187500.02, -184928.41, -187500.02, 340,26.724552, 20:37:42.496
88, -186273.75, -182168.31, -187500.02, -187500.02, -187500.02, -187500.02, -184897.52, -187500.02, 339,26.724552, 20:37:42.496
89, -186324.98, -182156.23, -187500.02, -187500.02, -187500.02, -187500.02, -184878.09, -187500.02, 337,11.533803, 20:37:42.953
90, -186225.98, -182202.08, -187500.02, -187500.02, -187500.02, -187500.02, -184893.89, -187500.02, 337,11.533803, 20:37:42.953
91, -186135.80, -182220.09, -187500.02, -187500.02, -187500.02, -187500.02, -184955.56, -187500.02, 340,11.533803, 20:37:42.954
92, -186245.55, -182189.89, -187500.02, -187500.02, -187500.02, -187500.02, -184931.13, -187500.02, 339,11.533803, 20:37:42.954
93, -186319.31, -182166.94, -187500.02, -187500.02, -187500.02, -187500.02, -184921.09, -187500.02, 337,11.533803, 20:37:42.954
94, -186241.84, -182207.19, -187500.02, -187500.02, -187500.02, -187500.02, -184944.05, -187500.02, 337,11.533803, 20:37:42.954
95, -186124.80, -182232.81, -187500.02, -187500.02, -187500.02, -187500.02, -185029.20, -187500.02, 339,11.533803, 20:37:42.954
96, -186207.09, -182205.30, -187500.02, -187500.02, -187500.02, -187500.02, -185026.48, -187500.02, 340,11.533803, 20:37:42.954
97, -186302.83, -182171.22, -187500.02, -187500.02, -187500.02, -187500.02, -185016.89, -187500.02, 337,11.533803, 20:37:42.954
98, -186253.75, -182201.48, -187500.02, -187500.02, -187500.02, -187500.02, -185030.84, -187500.02, 336,11.533803, 20:37:42.955
99, -186124.52, -182233.63, -187500.02, -187500.02, -187500.02, -187500.02, -185120.61, -187500.02, 339,11.533803, 20:37:42.955
100, -186176.44, -182214.25, -187500.02, -187500.02, -187500.02, -187500.02, -185144.55, -187500.02, 339,11.533803, 20:37:42.955
101, -186291.91, -182172.19, -187500.02, -187500.02, -187500.02, -187500.02, -185138.31, -187500.02, 337,11.533803, 20:37:42.955
102, -186271.91, -182189.20, -187500.02, -187500.02, -187500.02, -187500.02, -185153.48, -187500.02, 336,11.533803, 20:37:42.956
103, -186141.23, -182225.97, -187500.02, -187500.02, -187500.02, -187500.02, -185238.72, -187500.02, 339,11.533803, 20:37:42.956
104, -186153.45, -182210.94, -187500.02, -187500.02, -187500.02, -187500.02, -185284.64, -187500.02, 339,11.533803, 20:37:42.956
105, -186281.63, -182164.63, -187500.02, -187500.02, -187500.02, -187500.02, -185271.72, -187500.02, 337,11.533803, 20:37:42.956
106, -186290.14, -182168.20, -187500.02, -187500.02, -187500.02, -187500.02, -185276.70, -187500.02, 336,11.533803, 20:37:42.956
107, -186167.86, -182209.42, -187500.02, -187500.02, -187500.02, -187500.02, -185337.06, -187500.02, 338,11.533803, 20:37:42.956
108, -186143.84, -182207.22, -187500.02, -187500.02, -187500.02, -187500.02, -185382.50, -187500.02, 339,11.533803, 20:37:42.956
109, -186278.45, -182168.36, -187500.02, -187500.02, -187500.02, -187500.02, -185340.75, -187500.02, 338,11.533803, 20:37:42.957
110, -186314.20, -182172.64, -187500.02, -187500.02, -187500.02, -187500.02, -185313.84, -187500.02, 336,11.533803, 20:37:42.957
111, -186204.64, -182210.25, -187500.02, -187500.02, -187500.02, -187500.02, -185332.77, -187500.02, 337,11.533803, 20:37:42.957
112, -186139.22, -182217.14, -187500.02, -187500.02, -187500.02, -187500.02, -185378.52, -187500.02, 339,11.533803, 20:37:42.957
113, -186261.48, -182179.72, -187500.02, -187500.02, -187500.02, -187500.02, -185328.83, -187500.02, 338,11.533803, 20:37:42.957
114, -186321.39, -182167.92, -187500.02, -187500.02, -187500.02, -187500.02, -185285.05, -187500.02, 336,11.533803, 20:37:42.957
115, -186231.73, -182208.31, -187500.02, -187500.02, -187500.02, -187500.02, -185273.73, -187500.02, 336,11.533803, 20:37:42.958
116, -186137.61, -182228.00, -187500.02, -187500.02, -187500.02, -187500.02, -185308.20, -187500.02, 339,11.533803, 20:37:42.958
117, -186242.64, -182195.23, -187500.02, -187500.02, -187500.02, -187500.02, -185240.48, -187500.02, 338,11.533803, 20:37:42.958
118, -186323.69, -182166.23, -187500.02, -187500.02, -187500.02, -187500.02, -185173.53, -187500.02, 336,11.533803, 20:37:42.958
119, -186252.67, -182203.38, -187500.02, -187500.02, -187500.02, -187500.02, -185134.80, -187500.02, 336,11.533803, 20:37:42.958
120, -186125.03, -182232.20, -187500.02, -187500.02, -187500.02, -187500.02, -185167.86, -187500.02, 338,11.533803, 20:37:42.959
121, -186191.25, -182207.84, -187500.02, -187500.02, -187500.02, -187500.02, -185125.45, -187500.02, 338,11.533803, 20:37:42.959
122, -186285.83, -182170.72, -187500.02, -187500.02, -187500.02, -187500.02, -185073.31, -187500.02, 336,11.533803, 20:37:42.959
123, -186237.92, -182199.05, -187500.02, -187500.02, -187500.02, -187500.02, -185049.42, -187500.02, 335,11.217934, 20:37:42.959
124, -186101.83, -182236.58, -187500.02, -187500.02, -187500.02, -187500.02, -185102.36, -187500.02, 338,11.217934, 20:37:42.959
125, -186135.98, -182220.94, -187500.02, -187500.02, -187500.02, -187500.02, -185095.23, -187500.02, 339,11.217934, 20:37:42.960
126, -186252.61, -182180.50, -187500.02, -187500.02, -187500.02, -187500.02, -185051.88, -187500.02, 336,11.217934, 20:37:42.960
127, -186239.28, -182198.20, -187500.02, -187500.02, -187500.02, -187500.02, -185037.95, -187500.02, 335,11.217934, 20:37:42.960
128, -186110.81, -182241.33, -187500.02, -187500.02, -187500.02, -187500.02, -185098.28, -187500.02, 338,11.217934, 20:37:42.960
129, -186114.30, -182236.09, -187500.02, -187500.02, -187500.02, -187500.02, -185135.56, -187500.02, 339,11.217934, 20:37:42.960
130, -186249.69, -182194.88, -187500.02, -187500.02, -187500.02, -187500.02, -185107.00, -187500.02, 337,11.217934, 20:37:42.960
131, -186275.23, -182199.39, -187500.02, -187500.02, -187500.02, -187500.02, -185096.44, -187500.02, 335,11.217934, 20:37:42.961
132, -186167.73, -182249.02, -187500.02, -187500.02, -187500.02, -187500.02, -185137.69, -187500.02, 337,11.217934, 20:37:42.961
133, -186141.34, -182255.11, -187500.02, -187500.02, -187500.02, -187500.02, -185176.63, -187500.02, 339,11.217934, 20:37:42.961
134, -186283.14, -182216.72, -187500.02, -187500.02, -187500.02, -187500.02, -185137.06, -187500.02, 338,11.217934, 20:37:42.961
135, -186338.31, -182208.17, -187500.02, -187500.02, -187500.02, -187500.02, -185127.63, -187500.02, 336,11.217934, 20:37:42.961
136, -186245.34, -182253.80, -187500.02, -187500.02, -187500.02, -187500.02, -185166.56, -187500.02, 337,11.217934, 20:37:42.962
137, -186181.17, -182266.69, -187500.02, -187500.02, -187500.02, -187500.02, -185237.73, -187500.02, 339,11.217934, 20:37:42.962
138, -186308.73, -182230.22, -187500.02, -187500.02, -187500.02, -187500.02, -185206.59, -187500.02, 338,11.217934, 20:37:42.962
139, -186383.13, -182207.97, -187500.02, -187500.02, -187500.02, -187500.02, -185183.58, -187500.02, 336,11.217934, 20:37:42.962
140, -186306.75, -182250.89, -187500.02, -187500.02, -187500.02, -187500.02, -185199.33, -187500.02, 336,11.217934, 20:37:42.962
141, -186205.58, -182272.13, -187500.02, -187500.02, -187500.02, -187500.02, -185281.53, -187500.02, 339,11.217934, 20:37:42.962
142, -186302.50, -182239.11, -187500.02, -187500.02, -187500.02, -187500.02, -185283.38, -187500.02, 339,11.217934, 20:37:42.963
143, -186390.91, -182205.77, -187500.02, -187500.02, -187500.02, -187500.02, -185289.67, -187500.02, 336,11.217934, 20:37:42.963
144, -186331.91, -182238.34, -187500.02, -187500.02, -187500.02, -187500.02, -185315.61, -187500.02, 336,11.217934, 20:37:42.963
145, -186208.31, -182268.17, -187500.02, -187500.02, -187500.02, -187500.02, -185403.00, -187500.02, 339,11.217934, 20:37:42.963
146, -186273.94, -182245.86, -187500.02, -187500.02, -187500.02, -187500.02, -185404.23, -187500.02, 339,11.217934, 20:37:42.963
147, -186385.53, -182209.48, -187500.02, -187500.02, -187500.02, -187500.02, -185374.28, -187500.02, 337,11.217934, 20:37:42.964
148, -186359.42, -182236.66, -187500.02, -187500.02, -187500.02, -187500.02, -185365.83, -187500.02, 336,11.217934, 20:37:42.964
149, -186233.31, -182277.02, -187500.02, -187500.02, -187500.02, -187500.02, -185426.47, -187500.02, 338,11.217934, 20:37:42.964
150, -186267.66, -182266.11, -187500.02, -187500.02, -187500.02, -187500.02, -185427.61, -187500.02, 339,11.217934, 20:37:42.964
151, -186396.38, -182227.02, -187500.02, -187500.02, -187500.02, -187500.02, -185365.58, -187500.02, 337,11.217934, 20:37:42.964
152, -186398.20, -182242.42, -187500.02, -187500.02, -187500.02, -187500.02, -185307.72, -187500.02, 336,11.217934, 20:37:42.964
153, -186276.48, -182289.42, -187500.02, -187500.02, -187500.02, -187500.02, -185305.70, -187500.02, 338,11.217934, 20:37:42.965
154, -186269.27, -182289.33, -187500.02, -187500.02, -187500.02, -187500.02, -185281.19, -187500.02, 339,11.217934, 20:37:42.965
155, -186404.06, -182251.14, -187500.02, -187500.02, -187500.02, -187500.02, -185191.61, -187500.02, 338,11.217934, 20:37:42.965
156, -186433.41, -182253.84, -187500.02, -187500.02, -187500.02, -187500.02, -185133.77, -187500.02, 336,11.217934, 20:37:42.965
157, -186320.47, -182303.08, -187500.02, -187500.02, -187500.02, -187500.02, -185138.06, -187500.02, 337,11.217934, 20:37:42.965
158, -186271.39, -182310.59, -187500.02, -187500.02, -187500.02, -187500.02, -185159.41, -187500.02, 339,11.217934, 20:37:42.965
159, -186398.14, -182271.81, -187500.02, -187500.02, -187500.02, -187500.02, -185090.08, -187500.02, 338,11.217934, 20:37:42.966
160, -186445.38, -182257.66, -187500.02, -187500.02, -187500.02, -187500.02, -185038.73, -187500.02, 336,11.217934, 20:37:42.966
161, -186345.97, -182301.89, -187500.02, -187500.02, -187500.02, -187500.02, -185030.06, -187500.02, 337,11.217934, 20:37:42.966
162, -186258.33, -182316.53, -187500.02, -187500.02, -187500.02, -187500.02, -185067.34, -187500.02, 339,11.217934, 20:37:42.966
163, -186369.11, -182281.38, -187500.02, -187500.02, -187500.02, -187500.02, -185019.22, -187500.02, 339,11.217934, 20:37:42.966
164, -186444.48, -182257.03, -187500.02, -187500.02, -187500.02, -187500.02, -184989.25, -187500.02, 336,11.217934, 20:37:42.966
165, -186368.53, -182296.98, -187500.02, -187500.02, -187500.02, -187500.02, -184994.81, -187500.02, 336,11.217934, 20:37:42.967
166, -186257.17, -182319.98, -187500.02, -187500.02, -187500.02, -187500.02, -185066.56, -187500.02, 339,11.217934, 20:37:42.967
167, -186345.45, -182289.63, -187500.02, -187500.02, -187500.02, -187500.02, -185049.89, -187500.02, 339,11.217934, 20:37:42.967
168, -186442.98, -182252.27, -187500.02, -187500.02, -187500.02, -187500.02, -185023.86, -187500.02, 337,11.217934, 20:37:42.967
169, -186396.38, -182280.30, -187500.02, -187500.02, -187500.02, -187500.02, -185028.88, -187500.02, 336,11.217934, 20:37:42.967
170, -186272.44, -182309.14, -187500.02, -187500.02, -187500.02, -187500.02, -185112.02, -187500.02, 339,11.217934, 20:37:42.967
171, -186329.88, -182285.28, -187500.02, -187500.02, -187500.02, -187500.02, -185130.06, -187500.02, 339,11.217934, 20:37:42.967
172, -186449.58, -182242.81, -187500.02, -187500.02, -187500.02, -187500.02, -185122.42, -187500.02, 337,11.217934, 20:37:42.968
173, -186430.66, -182259.41, -187500.02, -187500.02, -187500.02, -187500.02, -185133.33, -187500.02, 336,11.217934, 20:37:42.968
174, -186302.09, -182293.05, -187500.02, -187500.02, -187500.02, -187500.02, -185211.78, -187500.02, 339,11.217934, 20:37:42.968
175, -186319.55, -182276.72, -187500.02, -187500.02, -187500.02, -187500.02, -185247.08, -187500.02, 339,11.217934, 20:37:42.968
176, -186446.59, -182232.73, -187500.02, -187500.02, -187500.02, -187500.02, -185222.73, -187500.02, 337,11.217934, 20:37:42.968
177, -186450.80, -182240.61, -187500.02, -187500.02, -187500.02, -187500.02, -185217.14, -187500.02, 336,11.217934, 20:37:42.968
178, -186322.80, -182277.27, -187500.02, -187500.02, -187500.02, -187500.02, -185270.34, -187500.02, 338,11.217934, 20:37:42.968
179, -186294.77, -182273.33, -187500.02, -187500.02, -187500.02, -187500.02, -185308.83, -187500.02, 339,11.217934, 20:37:42.968
180, -186422.48, -182241.41, -187500.02, -187500.02, -187500.02, -187500.02, -185266.94, -187500.02, 338,11.217934, 20:37:42.969
181, -186448.44, -182238.28, -187500.02, -187500.02, -187500.02, -187500.02, -185238.28, -187500.02, 336,11.217934, 20:37:42.969
182, -186329.17, -182277.36, -187500.02, -187500.02, -187500.02, -187500.02, -185254.14, -187500.02, 337,11.217934, 20:37:42.969
183, -186259.25, -182285.41, -187500.02, -187500.02, -187500.02, -187500.02, -185291.81, -187500.02, 339,11.217934, 20:37:42.969
184, -186374.41, -182245.66, -187500.02, -187500.02, -187500.02, -187500.02, -185237.27, -187500.02, 338,11.217934, 20:37:42.969
185, -186425.55, -182235.80, -187500.02, -187500.02, -187500.02, -187500.02, -185195.95, -187500.02, 336,11.217934, 20:37:42.969
186, -186327.33, -182279.25, -187500.02, -187500.02, -187500.02, -187500.02, -185190.20, -187500.02, 337,11.217934, 20:37:42.969
187, -186227.94, -182299.30, -187500.02, -187500.02, -187500.02, -187500.02, -185230.48, -187500.02, 339,11.217934, 20:37:42.969
188, -186331.27, -182268.28, -187500.02, -187500.02, -187500.02, -187500.02, -185174.39, -187500.02, 338,11.217934, 20:37:42.969
189, -186410.28, -182241.98, -187500.02, -187500.02, -187500.02, -187500.02, -185122.70, -187500.02, 336,11.217934, 20:37:42.970
190, -186340.88, -182282.19, -187500.02, -187500.02, -187500.02, -187500.02, -185100.00, -187500.02, 336,11.217934, 20:37:42.970
191, -186223.34, -182312.20, -187500.02, -187500.02, -187500.02, -187500.02, -185145.19, -187500.02, 339,11.217934, 20:37:42.970
192, -186300.11, -182287.98, -187500.02, -187500.02, -187500.02, -187500.02, -185098.88, -187500.02, 339,11.217934, 20:37:42.970
193, -186403.81, -182254.52, -187500.02, -187500.02, -187500.02, -187500.02, -185027.98, -187500.02, 336,11.217934, 20:37:42.970
194, -186364.72, -182287.09, -187500.02, -187500.02, -187500.02, -187500.02, -184980.27, -187500.02, 336,11.217934, 20:37:42.970
195, -186239.02, -182327.44, -187500.02, -187500.02, -187500.02, -187500.02, -185024.88, -187500.02, 339,11.217934, 20:37:42.970
196, -186286.20, -182315.48, -187500.02, -187500.02, -187500.02, -187500.02, -185028.98, -187500.02, 339,11.217934, 20:37:42.970
197, -186409.41, -182277.27, -187500.02, -187500.02, -187500.02, -187500.02, -185013.73, -187500.02, 337,11.217934, 20:37:42.970
198, -186400.41, -182297.17, -187500.02, -187500.02, -187500.02, -187500.02, -185022.92, -187500.02, 336,11.217934, 20:37:42.971
199, -186273.52, -182341.81, -187500.02, -187500.02, -187500.02, -187500.02, -185091.44, -187500.02, 338,11.217934, 20:37:42.971
200, -186278.89, -182333.77, -187500.02, -187500.02, -187500.02, -187500.02, -185128.89, -187500.02, 339,11.217934, 20:37:42.971
201, -186410.69, -182290.11, -187500.02, -187500.02, -187500.02, -187500.02, -185111.86, -187500.02, 338,11.217934, 20:37:42.971
202, -186426.84, -182293.73, -187500.02, -187500.02, -187500.02, -187500.02, -185126.11, -187500.02, 336,11.217934, 20:37:42.971
203, -186306.44, -182339.36, -187500.02, -187500.02, -187500.02, -187500.02, -185214.77, -187500.02, 338,11.217934, 20:37:42.971
204, -186271.41, -182341.17, -187500.02, -187500.02, -187500.02, -187500.02, -185318.27, -187500.02, 339,11.217934, 20:37:42.971
205, -186400.91, -182298.25, -187500.02, -187500.02, -187500.02, -187500.02, -185337.34, -187500.02, 338,11.217934, 20:37:42.971
206, -186440.97, -182286.66, -187500.02, -187500.02, -187500.02, -187500.02, -185368.39, -187500.02, 336,11.217934, 20:37:42.971
207, -186333.30, -182328.67, -187500.02, -187500.02, -187500.02, -187500.02, -185434.63, -187500.02, 337,11.217934, 20:37:42.972
208, -186257.59, -182336.14, -187500.02, -187500.02, -187500.02, -187500.02, -185527.20, -187500.02, 339,11.217934, 20:37:42.972
209, -186374.36, -182293.94, -187500.02, -187500.02, -187500.02, -187500.02, -185530.25, -187500.02, 338,18.887396, 20:37:43.433
210, -186437.92, -182267.77, -187500.02, -187500.02, -187500.02, -187500.02, -185543.97, -187500.02, 335,18.887396, 20:37:43.434
211, -186350.64, -182304.73, -187500.02, -187500.02, -187500.02, -187500.02, -185581.95, -187500.02, 336,18.887396, 20:37:43.434
212, -186246.50, -182322.14, -187500.02, -187500.02, -187500.02, -187500.02, -185664.30, -187500.02, 338,18.887396, 20:37:43.434
213, -186342.36, -182287.33, -187500.02, -187500.02, -187500.02, -187500.02, -185632.11, -187500.02, 338,18.887396, 20:37:43.434
214, -186428.94, -182265.23, -187500.02, -187500.02, -187500.02, -187500.02, -185576.67, -187500.02, 335,18.887396, 20:37:43.434
215, -186366.58, -182291.44, -187500.02, -187500.02, -187500.02, -187500.02, -185544.39, -187500.02, 335,18.887396, 20:37:43.434
216, -186241.52, -182313.42, -187500.02, -187500.02, -187500.02, -187500.02, -185589.77, -187500.02, 338,18.887396, 20:37:43.434
217, -186306.81, -182290.92, -187500.02, -187500.02, -187500.02, -187500.02, -185571.03, -187500.02, 338,18.887396, 20:37:43.434
218, -186414.02, -182270.27, -187500.02, -187500.02, -187500.02, -187500.02, -185541.28, -187500.02, 336,18.887396, 20:37:43.434
219, -186380.38, -182284.19, -187500.02, -187500.02, -187500.02, -187500.02, -185535.34, -187500.02, 335,18.887396, 20:37:43.435
220, -186250.63, -182317.30, -187500.02, -187500.02, -187500.02, -187500.02, -185588.63, -187500.02, 338,18.887396, 20:37:43.435
221, -186279.61, -182300.42, -187500.02, -187500.02, -187500.02, -187500.02, -185566.33, -187500.02, 338,18.887396, 20:37:43.435
222, -186399.27, -182276.33, -187500.02, -187500.02, -187500.02, -187500.02, -185482.13, -187500.02, 336,18.887396, 20:37:43.435
223, -186390.72, -182301.17, -187500.02, -187500.02, -187500.02, -187500.02, -185416.67, -187500.02, 335,18.887396, 20:37:43.435
224, -186257.92, -182331.75, -187500.02, -187500.02, -187500.02, -187500.02, -185422.25, -187500.02, 338,18.887396, 20:37:43.435
225, -186243.56, -182324.72, -187500.02, -187500.02, -187500.02, -187500.02, -185414.58, -187500.02, 339,18.887396, 20:37:43.435
226, -186369.27, -182281.48, -187500.02, -187500.02, -187500.02, -187500.02, -185346.94, -187500.02, 337,18.887396, 20:37:43.435
227, -186387.22, -182280.23, -187500.02, -187500.02, -187500.02, -187500.02, -185307.28, -187500.02, 336,18.887396, 20:37:43.435
228, -186266.89, -182326.02, -187500.02, -187500.02, -187500.02, -187500.02, -185324.31, -187500.02, 337,18.887396, 20:37:43.436
229, -186214.72, -182330.39, -187500.02, -187500.02, -187500.02, -187500.02, -185354.19, -187500.02, 339,18.887396, 20:37:43.436
230, -186337.72, -182289.22, -187500.02, -187500.02, -187500.02, -187500.02, -185296.78, -187500.02, 338,18.887396, 20:37:43.436
231, -186384.75, -182275.09, -187500.02, -187500.02, -187500.02, -187500.02, -185253.44, -187500.02, 336,18.887396, 20:37:43.436
232, -186283.17, -182316.83, -187500.02, -187500.02, -187500.02, -187500.02, -185247.98, -187500.02, 337,18.887396, 20:37:43.436
233, -186201.58, -182328.67, -187500.02, -187500.02, -187500.02, -187500.02, -185281.34, -187500.02, 339,18.887396, 20:37:43.436
234, -186317.78, -182295.14, -187500.02, -187500.02, -187500.02, -187500.02, -185224.77, -187500.02, 338,18.887396, 20:37:43.436
235, -186396.08, -182283.03, -187500.02, -187500.02, -187500.02, -187500.02, -185184.23, -187500.02, 336,18.887396, 20:37:43.436
236, -186325.50, -182316.13, -187500.02, -187500.02, -187500.02, -187500.02, -185191.17, -187500.02, 336,18.887396, 20:37:43.436
237, -186223.11, -182336.66, -187500.02, -187500.02, -187500.02, -187500.02, -185269.67, -187500.02, 339,18.887396, 20:37:43.437
238, -186318.97, -182307.50, -187500.02, -187500.02, -187500.02, -187500.02, -185258.73, -187500.02, 339,18.887396, 20:37:43.437
239, -186421.52, -182280.97, -187500.02, -187500.02, -187500.02, -187500.02, -185231.02, -187500.02, 336,18.887396, 20:37:43.437
240, -186375.92, -182309.66, -187500.02, -187500.02, -187500.02, -187500.02, -185222.44, -187500.02, 336,18.887396, 20:37:43.437
241, -186254.44, -182340.92, -187500.02, -187500.02, -187500.02, -187500.02, -185286.86, -187500.02, 339,18.887396, 20:37:43.437
242, -186315.34, -182321.16, -187500.02, -187500.02, -187500.02, -187500.02, -185287.38, -187500.02, 339,18.887396, 20:37:43.437
243, -186434.58, -182291.30, -187500.02, -187500.02, -187500.02, -187500.02, -185264.23, -187500.02, 337,18.887396, 20:37:43.437
244, -186416.58, -182318.13, -187500.02, -187500.02, -187500.02, -187500.02, -185265.64, -187500.02, 336,18.887396, 20:37:43.437
245, -186289.02, -182359.70, -187500.02, -187500.02, -187500.02, -187500.02, -185330.64, -187500.02, 339,18.887396, 20:37:43.437
246, -186310.09, -182351.50, -187500.02, -187500.02, -187500.02, -187500.02, -185335.30, -187500.02, 340,18.887396, 20:37:43.438
247, -186439.25, -182313.05, -187500.02, -187500.02, -187500.02, -187500.02, -185269.84, -187500.02, 338,18.887396, 20:37:43.438
248, -186444.33, -182324.06, -187500.02, -187500.02, -187500.02, -187500.02, -185223.33, -187500.02, 337,18.887396, 20:37:43.438
249, -186319.48, -182373.02, -187500.02, -187500.02, -187500.02, -187500.02, -185249.28, -187500.02, 339,18.887396, 20:37:43.438
250, -186299.28, -182376.64, -187500.02, -187500.02, -187500.02, -187500.02, -185274.70, -187500.02, 340,18.887396, 20:37:43.439
251, -186433.64, -182339.63, -187500.02, -187500.02, -187500.02, -187500.02, -185233.75, -187500.02, 339,18.887396, 20:37:43.439
252, -186469.73, -182343.36, -187500.02, -187500.02, -187500.02, -187500.02, -185218.33, -187500.02, 337,18.887396, 20:37:43.439
253, -186360.50, -182396.44, -187500.02, -187500.02, -187500.02, -187500.02, -185254.20, -187500.02, 338,18.887396, 20:37:43.439
254, -186304.33, -182411.17, -187500.02, -187500.02, -187500.02, -187500.02, -185307.11, -187500.02, 340,18.887396, 20:37:43.439
255, -186431.95, -182378.81, -187500.02, -187500.02, -187500.02, -187500.02, -185265.92, -187500.02, 339,18.887396, 20:37:43.439
0, -186492.47, -182368.84, -187500.02, -187500.02, -187500.02, -187500.02, -185241.02, -187500.02, 337,18.887396, 20:37:43.439
1, -186403.58, -182421.09, -187500.02, -187500.02, -187500.02, -187500.02, -185253.73, -187500.02, 338,18.887396, 20:37:43.439
2, -186315.11, -182446.31, -187500.02, -187500.02, -187500.02, -187500.02, -185305.08, -187500.02, 340,18.887396, 20:37:43.440
3, -186427.88, -182420.45, -187500.02, -187500.02, -187500.02, -187500.02, -185255.39, -187500.02, 340,18.887396, 20:37:43.440
4, -186515.98, -182401.56, -187500.02, -187500.02, -187500.02, -187500.02, -185209.70, -187500.02, 337,18.887396, 20:37:43.440
5, -186451.92, -182448.48, -187500.02, -187500.02, -187500.02, -187500.02, -185201.98, -187500.02, 337,18.887396, 20:37:43.440
6, -186342.06, -182482.52, -187500.02, -187500.02, -187500.02, -187500.02, -185270.11, -187500.02, 339,18.887396, 20:37:43.440
7, -186427.56, -182461.02, -187500.02, -187500.02, -187500.02, -187500.02, -185255.23, -187500.02, 340,18.887396, 20:37:43.440
8, -186533.95, -182430.66, -187500.02, -187500.02, -187500.02, -187500.02, -185215.58, -187500.02, 337,18.887396, 20:37:43.441
9, -186495.73, -182464.97, -187500.02, -187500.02, -187500.02, -187500.02, -185197.20, -187500.02, 336,18.887396, 20:37:43.441
10, -186371.98, -182504.38, -187500.02, -187500.02, -187500.02, -187500.02, -185250.20, -187500.02, 339,18.887396, 20:37:43.441
11, -186422.80, -182488.63, -187500.02, -187500.02, -187500.02, -187500.02, -185239.34, -187500.02, 340,18.887396, 20:37:43.441
12, -186548.02, -182451.27, -187500.02, -187500.02, -187500.02, -187500.02, -185199.42, -187500.02, 337,18.887396, 20:37:43.441
13, -186536.75, -182471.59, -187500.02, -187500.02, -187500.02, -187500.02, -185197.50, -187500.02, 336,18.887396, 20:37:43.441
14, -186409.11, -182513.92, -187500.02, -187500.02, -187500.02, -187500.02, -185273.69, -187500.02, 338,18.887396, 20:37:43.441
15, -186416.14, -182504.06, -187500.02, -187500.02, -187500.02, -187500.02, -185313.50, -187500.02, 339,18.887396, 20:37:43.441
16, -186545.73, -182458.25, -187500.02, -187500.02, -187500.02, -187500.02, -185283.86, -187500.02, 338,18.887396, 20:37:43.442
17, -186559.03, -182461.17, -187500.02, -187500.02, -187500.02, -187500.02, -185272.06, -187500.02, 336,18.887396, 20:37:43.442
18, -186434.83, -182506.30, -187500.02, -187500.02, -187500.02, -187500.02, -185325.70, -187500.02, 337,18.887396, 20:37:43.442
19, -186400.17, -182506.75, -187500.02, -187500.02, -187500.02, -187500.02, -185386.91, -187500.02, 339,18.887396, 20:37:43.442
20, -186532.25, -182462.83, -187500.02, -187500.02, -187500.02, -187500.02, -185379.33, -187500.02, 337,18.887396, 20:37:43.442
21, -186570.23, -182452.08, -187500.02, -187500.02, -187500.02, -187500.02, -185400.27, -187500.02, 335,18.887396, 20:37:43.442
22, -186460.13, -182496.38, -187500.02, -187500.02, -187500.02, -187500.02, -185468.33, -187500.02, 337,18.887396, 20:37:43.442
23, -186385.36, -182506.33, -187500.02, -187500.02, -187500.02, -187500.02, -185554.83, -187500.02, 339,18.887396, 20:37:43.443
24, -186502.28, -182466.27, -187500.02, -187500.02, -187500.02, -187500.02, -185530.41, -187500.02, 337,18.887396, 20:37:43.443
25, -186564.58, -182445.22, -187500.02, -187500.02, -187500.02, -187500.02, -185507.52, -187500.02, 336,18.887396, 20:37:43.443
26, -186476.75, -182487.23, -187500.02, -187500.02, -187500.02, -187500.02, -185520.67, -187500.02, 336,18.887396, 20:37:43.443
27, -186375.36, -182507.63, -187500.02, -187500.02, -187500.02, -187500.02, -185596.25, -187500.02, 338,18.887396, 20:37:43.443
28, -186475.25, -182474.19, -187500.02, -187500.02, -187500.02, -187500.02, -185585.55, -187500.02, 338,18.887396, 20:37:43.443
29, -186561.53, -182441.55, -187500.02, -187500.02, -187500.02, -187500.02, -185571.73, -187500.02, 336,18.887396, 20:37:43.443
30, -186499.44, -182476.80, -187500.02, -187500.02, -187500.02, -187500.02, -185572.31, -187500.02, 335,18.887396, 20:37:43.444
31, -186377.00, -182504.95, -187500.02, -187500.02, -187500.02, -187500.02, -185625.78, -187500.02, 338,18.887396, 20:37:43.444
32, -186444.08, -182477.11, -187500.02, -187500.02, -187500.02, -187500.02, -185584.42, -187500.02, 338,18.887396, 20:37:43.444
33, -186550.11, -182437.33, -187500.02, -187500.02, -187500.02, -187500.02, -185519.34, -187500.02, 336,18.887396, 20:37:43.444
34, -186515.25, -182461.53, -187500.02, -187500.02, -187500.02, -187500.02, -185484.97, -187500.02, 335,18.887396, 20:37:43.444
35, -186384.02, -182496.67, -187500.02, -187500.02, -187500.02, -187500.02, -185532.06, -187500.02, 338,18.887396, 20:37:43.445
36, -186417.77, -182479.97, -187500.02, -187500.02, -187500.02, -187500.02, -185524.77, -187500.02, 338,18.887396, 20:37:43.445
37, -186539.31, -182435.64, -187500.02, -187500.02, -187500.02, -187500.02, -185468.63, -187500.02, 336,18.887396, 20:37:43.445
38, -186531.42, -182446.48, -187500.02, -187500.02, -187500.02, -187500.02, -185431.63, -187500.02, 335,18.887396, 20:37:43.445
39, -186400.64, -182485.64, -187500.02, -187500.02, -187500.02, -187500.02, -185457.27, -187500.02, 337,18.887396, 20:37:43.445
40, -186390.55, -182475.14, -187500.02, -187500.02, -187500.02, -187500.02, -185457.47, -187500.02, 338,18.887396, 20:37:43.445
41, -186518.17, -182426.75, -187500.02, -187500.02, -187500.02, -187500.02, -185396.92, -187500.02, 336,18.887396, 20:37:43.445
42, -186537.39, -182422.11, -187500.02, -187500.02, -187500.02, -187500.02, -185366.25, -187500.02, 335,18.887396, 20:37:43.445
43, -186417.92, -182462.84, -187500.02, -187500.02, -187500.02, -187500.02, -185401.45, -187500.02, 337,18.887396, 20:37:43.446
44, -186372.19, -182463.20, -187500.02, -187500.02, -187500.02, -187500.02, -185452.75, -187500.02, 339,18.887396, 20:37:43.446
45, -186499.03, -182417.88, -187500.02, -187500.02, -187500.02, -187500.02, -185415.58, -187500.02, 337,18.887396, 20:37:43.446
46, -186544.28, -182401.66, -187500.02, -187500.02, -187500.02, -187500.02, -185390.44, -187500.02, 335,18.887396, 20:37:43.446
47, -186441.28, -182443.84, -187500.02, -187500.02, -187500.02, -187500.02, -185405.77, -187500.02, 336,18.887396, 20:37:43.446
48, -186358.42, -182453.75, -187500.02, -187500.02, -187500.02, -187500.02, -185465.66, -187500.02, 339,18.887396, 20:37:43.446
49, -186473.27, -182414.70, -187500.02, -187500.02, -187500.02, -187500.02, -185443.67, -187500.02, 338,18.887396, 20:37:43.446
50, -186544.88, -182388.80, -187500.02, -187500.02, -187500.02, -187500.02, -185438.84, -187500.02, 335,18.887396, 20:37:43.446
51, -186467.13, -182430.14, -187500.02, -187500.02, -187500.02, -187500.02, -185459.34, -187500.02, 336,18.887396, 20:37:43.447
52, -186362.48, -182454.75, -187500.02, -187500.02, -187500.02, -187500.02, -185531.55, -187500.02, 339,18.887396, 20:37:43.447
53, -186457.28, -182426.73, -187500.02, -187500.02, -187500.02, -187500.02, -185502.63, -187500.02, 339,18.887396, 20:37:43.447
54, -186554.02, -182393.88, -187500.02, -187500.02, -187500.02, -187500.02, -185465.50, -187500.02, 336,18.887396, 20:37:43.447
55, -186503.22, -182425.91, -187500.02, -187500.02, -187500.02, -187500.02, -185462.45, -187500.02, 336,18.887396, 20:37:43.447
56, -186379.36, -182456.30, -187500.02, -187500.02, -187500.02, -187500.02, -185539.80, -187500.02, 339,18.887396, 20:37:43.447
57, -186440.19, -182433.53, -187500.02, -187500.02, -187500.02, -187500.02, -185548.06, -187500.02, 339,18.887396, 20:37:43.447
58, -186554.53, -182393.05, -187500.02, -187500.02, -187500.02, -187500.02, -185526.38, -187500.02, 337,18.887396, 20:37:43.447
59, -186529.66, -182413.97, -187500.02, -187500.02, -187500.02, -187500.02, -185521.50, -187500.02, 336,18.887396, 20:37:43.447
60, -186400.42, -182453.47, -187500.02, -187500.02, -187500.02, -187500.02, -185583.28, -187500.02, 339,18.887396, 20:37:43.448
61, -186421.48, -182440.70, -187500.02, -187500.02, -187500.02, -187500.02, -185597.53, -187500.02, 339,18.887396, 20:37:43.448
62, -186545.95, -182397.73, -187500.02, -187500.02, -187500.02, -187500.02, -185563.53, -187500.02, 337,18.887396, 20:37:43.448
63, -186546.41, -182406.14, -187500.02, -187500.02, -187500.02, -187500.02, -185558.20, -187500.02, 336,18.887396, 20:37:43.448
64, -186417.78, -182448.20, -187500.02, -187500.02, -187500.02, -187500.02, -185615.11, -187500.02, 338,18.887396, 20:37:43.448
65, -186397.61, -182445.08, -187500.02, -187500.02, -187500.02, -187500.02, -185650.14, -187500.02, 340,18.887396, 20:37:43.448
66, -186527.45, -182403.86, -187500.02, -187500.02, -187500.02, -187500.02, -185597.95, -187500.02, 338,18.887396, 20:37:43.448
67, -186557.53, -182402.39, -187500.02, -187500.02, -187500.02, -187500.02, -185559.89, -187500.02, 336,18.887396, 20:37:43.448
68, -186447.05, -182451.11, -187500.02, -187500.02, -187500.02, -187500.02, -185572.95, -187500.02, 338,18.887396, 20:37:43.448
69, -186392.86, -182460.19, -187500.02, -187500.02, -187500.02, -187500.02, -185608.19, -187500.02, 339,18.887396, 20:37:43.449
70, -186519.31, -182421.98, -187500.02, -187500.02, -187500.02, -187500.02, -185558.19, -187500.02, 338,18.887396, 20:37:43.449
71, -186574.97, -182407.19, -187500.02, -187500.02, -187500.02, -187500.02, -185526.36, -187500.02, 336,18.887396, 20:37:43.449
72, -186480.17, -182451.30, -187500.02, -187500.02, -187500.02, -187500.02, -185527.88, -187500.02, 337,18.887396, 20:37:43.449
73, -186391.45, -182469.48, -187500.02, -187500.02, -187500.02, -187500.02, -185568.92, -187500.02, 339,20.661438, 20:37:43.913
74, -186501.34, -182437.03, -187500.02, -187500.02, -187500.02, -187500.02, -185510.89, -187500.02, 339,20.661438, 20:37:43.913
75, -186580.20, -182411.39, -187500.02, -187500.02, -187500.02, -187500.02, -185461.64, -187500.02, 337,20.661438, 20:37:43.913
76, -186511.02, -182452.03, -187500.02, -187500.02, -187500.02, -187500.02, -185449.98, -187500.02, 337,20.661438, 20:37:43.913
77, -186396.84, -182479.02, -187500.02, -187500.02, -187500.02, -187500.02, -185510.47, -187500.02, 339,20.661438, 20:37:43.914
78, -186477.69, -182451.77, -187500.02, -187500.02, -187500.02, -187500.02, -185489.20, -187500.02, 340,20.661438, 20:37:43.914
79, -186575.09, -182415.38, -187500.02, -187500.02, -187500.02, -187500.02, -185456.34, -187500.02, 337,20.661438, 20:37:43.914
80, -186526.84, -182442.89, -187500.02, -187500.02, -187500.02, -187500.02, -185444.11, -187500.02, 336,20.661438, 20:37:43.914
81, -186397.77, -182473.95, -187500.02, -187500.02, -187500.02, -187500.02, -185505.55, -187500.02, 339,20.661438, 20:37:43.914
82, -186445.23, -182452.50, -187500.02, -187500.02, -187500.02, -187500.02, -185507.02, -187500.02, 340,20.661438, 20:37:43.914
83, -186562.77, -182410.64, -187500.02, -187500.02, -187500.02, -187500.02, -185484.31, -187500.02, 337,20.661438, 20:37:43.914
84, -186548.66, -182427.98, -187500.02, -187500.02, -187500.02, -187500.02, -185488.16, -187500.02, 336,20.661438, 20:37:43.914
85, -186421.61, -182467.25, -187500.02, -187500.02, -187500.02, -187500.02, -185558.13, -187500.02, 339,20.661438, 20:37:43.915
86, -186435.05, -182457.42, -187500.02, -187500.02, -187500.02, -187500.02, -185588.00, -187500.02, 339,20.661438, 20:37:43.915
87, -186568.02, -182414.03, -187500.02, -187500.02, -187500.02, -187500.02, -185545.22, -187500.02, 338,20.661438, 20:37:43.915
88, -186582.88, -182417.66, -187500.02, -187500.02, -187500.02, -187500.02, -185510.05, -187500.02, 336,20.661438, 20:37:43.915
89, -186464.50, -182462.22, -187500.02, -187500.02, -187500.02, -187500.02, -185527.67, -187500.02, 338,20.661438, 20:37:43.915
90, -186436.23, -182462.83, -187500.02, -187500.02, -187500.02, -187500.02, -185542.27, -187500.02, 339,20.661438, 20:37:43.915
91, -186566.94, -182421.13, -187500.02, -187500.02, -187500.02, -187500.02, -185486.95, -187500.02, 338,20.661438, 20:37:43.915
92, -186603.73, -182414.53, -187500.02, -187500.02, -187500.02, -187500.02, -185461.41, -187500.02, 336,20.661438, 20:37:43.915
93, -186494.70, -182458.89, -187500.02, -187500.02, -187500.02, -187500.02, -185478.45, -187500.02, 337,20.661438, 20:37:43.915
94, -186424.20, -182468.28, -187500.02, -187500.02, -187500.02, -187500.02, -185508.72, -187500.02, 339,20.661438, 20:37:43.916
95, -186541.50, -182429.66, -187500.02, -187500.02, -187500.02, -187500.02, -185430.48, -187500.02, 338,20.661438, 20:37:43.916
96, -186598.02, -182411.59, -187500.02, -187500.02, -187500.02, -187500.02, -185359.92, -187500.02, 336,20.661438, 20:37:43.916
97, -186505.61, -182457.22, -187500.02, -187500.02, -187500.02, -187500.02, -185334.27, -187500.02, 337,20.661438, 20:37:43.916
98, -186403.31, -182480.55, -187500.02, -187500.02, -187500.02, -187500.02, -185378.14, -187500.02, 339,20.661438, 20:37:43.916
99, -186502.25, -182452.23, -187500.02, -187500.02, -187500.02, -187500.02, -185339.88, -187500.02, 339,20.661438, 20:37:43.916
100, -186587.70, -182428.66, -187500.02, -187500.02, -187500.02, -187500.02, -185305.56, -187500.02, 336,20.661438, 20:37:43.916
101, -186525.25, -182472.22, -187500.02, -187500.02, -187500.02, -187500.02, -185286.86, -187500.02, 336,20.661438, 20:37:43.916
102, -186408.72, -182509.00, -187500.02, -187500.02, -187500.02, -187500.02, -185327.34, -187500.02, 339,20.661438, 20:37:43.916
103, -186486.13, -182491.08, -187500.02, -187500.02, -187500.02, -187500.02, -185287.14, -187500.02, 339,20.661438, 20:37:43.917
104, -186596.53, -182459.77, -187500.02, -187500.02, -187500.02, -187500.02, -185232.75, -187500.02, 337,20.661438, 20:37:43.917
105, -186568.50, -182495.17, -187500.02, -187500.02, -187500.02, -187500.02, -185210.06, -187500.02, 336,20.661438, 20:37:43.917
106, -186449.47, -182541.42, -187500.02, -187500.02, -187500.02, -187500.02, -185268.70, -187500.02, 339,20.661438, 20:37:43.917
107, -186496.41, -182534.05, -187500.02, -187500.02, -187500.02, -187500.02, -185270.86, -187500.02, 340,20.661438, 20:37:43.917
108, -186629.44, -182498.39, -187500.02, -187500.02, -187500.02, -187500.02, -185241.95, -187500.02, 337,20.661438, 20:37:43.917
109, -186630.44, -182519.27, -187500.02, -187500.02, -187500.02, -187500.02, -185243.05, -187500.02, 336,20.661438, 20:37:43.917
110, -186510.02, -182568.23, -187500.02, -187500.02, -187500.02, -187500.02, -185310.94, -187500.02, 338,20.661438, 20:37:43.917
111, -186513.52, -182566.89, -187500.02, -187500.02, -187500.02, -187500.02, -185341.42, -187500.02, 339,20.661438, 20:37:43.918
112, -186647.28, -182527.25, -187500.02, -187500.02, -187500.02, -187500.02, -185306.64, -187500.02, 338,20.661438, 20:37:43.918
113, -186670.16, -182533.08, -187500.02, -187500.02, -187500.02, -187500.02, -185308.45, -187500.02, 336,20.661438, 20:37:43.918
114, -186555.72, -182582.81, -187500.02, -187500.02, -187500.02, -187500.02, -185386.17, -187500.02, 338,20.661438, 20:37:43.918
115, -186516.83, -182589.86, -187500.02, -187500.02, -187500.02, -187500.02, -185487.67, -187500.02, 339,20.661438, 20:37:43.918
116, -186649.59, -182552.61, -187500.02, -187500.02, -187500.02, -187500.02, -185511.69, -187500.02, 338,20.661438, 20:37:43.918
117, -186698.95, -182543.25, -187500.02, -187500.02, -187500.02, -187500.02, -185546.16, -187500.02, 336,20.661438, 20:37:43.918
118, -186600.38, -182590.28, -187500.02, -187500.02, -187500.02, -187500.02, -185616.28, -187500.02, 337,20.661438, 20:37:43.918
119, -186525.34, -182605.08, -187500.02, -187500.02, -187500.02, -187500.02, -185717.63, -187500.02, 339,20.661438, 20:37:43.918
120, -186644.23, -182567.83, -187500.02, -187500.02, -187500.02, -187500.02, -185726.58, -187500.02, 338,20.661438, 20:37:43.919
121, -186718.70, -182544.30, -187500.02, -187500.02, -187500.02, -187500.02, -185753.58, -187500.02, 336,20.661438, 20:37:43.919
122, -186642.58, -182586.72, -187500.02, -187500.02, -187500.02, -187500.02, -185814.47, -187500.02, 336,20.661438, 20:37:43.919
123, -186539.98, -182609.67, -187500.02, -187500.02, -187500.02, -187500.02, -185929.53, -187500.02, 338,20.661438, 20:37:43.919
124, -186636.48, -182578.30, -187500.02, -187500.02, -187500.02, -187500.02, -185937.03, -187500.02, 338,20.661438, 20:37:43.919
125, -186732.25, -182544.52, -187500.02, -187500.02, -187500.02, -187500.02, -185914.06, -187500.02, 336,20.661438, 20:37:43.919
126, -186681.11, -182577.53, -187500.02, -187500.02, -187500.02, -187500.02, -185900.92, -187500.02, 335,20.661438, 20:37:43.919
127, -186558.84, -182607.17, -187500.02, -187500.02, -187500.02, -187500.02, -185949.31, -187500.02, 338,20.661438, 20:37:43.919
128, -186621.44, -182581.83, -187500.02, -187500.02, -187500.02, -187500.02, -185920.64, -187500.02, 338,20.661438, 20:37:43.920
129, -186733.11, -182540.50, -187500.02, -187500.02, -187500.02, -187500.02, -185872.05, -187500.02, 336,20.661438, 20:37:43.920
130, -186706.69, -182562.47, -187500.02, -187500.02, -187500.02, -187500.02, -185844.78, -187500.02, 335,20.661438, 20:37:43.920
131, -186578.03, -182600.94, -187500.02, -187500.02, -187500.02, -187500.02, -185881.39, -187500.02, 337,20.661438, 20:37:43.920
132, -186603.05, -182587.50, -187500.02, -187500.02, -187500.02, -187500.02, -185853.55, -187500.02, 338,20.661438, 20:37:43.920
133, -186727.61, -182543.66, -187500.02, -187500.02, -187500.02, -187500.02, -185761.30, -187500.02, 336,20.661438, 20:37:43.920
134, -186727.25, -182554.45, -187500.02, -187500.02, -187500.02, -187500.02, -185681.92, -187500.02, 335,20.661438, 20:37:43.920
135, -186599.48, -182599.38, -187500.02, -187500.02, -187500.02, -187500.02, -185671.94, -187500.02, 337,20.661438, 20:37:43.920
136, -186582.13, -182596.13, -187500.02, -187500.02, -187500.02, -187500.02, -185650.14, -187500.02, 338,20.661438, 20:37:43.920
137, -186711.80, -182554.05, -187500.02, -187500.02, -187500.02, -187500.02, -185558.25, -187500.02, 337,20.661438, 20:37:43.921
138, -186740.09, -182553.42, -187500.02, -187500.02, -187500.02, -187500.02, -185493.03, -187500.02, 335,20.661438, 20:37:43.921
139, -186627.05, -182602.17, -187500.02, -187500.02, -187500.02, -187500.02, -185485.88, -187500.02, 337,20.661438, 20:37:43.921
140, -186574.30, -182612.31, -187500.02, -187500.02, -187500.02, -187500.02, -185498.63, -187500.02, 338,20.661438, 20:37:43.921
141, -186701.77, -182573.11, -187500.02, -187500.02, -187500.02, -187500.02, -185426.94, -187500.02, 337,20.661438, 20:37:43.921
142, -186756.75, -182558.61, -187500.02, -187500.02, -187500.02, -187500.02, -185379.69, -187500.02, 336,20.661438, 20:37:43.921
143, -186661.36, -182602.38, -187500.02, -187500.02, -187500.02, -187500.02, -185378.91, -187500.02, 337,20.661438, 20:37:43.921
144, -186572.63, -182616.00, -187500.02, -187500.02, -187500.02, -187500.02, -185419.77, -187500.02, 339,20.661438, 20:37:43.921
145, -186683.47, -182578.03, -187500.02, -187500.02, -187500.02, -187500.02, -185361.25, -187500.02, 338,20.661438, 20:37:43.921
146, -186761.16, -182549.48, -187500.02, -187500.02, -187500.02, -187500.02, -185311.47, -187500.02, 336,20.661438, 20:37:43.922
147, -186689.00, -182586.25, -187500.02, -187500.02, -187500.02, -187500.02, -185304.03, -187500.02, 336,20.661438, 20:37:43.922
148, -186577.17, -182607.70, -187500.02, -187500.02, -187500.02, -187500.02, -185380.27, -187500.02, 339,20.661438, 20:37:43.922
149, -186661.61, -182576.59, -187500.02, -187500.02, -187500.02, -187500.02, -185382.70, -187500.02, 339,20.661438, 20:37:43.922
150, -186761.14, -182538.83, -187500.02, -187500.02, -187500.02, -187500.02, -185379.55, -187500.02, 336,20.661438, 20:37:43.922
151, -186713.44, -182565.00, -187500.02, -187500.02, -187500.02, -187500.02, -185402.28, -187500.02, 336,20.661438, 20:37:43.922
152, -186584.56, -182592.83, -187500.02, -187500.02, -187500.02, -187500.02, -185491.05, -187500.02, 339,20.661438, 20:37:43.922
153, -186632.75, -182569.42, -187500.02, -187500.02, -187500.02, -187500.02, -185507.98, -187500.02, 339,20.661438, 20:37:43.922
154, -186749.64, -182526.03, -187500.02, -187500.02, -187500.02, -187500.02, -185489.13, -187500.02, 337,20.661438, 20:37:43.922
155, -186731.30, -182541.97, -187500.02, -187500.02, -187500.02, -187500.02, -185494.30, -187500.02, 336,20.661438, 20:37:43.923
156, -186602.02, -182579.55, -187500.02, -187500.02, -187500.02, -187500.02, -185572.06, -187500.02, 339,20.661438, 20:37:43.923
157, -186612.39, -182566.53, -187500.02, -187500.02, -187500.02, -187500.02, -185603.47, -187500.02, 339,20.661438, 20:37:43.923
158, -186741.02, -182522.13, -187500.02, -187500.02, -187500.02, -187500.02, -185564.05, -187500.02, 337,20.661438, 20:37:43.923
159, -186750.19, -182525.86, -187500.02, -187500.02, -187500.02, -187500.02, -185538.84, -187500.02, 336,20.661438, 20:37:43.923
160, -186624.72, -182566.92, -187500.02, -187500.02, -187500.02, -187500.02, -185573.39, -187500.02, 338,20.661438, 20:37:43.923
161, -186596.73, -182564.55, -187500.02, -187500.02, -187500.02, -187500.02, -185604.77, -187500.02, 339,20.661438, 20:37:43.923
162, -186729.06, -182520.67, -187500.02, -187500.02, -187500.02, -187500.02, -185560.94, -187500.02, 338,20.661438, 20:37:43.924
163, -186767.11, -182513.81, -187500.02, -187500.02, -187500.02, -187500.02, -185540.08, -187500.02, 336,20.661438, 20:37:43.924
164, -186660.31, -182560.53, -187500.02, -187500.02, -187500.02, -187500.02, -185565.38, -187500.02, 337,20.661438, 20:37:43.924
165, -186595.02, -182571.08, -187500.02, -187500.02, -187500.02, -187500.02, -185607.97, -187500.02, 340,20.661438, 20:37:43.924
166, -186717.66, -182534.11, -187500.02, -187500.02, -187500.02, -187500.02, -185550.39, -187500.02, 339,20.661438, 20:37:43.924
167, -186778.64, -182517.05, -187500.02, -187500.02, -187500.02, -187500.02, -185502.23, -187500.02, 337,20.661438, 20:37:43.924
168, -186685.05, -182562.92, -187500.02, -187500.02, -187500.02, -187500.02, -185493.86, -187500.02, 337,20.604893, 20:37:43.924
169, -186584.13, -182585.84, -187500.02, -187500.02, -187500.02, -187500.02, -185545.42, -187500.02, 340,20.604893, 20:37:43.925
