%OpenBCI Raw EEG Data
%
%Sample Rate = 250.0 Hz
%First Column = SampleIndex
%5 Columns before Timestamp are Frequency Power factors DELTA THETA ALPHA BETA GAMMA
%Last Column = Timestamp 
%Other Columns = EEG data in microvolts followed by Accel Data (in G) interleaved with Aux Data
, 0.000000, 0.000000, 0.000000, 0.000000, 0.000000, 0.000000, 0.000000, 0.000000, 0.262, 0.246, 0.922,0.0,0.0,0.0,0.0,0.0, 22:10:47.768
, 76832.890625, 91062.367188, 164964.703125, 149812.656250, 124251.195313, 88075.390625, 127279.320313, 111821.281250, 0.000, 0.000, 0.000,0.0,0.0,0.0,0.0,0.0, 22:10:48.246
, 76835.148438, 91067.265625, 164965.281250, 149825.453125, 124258.867188, 88106.234375, 127319.890625, 111853.085938, 0.000, 0.000, 0.000,0.0,0.0,0.0,0.0,0.0, 22:10:48.247
, 76814.203125, 91045.875000, 164939.218750, 149918.671875, 124237.296875, 88131.851563, 127332.742188, 111864.843750, 0.000, 0.000, 0.000,0.0,0.0,0.0,0.0,0.0, 22:10:48.248
, 76811.117188, 91040.843750, 164937.359375, 149924.515625, 124227.664063, 88113.281250, 127298.835938, 111839.921875, 0.000, 0.000, 0.000,0.0,0.0,0.0,0.0,0.0, 22:10:48.248
, 76832.867188, 91061.851563, 164968.703125, 149810.546875, 124251.687500, 88076.304688, 127271.632813, 111820.343750, 0.000, 0.000, 0.000,0.0,0.0,0.0,0.0,0.0, 22:10:48.249
, 76833.046875, 91056.156250, 164964.734375, 149825.546875, 124264.203125, 88104.179688, 127327.531250, 111853.843750, 0.000, 0.000, 0.000,0.0,0.0,0.0,0.0,0.0, 22:10:48.249
, 76806.875000, 91023.164063, 164928.359375, 149925.968750, 124228.914063, 88129.726563, 127334.148438, 111859.281250, 0.262, 0.254, 0.916,0.0,0.0,0.0,0.0,0.0, 22:10:48.250
, 76795.585938, 91012.296875, 164920.078125, 149955.390625, 124213.867188, 88119.718750, 127301.453125, 111838.312500, 0.000, 0.000, 0.000,0.0,0.0,0.0,0.0,0.0, 22:10:48.250
, 76819.414063, 91039.632813, 164957.875000, 149832.875000, 124238.750000, 88074.210938, 127262.914063, 111812.828125, 0.000, 0.000, 0.000,0.0,0.0,0.0,0.0,0.0, 22:10:48.250
, 76830.812500, 91047.640625, 164969.125000, 149804.093750, 124263.000000, 88093.609375, 127306.750000, 111845.757813, 0.000, 0.000, 0.000,0.0,0.0,0.0,0.0,0.0, 22:10:48.251
, 76810.937500, 91029.218750, 164941.046875, 149898.546875, 124242.882813, 88128.367188, 127336.164063, 111867.054688, 0.000, 0.000, 0.000,0.0,0.0,0.0,0.0,0.0, 22:10:48.251
, 76798.671875, 91015.429688, 164924.953125, 149960.218750, 124222.742188, 88128.726563, 127319.601563, 111855.101563, 0.000, 0.000, 0.000,0.0,0.0,0.0,0.0,0.0, 22:10:48.251
, 76820.015625, 91037.671875, 164956.000000, 149860.109375, 124240.515625, 88086.007813, 127275.812500, 111826.015625, 0.000, 0.000, 0.000,0.0,0.0,0.0,0.0,0.0, 22:10:48.252
, 76838.882813, 91057.156250, 164978.750000, 149795.500000, 124274.781250, 88093.343750, 127303.929688, 111847.835938, 0.000, 0.000, 0.000,0.0,0.0,0.0,0.0,0.0, 22:10:48.252
, 76821.492188, 91040.125000, 164957.046875, 149879.375000, 124260.359375, 88128.500000, 127342.312500, 111874.945313, 0.000, 0.000, 0.000,0.0,0.0,0.0,0.0,0.0, 22:10:48.252
, 76804.593750, 91019.093750, 164935.843750, 149956.812500, 124235.375000, 88134.687500, 127330.460938, 111864.460938, 0.000, 0.000, 0.000,0.0,0.0,0.0,0.0,0.0, 22:10:48.253
, 76811.921875, 91028.617188, 164950.187500, 149891.156250, 124236.648438, 88094.343750, 127281.671875, 111827.648438, 0.260, 0.256, 0.910,0.0,0.0,0.0,0.0,0.0, 22:10:48.253
, 76832.796875, 91049.695313, 164973.531250, 149803.843750, 124262.398438, 88085.632813, 127293.312500, 111835.742188, 0.000, 0.000, 0.000,0.0,0.0,0.0,0.0,0.0, 22:10:48.253
, 76813.445313, 91033.171875, 164950.640625, 149872.890625, 124250.078125, 88124.250000, 127335.335938, 111869.382813, 0.000, 0.000, 0.000,0.0,0.0,0.0,0.0,0.0, 22:10:48.254
, 76792.632813, 91009.531250, 164927.421875, 149962.609375, 124229.156250, 88134.734375, 127334.953125, 111864.578125, 0.000, 0.000, 0.000,0.0,0.0,0.0,0.0,0.0, 22:10:48.254
, 76807.539063, 91026.625000, 164949.562500, 149900.781250, 124237.382813, 88100.718750, 127285.382813, 111834.851563, 0.000, 0.000, 0.000,0.0,0.0,0.0,0.0,0.0, 22:10:48.254
, 76830.789063, 91056.335938, 164979.062500, 149792.093750, 124273.882813, 88082.882813, 127287.617188, 111839.273438, 0.000, 0.000, 0.000,0.0,0.0,0.0,0.0,0.0, 22:10:48.254
, 76813.195313, 91037.804688, 164952.421875, 149851.156250, 124259.312500, 88114.640625, 127332.226563, 111866.031250, 0.000, 0.000, 0.000,0.0,0.0,0.0,0.0,0.0, 22:10:48.255
, 76787.625000, 91009.195313, 164921.609375, 149941.781250, 124220.015625, 88126.484375, 127324.406250, 111855.882813, 0.000, 0.000, 0.000,0.0,0.0,0.0,0.0,0.0, 22:10:48.255
, 76793.929688, 91014.492188, 164930.312500, 149916.546875, 124215.164063, 88101.226563, 127285.710938, 111828.859375, 0.000, 0.000, 0.000,0.0,0.0,0.0,0.0,0.0, 22:10:48.255
, 76820.773438, 91043.500000, 164969.296875, 149790.843750, 124249.789063, 88072.953125, 127268.835938, 111821.796875, 0.262, 0.264, 0.908,0.0,0.0,0.0,0.0,0.0, 22:10:48.255
, 76817.000000, 91035.007813, 164961.484375, 149822.484375, 124259.687500, 88107.375000, 127324.226563, 111859.187500, 0.000, 0.000, 0.000,0.0,0.0,0.0,0.0,0.0, 22:10:48.256
, 76798.265625, 91013.078125, 164934.281250, 149916.203125, 124236.000000, 88131.828125, 127333.812500, 111867.507813, 0.000, 0.000, 0.000,0.0,0.0,0.0,0.0,0.0, 22:10:48.256
, 76793.484375, 91004.500000, 164924.890625, 149933.890625, 124214.765625, 88117.656250, 127300.351563, 111846.273438, 0.000, 0.000, 0.000,0.0,0.0,0.0,0.0,0.0, 22:10:48.256
, 76822.765625, 91035.523438, 164960.734375, 149804.843750, 124239.039063, 88076.757813, 127263.945313, 111820.429688, 0.000, 0.000, 0.000,0.0,0.0,0.0,0.0,0.0, 22:10:48.257
, 76823.656250, 91038.250000, 164959.515625, 149804.109375, 124257.414063, 88103.328125, 127312.648438, 111852.750000, 0.000, 0.000, 0.000,0.0,0.0,0.0,0.0,0.0, 22:10:48.257
, 76797.375000, 91013.390625, 164929.812500, 149903.093750, 124233.093750, 88133.304688, 127330.976563, 111867.328125, 0.000, 0.000, 0.000,0.0,0.0,0.0,0.0,0.0, 22:10:48.257
, 76783.515625, 90998.664063, 164916.468750, 149951.015625, 124212.218750, 88124.812500, 127307.734375, 111849.664063, 0.000, 0.000, 0.000,0.0,0.0,0.0,0.0,0.0, 22:10:48.257
, 76814.023438, 91031.031250, 164959.796875, 149829.171875, 124242.031250, 88083.507813, 127266.828125, 111822.687500, 0.000, 0.000, 0.000,0.0,0.0,0.0,0.0,0.0, 22:10:48.258
, 76826.632813, 91040.281250, 164971.765625, 149796.718750, 124267.875000, 88100.265625, 127313.093750, 111850.492188, 0.000, 0.000, 0.000,0.0,0.0,0.0,0.0,0.0, 22:10:48.258
, 76808.414063, 91018.648438, 164943.328125, 149892.625000, 124251.890625, 88132.500000, 127346.554688, 111872.820313, 0.266, 0.272, 0.916,0.0,0.0,0.0,0.0,0.0, 22:10:48.258
, 76791.273438, 90999.156250, 164924.171875, 149960.515625, 124224.218750, 88130.445313, 127327.710938, 111857.710938, 0.000, 0.000, 0.000,0.0,0.0,0.0,0.0,0.0, 22:10:48.258
, 76820.570313, 91027.718750, 164961.656250, 149852.546875, 124239.664063, 88088.648438, 127274.226563, 111825.570313, 0.000, 0.000, 0.000,0.0,0.0,0.0,0.0,0.0, 22:10:48.259
, 76831.617188, 91042.140625, 164973.734375, 149792.265625, 124263.648438, 88090.929688, 127300.085938, 111844.367188, 0.000, 0.000, 0.000,0.0,0.0,0.0,0.0,0.0, 22:10:48.259
, 76810.429688, 91022.734375, 164951.000000, 149869.984375, 124250.257813, 88125.593750, 127339.828125, 111868.757813, 0.000, 0.000, 0.000,0.0,0.0,0.0,0.0,0.0, 22:10:48.259
, 76787.718750, 90998.304688, 164926.625000, 149952.906250, 124221.335938, 88131.382813, 127328.226563, 111856.734375, 0.000, 0.000, 0.000,0.0,0.0,0.0,0.0,0.0, 22:10:48.259
, 76799.453125, 91011.695313, 164945.406250, 149884.515625, 124223.812500, 88091.953125, 127277.000000, 111823.515625, 0.000, 0.000, 0.000,0.0,0.0,0.0,0.0,0.0, 22:10:48.260
, 76826.656250, 91039.882813, 164976.343750, 149783.656250, 124258.351563, 88081.132813, 127289.265625, 111830.109375, 0.000, 0.000, 0.000,0.0,0.0,0.0,0.0,0.0, 22:10:48.260
, 76809.398438, 91020.859375, 164954.265625, 149850.718750, 124249.968750, 88120.031250, 127334.507813, 111862.140625, 0.000, 0.000, 0.000,0.0,0.0,0.0,0.0,0.0, 22:10:48.260
, 76792.117188, 91006.796875, 164934.234375, 149936.296875, 124219.632813, 88135.070313, 127325.476563, 111863.414063, 0.000, 0.000, 0.000,0.0,0.0,0.0,0.0,0.0, 22:10:48.260
, 76800.789063, 91014.195313, 164945.500000, 149900.671875, 124223.125000, 88104.203125, 127287.968750, 111837.554688, 0.266, 0.274, 0.912,0.0,0.0,0.0,0.0,0.0, 22:10:48.261
, 76817.039063, 91030.828125, 164967.937500, 149795.890625, 124247.132813, 88076.421875, 127276.531250, 111827.179688, 0.000, 0.000, 0.000,5.850882E-4,7.750305E-4,9.5266354E-4,0.0029970796,0.0038064294, 22:10:48.261
, 76818.453125, 91028.304688, 164961.953125, 149832.562500, 124251.265625, 88109.234375, 127324.945313, 111850.625000, 0.000, 0.000, 0.000,5.850882E-4,7.750305E-4,9.5266354E-4,0.0029970796,0.0038064294, 22:10:48.268
, 76787.562500, 90996.023438, 164926.281250, 149945.203125, 124216.734375, 88128.523438, 127332.671875, 111852.687500, 0.000, 0.000, 0.000,5.850882E-4,7.750305E-4,9.5266354E-4,0.0029970796,0.0038064294, 22:10:48.269
, 76794.242188, 91003.382813, 164938.406250, 149934.171875, 124221.382813, 88109.164063, 127303.242188, 111834.023438, 0.000, 0.000, 0.000,5.850882E-4,7.750305E-4,9.5266354E-4,0.0029970796,0.0038064294, 22:10:48.269
, 76822.203125, 91033.242188, 164974.015625, 149806.281250, 124247.265625, 88074.046875, 127277.960938, 111816.203125, 0.000, 0.000, 0.000,5.850882E-4,7.750305E-4,9.5266354E-4,0.0029970796,0.0038064294, 22:10:48.269
, 76822.945313, 91032.750000, 164970.015625, 149818.484375, 124248.070313, 88101.390625, 127320.312500, 111845.664063, 0.000, 0.000, 0.000,5.850882E-4,7.750305E-4,9.5266354E-4,0.0029970796,0.0038064294, 22:10:48.270
, 76798.421875, 91004.367188, 164941.656250, 149916.812500, 124223.656250, 88130.890625, 127337.343750, 111861.890625, 0.000, 0.000, 0.000,5.850882E-4,7.750305E-4,9.5266354E-4,0.0029970796,0.0038064294, 22:10:48.270
, 76792.765625, 90994.906250, 164936.890625, 149942.000000, 124208.687500, 88120.093750, 127310.773438, 111846.429688, 0.000, 0.000, 0.000,5.850882E-4,7.750305E-4,9.5266354E-4,0.0029970796,0.0038064294, 22:10:48.270
, 76827.148438, 91031.078125, 164981.171875, 149814.703125, 124245.500000, 88085.539063, 127282.250000, 111829.906250, 0.276, 0.274, 0.914,5.850882E-4,7.750305E-4,9.5266354E-4,0.0029970796,0.0038064294, 22:10:48.270
, 76832.351563, 91033.218750, 164978.265625, 149810.453125, 124257.054688, 88105.679688, 127326.125000, 111855.437500, 0.000, 0.000, 0.000,5.850882E-4,7.750305E-4,9.5266354E-4,0.0029970796,0.0038064294, 22:10:48.270
, 76806.492188, 91005.976563, 164943.671875, 149908.609375, 124224.265625, 88132.296875, 127341.773438, 111864.132813, 0.000, 0.000, 0.000,5.850882E-4,7.750305E-4,9.5266354E-4,0.0029970796,0.0038064294, 22:10:48.271
, 76795.718750, 90997.343750, 164936.312500, 149948.328125, 124207.742188, 88125.640625, 127314.835938, 111844.437500, 0.000, 0.000, 0.000,5.850882E-4,7.750305E-4,9.5266354E-4,0.0029970796,0.0038064294, 22:10:48.271
, 76822.968750, 91025.039063, 164971.312500, 149833.609375, 124234.945313, 88083.820313, 127278.476563, 111819.648438, 0.000, 0.000, 0.000,5.850882E-4,7.750305E-4,9.5266354E-4,0.0029970796,0.0038064294, 22:10:48.271
, 76822.656250, 91021.757813, 164966.109375, 149805.500000, 124244.781250, 88091.171875, 127315.578125, 111836.859375, 0.000, 0.000, 0.000,5.850882E-4,7.750305E-4,9.5266354E-4,0.0029970796,0.0038064294, 22:10:48.272
, 76808.125000, 91008.632813, 164948.328125, 149875.578125, 124229.828125, 88124.703125, 127337.570313, 111857.867188, 0.000, 0.000, 0.000,5.850882E-4,7.750305E-4,9.5266354E-4,0.0029970796,0.0038064294, 22:10:48.272
, 76798.000000, 90997.054688, 164934.671875, 149941.906250, 124212.976563, 88129.281250, 127321.726563, 111849.625000, 0.000, 0.000, 0.000,5.850882E-4,7.750305E-4,9.5266354E-4,0.0029970796,0.0038064294, 22:10:48.272
, 76813.664063, 91013.531250, 164957.828125, 149856.953125, 124223.437500, 88088.203125, 127278.156250, 111818.218750, 0.000, 0.000, 0.000,5.850882E-4,7.750305E-4,9.5266354E-4,0.0029970796,0.0038064294, 22:10:48.273
, 76830.585938, 91029.507813, 164976.562500, 149791.750000, 124250.015625, 88086.656250, 127300.601563, 111832.234375, 0.000, 0.000, 0.000,5.850882E-4,7.750305E-4,9.5266354E-4,0.0029970796,0.0038064294, 22:10:48.273
, 76811.703125, 91011.359375, 164954.500000, 149866.859375, 124235.773438, 88123.312500, 127336.765625, 111861.226563, 0.276, 0.276, 0.920,5.850882E-4,7.750305E-4,9.5266354E-4,0.0029970796,0.0038064294, 22:10:48.274
, 76791.468750, 90991.578125, 164930.593750, 149949.828125, 124211.031250, 88132.945313, 127330.906250, 111856.593750, 0.000, 0.000, 0.000,5.850882E-4,7.750305E-4,9.5266354E-4,0.0029970796,0.0038064294, 22:10:48.274
, 76802.671875, 91003.265625, 164948.656250, 149883.109375, 124216.242188, 88093.500000, 127284.039063, 111825.859375, 0.000, 0.000, 0.000,5.850882E-4,7.750305E-4,9.5266354E-4,0.0029970796,0.0038064294, 22:10:48.275
, 76825.445313, 91027.320313, 164978.515625, 149792.609375, 124250.390625, 88083.054688, 127295.679688, 111836.031250, 0.000, 0.000, 0.000,5.850882E-4,7.750305E-4,9.5266354E-4,0.0029970796,0.0038064294, 22:10:48.275
, 76811.500000, 91015.718750, 164961.656250, 149851.875000, 124242.414063, 88119.000000, 127338.914063, 111865.265625, 0.000, 0.000, 0.000,5.850882E-4,7.750305E-4,9.5266354E-4,0.0029970796,0.0038064294, 22:10:48.276
, 76790.804688, 90993.296875, 164932.937500, 149939.515625, 124209.507813, 88131.117188, 127329.632813, 111861.875000, 0.000, 0.000, 0.000,5.850882E-4,7.750305E-4,9.5266354E-4,0.0029970796,0.0038064294, 22:10:48.276
, 76799.007813, 91000.695313, 164941.812500, 149906.687500, 124210.648438, 88102.015625, 127285.421875, 111830.531250, 0.000, 0.000, 0.000,5.850882E-4,7.750305E-4,9.5266354E-4,0.0029970796,0.0038064294, 22:10:48.277
, 76821.851563, 91029.265625, 164972.718750, 149789.734375, 124239.710938, 88076.914063, 127271.921875, 111819.937500, 0.000, 0.000, 0.000,5.850882E-4,7.750305E-4,9.5266354E-4,0.0029970796,0.0038064294, 22:10:48.277
, 76812.039063, 91019.429688, 164958.906250, 149834.593750, 124239.125000, 88111.531250, 127324.789063, 111852.195313, 0.000, 0.000, 0.000,5.850882E-4,7.750305E-4,9.5266354E-4,0.0029970796,0.0038064294, 22:10:48.278
, 76784.742188, 90990.062500, 164928.578125, 149939.281250, 124204.640625, 88131.453125, 127326.101563, 111853.867188, 0.270, 0.270, 0.916,5.850882E-4,7.750305E-4,9.5266354E-4,0.0029970796,0.0038064294, 22:10:48.278
, 76787.273438, 90992.515625, 164939.531250, 149930.531250, 124200.640625, 88108.804688, 127290.718750, 111827.273438, 0.000, 0.000, 0.000,5.850882E-4,7.750305E-4,9.5266354E-4,0.0029970796,0.0038064294, 22:10:48.278
, 76823.523438, 91027.296875, 164984.015625, 149803.859375, 124237.968750, 88080.734375, 127271.718750, 111820.835938, 0.000, 0.000, 0.000,5.850882E-4,7.750305E-4,9.5266354E-4,0.0029970796,0.0038064294, 22:10:48.279
, 76829.578125, 91029.398438, 164983.343750, 149818.484375, 124250.750000, 88112.406250, 127328.023438, 111859.343750, 0.000, 0.000, 0.000,5.850882E-4,7.750305E-4,9.5266354E-4,0.0029970796,0.0038064294, 22:10:48.279
, 76801.734375, 90999.203125, 164946.953125, 149929.843750, 124225.406250, 88135.093750, 127347.023438, 111863.484375, 0.000, 0.000, 0.000,5.850882E-4,7.750305E-4,9.5266354E-4,0.0029970796,0.0038064294, 22:10:48.280
, 76795.429688, 90989.679688, 164940.406250, 149957.218750, 124213.000000, 88120.695313, 127319.085938, 111842.406250, 0.000, 0.000, 0.000,5.850882E-4,7.750305E-4,9.5266354E-4,0.0029970796,0.0038064294, 22:10:48.280
, 76818.515625, 91013.437500, 164974.109375, 149831.375000, 124232.664063, 88078.718750, 127276.953125, 111816.679688, 0.000, 0.000, 0.000,5.850882E-4,7.750305E-4,9.5266354E-4,0.0029970796,0.0038064294, 22:10:48.281
, 76824.531250, 91020.460938, 164977.296875, 149808.093750, 124248.914063, 88096.875000, 127318.679688, 111844.414063, 0.000, 0.000, 0.000,5.850882E-4,7.750305E-4,9.5266354E-4,0.0029970796,0.0038064294, 22:10:48.281
, 76800.726563, 90994.929688, 164946.765625, 149906.265625, 124221.085938, 88129.484375, 127340.031250, 111862.695313, 0.000, 0.000, 0.000,5.850882E-4,7.750305E-4,9.5266354E-4,0.0029970796,0.0038064294, 22:10:48.281
, 76784.835938, 90976.359375, 164930.875000, 149964.000000, 124200.859375, 88126.843750, 127322.390625, 111848.664063, 0.000, 0.000, 0.000,5.850882E-4,7.750305E-4,9.5266354E-4,0.0029970796,0.0038064294, 22:10:48.282
, 76807.031250, 90999.781250, 164962.343750, 149857.359375, 124215.773438, 88081.539063, 127275.765625, 111815.242188, 0.272, 0.272, 0.916,5.850882E-4,7.750305E-4,9.5266354E-4,0.0029970796,0.0038064294, 22:10:48.282
, 76823.101563, 91017.437500, 164980.281250, 149808.515625, 124243.148438, 88090.031250, 127309.742188, 111834.468750, 0.000, 0.000, 0.000,5.850882E-4,7.750305E-4,9.5266354E-4,0.0029970796,0.0038064294, 22:10:48.283
, 76808.171875, 91003.203125, 164964.875000, 149889.703125, 124237.968750, 88125.750000, 127347.562500, 111861.289063, 0.000, 0.000, 0.000,5.850882E-4,7.750305E-4,9.5266354E-4,0.0029970796,0.0038064294, 22:10:48.283
, 76784.273438, 90978.101563, 164938.343750, 149974.515625, 124211.343750, 88131.984375, 127337.679688, 111858.632813, 0.000, 0.000, 0.000,5.850882E-4,7.750305E-4,9.5266354E-4,0.0029970796,0.0038064294, 22:10:48.284
, 76790.664063, 90989.273438, 164958.265625, 149900.109375, 124219.367188, 88089.632813, 127292.328125, 111824.859375, 0.000, 0.000, 0.000,5.850882E-4,7.750305E-4,9.5266354E-4,0.0029970796,0.0038064294, 22:10:48.284
, 76810.250000, 91010.976563, 164981.812500, 149816.562500, 124246.656250, 88086.257813, 127296.820313, 111839.429688, 0.000, 0.000, 0.000,5.850882E-4,7.750305E-4,9.5266354E-4,0.0029970796,0.0038064294, 22:10:48.285
, 76803.851563, 91001.906250, 164968.750000, 149876.156250, 124241.007813, 88125.882813, 127333.750000, 111877.164063, 0.000, 0.000, 0.000,5.850882E-4,7.750305E-4,9.5266354E-4,0.0029970796,0.0038064294, 22:10:48.285
, 76788.718750, 90984.468750, 164947.671875, 149959.796875, 124220.304688, 88136.726563, 127334.843750, 111868.468750, 0.000, 0.000, 0.000,5.850882E-4,7.750305E-4,9.5266354E-4,0.0029970796,0.0038064294, 22:10:48.285
, 76794.039063, 90990.640625, 164956.218750, 149914.156250, 124216.843750, 88096.828125, 127290.476563, 111827.781250, 0.000, 0.000, 0.000,5.850882E-4,7.750305E-4,9.5266354E-4,0.0029970796,0.0038064294, 22:10:48.286
, 76819.320313, 91018.398438, 164986.406250, 149810.125000, 124249.031250, 88082.632813, 127294.789063, 111829.843750, 0.274, 0.270, 0.918,5.850882E-4,7.750305E-4,9.5266354E-4,0.0029970796,0.0038064294, 22:10:48.286
, 76813.351563, 91007.273438, 164972.968750, 149866.562500, 124247.664063, 88117.859375, 127345.414063, 111861.132813, 0.000, 0.000, 0.000,5.850882E-4,7.750305E-4,9.5266354E-4,0.0029970796,0.0038064294, 22:10:48.287
, 76789.390625, 90981.718750, 164942.062500, 149961.109375, 124215.281250, 88133.015625, 127344.429688, 111859.164063, 0.000, 0.000, 0.000,5.850882E-4,7.750305E-4,9.5266354E-4,0.0029970796,0.0038064294, 22:10:48.287
, 76795.046875, 90989.296875, 164953.515625, 149925.078125, 124209.554688, 88103.781250, 127298.500000, 111827.468750, 0.000, 0.000, 0.000,5.850882E-4,7.750305E-4,9.5266354E-4,0.0029970796,0.0038064294, 22:10:48.287
, 76817.265625, 91017.125000, 164985.437500, 149804.734375, 124242.968750, 88077.742188, 127291.976563, 111820.679688, 0.000, 0.000, 0.000,5.850882E-4,7.750305E-4,9.5266354E-4,0.0029970796,0.0038064294, 22:10:48.288
, 76812.523438, 91011.250000, 164976.859375, 149836.953125, 124251.640625, 88112.117188, 127347.695313, 111855.789063, 0.000, 0.000, 0.000,5.850882E-4,7.750305E-4,9.5266354E-4,0.0029970796,0.0038064294, 22:10:48.289
, 76783.335938, 90975.976563, 164939.906250, 149940.015625, 124216.437500, 88131.671875, 127350.312500, 111861.242188, 0.000, 0.000, 0.000,5.850882E-4,7.750305E-4,9.5266354E-4,0.0029970796,0.0038064294, 22:10:48.289
, 76775.000000, 90964.015625, 164933.109375, 149949.171875, 124194.648438, 88111.710938, 127301.140625, 111838.203125, 0.000, 0.000, 0.000,5.850882E-4,7.750305E-4,9.5266354E-4,0.0029970796,0.0038064294, 22:10:48.289
, 76808.546875, 90999.421875, 164979.453125, 149809.859375, 124231.125000, 88077.625000, 127270.804688, 111819.875000, 0.000, 0.000, 0.000,5.850882E-4,7.750305E-4,9.5266354E-4,0.0029970796,0.0038064294, 22:10:48.290
, 76814.562500, 91004.476563, 164980.453125, 149813.953125, 124249.812500, 88106.640625, 127328.453125, 111849.000000, 0.000, 0.000, 0.000,5.850882E-4,7.750305E-4,9.5266354E-4,0.0029970796,0.0038064294, 22:10:48.290
, 76783.421875, 90973.296875, 164941.359375, 149923.531250, 124217.960938, 88132.187500, 127343.625000, 111857.648438, 0.272, 0.280, 0.918,5.850882E-4,7.750305E-4,9.5266354E-4,0.0029970796,0.0038064294, 22:10:48.291
, 76770.593750, 90964.492188, 164930.250000, 149956.156250, 124199.187500, 88122.015625, 127314.929688, 111836.476563, 0.000, 0.000, 0.000,5.850882E-4,7.750305E-4,9.5266354E-4,0.0029970796,0.0038064294, 22:10:48.291
, 76795.429688, 90992.453125, 164961.234375, 149838.281250, 124220.617188, 88082.835938, 127277.000000, 111812.226563, 0.000, 0.000, 0.000,5.850882E-4,7.750305E-4,9.5266354E-4,0.0029970796,0.0038064294, 22:10:48.291
, 76806.875000, 91001.703125, 164969.140625, 149812.421875, 124244.085938, 88101.789063, 127327.960938, 111844.234375, 0.000, 0.000, 0.000,5.850882E-4,7.750305E-4,9.5266354E-4,0.0029970796,0.0038064294, 22:10:48.292
, 76788.476563, 90982.507813, 164947.687500, 149897.468750, 124232.601563, 88137.148438, 127359.007813, 111866.343750, 0.000, 0.000, 0.000,5.850882E-4,7.750305E-4,9.5266354E-4,0.0029970796,0.0038064294, 22:10:48.292
, 76769.007813, 90962.765625, 164925.984375, 149959.062500, 124205.351563, 88134.648438, 127335.890625, 111849.976563, 0.000, 0.000, 0.000,5.850882E-4,7.750305E-4,9.5266354E-4,0.0029970796,0.0038064294, 22:10:48.292
, 76777.593750, 90976.804688, 164946.406250, 149859.812500, 124210.562500, 88086.117188, 127278.476563, 111810.593750, 0.000, 0.000, 0.000,5.850882E-4,7.750305E-4,9.5266354E-4,0.0029970796,0.0038064294, 22:10:48.293
, 76799.632813, 90996.539063, 164969.765625, 149797.109375, 124246.101563, 88095.085938, 127314.281250, 111836.546875, 0.000, 0.000, 0.000,5.850882E-4,7.750305E-4,9.5266354E-4,0.0029970796,0.0038064294, 22:10:48.293
, 76784.210938, 90976.695313, 164946.968750, 149883.062500, 124230.343750, 88130.335938, 127353.062500, 111860.773438, 0.000, 0.000, 0.000,5.850882E-4,7.750305E-4,9.5266354E-4,0.0029970796,0.0038064294, 22:10:48.293
, 76769.320313, 90959.570313, 164927.171875, 149956.078125, 124208.882813, 88136.031250, 127336.429688, 111847.992188, 0.000, 0.000, 0.000,5.850882E-4,7.750305E-4,9.5266354E-4,0.0029970796,0.0038064294, 22:10:48.294
, 76786.109375, 90977.609375, 164946.093750, 149874.625000, 124213.203125, 88096.421875, 127285.179688, 111813.343750, 0.270, 0.278, 0.920,5.850882E-4,7.750305E-4,9.5266354E-4,0.0029970796,0.0038064294, 22:10:48.294
, 76804.656250, 90998.281250, 164969.234375, 149790.437500, 124247.687500, 88091.257813, 127308.867188, 111827.492188, 0.000, 0.000, 0.000,5.850882E-4,7.750305E-4,9.5266354E-4,0.0029970796,0.0038064294, 22:10:48.295
, 76786.195313, 90981.859375, 164948.875000, 149861.046875, 124234.476563, 88128.054688, 127348.367188, 111857.554688, 0.000, 0.000, 0.000,5.850882E-4,7.750305E-4,9.5266354E-4,0.0029970796,0.0038064294, 22:10:48.295
, 76768.875000, 90961.648438, 164928.578125, 149947.984375, 124209.218750, 88140.796875, 127338.421875, 111856.148438, 0.000, 0.000, 0.000,5.850882E-4,7.750305E-4,9.5266354E-4,0.0029970796,0.0038064294, 22:10:48.295
, 76783.421875, 90976.734375, 164951.421875, 149892.515625, 124215.593750, 88109.117188, 127289.070313, 111824.210938, 0.000, 0.000, 0.000,5.850882E-4,7.750305E-4,9.5266354E-4,0.0029970796,0.0038064294, 22:10:48.296
, 76805.265625, 91004.718750, 164980.875000, 149786.328125, 124253.945313, 88089.828125, 127294.585938, 111824.140625, 0.000, 0.000, 0.000,0.0037103966,0.005208285,0.006479331,0.018021684,0.019597718, 22:10:48.296
, 76793.796875, 90990.507813, 164963.109375, 149844.343750, 124248.382813, 88123.539063, 127338.796875, 111854.453125, 0.000, 0.000, 0.000,0.0037103966,0.005208285,0.006479331,0.018021684,0.019597718, 22:10:48.296
, 76770.664063, 90962.523438, 164933.781250, 149948.765625, 124219.992188, 88143.007813, 127338.375000, 111855.078125, 0.000, 0.000, 0.000,0.0037103966,0.005208285,0.006479331,0.018021684,0.019597718, 22:10:48.297
, 76777.773438, 90968.289063, 164946.296875, 149925.187500, 124223.101563, 88118.328125, 127297.289063, 111829.796875, 0.000, 0.000, 0.000,0.0,0.0,0.0,0.0,0.0, 22:10:48.726
, 76808.640625, 91001.328125, 164981.437500, 149795.937500, 124259.671875, 88085.921875, 127278.296875, 111816.406250, 0.264, 0.278, 0.920,0.0,0.0,0.0,0.0,0.0, 22:10:48.726
, 76802.085938, 90989.273438, 164965.546875, 149826.734375, 124262.039063, 88112.179688, 127328.296875, 111846.960938, 0.000, 0.000, 0.000,0.0,0.0,0.0,0.0,0.0, 22:10:48.727
, 76777.882813, 90960.664063, 164934.140625, 149926.531250, 124227.101563, 88137.101563, 127340.054688, 111859.281250, 0.000, 0.000, 0.000,0.0,0.0,0.0,0.0,0.0, 22:10:48.727
, 76771.554688, 90952.015625, 164927.421875, 149939.593750, 124211.234375, 88117.617188, 127304.156250, 111832.343750, 0.000, 0.000, 0.000,0.0,0.0,0.0,0.0,0.0, 22:10:48.727
, 76801.304688, 90984.695313, 164966.656250, 149805.156250, 124248.601563, 88082.679688, 127270.156250, 111811.734375, 0.000, 0.000, 0.000,0.0,0.0,0.0,0.0,0.0, 22:10:48.727
, 76801.554688, 90983.421875, 164962.484375, 149808.656250, 124262.437500, 88109.429688, 127322.148438, 111845.757813, 0.000, 0.000, 0.000,0.0,0.0,0.0,0.0,0.0, 22:10:48.728
, 76778.820313, 90959.437500, 164935.468750, 149905.234375, 124242.390625, 88136.007813, 127341.054688, 111857.937500, 0.000, 0.000, 0.000,0.0,0.0,0.0,0.0,0.0, 22:10:48.728
, 76761.070313, 90941.289063, 164919.250000, 149949.156250, 124223.992188, 88128.812500, 127322.703125, 111846.625000, 0.000, 0.000, 0.000,0.0,0.0,0.0,0.0,0.0, 22:10:48.728
, 76784.296875, 90969.742188, 164951.109375, 149829.531250, 124236.687500, 88080.976563, 127271.187500, 111808.945313, 0.000, 0.000, 0.000,0.0,0.0,0.0,0.0,0.0, 22:10:48.729
, 76798.625000, 90987.015625, 164964.562500, 149791.265625, 124261.187500, 88099.195313, 127310.125000, 111834.398438, 0.000, 0.000, 0.000,0.0,0.0,0.0,0.0,0.0, 22:10:48.729
, 76782.914063, 90973.539063, 164940.609375, 149877.609375, 124241.656250, 88134.843750, 127340.546875, 111857.757813, 0.276, 0.280, 0.918,0.0,0.0,0.0,0.0,0.0, 22:10:48.729
, 76768.765625, 90956.710938, 164920.031250, 149953.015625, 124218.609375, 88133.976563, 127327.375000, 111847.187500, 0.000, 0.000, 0.000,0.0,0.0,0.0,0.0,0.0, 22:10:48.730
, 76792.656250, 90979.796875, 164952.421875, 149853.531250, 124240.242188, 88090.320313, 127284.929688, 111813.632813, 0.000, 0.000, 0.000,0.0,0.0,0.0,0.0,0.0, 22:10:48.730
, 76803.695313, 90988.789063, 164962.109375, 149796.296875, 124259.359375, 88093.320313, 127310.007813, 111831.023438, 0.000, 0.000, 0.000,0.0,0.0,0.0,0.0,0.0, 22:10:48.730
, 76780.765625, 90966.593750, 164934.828125, 149875.328125, 124238.546875, 88125.906250, 127339.359375, 111854.945313, 0.000, 0.000, 0.000,0.0,0.0,0.0,0.0,0.0, 22:10:48.731
, 76759.757813, 90942.804688, 164912.484375, 149953.359375, 124216.664063, 88134.132813, 127332.718750, 111849.554688, 0.000, 0.000, 0.000,0.0,0.0,0.0,0.0,0.0, 22:10:48.731
, 76781.476563, 90962.078125, 164940.640625, 149880.953125, 124233.671875, 88099.937500, 127291.500000, 111823.601563, 0.000, 0.000, 0.000,0.0,0.0,0.0,0.0,0.0, 22:10:48.732
, 76805.218750, 90985.585938, 164966.265625, 149796.718750, 124266.796875, 88091.281250, 127305.632813, 111835.695313, 0.000, 0.000, 0.000,0.0,0.0,0.0,0.0,0.0, 22:10:48.732
, 76792.367188, 90975.484375, 164947.359375, 149854.687500, 124256.070313, 88124.296875, 127342.820313, 111860.867188, 0.000, 0.000, 0.000,0.0,0.0,0.0,0.0,0.0, 22:10:48.732
, 76772.671875, 90953.226563, 164922.828125, 149940.734375, 124230.453125, 88140.992188, 127345.750000, 111863.257813, 0.274, 0.282, 0.914,0.0,0.0,0.0,0.0,0.0, 22:10:48.733
, 76777.164063, 90958.210938, 164929.828125, 149904.921875, 124229.515625, 88111.062500, 127305.070313, 111835.828125, 0.000, 0.000, 0.000,0.0,0.0,0.0,0.0,0.0, 22:10:48.733
, 76804.640625, 90988.671875, 164964.937500, 149781.718750, 124263.914063, 88087.281250, 127295.210938, 111834.046875, 0.000, 0.000, 0.000,0.0,0.0,0.0,0.0,0.0, 22:10:48.733
, 76802.023438, 90982.820313, 164955.734375, 149831.062500, 124263.960938, 88122.781250, 127350.601563, 111865.671875, 0.000, 0.000, 0.000,0.0,0.0,0.0,0.0,0.0, 22:10:48.734
, 76776.226563, 90953.468750, 164922.937500, 149940.437500, 124230.500000, 88139.382813, 127354.023438, 111866.007813, 0.000, 0.000, 0.000,0.0,0.0,0.0,0.0,0.0, 22:10:48.734
, 76777.320313, 90954.320313, 164928.312500, 149928.093750, 124225.718750, 88111.179688, 127313.835938, 111834.468750, 0.000, 0.000, 0.000,0.0,0.0,0.0,0.0,0.0, 22:10:48.734
, 76805.015625, 90982.148438, 164966.750000, 149806.578125, 124262.328125, 88080.843750, 127297.359375, 111824.234375, 0.000, 0.000, 0.000,0.0,0.0,0.0,0.0,0.0, 22:10:48.734
, 76799.007813, 90975.484375, 164956.812500, 149828.359375, 124259.445313, 88106.039063, 127338.640625, 111848.015625, 0.000, 0.000, 0.000,0.0,0.0,0.0,0.0,0.0, 22:10:48.735
, 76784.273438, 90959.304688, 164935.343750, 149921.656250, 124241.742188, 88132.882813, 127354.156250, 111859.906250, 0.000, 0.000, 0.000,0.0,0.0,0.0,0.0,0.0, 22:10:48.735
, 76777.125000, 90951.726563, 164927.328125, 149952.796875, 124231.906250, 88118.867188, 127334.304688, 111840.593750, 0.000, 0.000, 0.000,0.0,0.0,0.0,0.0,0.0, 22:10:48.735
, 76801.015625, 90981.007813, 164964.046875, 149819.531250, 124252.046875, 88078.250000, 127289.734375, 111815.085938, 0.274, 0.276, 0.914,0.0,0.0,0.0,0.0,0.0, 22:10:48.735
, 76802.984375, 90981.226563, 164960.765625, 149816.453125, 124263.671875, 88105.093750, 127335.382813, 111849.351563, 0.000, 0.000, 0.000,0.0,0.0,0.0,0.0,0.0, 22:10:48.735
, 76785.187500, 90960.265625, 164936.171875, 149908.250000, 124246.835938, 88137.484375, 127355.921875, 111867.929688, 0.000, 0.000, 0.000,0.0,0.0,0.0,0.0,0.0, 22:10:48.736
, 76772.789063, 90947.656250, 164924.000000, 149951.500000, 124234.164063, 88127.046875, 127334.843750, 111845.820313, 0.000, 0.000, 0.000,0.0,0.0,0.0,0.0,0.0, 22:10:48.736
, 76792.296875, 90971.906250, 164957.453125, 149837.578125, 124252.742188, 88089.492188, 127290.835938, 111821.101563, 0.000, 0.000, 0.000,0.0,0.0,0.0,0.0,0.0, 22:10:48.736
, 76793.484375, 90970.164063, 164954.125000, 149810.015625, 124263.828125, 88099.242188, 127333.726563, 111840.281250, 0.000, 0.000, 0.000,0.0,0.0,0.0,0.0,0.0, 22:10:48.736
, 76771.218750, 90945.265625, 164926.515625, 149896.046875, 124239.906250, 88125.015625, 127354.421875, 111849.960938, 0.000, 0.000, 0.000,0.0,0.0,0.0,0.0,0.0, 22:10:48.737
, 76762.929688, 90931.765625, 164914.109375, 149966.609375, 124224.445313, 88130.914063, 127339.625000, 111847.367188, 0.000, 0.000, 0.000,0.0,0.0,0.0,0.0,0.0, 22:10:48.738
, 76782.976563, 90954.585938, 164944.671875, 149869.484375, 124242.968750, 88092.335938, 127295.015625, 111824.898438, 0.000, 0.000, 0.000,0.0,0.0,0.0,0.0,0.0, 22:10:48.738
, 76794.289063, 90967.929688, 164957.796875, 149793.890625, 124267.179688, 88087.507813, 127319.468750, 111837.328125, 0.276, 0.280, 0.918,0.0,0.0,0.0,0.0,0.0, 22:10:48.738
, 76780.406250, 90954.406250, 164936.062500, 149864.234375, 124250.257813, 88120.945313, 127351.476563, 111859.992188, 0.000, 0.000, 0.000,0.0,0.0,0.0,0.0,0.0, 22:10:48.738
, 76760.492188, 90930.851563, 164912.125000, 149938.921875, 124224.820313, 88127.203125, 127334.148438, 111850.671875, 0.000, 0.000, 0.000,0.0,0.0,0.0,0.0,0.0, 22:10:48.738
, 76789.820313, 90960.156250, 164948.531250, 149886.375000, 124251.531250, 88100.492188, 127309.273438, 111826.289063, 0.000, 0.000, 0.000,0.0,0.0,0.0,0.0,0.0, 22:10:48.738
, 76814.093750, 90987.937500, 164977.265625, 149803.156250, 124282.156250, 88085.562500, 127326.640625, 111820.406250, 0.000, 0.000, 0.000,0.0,0.0,0.0,0.0,0.0, 22:10:48.739
, 76790.867188, 90963.570313, 164945.671875, 149860.937500, 124257.835938, 88111.085938, 127352.054688, 111861.382813, 0.000, 0.000, 0.000,0.0,0.0,0.0,0.0,0.0, 22:10:48.739
, 76780.609375, 90952.015625, 164930.140625, 149957.484375, 124239.617188, 88135.296875, 127356.078125, 111869.335938, 0.000, 0.000, 0.000,0.0,0.0,0.0,0.0,0.0, 22:10:48.739
, 76792.140625, 90962.390625, 164947.734375, 149916.718750, 124245.835938, 88111.445313, 127324.945313, 111845.171875, 0.000, 0.000, 0.000,0.0,0.0,0.0,0.0,0.0, 22:10:48.739
, 76808.664063, 90978.234375, 164971.765625, 149800.843750, 124272.140625, 88085.585938, 127317.523438, 111838.382813, 0.000, 0.000, 0.000,0.0,0.0,0.0,0.0,0.0, 22:10:48.739
, 76803.429688, 90973.164063, 164961.843750, 149852.640625, 124273.257813, 88123.937500, 127371.054688, 111874.906250, 0.000, 0.000, 0.000,0.0,0.0,0.0,0.0,0.0, 22:10:48.739
, 76773.367188, 90941.015625, 164925.812500, 149941.671875, 124227.523438, 88137.085938, 127357.929688, 111868.843750, 0.270, 0.280, 0.916,0.0,0.0,0.0,0.0,0.0, 22:10:48.740
, 76763.531250, 90932.523438, 164919.484375, 149944.015625, 124215.414063, 88114.796875, 127316.000000, 111848.328125, 0.000, 0.000, 0.000,0.0,0.0,0.0,0.0,0.0, 22:10:48.740
, 76788.921875, 90962.656250, 164954.953125, 149819.578125, 124245.945313, 88077.132813, 127288.062500, 111826.601563, 0.000, 0.000, 0.000,0.0,0.0,0.0,0.0,0.0, 22:10:48.740
, 76791.492188, 90965.000000, 164954.296875, 149825.843750, 124262.171875, 88104.695313, 127339.625000, 111852.906250, 0.000, 0.000, 0.000,0.0,0.0,0.0,0.0,0.0, 22:10:48.741
, 76771.734375, 90944.195313, 164926.671875, 149916.296875, 124244.890625, 88134.531250, 127366.023438, 111867.484375, 0.000, 0.000, 0.000,0.0,0.0,0.0,0.0,0.0, 22:10:48.741
, 76754.281250, 90927.656250, 164906.218750, 149949.796875, 124213.132813, 88122.734375, 127329.414063, 111848.375000, 0.000, 0.000, 0.000,0.0,0.0,0.0,0.0,0.0, 22:10:48.741
, 76788.210938, 90969.406250, 164952.093750, 149823.328125, 124239.664063, 88081.804688, 127271.968750, 111817.078125, 0.000, 0.000, 0.000,0.0,0.0,0.0,0.0,0.0, 22:10:48.741
, 76798.804688, 90977.609375, 164961.187500, 149801.093750, 124270.640625, 88102.679688, 127327.109375, 111845.710938, 0.000, 0.000, 0.000,0.0,0.0,0.0,0.0,0.0, 22:10:48.741
, 76774.351563, 90949.734375, 164930.250000, 149894.296875, 124242.789063, 88136.656250, 127351.515625, 111866.765625, 0.000, 0.000, 0.000,0.0,0.0,0.0,0.0,0.0, 22:10:48.742
, 76762.570313, 90937.109375, 164919.171875, 149941.687500, 124220.640625, 88129.390625, 127324.046875, 111848.726563, 0.000, 0.000, 0.000,0.0,0.0,0.0,0.0,0.0, 22:10:48.742
, 76785.523438, 90962.406250, 164952.000000, 149848.093750, 124245.992188, 88088.289063, 127301.921875, 111826.687500, 0.270, 0.276, 0.912,0.0,0.0,0.0,0.0,0.0, 22:10:48.742
, 76803.296875, 90980.898438, 164969.406250, 149799.515625, 124268.273438, 88091.328125, 127335.132813, 111833.328125, 0.000, 0.000, 0.000,0.0,0.0,0.0,0.0,0.0, 22:10:48.742
, 76789.054688, 90965.359375, 164947.531250, 149880.875000, 124251.484375, 88131.984375, 127363.523438, 111862.851563, 0.000, 0.000, 0.000,0.0,0.0,0.0,0.0,0.0, 22:10:48.742
, 76764.757813, 90937.062500, 164916.484375, 149974.500000, 124227.546875, 88143.765625, 127365.914063, 111864.531250, 0.000, 0.000, 0.000,0.0,0.0,0.0,0.0,0.0, 22:10:48.743
, 76779.890625, 90957.828125, 164941.031250, 149884.109375, 124235.929688, 88095.640625, 127310.210938, 111820.632813, 0.000, 0.000, 0.000,0.0,0.0,0.0,0.0,0.0, 22:10:48.744
, 76799.250000, 90979.015625, 164959.953125, 149794.140625, 124247.109375, 88084.492188, 127292.132813, 111819.515625, 0.000, 0.000, 0.000,0.0,0.0,0.0,0.0,0.0, 22:10:48.744
, 76783.250000, 90960.796875, 164937.781250, 149874.156250, 124236.804688, 88127.226563, 127337.484375, 111859.617188, 0.000, 0.000, 0.000,0.0,0.0,0.0,0.0,0.0, 22:10:48.744
, 76759.398438, 90935.320313, 164911.921875, 149959.093750, 124216.507813, 88134.421875, 127342.062500, 111855.593750, 0.000, 0.000, 0.000,0.0,0.0,0.0,0.0,0.0, 22:10:48.745
, 76773.257813, 90951.570313, 164933.265625, 149892.250000, 124230.390625, 88089.609375, 127306.390625, 111811.492188, 0.000, 0.000, 0.000,0.0,0.0,0.0,0.0,0.0, 22:10:48.745
, 76798.671875, 90976.398438, 164961.078125, 149801.562500, 124257.007813, 88071.476563, 127314.726563, 111808.250000, 0.270, 0.272, 0.906,0.0,0.0,0.0,0.0,0.0, 22:10:48.745
, 76787.203125, 90965.250000, 164943.640625, 149848.390625, 124239.039063, 88103.640625, 127326.257813, 111838.156250, 0.000, 0.000, 0.000,0.0,0.0,0.0,0.0,0.0, 22:10:48.745
, 76758.125000, 90936.101563, 164911.187500, 149942.250000, 124213.710938, 88126.804688, 127335.890625, 111850.000000, 0.000, 0.000, 0.000,0.0,0.0,0.0,0.0,0.0, 22:10:48.746
, 76773.078125, 90949.648438, 164932.828125, 149909.703125, 124223.437500, 88106.773438, 127305.632813, 111826.421875, 0.000, 0.000, 0.000,0.0,0.0,0.0,0.0,0.0, 22:10:48.746
, 76798.398438, 90976.539063, 164964.421875, 149792.953125, 124259.468750, 88080.960938, 127300.554688, 111815.398438, 0.000, 0.000, 0.000,0.0,0.0,0.0,0.0,0.0, 22:10:48.746
, 76793.125000, 90970.679688, 164957.187500, 149828.984375, 124263.445313, 88113.343750, 127350.914063, 111844.367188, 0.000, 0.000, 0.000,0.0,0.0,0.0,0.0,0.0, 22:10:48.746
, 76781.007813, 90953.914063, 164936.687500, 149930.406250, 124243.757813, 88142.421875, 127369.351563, 111858.539063, 0.000, 0.000, 0.000,0.0,0.0,0.0,0.0,0.0, 22:10:48.747
, 76777.140625, 90948.171875, 164928.640625, 149940.796875, 124227.679688, 88112.851563, 127329.859375, 111823.093750, 0.000, 0.000, 0.000,0.0,0.0,0.0,0.0,0.0, 22:10:48.747
, 76807.117188, 90985.656250, 164970.156250, 149810.453125, 124260.046875, 88079.460938, 127299.234375, 111808.093750, 0.000, 0.000, 0.000,0.0,0.0,0.0,0.0,0.0, 22:10:48.747
, 76802.554688, 90980.914063, 164963.515625, 149823.265625, 124267.851563, 88104.023438, 127343.226563, 111832.281250, 0.000, 0.000, 0.000,0.0,0.0,0.0,0.0,0.0, 22:10:48.748
, 76780.320313, 90956.039063, 164937.828125, 149922.078125, 124244.851563, 88135.250000, 127362.492188, 111849.710938, 0.274, 0.282, 0.906,0.0,0.0,0.0,0.0,0.0, 22:10:48.748
, 76763.085938, 90937.109375, 164917.718750, 149960.687500, 124226.164063, 88124.703125, 127335.960938, 111831.000000, 0.000, 0.000, 0.000,0.0,0.0,0.0,0.0,0.0, 22:10:48.748
, 76785.617188, 90962.250000, 164948.093750, 149832.984375, 124242.859375, 88067.859375, 127276.484375, 111786.296875, 0.000, 0.000, 0.000,0.0,0.0,0.0,0.0,0.0, 22:10:48.748
, 76803.765625, 90978.906250, 164963.953125, 149811.718750, 124275.625000, 88103.109375, 127326.039063, 111819.156250, 0.000, 0.000, 0.000,0.0,0.0,0.0,0.0,0.0, 22:10:48.749
, 76783.000000, 90952.664063, 164936.046875, 149907.109375, 124254.617188, 88138.757813, 127357.171875, 111844.773438, 0.000, 0.000, 0.000,0.0,0.0,0.0,0.0,0.0, 22:10:48.749
, 76763.484375, 90932.953125, 164920.031250, 149961.687500, 124233.273438, 88139.898438, 127344.835938, 111837.929688, 0.000, 0.000, 0.000,0.0,0.0,0.0,0.0,0.0, 22:10:48.749
, 76785.617188, 90964.554688, 164954.281250, 149838.203125, 124247.578125, 88098.750000, 127280.773438, 111804.671875, 0.000, 0.000, 0.000,0.0,0.0,0.0,0.0,0.0, 22:10:48.750
, 76803.789063, 90983.867188, 164966.437500, 149787.843750, 124270.820313, 88091.820313, 127308.242188, 111775.257813, 0.000, 0.000, 0.000,0.0,0.0,0.0,0.0,0.0, 22:10:48.750
, 76776.179688, 90953.468750, 164928.468750, 149880.671875, 124246.390625, 88117.632813, 127344.570313, 111824.117188, 0.000, 0.000, 0.000,0.0,0.0,0.0,0.0,0.0, 22:10:48.750
, 76752.218750, 90925.531250, 164904.328125, 149951.390625, 124218.875000, 88128.273438, 127329.187500, 111824.742188, 0.284, 0.310, 0.896,0.0,0.0,0.0,0.0,0.0, 22:10:48.750
, 76774.640625, 90953.578125, 164938.640625, 149866.812500, 124240.914063, 88094.476563, 127285.421875, 111794.125000, 0.000, 0.000, 0.000,0.0,0.0,0.0,0.0,0.0, 22:10:48.751
, 76797.773438, 90978.812500, 164967.109375, 149800.250000, 124282.242188, 88095.125000, 127315.375000, 111794.617188, 0.000, 0.000, 0.000,0.0,0.0,0.0,0.0,0.0, 22:10:48.751
, 76789.015625, 90967.351563, 164953.609375, 149873.875000, 124278.015625, 88132.679688, 127362.000000, 111830.515625, 0.000, 0.000, 0.000,0.0,0.0,0.0,0.0,0.0, 22:10:48.751
, 76767.843750, 90942.335938, 164925.718750, 149969.671875, 124251.820313, 88147.835938, 127360.171875, 111845.914063, 0.000, 0.000, 0.000,0.0,0.0,0.0,0.0,0.0, 22:10:48.752
, 76767.937500, 90943.101563, 164930.546875, 149920.031250, 124245.046875, 88107.492188, 127306.164063, 111803.804688, 0.000, 0.000, 0.000,0.0,0.0,0.0,0.0,0.0, 22:10:48.752
, 76791.132813, 90967.882813, 164960.156250, 149800.265625, 124278.335938, 88086.437500, 127300.804688, 111801.742188, 0.000, 0.000, 0.000,0.0,0.0,0.0,0.0,0.0, 22:10:48.752
, 76784.070313, 90959.351563, 164950.890625, 149848.406250, 124279.804688, 88126.531250, 127353.710938, 111840.304688, 0.000, 0.000, 0.000,0.0,0.0,0.0,0.0,0.0, 22:10:48.752
, 76757.539063, 90930.156250, 164919.375000, 149944.796875, 124246.640625, 88143.609375, 127355.851563, 111839.523438, 0.000, 0.000, 0.000,0.0,0.0,0.0,0.0,0.0, 22:10:48.752
, 76758.812500, 90926.828125, 164920.234375, 149921.187500, 124235.554688, 88106.593750, 127306.656250, 111798.546875, 0.000, 0.000, 0.000,0.0,0.0,0.0,0.0,0.0, 22:10:48.753
, 76797.484375, 90964.984375, 164962.531250, 149796.625000, 124279.921875, 88095.085938, 127300.984375, 111797.835938, 0.292, 0.324, 0.894,0.0,0.0,0.0,0.0,0.0, 22:10:48.753
, 76787.023438, 90953.937500, 164950.687500, 149825.953125, 124282.179688, 88126.015625, 127353.796875, 111831.804688, 0.000, 0.000, 0.000,0.0,0.0,0.0,0.0,0.0, 22:10:48.753
, 76764.828125, 90930.804688, 164927.734375, 149924.812500, 124259.734375, 88154.179688, 127369.335938, 111845.937500, 0.000, 0.000, 0.000,0.0,0.0,0.0,0.0,0.0, 22:10:48.753
, 76765.429688, 90930.562500, 164931.765625, 149945.640625, 124252.828125, 88137.414063, 127344.007813, 111824.632813, 0.000, 0.000, 0.000,0.0,0.0,0.0,0.0,0.0, 22:10:48.753
, 76797.929688, 90966.812500, 164979.421875, 149809.546875, 124288.148438, 88095.914063, 127312.046875, 111802.570313, 0.000, 0.000, 0.000,0.0,0.0,0.0,0.0,0.0, 22:10:48.754
, 76793.460938, 90961.132813, 164971.609375, 149827.765625, 124291.539063, 88124.835938, 127361.304688, 111840.281250, 0.000, 0.000, 0.000,0.0,0.0,0.0,0.0,0.0, 22:10:48.754
, 76773.570313, 90937.664063, 164941.000000, 149935.406250, 124257.679688, 88148.750000, 127371.726563, 111843.765625, 0.000, 0.000, 0.000,0.0,0.0,0.0,0.0,0.0, 22:10:48.754
, 76765.859375, 90929.484375, 164930.859375, 149975.328125, 124238.906250, 88137.039063, 127344.500000, 111820.500000, 0.000, 0.000, 0.000,0.0,0.0,0.0,0.0,0.0, 22:10:48.754
, 76788.992188, 90957.203125, 164965.500000, 149846.890625, 124261.593750, 88093.632813, 127301.718750, 111795.484375, 0.000, 0.000, 0.000,0.0,0.0,0.0,0.0,0.0, 22:10:48.754
, 76798.734375, 90965.789063, 164974.390625, 149812.046875, 124284.390625, 88111.937500, 127345.531250, 111827.070313, 0.292, 0.328, 0.902,0.0,0.0,0.0,0.0,0.0, 22:10:48.754
, 76770.882813, 90935.523438, 164941.984375, 149908.093750, 124256.804688, 88142.695313, 127372.328125, 111845.039063, 0.000, 0.000, 0.000,0.0,0.0,0.0,0.0,0.0, 22:10:48.755
, 76760.671875, 90922.914063, 164931.234375, 149968.390625, 124237.539063, 88143.695313, 127353.531250, 111832.523438, 0.000, 0.000, 0.000,0.0,0.0,0.0,0.0,0.0, 22:10:48.755
, 76779.109375, 90942.515625, 164956.687500, 149869.250000, 124250.593750, 88099.085938, 127306.320313, 111800.898438, 0.000, 0.000, 0.000,0.0,0.0,0.0,0.0,0.0, 22:10:48.755
, 76783.515625, 90947.257813, 164964.093750, 149806.531250, 124269.414063, 88089.585938, 127326.062500, 111806.906250, 0.000, 0.000, 0.000,0.0,0.0,0.0,0.0,0.0, 22:10:48.755
, 76775.062500, 90935.320313, 164952.109375, 149882.453125, 124266.351563, 88149.843750, 127364.101563, 111855.101563, 0.000, 0.000, 0.000,0.0,0.0,0.0,0.0,0.0, 22:10:48.756
, 76759.445313, 90915.875000, 164930.187500, 149970.296875, 124243.328125, 88166.898438, 127352.476563, 111866.609375, 0.000, 0.000, 0.000,0.0,0.0,0.0,0.0,0.0, 22:10:48.756
, 76783.671875, 90939.367188, 164960.875000, 149890.015625, 124256.875000, 88109.765625, 127299.882813, 111803.218750, 0.000, 0.000, 0.000,0.0,0.0,0.0,0.0,0.0, 22:10:48.756
, 76807.054688, 90964.195313, 164987.734375, 149801.546875, 124288.773438, 88095.375000, 127318.171875, 111801.093750, 0.000, 0.000, 0.000,0.0,0.0,0.0,0.0,0.0, 22:10:48.757
, 76791.226563, 90949.382813, 164968.625000, 149867.531250, 124279.429688, 88136.414063, 127362.601563, 111835.093750, 0.000, 0.000, 0.000,0.0,0.0,0.0,0.0,0.0, 22:10:48.757
, 76766.570313, 90923.875000, 164944.843750, 149961.531250, 124257.789063, 88153.312500, 127362.335938, 111837.687500, 0.286, 0.316, 0.902,0.0,0.0,0.0,0.0,0.0, 22:10:48.757
, 76772.140625, 90931.945313, 164956.937500, 149928.406250, 124250.507813, 88118.460938, 127317.250000, 111805.789063, 0.000, 0.000, 0.000,0.0,0.0,0.0,0.0,0.0, 22:10:48.758
, 76800.835938, 90957.671875, 164987.812500, 149818.640625, 124279.382813, 88098.187500, 127307.125000, 111801.968750, 0.000, 0.000, 0.000,0.0,0.0,0.0,0.0,0.0, 22:10:48.758
, 76788.343750, 90942.562500, 164969.921875, 149869.609375, 124278.890625, 88133.843750, 127360.593750, 111833.906250, 0.000, 0.000, 0.000,0.0,0.0,0.0,0.0,0.0, 22:10:48.758
, 76767.976563, 90917.617188, 164941.890625, 149965.765625, 124249.250000, 88152.640625, 127362.226563, 111835.515625, 0.000, 0.000, 0.000,0.0,0.0,0.0,0.0,0.0, 22:10:49.207
, 76769.054688, 90918.867188, 164947.578125, 149951.593750, 124241.203125, 88127.093750, 127320.312500, 111810.414063, 0.000, 0.000, 0.000,0.0,0.0,0.0,0.0,0.0, 22:10:49.207
, 76790.421875, 90943.414063, 164978.625000, 149828.390625, 124268.453125, 88092.398438, 127299.375000, 111796.625000, 0.000, 0.000, 0.000,0.0,0.0,0.0,0.0,0.0, 22:10:49.207
, 76792.414063, 90942.296875, 164978.578125, 149838.468750, 124273.367188, 88123.070313, 127341.437500, 111826.156250, 0.000, 0.000, 0.000,0.0,0.0,0.0,0.0,0.0, 22:10:49.208
, 76772.898438, 90922.867188, 164950.453125, 149932.296875, 124251.132813, 88148.726563, 127355.031250, 111833.375000, 0.000, 0.000, 0.000,0.0,0.0,0.0,0.0,0.0, 22:10:49.208
, 76761.007813, 90909.820313, 164938.484375, 149960.031250, 124238.210938, 88136.703125, 127332.968750, 111819.312500, 0.000, 0.000, 0.000,0.0,0.0,0.0,0.0,0.0, 22:10:49.208
, 76787.601563, 90939.570313, 164975.156250, 149835.359375, 124265.570313, 88097.812500, 127298.210938, 111796.023438, 0.272, 0.292, 0.914,0.0,0.0,0.0,0.0,0.0, 22:10:49.208
, 76794.023438, 90948.148438, 164981.421875, 149822.796875, 124285.484375, 88117.882813, 127347.648438, 111821.953125, 0.000, 0.000, 0.000,0.0,0.0,0.0,0.0,0.0, 22:10:49.208
, 76763.734375, 90917.703125, 164942.765625, 149928.390625, 124252.804688, 88145.375000, 127369.351563, 111837.687500, 0.000, 0.000, 0.000,0.0,0.0,0.0,0.0,0.0, 22:10:49.208
, 76754.296875, 90909.101563, 164933.421875, 149966.703125, 124229.515625, 88133.531250, 127337.414063, 111814.039063, 0.000, 0.000, 0.000,0.0,0.0,0.0,0.0,0.0, 22:10:49.209
, 76777.476563, 90936.328125, 164969.250000, 149850.109375, 124250.992188, 88093.296875, 127294.875000, 111788.867188, 0.000, 0.000, 0.000,0.0,0.0,0.0,0.0,0.0, 22:10:49.209
, 76789.507813, 90948.101563, 164980.140625, 149821.437500, 124275.335938, 88112.335938, 127338.601563, 111820.765625, 0.000, 0.000, 0.000,0.0,0.0,0.0,0.0,0.0, 22:10:49.209
, 76775.468750, 90932.484375, 164963.203125, 149899.265625, 124260.851563, 88147.117188, 127364.835938, 111843.523438, 0.000, 0.000, 0.000,0.0,0.0,0.0,0.0,0.0, 22:10:49.209
, 76762.015625, 90915.203125, 164947.843750, 149963.593750, 124240.937500, 88152.078125, 127355.585938, 111837.820313, 0.000, 0.000, 0.000,0.0,0.0,0.0,0.0,0.0, 22:10:49.209
, 76776.718750, 90932.859375, 164970.843750, 149877.875000, 124250.507813, 88107.351563, 127310.726563, 111804.515625, 0.000, 0.000, 0.000,0.0,0.0,0.0,0.0,0.0, 22:10:49.210
, 76794.039063, 90947.320313, 164984.390625, 149820.515625, 124273.992188, 88110.953125, 127339.781250, 111819.804688, 0.260, 0.280, 0.924,0.0,0.0,0.0,0.0,0.0, 22:10:49.210
, 76780.515625, 90927.406250, 164965.640625, 149896.656250, 124268.140625, 88148.484375, 127382.226563, 111848.281250, 0.000, 0.000, 0.000,0.0,0.0,0.0,0.0,0.0, 22:10:49.210
, 76756.781250, 90903.625000, 164935.968750, 149975.312500, 124237.070313, 88156.437500, 127372.281250, 111844.820313, 0.000, 0.000, 0.000,0.0,0.0,0.0,0.0,0.0, 22:10:49.210
, 76766.820313, 90919.468750, 164951.703125, 149899.125000, 124237.023438, 88115.359375, 127315.218750, 111810.843750, 0.000, 0.000, 0.000,0.0,0.0,0.0,0.0,0.0, 22:10:49.211
, 76787.742188, 90940.328125, 164976.515625, 149809.078125, 124268.250000, 88103.578125, 127324.250000, 111814.062500, 0.000, 0.000, 0.000,0.0,0.0,0.0,0.0,0.0, 22:10:49.212
, 76776.140625, 90927.742188, 164958.078125, 149869.765625, 124255.781250, 88138.000000, 127362.562500, 111837.593750, 0.000, 0.000, 0.000,0.0,0.0,0.0,0.0,0.0, 22:10:49.212
, 76757.898438, 90908.250000, 164936.109375, 149960.187500, 124231.304688, 88154.070313, 127358.382813, 111838.492188, 0.000, 0.000, 0.000,0.0,0.0,0.0,0.0,0.0, 22:10:49.212
, 76756.382813, 90910.218750, 164941.265625, 149929.171875, 124223.679688, 88117.164063, 127315.890625, 111802.976563, 0.000, 0.000, 0.000,0.0,0.0,0.0,0.0,0.0, 22:10:49.212
, 76781.929688, 90936.703125, 164975.046875, 149814.937500, 124258.437500, 88091.734375, 127313.789063, 111799.890625, 0.000, 0.000, 0.000,0.0,0.0,0.0,0.0,0.0, 22:10:49.213
, 76782.281250, 90936.617188, 164971.718750, 149851.140625, 124264.007813, 88126.960938, 127365.625000, 111833.773438, 0.000, 0.000, 0.000,0.0,0.0,0.0,0.0,0.0, 22:10:49.213
, 76757.945313, 90911.875000, 164944.671875, 149946.843750, 124234.906250, 88150.156250, 127364.328125, 111840.460938, 0.246, 0.276, 0.926,0.0,0.0,0.0,0.0,0.0, 22:10:49.213
, 76754.500000, 90903.468750, 164944.156250, 149944.578125, 124221.671875, 88127.695313, 127325.609375, 111817.257813, 0.000, 0.000, 0.000,0.0,0.0,0.0,0.0,0.0, 22:10:49.213
, 76785.187500, 90932.773438, 164977.609375, 149814.640625, 124253.882813, 88090.031250, 127304.289063, 111796.695313, 0.000, 0.000, 0.000,0.0,0.0,0.0,0.0,0.0, 22:10:49.213
, 76786.867188, 90936.640625, 164971.937500, 149823.328125, 124263.445313, 88122.531250, 127359.007813, 111831.945313, 0.000, 0.000, 0.000,0.0,0.0,0.0,0.0,0.0, 22:10:49.214
, 76758.257813, 90905.460938, 164938.187500, 149925.375000, 124227.234375, 88146.406250, 127367.007813, 111838.890625, 0.000, 0.000, 0.000,0.0,0.0,0.0,0.0,0.0, 22:10:49.214
, 76747.882813, 90899.218750, 164936.875000, 149942.203125, 124220.531250, 88130.664063, 127330.257813, 111818.781250, 0.000, 0.000, 0.000,0.0,0.0,0.0,0.0,0.0, 22:10:49.214
, 76773.117188, 90926.578125, 164969.140625, 149823.312500, 124250.593750, 88089.492188, 127302.476563, 111801.187500, 0.000, 0.000, 0.000,0.0,0.0,0.0,0.0,0.0, 22:10:49.214
, 76770.882813, 90923.453125, 164964.625000, 149814.500000, 124251.687500, 88107.531250, 127341.054688, 111826.867188, 0.000, 0.000, 0.000,0.0,0.0,0.0,0.0,0.0, 22:10:49.214
, 76750.945313, 90902.531250, 164941.140625, 149905.906250, 124234.859375, 88141.125000, 127365.757813, 111848.507813, 0.000, 0.000, 0.000,0.0,0.0,0.0,0.0,0.0, 22:10:49.214
, 76740.664063, 90892.250000, 164928.625000, 149955.187500, 124218.562500, 88135.140625, 127340.703125, 111829.820313, 0.248, 0.270, 0.926,0.0,0.0,0.0,0.0,0.0, 22:10:49.215
, 76757.812500, 90911.492188, 164955.281250, 149847.859375, 124233.828125, 88089.335938, 127297.671875, 111791.953125, 0.000, 0.000, 0.000,0.0,0.0,0.0,0.0,0.0, 22:10:49.215
, 76770.390625, 90921.593750, 164966.625000, 149807.671875, 124254.703125, 88098.656250, 127338.781250, 111813.304688, 0.000, 0.000, 0.000,0.0,0.0,0.0,0.0,0.0, 22:10:49.215
, 76756.625000, 90907.289063, 164945.453125, 149888.734375, 124241.296875, 88133.234375, 127371.453125, 111839.945313, 0.000, 0.000, 0.000,0.0,0.0,0.0,0.0,0.0, 22:10:49.215
, 76741.359375, 90891.375000, 164925.515625, 149957.484375, 124214.250000, 88135.203125, 127350.781250, 111827.382813, 0.000, 0.000, 0.000,0.0,0.0,0.0,0.0,0.0, 22:10:49.215
, 76769.945313, 90924.296875, 164963.265625, 149855.000000, 124231.328125, 88090.367188, 127303.664063, 111793.046875, 0.000, 0.000, 0.000,0.0,0.0,0.0,0.0,0.0, 22:10:49.216
, 76793.015625, 90948.328125, 164987.359375, 149787.109375, 124265.320313, 88093.656250, 127328.851563, 111815.695313, 0.000, 0.000, 0.000,0.0,0.0,0.0,0.0,0.0, 22:10:49.216
, 76763.328125, 90914.734375, 164951.468750, 149872.546875, 124243.578125, 88130.804688, 127368.390625, 111844.304688, 0.000, 0.000, 0.000,0.0,0.0,0.0,0.0,0.0, 22:10:49.216
, 76738.835938, 90886.031250, 164925.218750, 149957.328125, 124211.320313, 88139.093750, 127357.421875, 111835.140625, 0.000, 0.000, 0.000,0.0,0.0,0.0,0.0,0.0, 22:10:49.217
, 76754.500000, 90905.078125, 164952.312500, 149889.609375, 124226.875000, 88109.320313, 127317.273438, 111812.851563, 0.000, 0.000, 0.000,0.0,0.0,0.0,0.0,0.0, 22:10:49.218
, 76775.578125, 90927.140625, 164976.390625, 149792.953125, 124252.226563, 88094.570313, 127328.585938, 111819.023438, 0.250, 0.266, 0.926,0.0,0.0,0.0,0.0,0.0, 22:10:49.218
, 76765.765625, 90916.296875, 164960.031250, 149849.796875, 124242.187500, 88130.492188, 127367.859375, 111847.320313, 0.000, 0.000, 0.000,0.0,0.0,0.0,0.0,0.0, 22:10:49.218
, 76738.453125, 90889.835938, 164928.015625, 149940.703125, 124218.093750, 88140.476563, 127366.250000, 111838.468750, 0.000, 0.000, 0.000,0.0,0.0,0.0,0.0,0.0, 22:10:49.218
, 76747.773438, 90896.250000, 164938.875000, 149908.312500, 124218.992188, 88111.843750, 127325.968750, 111810.218750, 0.000, 0.000, 0.000,0.0,0.0,0.0,0.0,0.0, 22:10:49.219
, 76774.976563, 90923.406250, 164971.093750, 149795.703125, 124251.351563, 88086.234375, 127312.984375, 111803.625000, 0.000, 0.000, 0.000,0.0,0.0,0.0,0.0,0.0, 22:10:49.219
, 76769.835938, 90916.585938, 164961.703125, 149833.109375, 124255.156250, 88122.953125, 127365.976563, 111840.031250, 0.000, 0.000, 0.000,0.0,0.0,0.0,0.0,0.0, 22:10:49.219
, 76748.531250, 90891.960938, 164929.296875, 149941.421875, 124222.226563, 88140.796875, 127372.414063, 111843.343750, 0.000, 0.000, 0.000,0.0,0.0,0.0,0.0,0.0, 22:10:49.219
, 76751.281250, 90894.976563, 164936.953125, 149933.171875, 124215.164063, 88120.835938, 127332.429688, 111818.781250, 0.000, 0.000, 0.000,0.0,0.0,0.0,0.0,0.0, 22:10:49.219
, 76777.437500, 90924.257813, 164972.453125, 149811.265625, 124246.593750, 88086.632813, 127304.937500, 111800.023438, 0.000, 0.000, 0.000,0.0,0.0,0.0,0.0,0.0, 22:10:49.220
, 76782.062500, 90924.945313, 164972.750000, 149822.375000, 124265.773438, 88112.789063, 127354.671875, 111826.843750, 0.252, 0.264, 0.918,0.0,0.0,0.0,0.0,0.0, 22:10:49.220
, 76759.085938, 90900.898438, 164943.625000, 149929.578125, 124241.203125, 88143.406250, 127375.859375, 111844.031250, 0.000, 0.000, 0.000,0.0,0.0,0.0,0.0,0.0, 22:10:49.220
, 76750.835938, 90889.968750, 164933.921875, 149971.187500, 124218.789063, 88142.000000, 127349.304688, 111841.640625, 0.000, 0.000, 0.000,0.0,0.0,0.0,0.0,0.0, 22:10:49.221
, 76779.492188, 90922.843750, 164975.031250, 149838.640625, 124252.695313, 88102.796875, 127304.851563, 111822.531250, 0.000, 0.000, 0.000,0.0,0.0,0.0,0.0,0.0, 22:10:49.221
, 76780.476563, 90926.492188, 164973.343750, 149811.984375, 124272.609375, 88114.664063, 127348.320313, 111837.734375, 0.000, 0.000, 0.000,0.0,0.0,0.0,0.0,0.0, 22:10:49.221
, 76758.367188, 90897.789063, 164939.187500, 149914.625000, 124244.132813, 88141.578125, 127364.679688, 111849.445313, 0.000, 0.000, 0.000,0.0,0.0,0.0,0.0,0.0, 22:10:49.222
, 76755.820313, 90887.195313, 164932.671875, 149970.453125, 124234.906250, 88133.929688, 127350.218750, 111821.101563, 0.000, 0.000, 0.000,0.0,0.0,0.0,0.0,0.0, 22:10:49.222
, 76790.218750, 90925.460938, 164975.937500, 149861.203125, 124262.304688, 88102.031250, 127313.093750, 111804.140625, 0.000, 0.000, 0.000,0.0,0.0,0.0,0.0,0.0, 22:10:49.222
, 76800.281250, 90935.992188, 164982.421875, 149809.906250, 124283.164063, 88099.351563, 127335.226563, 111809.281250, 0.000, 0.000, 0.000,0.0,0.0,0.0,0.0,0.0, 22:10:49.224
, 76779.226563, 90910.398438, 164952.109375, 149899.593750, 124261.632813, 88126.734375, 127358.492188, 111823.781250, 0.000, 0.000, 0.000,0.0,0.0,0.0,0.0,0.0, 22:10:49.225
, 76757.695313, 90892.671875, 164927.578125, 149965.468750, 124239.750000, 88129.593750, 127340.921875, 111813.390625, 0.250, 0.264, 0.914,0.0,0.0,0.0,0.0,0.0, 22:10:49.225
, 76767.507813, 90911.671875, 164948.875000, 149876.562500, 124257.656250, 88087.304688, 127302.921875, 111783.015625, 0.000, 0.000, 0.000,0.0,0.0,0.0,0.0,0.0, 22:10:49.226
, 76791.898438, 90938.406250, 164974.734375, 149798.125000, 124284.453125, 88091.304688, 127324.789063, 111806.929688, 0.000, 0.000, 0.000,0.0,0.0,0.0,0.0,0.0, 22:10:49.226
, 76784.250000, 90922.984375, 164959.750000, 149868.312500, 124277.414063, 88131.273438, 127370.000000, 111837.867188, 0.000, 0.000, 0.000,0.0,0.0,0.0,0.0,0.0, 22:10:49.226
, 76756.804688, 90894.195313, 164927.750000, 149956.421875, 124244.539063, 88141.507813, 127352.992188, 111834.109375, 0.000, 0.000, 0.000,0.0,0.0,0.0,0.0,0.0, 22:10:49.226
, 76769.500000, 90907.914063, 164947.578125, 149900.843750, 124256.203125, 88116.226563, 127307.953125, 111822.687500, 0.000, 0.000, 0.000,0.0,0.0,0.0,0.0,0.0, 22:10:49.227
, 76806.984375, 90944.148438, 164988.562500, 149800.937500, 124295.523438, 88101.679688, 127311.109375, 111824.031250, 0.000, 0.000, 0.000,0.0,0.0,0.0,0.0,0.0, 22:10:49.227
, 76793.906250, 90924.632813, 164969.281250, 149865.671875, 124289.304688, 88150.828125, 127366.250000, 111883.125000, 0.000, 0.000, 0.000,0.0,0.0,0.0,0.0,0.0, 22:10:49.227
, 76766.148438, 90893.343750, 164934.875000, 149955.875000, 124254.484375, 88153.421875, 127365.171875, 111859.343750, 0.000, 0.000, 0.000,0.0,0.0,0.0,0.0,0.0, 22:10:49.227
, 76772.875000, 90899.710938, 164944.156250, 149927.265625, 124252.312500, 88110.328125, 127318.820313, 111802.953125, 0.000, 0.000, 0.000,0.0,0.0,0.0,0.0,0.0, 22:10:49.228
, 76796.656250, 90923.140625, 164974.828125, 149815.625000, 124282.218750, 88084.023438, 127305.117188, 111793.093750, 0.266, 0.262, 0.918,0.0,0.0,0.0,0.0,0.0, 22:10:49.228
, 76799.023438, 90924.210938, 164974.109375, 149839.625000, 124296.593750, 88124.367188, 127353.171875, 111841.085938, 0.000, 0.000, 0.000,0.0,0.0,0.0,0.0,0.0, 22:10:49.228
, 76775.023438, 90901.343750, 164942.218750, 149936.593750, 124280.367188, 88130.664063, 127371.546875, 111819.539063, 0.000, 0.000, 0.000,0.0,0.0,0.0,0.0,0.0, 22:10:49.229
, 76779.085938, 90905.031250, 164941.765625, 149948.031250, 124267.828125, 88115.421875, 127331.710938, 111796.070313, 0.000, 0.000, 0.000,0.0,0.0,0.0,0.0,0.0, 22:10:49.229
, 76814.742188, 90943.164063, 164988.218750, 149821.484375, 124310.359375, 88095.171875, 127312.085938, 111807.757813, 0.000, 0.000, 0.000,0.0,0.0,0.0,0.0,0.0, 22:10:49.229
, 76813.085938, 90937.820313, 164985.890625, 149830.562500, 124333.296875, 88125.484375, 127378.140625, 111849.734375, 0.000, 0.000, 0.000,0.0,0.0,0.0,0.0,0.0, 22:10:49.229
, 76790.265625, 90914.039063, 164954.234375, 149921.328125, 124293.507813, 88148.281250, 127395.820313, 111850.898438, 0.000, 0.000, 0.000,0.0,0.0,0.0,0.0,0.0, 22:10:49.230
, 76791.851563, 90911.742188, 164946.171875, 149967.328125, 124270.351563, 88139.656250, 127357.976563, 111830.445313, 0.000, 0.000, 0.000,0.0,0.0,0.0,0.0,0.0, 22:10:49.230
, 76812.906250, 90933.398438, 164975.812500, 149854.921875, 124292.328125, 88089.671875, 127305.117188, 111791.843750, 0.000, 0.000, 0.000,0.0,0.0,0.0,0.0,0.0, 22:10:49.230
, 76825.539063, 90942.515625, 164991.859375, 149825.421875, 124331.125000, 88116.070313, 127357.976563, 111843.250000, 0.280, 0.274, 0.916,0.0,0.0,0.0,0.0,0.0, 22:10:49.231
, 76805.195313, 90924.234375, 164965.718750, 149915.531250, 124309.203125, 88160.148438, 127383.750000, 111877.718750, 0.000, 0.000, 0.000,0.0,0.0,0.0,0.0,0.0, 22:10:49.231
, 76785.101563, 90901.617188, 164942.921875, 149968.281250, 124298.742188, 88144.750000, 127368.976563, 111838.562500, 0.000, 0.000, 0.000,0.0,0.0,0.0,0.0,0.0, 22:10:49.232
, 76820.015625, 90940.234375, 164983.390625, 149860.953125, 124323.796875, 88098.773438, 127325.500000, 111800.023438, 0.000, 0.000, 0.000,0.0,0.0,0.0,0.0,0.0, 22:10:49.232
, 76835.460938, 90954.875000, 165001.406250, 149811.562500, 124352.406250, 88121.617188, 127360.523438, 111850.117188, 0.000, 0.000, 0.000,0.0,0.0,0.0,0.0,0.0, 22:10:49.232
, 76807.718750, 90930.070313, 164967.171875, 149897.156250, 124331.398438, 88150.601563, 127380.109375, 111867.882813, 0.000, 0.000, 0.000,0.0,0.0,0.0,0.0,0.0, 22:10:49.232
, 76779.000000, 90896.828125, 164934.906250, 149976.312500, 124300.257813, 88157.648438, 127370.046875, 111860.484375, 0.000, 0.000, 0.000,0.0,0.0,0.0,0.0,0.0, 22:10:49.232
, 76795.046875, 90915.492188, 164959.046875, 149894.062500, 124307.570313, 88095.125000, 127316.585938, 111789.515625, 0.000, 0.000, 0.000,0.0,0.0,0.0,0.0,0.0, 22:10:49.233
, 76837.625000, 90957.250000, 165000.640625, 149800.687500, 124348.984375, 88096.757813, 127329.140625, 111813.773438, 0.000, 0.000, 0.000,0.0,0.0,0.0,0.0,0.0, 22:10:49.233
, 76828.914063, 90939.945313, 164979.578125, 149874.093750, 124341.320313, 88148.859375, 127383.187500, 111871.125000, 0.000, 0.000, 0.000,0.0,0.0,0.0,0.0,0.0, 22:10:49.233
, 76795.429688, 90903.914063, 164942.500000, 149967.062500, 124314.968750, 88151.789063, 127374.898438, 111852.460938, 0.286, 0.286, 0.914,0.0,0.0,0.0,0.0,0.0, 22:10:49.233
, 76798.828125, 90914.867188, 164955.000000, 149917.578125, 124320.039063, 88113.992188, 127320.937500, 111808.671875, 0.000, 0.000, 0.000,0.0,0.0,0.0,0.0,0.0, 22:10:49.234
, 76831.570313, 90945.781250, 164992.796875, 149814.531250, 124363.445313, 88108.828125, 127334.531250, 111825.593750, 0.000, 0.000, 0.000,0.0,0.0,0.0,0.0,0.0, 22:10:49.234
, 76825.601563, 90940.039063, 164981.796875, 149865.000000, 124358.554688, 88147.679688, 127374.921875, 111857.179688, 0.000, 0.000, 0.000,0.0,0.0,0.0,0.0,0.0, 22:10:49.234
, 76806.132813, 90918.804688, 164955.406250, 149965.015625, 124332.625000, 88157.421875, 127373.843750, 111839.835938, 0.000, 0.000, 0.000,0.0,0.0,0.0,0.0,0.0, 22:10:49.234
, 76809.664063, 90920.679688, 164963.484375, 149958.546875, 124329.960938, 88144.679688, 127343.000000, 111828.968750, 0.000, 0.000, 0.000,0.0,0.0,0.0,0.0,0.0, 22:10:49.234
, 76833.250000, 90943.320313, 164995.437500, 149833.843750, 124363.046875, 88104.921875, 127329.812500, 111804.875000, 0.000, 0.000, 0.000,0.0,0.0,0.0,0.0,0.0, 22:10:49.234
, 76827.125000, 90939.054688, 164987.343750, 149855.609375, 124375.492188, 88133.867188, 127380.351563, 111830.937500, 0.000, 0.000, 0.000,0.0,0.0,0.0,0.0,0.0, 22:10:49.235
, 76815.968750, 90924.773438, 164969.375000, 149935.937500, 124355.515625, 88166.632813, 127385.515625, 111843.968750, 0.000, 0.000, 0.000,0.0,0.0,0.0,0.0,0.0, 22:10:49.235
, 76813.867188, 90917.414063, 164960.312500, 149970.328125, 124345.234375, 88154.429688, 127369.554688, 111827.046875, 0.286, 0.286, 0.912,0.0,0.0,0.0,0.0,0.0, 22:10:49.235
, 76826.007813, 90932.617188, 164983.453125, 149846.671875, 124357.632813, 88103.507813, 127325.078125, 111787.398438, 0.000, 0.000, 0.000,0.0,0.0,0.0,0.0,0.0, 22:10:49.235
, 76832.015625, 90935.476563, 164985.343750, 149837.390625, 124383.359375, 88130.039063, 127373.804688, 111821.546875, 0.000, 0.000, 0.000,0.0,0.0,0.0,0.0,0.0, 22:10:49.235
, 76822.851563, 90920.570313, 164965.843750, 149941.437500, 124367.468750, 88164.734375, 127401.898438, 111843.054688, 0.000, 0.000, 0.000,0.0,0.0,0.0,0.0,0.0, 22:10:49.235
, 76811.187500, 90905.234375, 164953.812500, 149990.906250, 124348.156250, 88160.820313, 127380.085938, 111829.617188, 0.000, 0.000, 0.000,0.0,0.0,0.0,0.0,0.0, 22:10:49.236
, 76831.148438, 90932.976563, 164986.531250, 149859.078125, 124361.726563, 88113.296875, 127316.132813, 111793.429688, 0.000, 0.000, 0.000,0.0,0.0,0.0,0.0,0.0, 22:10:49.236
, 76852.648438, 90957.312500, 165004.171875, 149821.375000, 124395.140625, 88133.820313, 127365.734375, 111823.718750, 0.000, 0.000, 0.000,0.0,0.0,0.0,0.0,0.0, 22:10:49.236
, 76831.992188, 90931.007813, 164978.062500, 149919.140625, 124379.320313, 88167.031250, 127403.421875, 111840.304688, 0.000, 0.000, 0.000,0.0,0.0,0.0,0.0,0.0, 22:10:49.236
, 76813.937500, 90908.343750, 164955.468750, 149995.937500, 124354.773438, 88168.710938, 127385.804688, 111828.882813, 0.000, 0.000, 0.000,0.0,0.0,0.0,0.0,0.0, 22:10:49.237
, 76829.781250, 90934.914063, 164980.953125, 149892.609375, 124359.539063, 88122.265625, 127326.414063, 111794.460938, 0.000, 0.000, 0.000,0.0,0.0,0.0,0.0,0.0, 22:10:49.237
, 76843.593750, 90954.367188, 164998.765625, 149821.187500, 124394.023438, 88125.281250, 127354.382813, 111815.578125, 0.284, 0.298, 0.916,0.0,0.0,0.0,0.0,0.0, 22:10:49.237
, 76829.695313, 90938.273438, 164978.593750, 149904.968750, 124383.539063, 88161.203125, 127400.203125, 111841.445313, 0.000, 0.000, 0.000,0.0,0.0,0.0,0.0,0.0, 22:10:49.238
, 76819.187500, 90922.179688, 164962.796875, 149991.015625, 124359.382813, 88165.046875, 127393.515625, 111834.023438, 0.000, 0.000, 0.000,0.0,0.0,0.0,0.0,0.0, 22:10:49.238
, 76834.742188, 90934.359375, 164983.109375, 149923.515625, 124362.351563, 88125.414063, 127338.710938, 111803.914063, 0.000, 0.000, 0.000,0.0,0.0,0.0,0.0,0.0, 22:10:49.238
, 76855.265625, 90955.304688, 165005.984375, 149827.625000, 124396.039063, 88111.937500, 127350.937500, 111801.765625, 0.000, 0.000, 0.000,0.0,0.0,0.0,0.0,0.0, 22:10:49.238
, 76840.179688, 90938.117188, 164986.468750, 149895.859375, 124389.507813, 88157.359375, 127404.046875, 111848.054688, 0.000, 0.000, 0.000,0.0,0.0,0.0,0.0,0.0, 22:10:49.239
, 76822.140625, 90920.007813, 164962.796875, 149987.859375, 124370.664063, 88165.625000, 127399.351563, 111834.851563, 0.000, 0.000, 0.000,0.0,0.0,0.0,0.0,0.0, 22:10:49.239
, 76836.781250, 90938.000000, 164981.703125, 149943.296875, 124387.453125, 88131.468750, 127354.265625, 111800.046875, 0.000, 0.000, 0.000,0.0,0.0,0.0,0.0,0.0, 22:10:49.239
, 76858.882813, 90960.242188, 165010.359375, 149835.937500, 124414.390625, 88111.398438, 127349.664063, 111804.296875, 0.000, 0.000, 0.000,0.0,0.0,0.0,0.0,0.0, 22:10:49.239
