%OpenBCI Raw EEG Data
%
%Sample Rate = 250.0 Hz
%First Column = SampleIndex
%5 Columns before Timestamp are Frequency Power factors DELTA THETA ALPHA BETA GAMMA
%Last Column = Timestamp 
%Other Columns = EEG data in microvolts followed by Accel Data (in G) interleaved with Aux Data
0.000000, 0.000000, 0.000000, 0.000000, 0.000000, 0.000000, 0.000000, 0.000000, 0.000, 0.000, 0.000,0.0,0.0,0.0,0.0,0.0, 14:47:59.161
79466.437500, 82539.539063, 156878.859375, 125929.968750, 143401.500000, 98876.984375, 123556.414063, 143906.312500, 0.162, 0.170, 0.968,0.0,0.0,0.0,0.0,0.0, 14:47:59.178
79486.132813, 82557.929688, 156912.734375, 125943.742188, 143431.906250, 98914.421875, 123585.382813, 143938.765625, 0.000, 0.000, 0.000,0.0,0.0,0.0,0.0,0.0, 14:47:59.654
79411.476563, 82485.195313, 156849.765625, 126027.023438, 143375.812500, 99052.671875, 123585.984375, 143950.125000, 0.000, 0.000, 0.000,0.0,0.0,0.0,0.0,0.0, 14:47:59.655
79389.171875, 82458.710938, 156810.875000, 126021.632813, 143337.468750, 99032.484375, 123555.093750, 143920.109375, 0.000, 0.000, 0.000,0.0,0.0,0.0,0.0,0.0, 14:47:59.656
79449.851563, 82515.906250, 156854.234375, 125930.304688, 143374.296875, 98885.992188, 123538.914063, 143894.359375, 0.000, 0.000, 0.000,0.0,0.0,0.0,0.0,0.0, 14:47:59.657
79504.750000, 82566.335938, 156910.562500, 125923.820313, 143427.140625, 98881.250000, 123574.429688, 143929.515625, 0.000, 0.000, 0.000,0.0,0.0,0.0,0.0,0.0, 14:47:59.657
79449.359375, 82510.210938, 156869.906250, 126012.804688, 143392.218750, 99032.015625, 123590.750000, 143957.750000, 0.164, 0.174, 0.968,0.0,0.0,0.0,0.0,0.0, 14:47:59.658
79390.578125, 82455.515625, 156808.484375, 126031.695313, 143332.921875, 99052.335938, 123555.921875, 143924.218750, 0.000, 0.000, 0.000,0.0,0.0,0.0,0.0,0.0, 14:47:59.658
79446.500000, 82501.671875, 156845.671875, 125947.804688, 143362.109375, 98910.804688, 123535.898438, 143894.453125, 0.000, 0.000, 0.000,0.0,0.0,0.0,0.0,0.0, 14:47:59.659
79506.429688, 82558.554688, 156913.984375, 125917.343750, 143427.421875, 98869.812500, 123567.617188, 143922.593750, 0.000, 0.000, 0.000,0.0,0.0,0.0,0.0,0.0, 14:47:59.659
79459.781250, 82518.546875, 156890.578125, 126003.195313, 143411.328125, 99015.070313, 123599.710938, 143957.171875, 0.000, 0.000, 0.000,0.0,0.0,0.0,0.0,0.0, 14:47:59.660
79401.507813, 82460.882813, 156829.796875, 126045.304688, 143354.609375, 99065.210938, 123577.445313, 143935.953125, 0.000, 0.000, 0.000,0.0,0.0,0.0,0.0,0.0, 14:47:59.660
79444.039063, 82501.695313, 156857.390625, 125973.710938, 143377.703125, 98938.562500, 123557.937500, 143904.890625, 0.000, 0.000, 0.000,0.0,0.0,0.0,0.0,0.0, 14:47:59.660
79517.312500, 82574.898438, 156932.125000, 125924.117188, 143447.500000, 98862.609375, 123583.882813, 143923.687500, 0.000, 0.000, 0.000,0.0,0.0,0.0,0.0,0.0, 14:47:59.661
79489.640625, 82550.218750, 156919.984375, 125998.945313, 143441.015625, 98989.234375, 123614.281250, 143964.078125, 0.000, 0.000, 0.000,0.0,0.0,0.0,0.0,0.0, 14:47:59.661
79425.062500, 82490.273438, 156858.750000, 126065.312500, 143382.437500, 99081.593750, 123600.742188, 143959.734375, 0.000, 0.000, 0.000,0.0,0.0,0.0,0.0,0.0, 14:47:59.662
79437.625000, 82502.898438, 156853.859375, 126005.562500, 143374.515625, 98970.656250, 123568.242188, 143918.562500, 0.160, 0.178, 0.974,0.0,0.0,0.0,0.0,0.0, 14:47:59.663
79514.000000, 82578.296875, 156925.328125, 125938.375000, 143437.484375, 98861.179688, 123580.601563, 143922.359375, 0.000, 0.000, 0.000,0.0,0.0,0.0,0.0,0.0, 14:47:59.664
79507.093750, 82575.140625, 156936.843750, 125994.968750, 143449.937500, 98966.460938, 123617.101563, 143966.000000, 0.000, 0.000, 0.000,0.0,0.0,0.0,0.0,0.0, 14:47:59.664
79434.453125, 82507.570313, 156872.859375, 126069.289063, 143389.609375, 99082.750000, 123605.656250, 143966.171875, 0.000, 0.000, 0.000,0.0,0.0,0.0,0.0,0.0, 14:47:59.665
79431.882813, 82506.367188, 156854.656250, 126023.000000, 143370.671875, 99001.390625, 123571.500000, 143926.953125, 0.000, 0.000, 0.000,0.0,0.0,0.0,0.0,0.0, 14:47:59.665
79505.914063, 82576.414063, 156915.968750, 125938.460938, 143426.531250, 98872.312500, 123573.757813, 143920.687500, 0.000, 0.000, 0.000,0.0,0.0,0.0,0.0,0.0, 14:47:59.665
79513.554688, 82583.367188, 156933.984375, 125968.343750, 143447.031250, 98940.929688, 123605.500000, 143962.234375, 0.000, 0.000, 0.000,0.0,0.0,0.0,0.0,0.0, 14:47:59.665
79428.734375, 82506.523438, 156864.156250, 126048.609375, 143384.953125, 99076.562500, 123601.054688, 143966.828125, 0.000, 0.000, 0.000,0.0,0.0,0.0,0.0,0.0, 14:47:59.666
79400.476563, 82480.414063, 156826.156250, 126023.960938, 143346.718750, 99024.460938, 123561.515625, 143923.171875, 0.000, 0.000, 0.000,0.0,0.0,0.0,0.0,0.0, 14:47:59.666
79464.562500, 82542.554688, 156880.875000, 125933.437500, 143392.218750, 98878.015625, 123549.265625, 143902.109375, 0.000, 0.000, 0.000,0.0,0.0,0.0,0.0,0.0, 14:47:59.666
79487.781250, 82567.765625, 156919.406250, 125937.703125, 143433.531250, 98902.687500, 123580.757813, 143936.062500, 0.158, 0.182, 0.970,0.0,0.0,0.0,0.0,0.0, 14:47:59.667
79436.109375, 82512.734375, 156874.234375, 126027.203125, 143396.765625, 99046.320313, 123597.117188, 143963.484375, 0.000, 0.000, 0.000,0.0,0.0,0.0,0.0,0.0, 14:47:59.667
79407.406250, 82477.484375, 156835.921875, 126032.031250, 143355.968750, 99041.382813, 123568.507813, 143933.250000, 0.000, 0.000, 0.000,0.0,0.0,0.0,0.0,0.0, 14:47:59.667
79454.679688, 82521.968750, 156873.343750, 125939.203125, 143385.937500, 98894.242188, 123548.726563, 143901.781250, 0.000, 0.000, 0.000,0.0,0.0,0.0,0.0,0.0, 14:47:59.667
79510.312500, 82572.078125, 156929.781250, 125923.398438, 143444.640625, 98883.554688, 123587.593750, 143937.453125, 0.000, 0.000, 0.000,0.0,0.0,0.0,0.0,0.0, 14:47:59.668
79453.945313, 82518.187500, 156889.703125, 126007.265625, 143413.734375, 99030.000000, 123608.921875, 143965.562500, 0.000, 0.000, 0.000,0.0,0.0,0.0,0.0,0.0, 14:47:59.668
79400.968750, 82463.406250, 156834.515625, 126031.515625, 143358.546875, 99055.171875, 123580.109375, 143939.890625, 0.000, 0.000, 0.000,0.0,0.0,0.0,0.0,0.0, 14:47:59.669
79454.101563, 82513.453125, 156870.031250, 125950.375000, 143385.625000, 98915.117188, 123560.460938, 143910.937500, 0.000, 0.000, 0.000,0.0,0.0,0.0,0.0,0.0, 14:47:59.670
79512.390625, 82575.140625, 156930.968750, 125911.929688, 143437.593750, 98860.039063, 123582.164063, 143923.921875, 0.000, 0.000, 0.000,0.0,0.0,0.0,0.0,0.0, 14:47:59.671
79473.882813, 82543.179688, 156908.234375, 125994.562500, 143420.437500, 98998.132813, 123608.179688, 143956.109375, 0.156, 0.178, 0.964,0.0,0.0,0.0,0.0,0.0, 14:47:59.671
79411.656250, 82479.703125, 156844.171875, 126045.304688, 143358.921875, 99061.164063, 123585.156250, 143935.796875, 0.000, 0.000, 0.000,0.0,0.0,0.0,0.0,0.0, 14:47:59.672
79446.523438, 82510.812500, 156863.109375, 125978.945313, 143372.640625, 98938.671875, 123558.453125, 143904.031250, 0.000, 0.000, 0.000,0.0,0.0,0.0,0.0,0.0, 14:47:59.672
79520.125000, 82582.585938, 156937.343750, 125927.507813, 143439.906250, 98854.343750, 123578.429688, 143920.515625, 0.000, 0.000, 0.000,0.0,0.0,0.0,0.0,0.0, 14:47:59.674
79504.906250, 82567.203125, 156938.046875, 126001.585938, 143445.906250, 98981.656250, 123617.148438, 143967.671875, 0.000, 0.000, 0.000,0.0,0.0,0.0,0.0,0.0, 14:47:59.675
79429.578125, 82490.164063, 156873.281250, 126072.171875, 143391.625000, 99083.875000, 123610.640625, 143965.437500, 0.000, 0.000, 0.000,0.0,0.0,0.0,0.0,0.0, 14:47:59.676
79436.398438, 82492.554688, 156867.703125, 126015.640625, 143379.546875, 98979.820313, 123573.000000, 143923.187500, 0.000, 0.000, 0.000,0.0,0.0,0.0,0.0,0.0, 14:47:59.676
79523.210938, 82581.890625, 156945.937500, 125943.000000, 143447.281250, 98869.320313, 123585.226563, 143929.578125, 0.000, 0.000, 0.000,0.0,0.0,0.0,0.0,0.0, 14:47:59.677
79521.984375, 82589.492188, 156962.703125, 125997.921875, 143469.781250, 98974.304688, 123628.546875, 143981.312500, 0.000, 0.000, 0.000,0.0,0.0,0.0,0.0,0.0, 14:47:59.677
79442.187500, 82512.601563, 156891.062500, 126074.921875, 143404.359375, 99099.562500, 123618.796875, 143983.093750, 0.000, 0.000, 0.000,0.0,0.0,0.0,0.0,0.0, 14:47:59.678
79429.468750, 82497.289063, 156864.625000, 126032.500000, 143376.687500, 99024.125000, 123580.531250, 143940.062500, 0.158, 0.178, 0.962,0.0,0.0,0.0,0.0,0.0, 14:47:59.678
79502.265625, 82565.820313, 156923.968750, 125942.398438, 143427.140625, 98883.843750, 123577.335938, 143924.421875, 0.000, 0.000, 0.000,0.0,0.0,0.0,0.0,0.0, 14:47:59.679
79524.757813, 82587.460938, 156950.750000, 125967.367188, 143460.281250, 98942.921875, 123616.921875, 143965.437500, 0.000, 0.000, 0.000,0.0,0.0,0.0,0.0,0.0, 14:47:59.686
79449.742188, 82515.085938, 156882.000000, 126050.023438, 143397.984375, 99075.156250, 123612.164063, 143969.609375, 0.000, 0.000, 0.000,0.0,0.0,0.0,0.0,0.0, 14:47:59.686
79427.570313, 82493.062500, 156844.359375, 126031.023438, 143356.625000, 99029.757813, 123573.093750, 143929.000000, 0.000, 0.000, 0.000,0.0,0.0,0.0,0.0,0.0, 14:47:59.687
79493.437500, 82558.132813, 156899.765625, 125943.382813, 143404.359375, 98887.445313, 123564.710938, 143911.671875, 0.000, 0.000, 0.000,0.0,0.0,0.0,0.0,0.0, 14:47:59.687
79527.304688, 82590.898438, 156942.859375, 125949.328125, 143448.859375, 98906.265625, 123601.812500, 143948.359375, 0.000, 0.000, 0.000,5.878782E-6,7.787253E-6,9.572024E-6,3.011329E-5,3.824752E-5, 14:47:59.688
79458.992188, 82526.031250, 156886.859375, 126037.148438, 143403.562500, 99053.046875, 123612.093750, 143967.828125, 0.000, 0.000, 0.000,5.878782E-6,7.787253E-6,9.572024E-6,3.011329E-5,3.824752E-5, 14:47:59.688
79408.859375, 82478.804688, 156829.578125, 126042.171875, 143349.890625, 99045.695313, 123575.679688, 143930.812500, 0.000, 0.000, 0.000,5.878782E-6,7.787253E-6,9.572024E-6,3.011329E-5,3.824752E-5, 14:47:59.688
79464.117188, 82531.398438, 156875.062500, 125955.117188, 143388.625000, 98901.906250, 123563.812500, 143907.859375, 0.160, 0.178, 0.960,5.878782E-6,7.787253E-6,9.572024E-6,3.011329E-5,3.824752E-5, 14:47:59.689
79526.968750, 82587.656250, 156936.171875, 125937.164063, 143447.343750, 98886.414063, 123594.210938, 143941.140625, 0.000, 0.000, 0.000,5.878782E-6,7.787253E-6,9.572024E-6,3.011329E-5,3.824752E-5, 14:47:59.689
79480.320313, 82541.546875, 156903.890625, 126022.953125, 143427.031250, 99039.484375, 123618.976563, 143978.531250, 0.000, 0.000, 0.000,5.878782E-6,7.787253E-6,9.572024E-6,3.011329E-5,3.824752E-5, 14:47:59.690
79418.515625, 82478.515625, 156842.390625, 126052.859375, 143371.375000, 99079.804688, 123590.812500, 143954.296875, 0.000, 0.000, 0.000,5.878782E-6,7.787253E-6,9.572024E-6,3.011329E-5,3.824752E-5, 14:47:59.692
79458.726563, 82519.375000, 156869.359375, 125970.898438, 143393.656250, 98941.757813, 123569.804688, 143921.328125, 0.000, 0.000, 0.000,5.878782E-6,7.787253E-6,9.572024E-6,3.011329E-5,3.824752E-5, 14:47:59.693
79526.187500, 82591.390625, 156939.390625, 125934.085938, 143459.953125, 98885.476563, 123599.445313, 143944.062500, 0.000, 0.000, 0.000,5.878782E-6,7.787253E-6,9.572024E-6,3.011329E-5,3.824752E-5, 14:47:59.694
79489.234375, 82557.414063, 156919.968750, 126017.765625, 143447.203125, 99022.648438, 123628.632813, 143983.765625, 0.000, 0.000, 0.000,5.878782E-6,7.787253E-6,9.572024E-6,3.011329E-5,3.824752E-5, 14:47:59.694
79426.296875, 82490.406250, 156856.406250, 126069.710938, 143386.015625, 99092.429688, 123607.914063, 143968.468750, 0.000, 0.000, 0.000,5.878782E-6,7.787253E-6,9.572024E-6,3.011329E-5,3.824752E-5, 14:47:59.695
79456.851563, 82514.078125, 156868.296875, 125998.367188, 143390.375000, 98967.507813, 123576.289063, 143929.203125, 0.000, 0.000, 0.000,5.878782E-6,7.787253E-6,9.572024E-6,3.011329E-5,3.824752E-5, 14:47:59.695
79535.039063, 82594.523438, 156942.765625, 125941.437500, 143449.828125, 98875.640625, 123587.953125, 143940.140625, 0.000, 0.000, 0.000,5.878782E-6,7.787253E-6,9.572024E-6,3.011329E-5,3.824752E-5, 14:47:59.696
79508.101563, 82574.515625, 156931.906250, 126005.382813, 143447.281250, 98995.468750, 123618.578125, 143978.312500, 0.158, 0.182, 0.960,5.878782E-6,7.787253E-6,9.572024E-6,3.011329E-5,3.824752E-5, 14:47:59.696
79435.570313, 82501.445313, 156860.109375, 126070.789063, 143380.484375, 99097.726563, 123602.195313, 143966.390625, 0.000, 0.000, 0.000,5.878782E-6,7.787253E-6,9.572024E-6,3.011329E-5,3.824752E-5, 14:47:59.697
79438.007813, 82501.000000, 156845.890625, 126016.359375, 143362.031250, 98997.906250, 123560.414063, 143919.609375, 0.000, 0.000, 0.000,5.878782E-6,7.787253E-6,9.572024E-6,3.011329E-5,3.824752E-5, 14:47:59.697
79514.945313, 82577.820313, 156915.906250, 125938.796875, 143423.062500, 98877.406250, 123567.945313, 143919.953125, 0.000, 0.000, 0.000,5.878782E-6,7.787253E-6,9.572024E-6,3.011329E-5,3.824752E-5, 14:47:59.698
79513.421875, 82581.710938, 156933.968750, 125984.640625, 143444.234375, 98969.476563, 123609.437500, 143967.062500, 0.000, 0.000, 0.000,5.878782E-6,7.787253E-6,9.572024E-6,3.011329E-5,3.824752E-5, 14:47:59.698
79428.460938, 82501.492188, 156860.140625, 126060.031250, 143378.296875, 99088.562500, 123601.453125, 143963.250000, 0.000, 0.000, 0.000,5.878782E-6,7.787253E-6,9.572024E-6,3.011329E-5,3.824752E-5, 14:47:59.699
79417.781250, 82490.921875, 156837.953125, 126024.539063, 143357.109375, 99014.179688, 123570.765625, 143926.359375, 0.000, 0.000, 0.000,5.878782E-6,7.787253E-6,9.572024E-6,3.011329E-5,3.824752E-5, 14:47:59.700
79493.101563, 82567.921875, 156905.687500, 125938.820313, 143420.359375, 98879.351563, 123576.085938, 143923.281250, 0.000, 0.000, 0.000,5.878782E-6,7.787253E-6,9.572024E-6,3.011329E-5,3.824752E-5, 14:47:59.700
79517.156250, 82591.343750, 156944.468750, 125966.851563, 143457.109375, 98939.453125, 123615.875000, 143968.078125, 0.000, 0.000, 0.000,5.878782E-6,7.787253E-6,9.572024E-6,3.011329E-5,3.824752E-5, 14:47:59.700
79453.679688, 82530.882813, 156893.953125, 126057.890625, 143413.609375, 99085.859375, 123625.976563, 143987.921875, 0.150, 0.184, 0.964,5.878782E-6,7.787253E-6,9.572024E-6,3.011329E-5,3.824752E-5, 14:47:59.701
79417.445313, 82495.656250, 156850.968750, 126048.320313, 143369.109375, 99053.718750, 123586.609375, 143947.484375, 0.000, 0.000, 0.000,5.878782E-6,7.787253E-6,9.572024E-6,3.011329E-5,3.824752E-5, 14:47:59.701
79472.539063, 82550.312500, 156893.109375, 125956.812500, 143406.125000, 98904.476563, 123570.187500, 143921.218750, 0.000, 0.000, 0.000,5.878782E-6,7.787253E-6,9.572024E-6,3.011329E-5,3.824752E-5, 14:47:59.702
79510.117188, 82588.593750, 156940.000000, 125954.601563, 143448.656250, 98914.398438, 123603.781250, 143954.031250, 0.000, 0.000, 0.000,5.878782E-6,7.787253E-6,9.572024E-6,3.011329E-5,3.824752E-5, 14:47:59.702
79458.523438, 82531.062500, 156896.921875, 126044.078125, 143414.218750, 99062.726563, 123623.601563, 143980.640625, 0.000, 0.000, 0.000,5.878782E-6,7.787253E-6,9.572024E-6,3.011329E-5,3.824752E-5, 14:47:59.703
79424.664063, 82493.984375, 156850.953125, 126058.695313, 143365.562500, 99068.429688, 123591.664063, 143953.281250, 0.000, 0.000, 0.000,5.878782E-6,7.787253E-6,9.572024E-6,3.011329E-5,3.824752E-5, 14:47:59.703
79478.687500, 82547.382813, 156892.125000, 125975.117188, 143394.640625, 98924.390625, 123567.789063, 143925.421875, 0.000, 0.000, 0.000,5.878782E-6,7.787253E-6,9.572024E-6,3.011329E-5,3.824752E-5, 14:47:59.704
79539.328125, 82606.101563, 156956.656250, 125953.437500, 143458.046875, 98896.359375, 123604.000000, 143955.093750, 0.000, 0.000, 0.000,5.878782E-6,7.787253E-6,9.572024E-6,3.011329E-5,3.824752E-5, 14:47:59.704
79482.312500, 82551.921875, 156914.203125, 126034.867188, 143425.343750, 99040.617188, 123623.070313, 143979.359375, 0.000, 0.000, 0.000,5.878782E-6,7.787253E-6,9.572024E-6,3.011329E-5,3.824752E-5, 14:47:59.705
79417.625000, 82491.054688, 156848.421875, 126066.117188, 143363.796875, 99076.851563, 123593.968750, 143949.781250, 0.000, 0.000, 0.000,5.878782E-6,7.787253E-6,9.572024E-6,3.011329E-5,3.824752E-5, 14:47:59.705
79455.132813, 82526.570313, 156871.843750, 125988.218750, 143380.156250, 98940.796875, 123563.812500, 143913.359375, 0.156, 0.186, 0.966,5.878782E-6,7.787253E-6,9.572024E-6,3.011329E-5,3.824752E-5, 14:47:59.706
79526.921875, 82595.906250, 156943.140625, 125946.015625, 143446.390625, 98878.460938, 123589.695313, 143934.609375, 0.000, 0.000, 0.000,5.878782E-6,7.787253E-6,9.572024E-6,3.011329E-5,3.824752E-5, 14:47:59.708
79494.578125, 82566.445313, 156932.421875, 126022.234375, 143439.250000, 99017.148438, 123623.000000, 143979.937500, 0.000, 0.000, 0.000,5.878782E-6,7.787253E-6,9.572024E-6,3.011329E-5,3.824752E-5, 14:47:59.709
79423.101563, 82493.515625, 156861.140625, 126075.460938, 143374.406250, 99096.117188, 123601.031250, 143966.781250, 0.000, 0.000, 0.000,5.878782E-6,7.787253E-6,9.572024E-6,3.011329E-5,3.824752E-5, 14:47:59.710
79445.984375, 82515.531250, 156863.703125, 126005.812500, 143375.890625, 98979.335938, 123569.601563, 143926.953125, 0.000, 0.000, 0.000,5.878782E-6,7.787253E-6,9.572024E-6,3.011329E-5,3.824752E-5, 14:47:59.712
79522.007813, 82592.289063, 156937.156250, 125941.726563, 143446.703125, 98882.328125, 123591.640625, 143939.500000, 0.000, 0.000, 0.000,5.878782E-6,7.787253E-6,9.572024E-6,3.011329E-5,3.824752E-5, 14:47:59.712
79501.328125, 82574.742188, 156935.093750, 126000.843750, 143449.250000, 98995.898438, 123624.429688, 143980.796875, 0.000, 0.000, 0.000,5.878782E-6,7.787253E-6,9.572024E-6,3.011329E-5,3.824752E-5, 14:47:59.713
79428.304688, 82501.312500, 156864.921875, 126071.296875, 143382.453125, 99101.796875, 123609.210938, 143975.671875, 0.000, 0.000, 0.000,5.878782E-6,7.787253E-6,9.572024E-6,3.011329E-5,3.824752E-5, 14:47:59.713
79438.367188, 82508.195313, 156864.296875, 126025.164063, 143375.578125, 99011.164063, 123581.273438, 143939.656250, 0.000, 0.000, 0.000,5.878782E-6,7.787253E-6,9.572024E-6,3.011329E-5,3.824752E-5, 14:47:59.714
79521.382813, 82583.320313, 156940.359375, 125952.835938, 143441.015625, 98888.742188, 123591.820313, 143939.890625, 0.000, 0.000, 0.000,5.878782E-6,7.787253E-6,9.572024E-6,3.011329E-5,3.824752E-5, 14:47:59.715
79528.890625, 82590.382813, 156958.453125, 125997.156250, 143464.593750, 98971.976563, 123629.882813, 143978.515625, 0.156, 0.182, 0.966,5.878782E-6,7.787253E-6,9.572024E-6,3.011329E-5,3.824752E-5, 14:47:59.715
79456.156250, 82529.093750, 156897.890625, 126080.015625, 143408.750000, 99099.671875, 123628.257813, 143984.546875, 0.000, 0.000, 0.000,5.878782E-6,7.787253E-6,9.572024E-6,3.011329E-5,3.824752E-5, 14:47:59.716
79435.015625, 82508.039063, 156867.156250, 126050.914063, 143373.296875, 99036.554688, 123588.179688, 143941.781250, 0.000, 0.000, 0.000,5.878782E-6,7.787253E-6,9.572024E-6,3.011329E-5,3.824752E-5, 14:47:59.716
79510.359375, 82580.617188, 156926.046875, 125961.398438, 143422.281250, 98891.804688, 123580.195313, 143927.328125, 0.000, 0.000, 0.000,5.878782E-6,7.787253E-6,9.572024E-6,3.011329E-5,3.824752E-5, 14:47:59.717
79533.296875, 82607.929688, 156963.375000, 125980.773438, 143462.546875, 98939.453125, 123620.070313, 143970.015625, 0.000, 0.000, 0.000,5.878782E-6,7.787253E-6,9.572024E-6,3.011329E-5,3.824752E-5, 14:47:59.717
79457.343750, 82534.554688, 156898.015625, 126062.718750, 143409.343750, 99081.320313, 123622.843750, 143982.359375, 0.000, 0.000, 0.000,5.878782E-6,7.787253E-6,9.572024E-6,3.011329E-5,3.824752E-5, 14:47:59.717
79425.851563, 82499.367188, 156853.156250, 126052.726563, 143364.703125, 99053.140625, 123582.367188, 143944.015625, 0.000, 0.000, 0.000,5.878782E-6,7.787253E-6,9.572024E-6,3.011329E-5,3.824752E-5, 14:47:59.718
79491.382813, 82562.132813, 156906.093750, 125964.617188, 143411.000000, 98908.187500, 123574.093750, 143923.796875, 0.000, 0.000, 0.000,5.878782E-6,7.787253E-6,9.572024E-6,3.011329E-5,3.824752E-5, 14:47:59.719
79533.898438, 82604.156250, 156955.984375, 125961.664063, 143462.953125, 98913.710938, 123609.726563, 143957.859375, 0.000, 0.000, 0.000,5.878782E-6,7.787253E-6,9.572024E-6,3.011329E-5,3.824752E-5, 14:47:59.719
79472.140625, 82540.562500, 156906.375000, 126048.343750, 143422.515625, 99058.906250, 123624.898438, 143981.125000, 0.160, 0.186, 0.968,5.878782E-6,7.787253E-6,9.572024E-6,3.011329E-5,3.824752E-5, 14:47:59.719
79421.757813, 82494.453125, 156849.203125, 126062.984375, 143364.171875, 99066.210938, 123588.515625, 143948.843750, 0.000, 0.000, 0.000,5.878782E-6,7.787253E-6,9.572024E-6,3.011329E-5,3.824752E-5, 14:47:59.719
79468.851563, 82543.445313, 156880.890625, 125975.429688, 143386.750000, 98919.875000, 123565.046875, 143917.046875, 0.000, 0.000, 0.000,5.878782E-6,7.787253E-6,9.572024E-6,3.011329E-5,3.824752E-5, 14:47:59.720
79528.843750, 82603.234375, 156946.875000, 125948.765625, 143448.078125, 98882.820313, 123597.945313, 143944.156250, 0.000, 0.000, 0.000,5.878782E-6,7.787253E-6,9.572024E-6,3.011329E-5,3.824752E-5, 14:47:59.720
79486.421875, 82562.132813, 156920.062500, 126035.359375, 143429.500000, 99030.117188, 123626.195313, 143980.234375, 0.000, 0.000, 0.000,5.878782E-6,7.787253E-6,9.572024E-6,3.011329E-5,3.824752E-5, 14:47:59.721
79419.765625, 82496.773438, 156852.046875, 126072.375000, 143366.078125, 99076.789063, 123600.093750, 143954.750000, 0.000, 0.000, 0.000,5.878782E-6,7.787253E-6,9.572024E-6,3.011329E-5,3.824752E-5, 14:47:59.722
79465.812500, 82538.195313, 156877.296875, 125994.390625, 143385.718750, 98945.937500, 123578.742188, 143922.984375, 0.000, 0.000, 0.000,5.878782E-6,7.787253E-6,9.572024E-6,3.011329E-5,3.824752E-5, 14:47:59.722
79538.968750, 82609.632813, 156951.656250, 125943.937500, 143455.812500, 98878.656250, 123603.195313, 143944.609375, 0.000, 0.000, 0.000,5.878782E-6,7.787253E-6,9.572024E-6,3.011329E-5,3.824752E-5, 14:47:59.722
79494.890625, 82568.812500, 156925.921875, 126009.453125, 143437.703125, 99004.390625, 123626.664063, 143978.218750, 0.000, 0.000, 0.000,5.878782E-6,7.787253E-6,9.572024E-6,3.011329E-5,3.824752E-5, 14:47:59.722
79427.812500, 82504.843750, 156859.484375, 126066.671875, 143376.468750, 99083.984375, 123606.976563, 143965.609375, 0.000, 0.000, 0.000,5.878782E-6,7.787253E-6,9.572024E-6,3.011329E-5,3.824752E-5, 14:47:59.723
79444.601563, 82520.851563, 156865.859375, 126008.734375, 143380.625000, 98974.976563, 123580.664063, 143927.640625, 0.168, 0.180, 0.966,5.878782E-6,7.787253E-6,9.572024E-6,3.011329E-5,3.824752E-5, 14:47:59.723
79513.062500, 82588.375000, 156929.953125, 125941.679688, 143428.656250, 98866.882813, 123579.328125, 143924.703125, 0.000, 0.000, 0.000,5.878782E-6,7.787253E-6,9.572024E-6,3.011329E-5,3.824752E-5, 14:47:59.723
79500.031250, 82576.750000, 156928.437500, 125995.664063, 143434.984375, 98971.578125, 123606.843750, 143964.421875, 0.000, 0.000, 0.000,5.878782E-6,7.787253E-6,9.572024E-6,3.011329E-5,3.824752E-5, 14:47:59.724
79438.210938, 82514.234375, 156865.468750, 126067.054688, 143379.625000, 99080.093750, 123600.781250, 143965.390625, 0.000, 0.000, 0.000,5.878782E-6,7.787253E-6,9.572024E-6,3.011329E-5,3.824752E-5, 14:47:59.724
79440.375000, 82515.687500, 156851.593750, 126021.546875, 143366.765625, 98995.515625, 123570.765625, 143926.156250, 0.000, 0.000, 0.000,5.878782E-6,7.787253E-6,9.572024E-6,3.011329E-5,3.824752E-5, 14:47:59.724
79515.632813, 82591.367188, 156916.296875, 125939.539063, 143425.312500, 98867.218750, 123574.500000, 143919.328125, 0.000, 0.000, 0.000,5.878782E-6,7.787253E-6,9.572024E-6,3.011329E-5,3.824752E-5, 14:47:59.725
79523.054688, 82601.851563, 156941.343750, 125976.820313, 143454.031250, 98950.250000, 123617.187500, 143965.921875, 0.000, 0.000, 0.000,5.878782E-6,7.787253E-6,9.572024E-6,3.011329E-5,3.824752E-5, 14:47:59.725
79446.765625, 82523.976563, 156876.921875, 126057.929688, 143397.484375, 99085.750000, 123618.195313, 143974.484375, 0.000, 0.000, 0.000,5.878782E-6,7.787253E-6,9.572024E-6,3.011329E-5,3.824752E-5, 14:47:59.725
79425.851563, 82498.898438, 156843.187500, 126030.687500, 143360.015625, 99025.625000, 123578.632813, 143931.968750, 0.000, 0.000, 0.000,5.878782E-6,7.787253E-6,9.572024E-6,3.011329E-5,3.824752E-5, 14:47:59.725
79499.992188, 82573.445313, 156906.093750, 125944.718750, 143416.046875, 98879.148438, 123575.171875, 143921.921875, 0.166, 0.174, 0.968,3.7435777E-5,5.2547497E-5,6.5370725E-5,1.8182259E-4,1.9774331E-4, 14:47:59.762
79529.984375, 82604.648438, 156947.281250, 125961.976563, 143460.625000, 98921.640625, 123618.867188, 143965.656250, 0.000, 0.000, 0.000,3.7435777E-5,5.2547497E-5,6.5370725E-5,1.8182259E-4,1.9774331E-4, 14:47:59.763
79455.460938, 82534.617188, 156884.937500, 126047.898438, 143409.875000, 99066.484375, 123623.250000, 143978.359375, 0.000, 0.000, 0.000,3.7435777E-5,5.2547497E-5,6.5370725E-5,1.8182259E-4,1.9774331E-4, 14:47:59.763
79416.687500, 82496.125000, 156835.484375, 126042.085938, 143359.703125, 99042.632813, 123583.171875, 143937.921875, 0.000, 0.000, 0.000,3.7435777E-5,5.2547497E-5,6.5370725E-5,1.8182259E-4,1.9774331E-4, 14:47:59.764
79488.968750, 82564.500000, 156892.187500, 125953.640625, 143408.203125, 98898.710938, 123573.781250, 143918.765625, 0.000, 0.000, 0.000,3.7435777E-5,5.2547497E-5,6.5370725E-5,1.8182259E-4,1.9774331E-4, 14:47:59.764
79530.234375, 82605.000000, 156945.828125, 125946.914063, 143457.421875, 98897.679688, 123606.929688, 143948.921875, 0.000, 0.000, 0.000,3.7435777E-5,5.2547497E-5,6.5370725E-5,1.8182259E-4,1.9774331E-4, 14:47:59.765
79473.726563, 82556.007813, 156905.734375, 126038.015625, 143418.953125, 99042.226563, 123617.367188, 143972.093750, 0.000, 0.000, 0.000,3.7435777E-5,5.2547497E-5,6.5370725E-5,1.8182259E-4,1.9774331E-4, 14:47:59.766
79421.023438, 82505.562500, 156850.046875, 126063.500000, 143366.453125, 99065.382813, 123589.007813, 143942.187500, 0.000, 0.000, 0.000,3.7435777E-5,5.2547497E-5,6.5370725E-5,1.8182259E-4,1.9774331E-4, 14:47:59.767
79468.945313, 82547.445313, 156881.234375, 125978.695313, 143390.390625, 98923.164063, 123567.992188, 143910.828125, 0.000, 0.000, 0.000,3.7435777E-5,5.2547497E-5,6.5370725E-5,1.8182259E-4,1.9774331E-4, 14:47:59.768
79527.750000, 82605.585938, 156946.250000, 125946.468750, 143449.781250, 98879.953125, 123596.421875, 143936.171875, 0.000, 0.000, 0.000,3.7435777E-5,5.2547497E-5,6.5370725E-5,1.8182259E-4,1.9774331E-4, 14:47:59.768
79478.507813, 82557.414063, 156912.765625, 126027.156250, 143426.609375, 99020.640625, 123619.265625, 143968.343750, 0.162, 0.176, 0.968,3.7435777E-5,5.2547497E-5,6.5370725E-5,1.8182259E-4,1.9774331E-4, 14:47:59.768
79410.695313, 82491.773438, 156841.765625, 126070.828125, 143359.296875, 99073.750000, 123589.539063, 143946.843750, 0.000, 0.000, 0.000,3.7435777E-5,5.2547497E-5,6.5370725E-5,1.8182259E-4,1.9774331E-4, 14:47:59.769
79450.164063, 82533.812500, 156864.765625, 125997.781250, 143375.343750, 98943.031250, 123566.515625, 143916.265625, 0.000, 0.000, 0.000,3.7435777E-5,5.2547497E-5,6.5370725E-5,1.8182259E-4,1.9774331E-4, 14:47:59.769
79521.312500, 82603.750000, 156939.453125, 125948.812500, 143441.875000, 98867.437500, 123591.421875, 143933.000000, 0.000, 0.000, 0.000,3.7435777E-5,5.2547497E-5,6.5370725E-5,1.8182259E-4,1.9774331E-4, 14:47:59.770
79498.468750, 82578.781250, 156931.390625, 126020.382813, 143443.234375, 98998.171875, 123627.296875, 143975.625000, 0.000, 0.000, 0.000,3.7435777E-5,5.2547497E-5,6.5370725E-5,1.8182259E-4,1.9774331E-4, 14:47:59.770
79425.851563, 82508.984375, 156861.031250, 126079.187500, 143381.234375, 99088.835938, 123608.742188, 143965.609375, 0.000, 0.000, 0.000,3.7435777E-5,5.2547497E-5,6.5370725E-5,1.8182259E-4,1.9774331E-4, 14:47:59.770
79437.335938, 82517.609375, 156855.375000, 126018.257813, 143372.281250, 98979.820313, 123570.812500, 143921.687500, 0.000, 0.000, 0.000,3.7435777E-5,5.2547497E-5,6.5370725E-5,1.8182259E-4,1.9774331E-4, 14:47:59.771
79509.445313, 82582.296875, 156921.828125, 125946.132813, 143429.546875, 98870.726563, 123578.859375, 143921.625000, 0.000, 0.000, 0.000,3.7435777E-5,5.2547497E-5,6.5370725E-5,1.8182259E-4,1.9774331E-4, 14:47:59.771
79500.968750, 82574.742188, 156925.125000, 125997.179688, 143437.593750, 98972.312500, 123612.671875, 143961.203125, 0.000, 0.000, 0.000,3.7435777E-5,5.2547497E-5,6.5370725E-5,1.8182259E-4,1.9774331E-4, 14:47:59.771
79428.664063, 82505.250000, 156857.421875, 126071.609375, 143379.187500, 99085.328125, 123607.804688, 143961.406250, 0.156, 0.172, 0.964,3.7435777E-5,5.2547497E-5,6.5370725E-5,1.8182259E-4,1.9774331E-4, 14:47:59.772
79421.601563, 82501.851563, 156837.765625, 126031.226563, 143357.531250, 99005.148438, 123571.593750, 143919.609375, 0.000, 0.000, 0.000,3.7435777E-5,5.2547497E-5,6.5370725E-5,1.8182259E-4,1.9774331E-4, 14:47:59.772
79491.476563, 82573.890625, 156900.437500, 125951.984375, 143412.078125, 98874.968750, 123572.265625, 143911.171875, 0.000, 0.000, 0.000,3.7435777E-5,5.2547497E-5,6.5370725E-5,1.8182259E-4,1.9774331E-4, 14:47:59.773
79498.312500, 82582.671875, 156922.078125, 125983.500000, 143433.906250, 98939.703125, 123604.335938, 143948.968750, 0.000, 0.000, 0.000,3.7435777E-5,5.2547497E-5,6.5370725E-5,1.8182259E-4,1.9774331E-4, 14:47:59.773
79426.046875, 82512.843750, 156859.546875, 126066.625000, 143380.046875, 99072.250000, 123605.343750, 143958.187500, 0.000, 0.000, 0.000,0.0,0.0,0.0,0.0,0.0, 14:48:00.225
79406.265625, 82489.179688, 156827.750000, 126048.500000, 143350.625000, 99025.039063, 123573.265625, 143920.171875, 0.000, 0.000, 0.000,0.0,0.0,0.0,0.0,0.0, 14:48:00.226
79470.867188, 82554.531250, 156882.687500, 125960.140625, 143398.296875, 98883.265625, 123564.101563, 143901.234375, 0.000, 0.000, 0.000,0.0,0.0,0.0,0.0,0.0, 14:48:00.226
79501.375000, 82587.500000, 156921.375000, 125966.312500, 143435.093750, 98907.492188, 123593.992188, 143934.984375, 0.000, 0.000, 0.000,0.0,0.0,0.0,0.0,0.0, 14:48:00.226
79438.812500, 82523.171875, 156869.859375, 126052.859375, 143390.281250, 99055.351563, 123606.531250, 143956.312500, 0.000, 0.000, 0.000,0.0,0.0,0.0,0.0,0.0, 14:48:00.227
79393.101563, 82478.851563, 156820.437500, 126053.976563, 143340.296875, 99045.781250, 123571.460938, 143921.171875, 0.000, 0.000, 0.000,0.0,0.0,0.0,0.0,0.0, 14:48:00.227
79447.171875, 82534.726563, 156863.515625, 125966.132813, 143372.171875, 98897.234375, 123550.875000, 143891.421875, 0.156, 0.178, 0.962,0.0,0.0,0.0,0.0,0.0, 14:48:00.228
79504.593750, 82584.976563, 156924.593750, 125956.281250, 143430.796875, 98884.359375, 123587.867188, 143925.375000, 0.000, 0.000, 0.000,0.0,0.0,0.0,0.0,0.0, 14:48:00.228
79449.070313, 82530.484375, 156882.796875, 126041.101563, 143395.984375, 99029.804688, 123603.710938, 143951.062500, 0.000, 0.000, 0.000,0.0,0.0,0.0,0.0,0.0, 14:48:00.228
79394.335938, 82478.070313, 156820.187500, 126063.367188, 143333.593750, 99054.679688, 123565.445313, 143919.062500, 0.000, 0.000, 0.000,0.0,0.0,0.0,0.0,0.0, 14:48:00.229
79435.351563, 82521.007813, 156849.062500, 125980.148438, 143352.640625, 98917.015625, 123540.414063, 143887.718750, 0.000, 0.000, 0.000,0.0,0.0,0.0,0.0,0.0, 14:48:00.230
79495.476563, 82581.109375, 156912.453125, 125942.328125, 143415.843750, 98866.726563, 123570.429688, 143914.093750, 0.000, 0.000, 0.000,0.0,0.0,0.0,0.0,0.0, 14:48:00.231
79468.828125, 82548.703125, 156894.281250, 126023.867188, 143411.890625, 99008.773438, 123605.453125, 143960.296875, 0.000, 0.000, 0.000,0.0,0.0,0.0,0.0,0.0, 14:48:00.231
79404.148438, 82487.789063, 156826.359375, 126068.703125, 143350.046875, 99071.351563, 123578.343750, 143939.687500, 0.000, 0.000, 0.000,0.0,0.0,0.0,0.0,0.0, 14:48:00.232
79428.617188, 82517.515625, 156839.140625, 125997.296875, 143355.968750, 98948.085938, 123549.218750, 143896.859375, 0.000, 0.000, 0.000,0.0,0.0,0.0,0.0,0.0, 14:48:00.233
79503.343750, 82584.554688, 156906.687500, 125939.226563, 143418.953125, 98858.296875, 123568.421875, 143905.312500, 0.000, 0.000, 0.000,0.0,0.0,0.0,0.0,0.0, 14:48:00.234
79482.640625, 82565.507813, 156897.859375, 126002.968750, 143418.375000, 98980.203125, 123599.289063, 143945.546875, 0.158, 0.182, 0.964,0.0,0.0,0.0,0.0,0.0, 14:48:00.234
79402.085938, 82485.351563, 156817.625000, 126061.976563, 143339.296875, 99069.273438, 123570.812500, 143924.640625, 0.000, 0.000, 0.000,0.0,0.0,0.0,0.0,0.0, 14:48:00.234
79409.554688, 82492.460938, 156810.765625, 126004.312500, 143325.546875, 98962.054688, 123533.820313, 143880.671875, 0.000, 0.000, 0.000,0.0,0.0,0.0,0.0,0.0, 14:48:00.234
79491.898438, 82573.375000, 156884.750000, 125932.851563, 143392.843750, 98844.929688, 123546.960938, 143883.890625, 0.000, 0.000, 0.000,0.0,0.0,0.0,0.0,0.0, 14:48:00.235
79494.218750, 82578.718750, 156907.703125, 125987.500000, 143420.609375, 98946.296875, 123594.656250, 143934.984375, 0.000, 0.000, 0.000,0.0,0.0,0.0,0.0,0.0, 14:48:00.236
79413.781250, 82504.062500, 156836.578125, 126064.750000, 143355.562500, 99066.992188, 123586.031250, 143936.421875, 0.000, 0.000, 0.000,0.0,0.0,0.0,0.0,0.0, 14:48:00.236
79402.601563, 82493.492188, 156813.234375, 126027.046875, 143325.843750, 98992.945313, 123544.257813, 143894.640625, 0.000, 0.000, 0.000,0.0,0.0,0.0,0.0,0.0, 14:48:00.237
79482.195313, 82570.382813, 156881.187500, 125946.132813, 143387.031250, 98858.343750, 123547.164063, 143889.437500, 0.000, 0.000, 0.000,0.0,0.0,0.0,0.0,0.0, 14:48:00.237
79500.390625, 82590.898438, 156916.687500, 125978.382813, 143423.421875, 98923.273438, 123587.773438, 143936.250000, 0.000, 0.000, 0.000,0.0,0.0,0.0,0.0,0.0, 14:48:00.238
79426.718750, 82513.492188, 156853.000000, 126062.429688, 143365.843750, 99060.445313, 123589.515625, 143945.984375, 0.152, 0.188, 0.966,0.0,0.0,0.0,0.0,0.0, 14:48:00.238
79395.492188, 82482.382813, 156816.218750, 126046.710938, 143329.421875, 99022.671875, 123555.632813, 143907.250000, 0.000, 0.000, 0.000,0.0,0.0,0.0,0.0,0.0, 14:48:00.238
79456.226563, 82547.492188, 156870.640625, 125958.132813, 143377.031250, 98879.351563, 123548.187500, 143889.812500, 0.000, 0.000, 0.000,0.0,0.0,0.0,0.0,0.0, 14:48:00.239
79495.179688, 82586.875000, 156918.000000, 125965.914063, 143424.390625, 98903.046875, 123586.726563, 143928.437500, 0.000, 0.000, 0.000,0.0,0.0,0.0,0.0,0.0, 14:48:00.239
79432.664063, 82520.492188, 156863.984375, 126053.125000, 143378.796875, 99049.023438, 123596.132813, 143946.859375, 0.000, 0.000, 0.000,0.0,0.0,0.0,0.0,0.0, 14:48:00.240
79384.765625, 82476.015625, 156809.531250, 126057.281250, 143321.765625, 99042.742188, 123556.015625, 143909.437500, 0.000, 0.000, 0.000,0.0,0.0,0.0,0.0,0.0, 14:48:00.240
79441.117188, 82533.320313, 156852.015625, 125969.757813, 143354.984375, 98894.617188, 123538.468750, 143884.796875, 0.000, 0.000, 0.000,0.0,0.0,0.0,0.0,0.0, 14:48:00.241
79497.617188, 82587.570313, 156914.890625, 125951.539063, 143414.468750, 98875.554688, 123572.867188, 143917.890625, 0.000, 0.000, 0.000,0.0,0.0,0.0,0.0,0.0, 14:48:00.241
79446.453125, 82536.226563, 156878.796875, 126036.453125, 143386.031250, 99020.015625, 123590.812500, 143946.765625, 0.000, 0.000, 0.000,0.0,0.0,0.0,0.0,0.0, 14:48:00.242
79389.796875, 82481.890625, 156822.000000, 126069.554688, 143331.031250, 99058.500000, 123564.328125, 143925.250000, 0.000, 0.000, 0.000,0.0,0.0,0.0,0.0,0.0, 14:48:00.242
79434.093750, 82524.203125, 156853.265625, 125993.960938, 143353.406250, 98925.757813, 123543.695313, 143891.515625, 0.154, 0.188, 0.962,0.0,0.0,0.0,0.0,0.0, 14:48:00.243
79505.867188, 82592.664063, 156922.703125, 125954.531250, 143412.000000, 98865.828125, 123566.453125, 143910.296875, 0.000, 0.000, 0.000,0.0,0.0,0.0,0.0,0.0, 14:48:00.243
79467.492188, 82557.148438, 156901.734375, 126033.500000, 143397.515625, 99004.078125, 123595.757813, 143947.781250, 0.000, 0.000, 0.000,0.0,0.0,0.0,0.0,0.0, 14:48:00.244
79396.007813, 82487.593750, 156830.828125, 126082.250000, 143331.875000, 99074.125000, 123567.750000, 143929.500000, 0.000, 0.000, 0.000,0.0,0.0,0.0,0.0,0.0, 14:48:00.244
79412.546875, 82504.195313, 156837.640625, 126014.187500, 143332.718750, 98950.070313, 123534.039063, 143888.796875, 0.000, 0.000, 0.000,0.0,0.0,0.0,0.0,0.0, 14:48:00.244
79489.820313, 82579.210938, 156913.906250, 125956.453125, 143399.265625, 98852.867188, 123552.570313, 143899.468750, 0.000, 0.000, 0.000,0.0,0.0,0.0,0.0,0.0, 14:48:00.245
79478.843750, 82567.226563, 156916.687500, 126018.929688, 143408.265625, 98971.148438, 123590.460938, 143941.859375, 0.000, 0.000, 0.000,0.0,0.0,0.0,0.0,0.0, 14:48:00.245
79409.015625, 82500.085938, 156853.109375, 126086.031250, 143353.562500, 99079.265625, 123582.765625, 143940.843750, 0.000, 0.000, 0.000,0.0,0.0,0.0,0.0,0.0, 14:48:00.246
79408.812500, 82497.085938, 156838.468750, 126030.890625, 143336.140625, 98982.234375, 123543.765625, 143895.265625, 0.000, 0.000, 0.000,0.0,0.0,0.0,0.0,0.0, 14:48:00.246
79483.046875, 82569.265625, 156902.531250, 125951.695313, 143395.640625, 98860.867188, 123548.054688, 143891.859375, 0.160, 0.194, 0.960,0.0,0.0,0.0,0.0,0.0, 14:48:00.247
79482.843750, 82570.718750, 156916.109375, 125994.718750, 143413.750000, 98949.671875, 123584.000000, 143933.421875, 0.000, 0.000, 0.000,0.0,0.0,0.0,0.0,0.0, 14:48:00.247
79410.984375, 82497.875000, 156848.218750, 126072.437500, 143351.656250, 99073.523438, 123578.296875, 143939.062500, 0.000, 0.000, 0.000,0.0,0.0,0.0,0.0,0.0, 14:48:00.248
79401.015625, 82485.398438, 156821.421875, 126038.796875, 143320.781250, 99002.085938, 123537.570313, 143896.296875, 0.000, 0.000, 0.000,0.0,0.0,0.0,0.0,0.0, 14:48:00.248
79471.242188, 82554.984375, 156881.953125, 125954.687500, 143370.796875, 98861.117188, 123531.601563, 143881.218750, 0.000, 0.000, 0.000,0.0,0.0,0.0,0.0,0.0, 14:48:00.249
79495.164063, 82584.125000, 156920.218750, 125978.960938, 143410.781250, 98916.101563, 123575.484375, 143927.500000, 0.000, 0.000, 0.000,0.0,0.0,0.0,0.0,0.0, 14:48:00.250
79424.304688, 82517.945313, 156862.328125, 126063.992188, 143360.000000, 99059.953125, 123581.625000, 143943.359375, 0.000, 0.000, 0.000,0.0,0.0,0.0,0.0,0.0, 14:48:00.250
79397.015625, 82487.703125, 156824.375000, 126055.406250, 143321.343750, 99032.570313, 123547.718750, 143906.812500, 0.000, 0.000, 0.000,0.0,0.0,0.0,0.0,0.0, 14:48:00.251
79460.648438, 82546.976563, 156872.343750, 125967.921875, 143361.734375, 98884.046875, 123533.148438, 143880.546875, 0.000, 0.000, 0.000,0.0,0.0,0.0,0.0,0.0, 14:48:00.251
79502.671875, 82591.546875, 156922.203125, 125966.179688, 143409.015625, 98891.156250, 123566.226563, 143915.750000, 0.000, 0.000, 0.000,0.0,0.0,0.0,0.0,0.0, 14:48:00.252
79435.437500, 82528.132813, 156872.218750, 126053.062500, 143366.453125, 99041.289063, 123580.960938, 143940.890625, 0.162, 0.198, 0.964,0.0,0.0,0.0,0.0,0.0, 14:48:00.252
79383.046875, 82479.921875, 156815.656250, 126062.203125, 143313.687500, 99048.195313, 123549.976563, 143910.781250, 0.000, 0.000, 0.000,0.0,0.0,0.0,0.0,0.0, 14:48:00.253
79430.382813, 82524.093750, 156848.421875, 125974.070313, 143342.781250, 98905.101563, 123530.578125, 143880.296875, 0.000, 0.000, 0.000,0.0,0.0,0.0,0.0,0.0, 14:48:00.254
79489.234375, 82581.687500, 156911.828125, 125949.820313, 143402.734375, 98874.703125, 123559.367188, 143909.265625, 0.000, 0.000, 0.000,0.0,0.0,0.0,0.0,0.0, 14:48:00.254
79445.296875, 82537.320313, 156880.734375, 126032.992188, 143380.250000, 99018.804688, 123585.453125, 143942.234375, 0.000, 0.000, 0.000,0.0,0.0,0.0,0.0,0.0, 14:48:00.255
79384.945313, 82479.093750, 156818.203125, 126063.007813, 143321.531250, 99057.093750, 123558.625000, 143915.203125, 0.000, 0.000, 0.000,0.0,0.0,0.0,0.0,0.0, 14:48:00.255
79421.265625, 82515.734375, 156844.218750, 125986.898438, 143342.578125, 98924.304688, 123538.039063, 143883.000000, 0.000, 0.000, 0.000,0.0,0.0,0.0,0.0,0.0, 14:48:00.256
79495.140625, 82583.632813, 156916.812500, 125946.796875, 143412.468750, 98858.187500, 123569.492188, 143903.593750, 0.000, 0.000, 0.000,0.0,0.0,0.0,0.0,0.0, 14:48:00.257
79465.921875, 82551.828125, 156901.937500, 126025.234375, 143404.453125, 98995.023438, 123602.507813, 143947.828125, 0.000, 0.000, 0.000,0.0,0.0,0.0,0.0,0.0, 14:48:00.257
79397.148438, 82486.609375, 156833.562500, 126077.226563, 143339.250000, 99071.109375, 123577.132813, 143935.750000, 0.158, 0.190, 0.962,0.0,0.0,0.0,0.0,0.0, 14:48:00.258
79408.281250, 82499.773438, 156833.843750, 126007.906250, 143334.109375, 98951.882813, 123539.609375, 143890.921875, 0.000, 0.000, 0.000,0.0,0.0,0.0,0.0,0.0, 14:48:00.258
79485.531250, 82573.195313, 156906.046875, 125945.750000, 143400.109375, 98848.906250, 123555.835938, 143899.500000, 0.000, 0.000, 0.000,0.0,0.0,0.0,0.0,0.0, 14:48:00.259
79471.781250, 82559.382813, 156908.234375, 126005.007813, 143408.390625, 98963.710938, 123593.656250, 143946.406250, 0.000, 0.000, 0.000,0.0,0.0,0.0,0.0,0.0, 14:48:00.259
79399.718750, 82489.445313, 156838.968750, 126069.687500, 143344.765625, 99070.859375, 123581.984375, 143941.937500, 0.000, 0.000, 0.000,0.0,0.0,0.0,0.0,0.0, 14:48:00.259
79416.210938, 82502.296875, 156837.843750, 126026.375000, 143342.015625, 98984.632813, 123558.562500, 143910.828125, 0.000, 0.000, 0.000,0.0,0.0,0.0,0.0,0.0, 14:48:00.260
79479.132813, 82563.539063, 156892.718750, 125945.820313, 143389.187500, 98855.414063, 123552.992188, 143897.781250, 0.000, 0.000, 0.000,0.0,0.0,0.0,0.0,0.0, 14:48:00.260
79485.414063, 82572.484375, 156911.468750, 125985.539063, 143411.718750, 98936.281250, 123589.429688, 143938.343750, 0.000, 0.000, 0.000,0.0,0.0,0.0,0.0,0.0, 14:48:00.261
79405.484375, 82497.023438, 156841.468750, 126066.000000, 143352.375000, 99064.937500, 123585.140625, 143938.203125, 0.000, 0.000, 0.000,0.0,0.0,0.0,0.0,0.0, 14:48:00.261
79386.554688, 82477.304688, 156809.468750, 126033.257813, 143315.953125, 98999.625000, 123543.515625, 143894.156250, 0.000, 0.000, 0.000,0.0,0.0,0.0,0.0,0.0, 14:48:00.261
79462.484375, 82552.921875, 156874.500000, 125946.531250, 143373.406250, 98859.351563, 123543.945313, 143884.921875, 0.162, 0.188, 0.962,0.0,0.0,0.0,0.0,0.0, 14:48:00.262
79497.195313, 82589.335938, 156920.625000, 125967.296875, 143420.984375, 98907.609375, 123590.773438, 143932.531250, 0.000, 0.000, 0.000,0.0,0.0,0.0,0.0,0.0, 14:48:00.262
79428.929688, 82524.156250, 156863.843750, 126055.164063, 143371.265625, 99051.390625, 123595.687500, 143949.718750, 0.000, 0.000, 0.000,0.0,0.0,0.0,0.0,0.0, 14:48:00.263
79389.726563, 82482.203125, 156814.734375, 126047.789063, 143321.734375, 99025.976563, 123557.039063, 143908.421875, 0.000, 0.000, 0.000,0.0,0.0,0.0,0.0,0.0, 14:48:00.263
79455.867188, 82545.570313, 156865.703125, 125962.132813, 143364.890625, 98877.968750, 123544.460938, 143884.234375, 0.000, 0.000, 0.000,0.0,0.0,0.0,0.0,0.0, 14:48:00.264
79509.734375, 82597.539063, 156924.343750, 125961.148438, 143421.953125, 98881.164063, 123582.765625, 143925.156250, 0.000, 0.000, 0.000,0.0,0.0,0.0,0.0,0.0, 14:48:00.264
79450.078125, 82539.828125, 156880.031250, 126049.125000, 143386.843750, 99030.945313, 123599.445313, 143954.171875, 0.000, 0.000, 0.000,0.0,0.0,0.0,0.0,0.0, 14:48:00.265
79390.171875, 82481.531250, 156814.484375, 126061.890625, 143320.921875, 99041.851563, 123559.726563, 143915.921875, 0.000, 0.000, 0.000,0.0,0.0,0.0,0.0,0.0, 14:48:00.265
79440.625000, 82529.390625, 156848.046875, 125974.453125, 143352.296875, 98897.812500, 123547.273438, 143885.578125, 0.000, 0.000, 0.000,0.0,0.0,0.0,0.0,0.0, 14:48:00.266
79498.085938, 82587.476563, 156912.171875, 125945.773438, 143413.890625, 98862.500000, 123578.656250, 143912.781250, 0.000, 0.000, 0.000,0.0,0.0,0.0,0.0,0.0, 14:48:00.266
79442.968750, 82537.726563, 156879.718750, 126022.929688, 143388.562500, 99007.070313, 123598.992188, 143946.562500, 0.160, 0.196, 0.968,0.0,0.0,0.0,0.0,0.0, 14:48:00.267
79390.757813, 82480.414063, 156832.531250, 126066.406250, 143345.156250, 99068.601563, 123588.132813, 143937.359375, 0.000, 0.000, 0.000,0.0,0.0,0.0,0.0,0.0, 14:48:00.267
79435.390625, 82519.773438, 156856.890625, 125993.335938, 143362.437500, 98943.546875, 123563.726563, 143904.640625, 0.000, 0.000, 0.000,0.0,0.0,0.0,0.0,0.0, 14:48:00.268
79507.078125, 82587.789063, 156915.968750, 125937.257813, 143416.703125, 98860.804688, 123574.343750, 143911.343750, 0.000, 0.000, 0.000,0.0,0.0,0.0,0.0,0.0, 14:48:00.268
79465.742188, 82543.914063, 156892.437500, 126000.960938, 143399.531250, 98983.984375, 123595.929688, 143942.015625, 0.000, 0.000, 0.000,0.0,0.0,0.0,0.0,0.0, 14:48:00.268
79388.054688, 82461.882813, 156821.843750, 126055.007813, 143335.968750, 99065.070313, 123575.101563, 143928.171875, 0.000, 0.000, 0.000,0.0,0.0,0.0,0.0,0.0, 14:48:00.269
79406.289063, 82476.593750, 156826.140625, 125990.609375, 143337.000000, 98953.273438, 123542.757813, 143891.156250, 0.000, 0.000, 0.000,0.0,0.0,0.0,0.0,0.0, 14:48:00.270
79483.937500, 82550.265625, 156900.796875, 125925.078125, 143406.375000, 98847.882813, 123559.742188, 143901.015625, 0.000, 0.000, 0.000,0.0,0.0,0.0,0.0,0.0, 14:48:00.275
79465.945313, 82531.492188, 156907.250000, 125980.617188, 143422.437500, 98956.265625, 123601.562500, 143945.500000, 0.000, 0.000, 0.000,0.0,0.0,0.0,0.0,0.0, 14:48:00.275
79371.132813, 82434.664063, 156823.609375, 126045.414063, 143349.015625, 99062.187500, 123580.914063, 143931.234375, 0.158, 0.194, 0.962,0.0,0.0,0.0,0.0,0.0, 14:48:00.276
79365.765625, 82426.054688, 156805.687500, 125995.171875, 143328.703125, 98972.914063, 123542.578125, 143885.781250, 0.000, 0.000, 0.000,0.0,0.0,0.0,0.0,0.0, 14:48:00.276
79438.812500, 82494.898438, 156876.359375, 125915.640625, 143392.812500, 98845.468750, 123549.953125, 143882.531250, 0.000, 0.000, 0.000,0.0,0.0,0.0,0.0,0.0, 14:48:00.277
79441.359375, 82492.554688, 156894.265625, 125949.281250, 143418.640625, 98917.218750, 123587.148438, 143923.484375, 0.000, 0.000, 0.000,0.0,0.0,0.0,0.0,0.0, 14:48:00.277
79359.039063, 82410.632813, 156823.328125, 126027.000000, 143357.421875, 99047.460938, 123583.257813, 143928.515625, 0.000, 0.000, 0.000,0.0,0.0,0.0,0.0,0.0, 14:48:00.277
79333.960938, 82381.687500, 156787.046875, 126000.867188, 143320.203125, 98992.117188, 123543.632813, 143886.750000, 0.000, 0.000, 0.000,0.0,0.0,0.0,0.0,0.0, 14:48:00.277
79408.953125, 82454.914063, 156847.953125, 125914.281250, 143370.500000, 98852.710938, 123541.171875, 143878.906250, 0.000, 0.000, 0.000,0.0,0.0,0.0,0.0,0.0, 14:48:00.278
79437.515625, 82486.515625, 156889.218750, 125930.039063, 143414.078125, 98894.976563, 123582.007813, 143922.812500, 0.000, 0.000, 0.000,0.0,0.0,0.0,0.0,0.0, 14:48:00.278
79371.648438, 82423.531250, 156836.906250, 126017.187500, 143370.046875, 99037.984375, 123592.492188, 143944.203125, 0.000, 0.000, 0.000,0.0,0.0,0.0,0.0,0.0, 14:48:00.278
79329.265625, 82381.351563, 156788.234375, 126013.500000, 143320.453125, 99021.484375, 123556.570313, 143907.562500, 0.000, 0.000, 0.000,0.0,0.0,0.0,0.0,0.0, 14:48:00.278
79389.726563, 82439.312500, 156836.781250, 125927.507813, 143362.562500, 98874.992188, 123546.468750, 143884.515625, 0.156, 0.190, 0.966,0.0,0.0,0.0,0.0,0.0, 14:48:00.278
79442.585938, 82491.210938, 156896.703125, 125921.453125, 143418.718750, 98868.734375, 123586.789063, 143920.000000, 0.000, 0.000, 0.000,0.0,0.0,0.0,0.0,0.0, 14:48:00.279
79381.812500, 82438.976563, 156855.281250, 126006.414063, 143380.265625, 99015.695313, 123599.195313, 143946.015625, 0.000, 0.000, 0.000,0.0,0.0,0.0,0.0,0.0, 14:48:00.279
79331.164063, 82388.617188, 156796.453125, 126028.179688, 143321.703125, 99039.148438, 123566.453125, 143915.656250, 0.000, 0.000, 0.000,0.0,0.0,0.0,0.0,0.0, 14:48:00.279
79382.218750, 82436.070313, 156828.953125, 125949.257813, 143348.968750, 98900.968750, 123544.789063, 143888.968750, 0.000, 0.000, 0.000,0.0,0.0,0.0,0.0,0.0, 14:48:00.279
79436.507813, 82493.062500, 156892.750000, 125919.132813, 143407.265625, 98854.007813, 123572.351563, 143911.343750, 0.000, 0.000, 0.000,0.0,0.0,0.0,0.0,0.0, 14:48:00.280
79391.781250, 82451.382813, 156864.890625, 125996.601563, 143386.484375, 98989.835938, 123594.882813, 143943.421875, 0.000, 0.000, 0.000,0.0,0.0,0.0,0.0,0.0, 14:48:00.280
79332.687500, 82389.914063, 156802.828125, 126039.984375, 143326.562500, 99048.507813, 123570.632813, 143924.156250, 0.000, 0.000, 0.000,0.0,0.0,0.0,0.0,0.0, 14:48:00.280
79368.921875, 82420.578125, 156822.781250, 125968.148438, 143338.562500, 98923.789063, 123545.375000, 143888.968750, 0.000, 0.000, 0.000,0.0,0.0,0.0,0.0,0.0, 14:48:00.281
79440.531250, 82491.726563, 156895.453125, 125913.695313, 143403.843750, 98843.632813, 123570.203125, 143906.359375, 0.160, 0.192, 0.966,0.0,0.0,0.0,0.0,0.0, 14:48:00.282
79412.750000, 82466.000000, 156882.859375, 125979.812500, 143402.625000, 98969.851563, 123605.054688, 143948.921875, 0.000, 0.000, 0.000,0.0,0.0,0.0,0.0,0.0, 14:48:00.282
79337.804688, 82392.148438, 156812.546875, 126037.976563, 143334.468750, 99058.593750, 123584.351563, 143938.203125, 0.000, 0.000, 0.000,0.0,0.0,0.0,0.0,0.0, 14:48:00.283
79353.695313, 82405.804688, 156817.578125, 125981.828125, 143332.750000, 98953.406250, 123553.820313, 143899.921875, 0.000, 0.000, 0.000,0.0,0.0,0.0,0.0,0.0, 14:48:00.283
79427.617188, 82482.070313, 156886.531250, 125912.062500, 143394.843750, 98842.070313, 123563.367188, 143900.656250, 0.000, 0.000, 0.000,0.0,0.0,0.0,0.0,0.0, 14:48:00.283
79419.117188, 82479.406250, 156893.281250, 125961.039063, 143408.406250, 98942.718750, 123599.531250, 143943.593750, 0.000, 0.000, 0.000,0.0,0.0,0.0,0.0,0.0, 14:48:00.284
79346.078125, 82405.695313, 156825.828125, 126034.195313, 143345.234375, 99056.695313, 123583.750000, 143938.953125, 0.000, 0.000, 0.000,0.0,0.0,0.0,0.0,0.0, 14:48:00.284
79346.429688, 82401.515625, 156808.140625, 125994.390625, 143320.875000, 98977.500000, 123544.789063, 143899.546875, 0.000, 0.000, 0.000,0.0,0.0,0.0,0.0,0.0, 14:48:00.284
79428.914063, 82485.468750, 156883.562500, 125919.218750, 143386.406250, 98851.476563, 123555.273438, 143898.218750, 0.000, 0.000, 0.000,0.0,0.0,0.0,0.0,0.0, 14:48:00.285
79443.125000, 82501.539063, 156912.968750, 125952.703125, 143419.609375, 98922.578125, 123593.046875, 143940.468750, 0.000, 0.000, 0.000,0.0,0.0,0.0,0.0,0.0, 14:48:00.704
79368.875000, 82427.867188, 156847.328125, 126032.656250, 143365.203125, 99058.101563, 123595.062500, 143949.609375, 0.162, 0.190, 0.966,0.0,0.0,0.0,0.0,0.0, 14:48:00.705
79338.382813, 82398.273438, 156804.515625, 126010.125000, 143320.968750, 99008.703125, 123554.312500, 143905.265625, 0.000, 0.000, 0.000,0.0,0.0,0.0,0.0,0.0, 14:48:00.705
79411.343750, 82468.789063, 156862.718750, 125925.523438, 143369.984375, 98864.242188, 123547.070313, 143892.906250, 0.000, 0.000, 0.000,0.0,0.0,0.0,0.0,0.0, 14:48:00.705
79446.570313, 82502.562500, 156906.687500, 125934.257813, 143418.937500, 98893.859375, 123587.906250, 143932.953125, 0.000, 0.000, 0.000,0.0,0.0,0.0,0.0,0.0, 14:48:00.706
79382.125000, 82434.773438, 156851.187500, 126017.500000, 143375.703125, 99039.367188, 123598.031250, 143954.140625, 0.000, 0.000, 0.000,0.0,0.0,0.0,0.0,0.0, 14:48:00.706
79343.351563, 82398.984375, 156804.984375, 126021.992188, 143330.046875, 99031.773438, 123569.179688, 143922.859375, 0.000, 0.000, 0.000,0.0,0.0,0.0,0.0,0.0, 14:48:00.706
79395.156250, 82450.796875, 156847.906250, 125938.820313, 143359.328125, 98886.773438, 123550.601563, 143892.343750, 0.000, 0.000, 0.000,0.0,0.0,0.0,0.0,0.0, 14:48:00.706
79449.632813, 82504.171875, 156907.937500, 125925.367188, 143413.578125, 98870.929688, 123580.601563, 143923.093750, 0.000, 0.000, 0.000,0.0,0.0,0.0,0.0,0.0, 14:48:00.706
79402.695313, 82459.289063, 156874.546875, 126012.625000, 143390.343750, 99020.953125, 123604.406250, 143957.750000, 0.000, 0.000, 0.000,0.0,0.0,0.0,0.0,0.0, 14:48:00.706
79345.250000, 82407.679688, 156817.421875, 126038.484375, 143336.187500, 99051.929688, 123578.406250, 143933.515625, 0.156, 0.198, 0.964,0.0,0.0,0.0,0.0,0.0, 14:48:00.707
79385.812500, 82445.164063, 156844.046875, 125959.851563, 143356.640625, 98913.375000, 123555.007813, 143898.203125, 0.000, 0.000, 0.000,0.0,0.0,0.0,0.0,0.0, 14:48:00.707
79452.226563, 82508.867188, 156909.953125, 125924.625000, 143418.640625, 98858.703125, 123578.343750, 143919.718750, 0.000, 0.000, 0.000,0.0,0.0,0.0,0.0,0.0, 14:48:00.707
79411.656250, 82466.914063, 156884.500000, 126001.429688, 143403.765625, 98998.312500, 123605.343750, 143954.546875, 0.000, 0.000, 0.000,0.0,0.0,0.0,0.0,0.0, 14:48:00.708
79339.992188, 82396.171875, 156811.250000, 126039.492188, 143337.843750, 99056.179688, 123576.687500, 143929.343750, 0.000, 0.000, 0.000,0.0,0.0,0.0,0.0,0.0, 14:48:00.708
79368.117188, 82420.937500, 156825.625000, 125965.867188, 143343.937500, 98930.312500, 123547.609375, 143890.218750, 0.000, 0.000, 0.000,0.0,0.0,0.0,0.0,0.0, 14:48:00.708
79441.875000, 82492.554688, 156897.109375, 125910.523438, 143409.062500, 98840.148438, 123567.414063, 143901.625000, 0.000, 0.000, 0.000,0.0,0.0,0.0,0.0,0.0, 14:48:00.708
79425.000000, 82481.085938, 156896.359375, 125975.585938, 143415.421875, 98962.750000, 123607.781250, 143947.906250, 0.000, 0.000, 0.000,0.0,0.0,0.0,0.0,0.0, 14:48:00.709
79347.773438, 82411.281250, 156826.156250, 126037.617188, 143348.750000, 99061.320313, 123586.679688, 143937.109375, 0.000, 0.000, 0.000,0.0,0.0,0.0,0.0,0.0, 14:48:00.709
79352.648438, 82416.937500, 156816.609375, 125982.007813, 143332.546875, 98959.195313, 123546.132813, 143892.187500, 0.000, 0.000, 0.000,0.0,0.0,0.0,0.0,0.0, 14:48:00.710
79432.148438, 82492.750000, 156886.312500, 125913.718750, 143392.515625, 98842.226563, 123554.875000, 143893.343750, 0.154, 0.196, 0.960,0.0,0.0,0.0,0.0,0.0, 14:48:00.710
79414.468750, 82478.492188, 156884.718750, 125959.812500, 143397.921875, 98931.609375, 123584.445313, 143927.531250, 0.000, 0.000, 0.000,0.0,0.0,0.0,0.0,0.0, 14:48:00.710
79341.000000, 82409.625000, 156817.578125, 126032.718750, 143335.921875, 99050.968750, 123574.742188, 143928.687500, 0.000, 0.000, 0.000,0.0,0.0,0.0,0.0,0.0, 14:48:00.711
79332.710938, 82397.156250, 156802.687500, 125999.328125, 143316.406250, 98984.406250, 123542.156250, 143892.906250, 0.000, 0.000, 0.000,0.0,0.0,0.0,0.0,0.0, 14:48:00.712
79410.601563, 82466.601563, 156874.578125, 125921.992188, 143379.171875, 98851.304688, 123548.125000, 143890.109375, 0.000, 0.000, 0.000,0.0,0.0,0.0,0.0,0.0, 14:48:00.712
79436.015625, 82490.406250, 156906.218750, 125947.132813, 143413.062500, 98909.796875, 123586.296875, 143931.453125, 0.000, 0.000, 0.000,0.0,0.0,0.0,0.0,0.0, 14:48:00.712
79367.468750, 82425.320313, 156842.296875, 126025.921875, 143359.562500, 99046.320313, 123585.921875, 143941.296875, 0.000, 0.000, 0.000,0.0,0.0,0.0,0.0,0.0, 14:48:00.713
79341.265625, 82396.554688, 156810.875000, 126013.070313, 143328.250000, 99011.789063, 123556.351563, 143907.750000, 0.000, 0.000, 0.000,0.0,0.0,0.0,0.0,0.0, 14:48:00.713
79396.320313, 82446.531250, 156862.953125, 125927.687500, 143372.312500, 98867.617188, 123546.265625, 143887.203125, 0.000, 0.000, 0.000,0.0,0.0,0.0,0.0,0.0, 14:48:00.713
79434.429688, 82486.023438, 156905.171875, 125926.015625, 143417.109375, 98879.375000, 123579.750000, 143921.062500, 0.000, 0.000, 0.000,0.0,0.0,0.0,0.0,0.0, 14:48:00.714
79372.609375, 82426.437500, 156855.734375, 126011.578125, 143380.281250, 99028.484375, 123595.398438, 143948.156250, 0.158, 0.200, 0.960,0.0,0.0,0.0,0.0,0.0, 14:48:00.715
79321.062500, 82378.601563, 156801.812500, 126020.335938, 143328.562500, 99028.062500, 123562.429688, 143916.187500, 0.000, 0.000, 0.000,0.0,0.0,0.0,0.0,0.0, 14:48:00.715
79379.265625, 82433.007813, 156840.593750, 125935.671875, 143358.421875, 98880.445313, 123542.445313, 143885.140625, 0.000, 0.000, 0.000,0.0,0.0,0.0,0.0,0.0, 14:48:00.715
79431.656250, 82483.054688, 156895.781250, 125917.500000, 143411.531250, 98857.312500, 123572.554688, 143911.656250, 0.000, 0.000, 0.000,0.0,0.0,0.0,0.0,0.0, 14:48:00.715
79376.898438, 82428.671875, 156852.640625, 125995.593750, 143380.421875, 99000.117188, 123592.156250, 143941.562500, 0.000, 0.000, 0.000,0.0,0.0,0.0,0.0,0.0, 14:48:00.716
79317.554688, 82373.976563, 156793.390625, 126023.421875, 143325.187500, 99038.992188, 123566.968750, 143919.843750, 0.000, 0.000, 0.000,0.0,0.0,0.0,0.0,0.0, 14:48:00.716
79364.093750, 82419.039063, 156827.187500, 125948.476563, 143349.312500, 98906.734375, 123547.679688, 143891.890625, 0.000, 0.000, 0.000,0.0,0.0,0.0,0.0,0.0, 14:48:00.716
79429.515625, 82481.085938, 156893.328125, 125907.906250, 143411.406250, 98845.851563, 123573.601563, 143911.281250, 0.000, 0.000, 0.000,0.0,0.0,0.0,0.0,0.0, 14:48:00.717
79396.945313, 82452.632813, 156876.250000, 125983.546875, 143400.406250, 98986.414063, 123600.515625, 143952.812500, 0.000, 0.000, 0.000,0.0,0.0,0.0,0.0,0.0, 14:48:00.717
79326.093750, 82384.617188, 156805.125000, 126029.992188, 143332.515625, 99060.828125, 123575.281250, 143936.218750, 0.152, 0.204, 0.960,0.0,0.0,0.0,0.0,0.0, 14:48:00.717
79351.125000, 82408.468750, 156810.562500, 125960.632813, 143333.890625, 98937.625000, 123544.343750, 143895.750000, 0.000, 0.000, 0.000,0.0,0.0,0.0,0.0,0.0, 14:48:00.718
79419.632813, 82477.289063, 156874.578125, 125898.093750, 143389.437500, 98836.882813, 123552.414063, 143894.515625, 0.000, 0.000, 0.000,0.0,0.0,0.0,0.0,0.0, 14:48:00.718
79405.484375, 82463.851563, 156875.750000, 125960.320313, 143399.046875, 98953.562500, 123589.789063, 143937.984375, 0.000, 0.000, 0.000,0.0,0.0,0.0,0.0,0.0, 14:48:00.719
79338.765625, 82402.992188, 156814.171875, 126028.500000, 143346.453125, 99061.203125, 123585.718750, 143939.546875, 0.000, 0.000, 0.000,0.0,0.0,0.0,0.0,0.0, 14:48:00.719
79353.023438, 82415.414063, 156814.562500, 125983.304688, 143341.781250, 98973.007813, 123559.164063, 143906.937500, 0.000, 0.000, 0.000,0.0,0.0,0.0,0.0,0.0, 14:48:00.719
79422.070313, 82480.078125, 156878.187500, 125908.914063, 143394.125000, 98849.265625, 123564.398438, 143901.000000, 0.000, 0.000, 0.000,0.0,0.0,0.0,0.0,0.0, 14:48:00.720
79425.000000, 82481.195313, 156892.812500, 125951.718750, 143412.390625, 98930.070313, 123599.820313, 143940.468750, 0.000, 0.000, 0.000,0.0,0.0,0.0,0.0,0.0, 14:48:00.720
79346.945313, 82405.539063, 156830.546875, 126028.875000, 143357.828125, 99058.656250, 123596.515625, 143944.828125, 0.000, 0.000, 0.000,0.0,0.0,0.0,0.0,0.0, 14:48:00.721
79331.210938, 82391.546875, 156804.359375, 125996.265625, 143330.671875, 98995.960938, 123559.390625, 143902.890625, 0.000, 0.000, 0.000,0.0,0.0,0.0,0.0,0.0, 14:48:00.721
79399.562500, 82456.859375, 156865.921875, 125914.281250, 143381.187500, 98855.953125, 123555.898438, 143889.218750, 0.154, 0.214, 0.956,0.0,0.0,0.0,0.0,0.0, 14:48:00.722
79429.734375, 82487.992188, 156910.890625, 125939.578125, 143428.921875, 98906.445313, 123603.601563, 143937.968750, 0.000, 0.000, 0.000,0.0,0.0,0.0,0.0,0.0, 14:48:00.722
79357.765625, 82419.414063, 156855.531250, 126023.804688, 143384.578125, 99054.546875, 123611.914063, 143957.390625, 0.000, 0.000, 0.000,0.0,0.0,0.0,0.0,0.0, 14:48:00.722
79323.031250, 82385.148438, 156810.781250, 126009.609375, 143340.531250, 99025.648438, 123572.867188, 143919.796875, 0.000, 0.000, 0.000,0.0,0.0,0.0,0.0,0.0, 14:48:00.723
79386.937500, 82451.718750, 156860.000000, 125922.953125, 143378.859375, 98878.328125, 123555.882813, 143898.312500, 0.000, 0.000, 0.000,0.0,0.0,0.0,0.0,0.0, 14:48:00.723
79422.984375, 82490.562500, 156908.296875, 125925.921875, 143424.859375, 98888.226563, 123587.554688, 143935.437500, 0.000, 0.000, 0.000,0.0,0.0,0.0,0.0,0.0, 14:48:00.723
79365.585938, 82436.093750, 156863.468750, 126012.960938, 143386.875000, 99036.820313, 123600.250000, 143964.093750, 0.000, 0.000, 0.000,0.0,0.0,0.0,0.0,0.0, 14:48:00.724
79322.203125, 82386.898438, 156811.656250, 126027.421875, 143337.125000, 99051.218750, 123571.148438, 143936.265625, 0.000, 0.000, 0.000,0.0,0.0,0.0,0.0,0.0, 14:48:00.724
79380.359375, 82442.531250, 156852.484375, 125947.648438, 143369.875000, 98907.648438, 123553.710938, 143907.968750, 0.000, 0.000, 0.000,0.0,0.0,0.0,0.0,0.0, 14:48:00.724
79428.351563, 82489.867188, 156905.078125, 125923.937500, 143415.375000, 98874.078125, 123573.875000, 143927.390625, 0.150, 0.222, 0.956,0.0,0.0,0.0,0.0,0.0, 14:48:00.724
79376.453125, 82440.804688, 156867.000000, 125999.882813, 143385.390625, 99013.218750, 123594.570313, 143956.609375, 0.000, 0.000, 0.000,0.0,0.0,0.0,0.0,0.0, 14:48:00.724
79314.132813, 82382.046875, 156802.484375, 126030.906250, 143321.265625, 99057.343750, 123559.835938, 143931.531250, 0.000, 0.000, 0.000,0.0,0.0,0.0,0.0,0.0, 14:48:00.724
79362.078125, 82430.546875, 156832.578125, 125958.804688, 143346.921875, 98924.570313, 123540.367188, 143900.296875, 0.000, 0.000, 0.000,0.0,0.0,0.0,0.0,0.0, 14:48:00.725
79432.109375, 82497.179688, 156904.281250, 125920.578125, 143414.953125, 98858.054688, 123567.460938, 143917.875000, 0.000, 0.000, 0.000,0.0,0.0,0.0,0.0,0.0, 14:48:00.725
79408.835938, 82469.906250, 156888.234375, 125992.085938, 143408.312500, 98988.023438, 123597.007813, 143955.578125, 0.000, 0.000, 0.000,0.0,0.0,0.0,0.0,0.0, 14:48:00.725
79340.578125, 82404.148438, 156823.718750, 126043.695313, 143345.953125, 99068.898438, 123580.242188, 143943.234375, 0.000, 0.000, 0.000,0.0,0.0,0.0,0.0,0.0, 14:48:00.725
79351.843750, 82419.078125, 156821.390625, 125976.976563, 143337.078125, 98950.226563, 123543.320313, 143896.859375, 0.000, 0.000, 0.000,0.0,0.0,0.0,0.0,0.0, 14:48:00.725
79427.906250, 82494.023438, 156889.921875, 125913.984375, 143398.546875, 98847.031250, 123555.117188, 143903.125000, 0.000, 0.000, 0.000,0.0,0.0,0.0,0.0,0.0, 14:48:00.726
79417.218750, 82485.578125, 156896.515625, 125971.968750, 143407.687500, 98959.640625, 123590.320313, 143951.156250, 0.000, 0.000, 0.000,0.0,0.0,0.0,0.0,0.0, 14:48:00.726
79348.289063, 82417.492188, 156837.406250, 126041.148438, 143351.921875, 99071.976563, 123586.609375, 143957.015625, 0.150, 0.230, 0.956,0.0,0.0,0.0,0.0,0.0, 14:48:00.726
79352.062500, 82419.351563, 156828.703125, 125994.117188, 143338.531250, 98981.593750, 123551.406250, 143914.781250, 0.000, 0.000, 0.000,0.0,0.0,0.0,0.0,0.0, 14:48:00.726
79429.648438, 82491.281250, 156895.578125, 125918.257813, 143397.500000, 98850.945313, 123552.414063, 143904.078125, 0.000, 0.000, 0.000,0.0,0.0,0.0,0.0,0.0, 14:48:00.727
79432.148438, 82492.531250, 156911.828125, 125955.585938, 143419.218750, 98930.203125, 123590.210938, 143946.812500, 0.000, 0.000, 0.000,0.0,0.0,0.0,0.0,0.0, 14:48:00.727
79354.453125, 82415.218750, 156844.953125, 126034.398438, 143361.421875, 99063.109375, 123589.406250, 143952.968750, 0.000, 0.000, 0.000,0.0,0.0,0.0,0.0,0.0, 14:48:00.727
79338.320313, 82395.835938, 156815.921875, 126010.101563, 143331.625000, 99007.539063, 123553.265625, 143913.796875, 0.000, 0.000, 0.000,0.0,0.0,0.0,0.0,0.0, 14:48:00.728
79405.757813, 82463.585938, 156870.843750, 125925.992188, 143374.437500, 98860.507813, 123541.570313, 143894.468750, 0.000, 0.000, 0.000,0.0,0.0,0.0,0.0,0.0, 14:48:00.728
79436.148438, 82498.718750, 156916.375000, 125945.835938, 143421.781250, 98903.695313, 123585.960938, 143939.265625, 0.000, 0.000, 0.000,0.0,0.0,0.0,0.0,0.0, 14:48:00.729
79362.726563, 82428.421875, 156860.453125, 126028.828125, 143373.343750, 99049.046875, 123593.117188, 143956.359375, 0.000, 0.000, 0.000,0.0,0.0,0.0,0.0,0.0, 14:48:00.729
79333.218750, 82395.500000, 156819.312500, 126024.203125, 143331.578125, 99027.234375, 123560.820313, 143923.140625, 0.000, 0.000, 0.000,0.0,0.0,0.0,0.0,0.0, 14:48:00.729
79397.437500, 82455.585938, 156870.765625, 125940.835938, 143375.750000, 98881.117188, 123551.742188, 143902.203125, 0.142, 0.236, 0.948,0.0,0.0,0.0,0.0,0.0, 14:48:00.730
79440.804688, 82501.562500, 156925.000000, 125937.054688, 143429.265625, 98882.882813, 123586.726563, 143938.562500, 0.000, 0.000, 0.000,0.0,0.0,0.0,0.0,0.0, 14:48:00.730
79382.125000, 82448.898438, 156886.000000, 126023.445313, 143399.375000, 99034.984375, 123606.546875, 143969.437500, 0.000, 0.000, 0.000,0.0,0.0,0.0,0.0,0.0, 14:48:00.730
79329.960938, 82395.140625, 156828.656250, 126042.960938, 143340.875000, 99056.828125, 123571.031250, 143943.015625, 0.000, 0.000, 0.000,0.0,0.0,0.0,0.0,0.0, 14:48:00.731
79382.734375, 82439.109375, 156863.468750, 125964.164063, 143370.390625, 98917.257813, 123553.265625, 143915.375000, 0.000, 0.000, 0.000,0.0,0.0,0.0,0.0,0.0, 14:48:00.731
79433.937500, 82488.414063, 156918.968750, 125934.796875, 143423.890625, 98869.609375, 123577.382813, 143928.671875, 0.000, 0.000, 0.000,0.0,0.0,0.0,0.0,0.0, 14:48:00.732
79390.218750, 82453.523438, 156889.453125, 126010.054688, 143400.031250, 99006.242188, 123597.007813, 143960.812500, 0.000, 0.000, 0.000,0.0,0.0,0.0,0.0,0.0, 14:48:00.732
79334.093750, 82399.632813, 156832.171875, 126049.906250, 143343.812500, 99062.617188, 123575.437500, 143943.218750, 0.000, 0.000, 0.000,0.0,0.0,0.0,0.0,0.0, 14:48:00.733
79366.328125, 82429.453125, 156848.312500, 125975.703125, 143354.421875, 98932.593750, 123548.953125, 143906.671875, 0.000, 0.000, 0.000,0.0,0.0,0.0,0.0,0.0, 14:48:00.733
79432.914063, 82493.695313, 156913.375000, 125925.859375, 143411.453125, 98853.203125, 123565.781250, 143917.515625, 0.146, 0.242, 0.948,0.0,0.0,0.0,0.0,0.0, 14:48:00.733
79400.570313, 82463.492188, 156895.625000, 125988.843750, 143400.562500, 98977.570313, 123592.265625, 143954.546875, 0.000, 0.000, 0.000,0.0,0.0,0.0,0.0,0.0, 14:48:00.734
79333.312500, 82400.398438, 156829.125000, 126043.765625, 143342.812500, 99064.539063, 123577.851563, 143945.828125, 0.000, 0.000, 0.000,0.0,0.0,0.0,0.0,0.0, 14:48:00.734
79352.671875, 82416.625000, 156832.953125, 125984.890625, 143340.484375, 98956.132813, 123544.546875, 143906.046875, 0.000, 0.000, 0.000,0.0,0.0,0.0,0.0,0.0, 14:48:00.734
79426.273438, 82484.687500, 156901.125000, 125920.757813, 143403.921875, 98849.554688, 123559.117188, 143911.671875, 0.000, 0.000, 0.000,0.0,0.0,0.0,0.0,0.0, 14:48:00.734
79421.757813, 82484.148438, 156909.906250, 125975.906250, 143420.390625, 98955.640625, 123599.484375, 143958.500000, 0.000, 0.000, 0.000,0.0,0.0,0.0,0.0,0.0, 14:48:00.735
79351.570313, 82416.781250, 156844.906250, 126046.984375, 143361.671875, 99073.750000, 123592.710938, 143957.343750, 0.000, 0.000, 0.000,0.0,0.0,0.0,0.0,0.0, 14:48:00.735
79364.515625, 82427.445313, 156840.734375, 126008.875000, 143352.546875, 98995.359375, 123564.953125, 143923.859375, 0.000, 0.000, 0.000,0.0,0.0,0.0,0.0,0.0, 14:48:00.736
79440.687500, 82500.554688, 156904.640625, 125931.914063, 143401.281250, 98863.351563, 123558.851563, 143916.031250, 0.000, 0.000, 0.000,0.0,0.0,0.0,0.0,0.0, 14:48:00.736
79456.898438, 82514.296875, 156928.593750, 125969.398438, 143432.187500, 98934.789063, 123602.281250, 143956.984375, 0.000, 0.000, 0.000,0.0,0.0,0.0,0.0,0.0, 14:48:00.737
79389.078125, 82441.968750, 156869.609375, 126051.851563, 143381.718750, 99071.507813, 123606.773438, 143968.359375, 0.148, 0.246, 0.952,0.0,0.0,0.0,0.0,0.0, 14:48:00.738
79360.132813, 82418.859375, 156832.734375, 126025.656250, 143347.203125, 99017.351563, 123568.062500, 143928.843750, 0.000, 0.000, 0.000,0.0,0.0,0.0,0.0,0.0, 14:48:00.738
79444.445313, 82509.046875, 156894.218750, 125945.507813, 143398.890625, 98872.914063, 123566.179688, 143915.750000, 0.000, 0.000, 0.000,0.0,0.0,0.0,0.0,0.0, 14:48:00.738
79492.296875, 82552.859375, 156934.984375, 125963.140625, 143432.390625, 98907.515625, 123596.250000, 143947.828125, 0.000, 0.000, 0.000,0.0,0.0,0.0,0.0,0.0, 14:48:00.739
79437.671875, 82503.726563, 156883.000000, 126047.070313, 143388.718750, 99048.445313, 123604.093750, 143965.531250, 0.000, 0.000, 0.000,0.0,0.0,0.0,0.0,0.0, 14:48:00.739
79413.601563, 82485.335938, 156843.640625, 126048.765625, 143347.031250, 99038.835938, 123571.929688, 143939.390625, 0.000, 0.000, 0.000,0.0,0.0,0.0,0.0,0.0, 14:48:00.739
79477.906250, 82550.625000, 156884.203125, 125961.398438, 143384.140625, 98891.867188, 123556.484375, 143909.593750, 0.000, 0.000, 0.000,0.0,0.0,0.0,0.0,0.0, 14:48:00.740
79540.625000, 82620.828125, 156935.812500, 125949.351563, 143430.781250, 98880.445313, 123584.781250, 143935.890625, 0.000, 0.000, 0.000,0.0,0.0,0.0,0.0,0.0, 14:48:00.740
79500.640625, 82587.679688, 156897.187500, 126032.992188, 143400.000000, 99030.117188, 123602.593750, 143965.484375, 0.000, 0.000, 0.000,0.0,0.0,0.0,0.0,0.0, 14:48:00.740
79467.109375, 82559.851563, 156848.265625, 126061.625000, 143351.046875, 99062.367188, 123577.000000, 143945.500000, 0.150, 0.246, 0.956,0.0,0.0,0.0,0.0,0.0, 14:48:00.741
79532.890625, 82620.625000, 156888.140625, 125991.343750, 143378.906250, 98927.945313, 123560.570313, 143916.703125, 0.000, 0.000, 0.000,0.0,0.0,0.0,0.0,0.0, 14:48:00.741
79598.046875, 82683.187500, 156951.781250, 125963.382813, 143435.078125, 98878.882813, 123584.515625, 143932.593750, 0.000, 0.000, 0.000,0.0,0.0,0.0,0.0,0.0, 14:48:00.741
79564.789063, 82660.617188, 156927.031250, 126040.835938, 143417.578125, 99016.304688, 123612.226563, 143971.093750, 0.000, 0.000, 0.000,0.0,0.0,0.0,0.0,0.0, 14:48:00.742
79511.101563, 82626.507813, 156864.109375, 126084.015625, 143355.406250, 99077.765625, 123586.593750, 143954.937500, 0.000, 0.000, 0.000,0.0,0.0,0.0,0.0,0.0, 14:48:00.742
79541.984375, 82664.617188, 156878.703125, 126016.804688, 143362.906250, 98948.062500, 123556.015625, 143914.828125, 0.000, 0.000, 0.000,0.0,0.0,0.0,0.0,0.0, 14:48:00.744
79615.703125, 82739.765625, 156955.640625, 125973.328125, 143431.453125, 98865.945313, 123582.765625, 143933.468750, 0.000, 0.000, 0.000,0.0,0.0,0.0,0.0,0.0, 14:48:00.744
79586.781250, 82723.828125, 156948.531250, 126039.492188, 143431.312500, 98994.781250, 123617.882813, 143976.656250, 0.000, 0.000, 0.000,0.0,0.0,0.0,0.0,0.0, 14:48:00.745
79507.367188, 82649.460938, 156869.703125, 126094.390625, 143358.500000, 99082.171875, 123590.789063, 143956.546875, 0.000, 0.000, 0.000,0.0,0.0,0.0,0.0,0.0, 14:48:00.745
79517.265625, 82656.078125, 156864.671875, 126036.054688, 143352.171875, 98976.539063, 123558.117188, 143915.296875, 0.000, 0.000, 0.000,0.0,0.0,0.0,0.0,0.0, 14:48:00.745
79589.750000, 82726.218750, 156940.359375, 125970.429688, 143421.109375, 98869.812500, 123575.679688, 143922.906250, 0.150, 0.248, 0.952,0.0,0.0,0.0,0.0,0.0, 14:48:00.745
79580.945313, 82719.578125, 156955.437500, 126021.632813, 143439.187500, 98970.976563, 123617.703125, 143969.843750, 0.000, 0.000, 0.000,0.0,0.0,0.0,0.0,0.0, 14:48:00.746
79499.656250, 82645.460938, 156892.875000, 126094.968750, 143387.234375, 99096.078125, 123618.148438, 143976.921875, 0.000, 0.000, 0.000,0.0,0.0,0.0,0.0,0.0, 14:48:00.746
79479.757813, 82621.968750, 156865.828125, 126056.148438, 143357.734375, 99019.585938, 123577.179688, 143933.859375, 0.000, 0.000, 0.000,0.0,0.0,0.0,0.0,0.0, 14:48:00.746
79545.585938, 82683.992188, 156921.281250, 125973.843750, 143401.562500, 98877.093750, 123565.515625, 143916.156250, 0.000, 0.000, 0.000,0.0,0.0,0.0,0.0,0.6487121, 14:48:01.187
79553.679688, 82693.671875, 156948.375000, 125998.257813, 143425.953125, 98936.882813, 123592.875000, 143951.953125, 0.000, 0.000, 0.000,0.0,0.0,0.0,0.0,0.6487121, 14:48:01.187
79475.875000, 82617.273438, 156885.187500, 126074.789063, 143378.359375, 99069.882813, 123602.906250, 143968.921875, 0.000, 0.000, 0.000,0.0,0.0,0.0,0.0,0.6487121, 14:48:01.187
79447.664063, 82576.820313, 156851.843750, 126057.351563, 143347.468750, 99029.554688, 123570.921875, 143935.187500, 0.000, 0.000, 0.000,0.0,0.0,0.0,0.0,0.6487121, 14:48:01.188
79508.148438, 82637.187500, 156906.046875, 125973.804688, 143391.218750, 98888.898438, 123560.171875, 143918.312500, 0.000, 0.000, 0.000,0.0,0.0,0.0,0.0,0.6487121, 14:48:01.188
79532.554688, 82661.640625, 156945.046875, 125981.601563, 143431.718750, 98913.375000, 123595.218750, 143953.765625, 0.144, 0.234, 0.956,0.0,0.0,0.0,0.0,0.6487121, 14:48:01.189
79458.015625, 82588.265625, 156891.031250, 126066.226563, 143388.265625, 99059.757813, 123608.804688, 143972.875000, 0.000, 0.000, 0.000,0.0,0.0,0.0,0.0,0.6487121, 14:48:01.189
79408.570313, 82541.632813, 156840.000000, 126068.015625, 143339.500000, 99054.859375, 123577.562500, 143939.125000, 0.000, 0.000, 0.000,0.0,0.0,0.0,0.0,0.6487121, 14:48:01.190
79455.289063, 82588.015625, 156877.953125, 125980.640625, 143369.468750, 98903.359375, 123557.843750, 143908.843750, 0.000, 0.000, 0.000,0.7600656,0.0,0.76616293,0.70476305,0.42359173, 14:48:01.194
79506.851563, 82635.203125, 156937.296875, 125965.304688, 143428.750000, 98886.843750, 123592.265625, 143941.390625, 0.000, 0.000, 0.000,0.7600656,0.0,0.76616293,0.70476305,0.42359173, 14:48:01.194
79446.164063, 82575.250000, 156894.015625, 126043.539063, 143397.812500, 99034.718750, 123612.023438, 143968.718750, 0.000, 0.000, 0.000,0.7600656,0.0,0.76616293,0.70476305,0.42359173, 14:48:01.194
79392.992188, 82520.492188, 156841.156250, 126069.132813, 143347.343750, 99071.976563, 123589.789063, 143949.609375, 0.000, 0.000, 0.000,0.7600656,0.0,0.76616293,0.70476305,0.42359173, 14:48:01.195
79433.421875, 82554.820313, 156870.171875, 125989.828125, 143367.859375, 98933.578125, 123564.437500, 143915.406250, 0.000, 0.000, 0.000,0.7600656,0.0,0.76616293,0.70476305,0.42359173, 14:48:01.195
79500.125000, 82620.359375, 156942.281250, 125954.625000, 143434.812500, 98879.062500, 123595.015625, 143941.703125, 0.000, 0.000, 0.000,0.7600656,0.0,0.76616293,0.70476305,0.42359173, 14:48:01.195
79460.492188, 82582.492188, 156920.343750, 126031.734375, 143420.093750, 99018.289063, 123624.718750, 143979.968750, 0.000, 0.000, 0.000,0.7600656,0.0,0.76616293,0.70476305,0.42359173, 14:48:01.196
79391.070313, 82513.742188, 156855.437500, 126077.554688, 143358.921875, 99088.054688, 123601.250000, 143962.218750, 0.146, 0.226, 0.962,0.7600656,0.0,0.76616293,0.70476305,0.42359173, 14:48:01.197
79410.625000, 82531.757813, 156864.843750, 126008.960938, 143362.312500, 98964.062500, 123567.968750, 143922.359375, 0.000, 0.000, 0.000,0.7600656,0.0,0.76616293,0.70476305,0.42359173, 14:48:01.198
79475.734375, 82595.929688, 156934.390625, 125956.343750, 143423.921875, 98875.531250, 123582.742188, 143930.875000, 0.000, 0.000, 0.000,0.7600656,0.0,0.76616293,0.70476305,0.42359173, 14:48:01.198
79446.570313, 82566.265625, 156922.515625, 126016.492188, 143418.203125, 98994.460938, 123610.085938, 143969.453125, 0.000, 0.000, 0.000,0.7600656,0.0,0.76616293,0.70476305,0.42359173, 14:48:01.198
79372.140625, 82500.304688, 156846.859375, 126069.937500, 143349.312500, 99084.273438, 123590.367188, 143957.125000, 0.000, 0.000, 0.000,0.7600656,0.0,0.76616293,0.70476305,0.42359173, 14:48:01.199
79388.921875, 82517.992188, 156847.796875, 126019.039063, 143347.187500, 98985.164063, 123564.726563, 143922.234375, 0.000, 0.000, 0.000,0.7600656,0.0,0.76616293,0.70476305,0.42359173, 14:48:01.199
79467.179688, 82591.929688, 156921.828125, 125951.335938, 143411.515625, 98871.843750, 123578.453125, 143927.281250, 0.000, 0.000, 0.000,0.7600656,0.0,0.76616293,0.70476305,0.42359173, 14:48:01.199
79471.218750, 82596.085938, 156942.140625, 126000.109375, 143435.343750, 98965.070313, 123622.085938, 143975.671875, 0.000, 0.000, 0.000,0.7600656,0.0,0.76616293,0.70476305,0.42359173, 14:48:01.200
79391.695313, 82519.929688, 156876.078125, 126077.000000, 143376.984375, 99087.203125, 123616.632813, 143976.718750, 0.000, 0.000, 0.000,0.7600656,0.0,0.76616293,0.70476305,0.42359173, 14:48:01.200
79381.367188, 82507.593750, 156855.531250, 126041.171875, 143358.000000, 99018.648438, 123588.359375, 143941.031250, 0.000, 0.000, 0.000,0.7600656,0.0,0.76616293,0.70476305,0.42359173, 14:48:01.200
79455.171875, 82578.515625, 156923.359375, 125962.601563, 143414.984375, 98885.234375, 123589.984375, 143932.312500, 0.144, 0.214, 0.962,0.7600656,0.0,0.76616293,0.70476305,0.42359173, 14:48:01.201
79471.531250, 82594.609375, 156954.375000, 125989.179688, 143450.812500, 98941.468750, 123628.570313, 143974.375000, 0.000, 0.000, 0.000,0.7600656,0.0,0.76616293,0.70476305,0.42359173, 14:48:01.201
79405.109375, 82526.078125, 156894.046875, 126072.015625, 143397.406250, 99082.062500, 123626.578125, 143987.406250, 0.000, 0.000, 0.000,0.7600656,0.0,0.76616293,0.70476305,0.42359173, 14:48:01.201
79376.562500, 82499.304688, 156857.093750, 126061.421875, 143359.765625, 99050.320313, 123590.593750, 143946.609375, 0.000, 0.000, 0.000,0.7600656,0.0,0.76616293,0.70476305,0.42359173, 14:48:01.201
79435.101563, 82559.179688, 156903.515625, 125975.078125, 143391.156250, 98898.757813, 123567.632813, 143919.765625, 0.000, 0.000, 0.000,0.7600656,0.0,0.76616293,0.70476305,0.42359173, 14:48:01.202
79484.523438, 82604.242188, 156955.375000, 125978.250000, 143446.828125, 98915.117188, 123609.906250, 143962.937500, 0.000, 0.000, 0.000,0.7600656,0.0,0.76616293,0.70476305,0.42359173, 14:48:01.202
79417.804688, 82542.039063, 156902.468750, 126061.867188, 143409.125000, 99065.968750, 123625.437500, 143989.421875, 0.000, 0.000, 0.000,0.7600656,0.0,0.76616293,0.70476305,0.42359173, 14:48:01.202
79367.289063, 82495.031250, 156844.078125, 126067.476563, 143355.187500, 99069.562500, 123592.382813, 143954.968750, 0.000, 0.000, 0.000,0.7600656,0.0,0.76616293,0.70476305,0.42359173, 14:48:01.202
79415.320313, 82539.937500, 156878.687500, 125980.531250, 143382.609375, 98921.867188, 123570.789063, 143918.812500, 0.000, 0.000, 0.000,0.7600656,0.0,0.76616293,0.70476305,0.42359173, 14:48:01.203
79465.078125, 82587.148438, 156933.421875, 125955.273438, 143434.296875, 98889.570313, 123595.125000, 143939.656250, 0.142, 0.212, 0.958,0.7600656,0.0,0.76616293,0.70476305,0.42359173, 14:48:01.203
79417.132813, 82539.109375, 156900.687500, 126034.085938, 143407.765625, 99033.000000, 123618.109375, 143973.296875, 0.000, 0.000, 0.000,0.7600656,0.0,0.76616293,0.70476305,0.42359173, 14:48:01.203
79365.992188, 82488.796875, 156850.359375, 126072.531250, 143360.187500, 99082.171875, 123600.335938, 143958.750000, 0.000, 0.000, 0.000,0.7600656,0.0,0.76616293,0.70476305,0.42359173, 14:48:01.204
79398.265625, 82519.421875, 156871.687500, 125995.773438, 143374.296875, 98946.992188, 123573.093750, 143923.015625, 0.000, 0.000, 0.000,0.7600656,0.0,0.76616293,0.70476305,0.42359173, 14:48:01.204
79465.453125, 82588.218750, 156942.187500, 125957.484375, 143439.671875, 98885.414063, 123600.492188, 143947.078125, 0.000, 0.000, 0.000,0.7600656,0.0,0.76616293,0.70476305,0.42359173, 14:48:01.205
79427.523438, 82556.765625, 156919.390625, 126026.867188, 143422.515625, 99015.875000, 123621.703125, 143981.578125, 0.000, 0.000, 0.000,0.7600656,0.0,0.76616293,0.70476305,0.42359173, 14:48:01.205
79355.328125, 82484.570313, 156848.796875, 126074.945313, 143355.843750, 99088.343750, 123599.312500, 143963.718750, 0.000, 0.000, 0.000,0.7600656,0.0,0.76616293,0.70476305,0.42359173, 14:48:01.205
79373.882813, 82500.171875, 156856.406250, 126011.460938, 143353.437500, 98969.968750, 123564.953125, 143923.406250, 0.000, 0.000, 0.000,0.7600656,0.0,0.76616293,0.70476305,0.42359173, 14:48:01.206
79454.125000, 82578.695313, 156934.046875, 125954.828125, 143418.828125, 98869.945313, 123580.820313, 143935.953125, 0.000, 0.000, 0.000,0.7600656,0.0,0.76616293,0.70476305,0.42359173, 14:48:01.206
79441.140625, 82564.859375, 156934.250000, 126013.320313, 143427.046875, 98986.507813, 123617.796875, 143981.687500, 0.000, 0.000, 0.000,0.7600656,0.0,0.76616293,0.70476305,0.42359173, 14:48:01.206
79368.625000, 82491.257813, 156865.093750, 126081.046875, 143364.953125, 99094.156250, 123605.835938, 143978.781250, 0.144, 0.214, 0.960,0.7600656,0.0,0.76616293,0.70476305,0.42359173, 14:48:01.207
79377.125000, 82499.234375, 156857.546875, 126035.578125, 143355.343750, 99005.257813, 123575.015625, 143941.906250, 0.000, 0.000, 0.000,0.7600656,0.0,0.76616293,0.70476305,0.42359173, 14:48:01.207
79446.570313, 82569.757813, 156919.343750, 125956.882813, 143410.890625, 98882.195313, 123577.406250, 143937.265625, 0.000, 0.000, 0.000,0.7600656,0.0,0.76616293,0.70476305,0.42359173, 14:48:01.207
79456.898438, 82580.234375, 156944.312500, 126001.117188, 143443.328125, 98973.632813, 123622.445313, 143988.250000, 0.000, 0.000, 0.000,0.7600656,0.0,0.76616293,0.70476305,0.42359173, 14:48:01.208
79385.031250, 82508.531250, 156881.296875, 126080.687500, 143391.421875, 99106.226563, 123624.210938, 143996.125000, 0.000, 0.000, 0.000,0.7600656,0.0,0.76616293,0.70476305,0.42359173, 14:48:01.208
79368.625000, 82492.375000, 156847.234375, 126045.703125, 143352.953125, 99039.773438, 123578.140625, 143950.484375, 0.000, 0.000, 0.000,0.7600656,0.0,0.76616293,0.70476305,0.42359173, 14:48:01.208
79430.656250, 82556.078125, 156896.812500, 125952.140625, 143391.109375, 98889.296875, 123561.804688, 143928.218750, 0.000, 0.000, 0.000,0.7600656,0.0,0.76616293,0.70476305,0.42359173, 14:48:01.208
79456.914063, 82582.632813, 156937.031250, 125977.648438, 143434.531250, 98940.085938, 123605.906250, 143968.937500, 0.000, 0.000, 0.000,0.7600656,0.0,0.76616293,0.70476305,0.42359173, 14:48:01.208
79383.828125, 82509.945313, 156876.140625, 126060.078125, 143382.843750, 99078.773438, 123607.914063, 143980.093750, 0.000, 0.000, 0.000,0.7600656,0.0,0.76616293,0.70476305,0.42359173, 14:48:01.209
79356.984375, 82481.085938, 156840.000000, 126049.531250, 143341.171875, 99048.445313, 123572.445313, 143944.890625, 0.154, 0.212, 0.962,0.7600656,0.0,0.76616293,0.70476305,0.42359173, 14:48:01.209
79431.882813, 82553.750000, 156907.031250, 125970.585938, 143396.312500, 98910.843750, 123573.539063, 143933.312500, 0.000, 0.000, 0.000,0.7600656,0.0,0.76616293,0.70476305,0.42359173, 14:48:01.209
79473.992188, 82592.578125, 156959.890625, 125974.429688, 143446.312500, 98920.390625, 123609.476563, 143967.171875, 0.000, 0.000, 0.000,0.7600656,0.0,0.76616293,0.70476305,0.42359173, 14:48:01.209
79420.351563, 82537.390625, 156916.656250, 126062.359375, 143415.578125, 99067.507813, 123628.632813, 143994.453125, 0.000, 0.000, 0.000,0.7600656,0.0,0.76616293,0.70476305,0.42359173, 14:48:01.210
79375.195313, 82489.648438, 156861.046875, 126075.414063, 143361.828125, 99079.710938, 123597.718750, 143966.343750, 0.000, 0.000, 0.000,0.7600656,0.0,0.76616293,0.70476305,0.42359173, 14:48:01.210
79415.406250, 82528.765625, 156890.875000, 125990.382813, 143384.015625, 98933.265625, 123572.039063, 143930.500000, 0.000, 0.000, 0.000,0.7600656,0.0,0.76616293,0.70476305,0.42359173, 14:48:01.210
79475.601563, 82586.539063, 156953.500000, 125962.781250, 143442.312500, 98893.437500, 123599.132813, 143955.828125, 0.000, 0.000, 0.000,0.7600656,0.0,0.76616293,0.70476305,0.42359173, 14:48:01.211
79431.953125, 82541.125000, 156925.468750, 126043.406250, 143419.093750, 99042.429688, 123622.039063, 143993.078125, 0.000, 0.000, 0.000,0.7600656,0.0,0.76616293,0.70476305,0.42359173, 14:48:01.211
79367.820313, 82484.125000, 156861.671875, 126082.164063, 143361.625000, 99096.726563, 123600.312500, 143972.453125, 0.000, 0.000, 0.000,0.7600656,0.0,0.76616293,0.70476305,0.42359173, 14:48:01.212
79407.187500, 82524.226563, 156880.578125, 126009.164063, 143378.515625, 98966.234375, 123578.093750, 143939.781250, 0.000, 0.000, 0.000,0.7600656,0.0,0.76616293,0.70476305,0.42359173, 14:48:01.212
79475.109375, 82593.515625, 156949.421875, 125962.179688, 143444.453125, 98892.671875, 123603.492188, 143957.484375, 0.156, 0.214, 0.962,0.7600656,0.0,0.76616293,0.70476305,0.42359173, 14:48:01.212
79448.867188, 82571.945313, 156941.359375, 126039.898438, 143443.187500, 99026.851563, 123640.164063, 144001.640625, 0.000, 0.000, 0.000,0.7600656,0.0,0.76616293,0.70476305,0.42359173, 14:48:01.213
79379.914063, 82500.531250, 156874.937500, 126092.710938, 143379.171875, 99109.109375, 123620.140625, 143985.281250, 0.000, 0.000, 0.000,0.7600656,0.0,0.76616293,0.70476305,0.42359173, 14:48:01.213
79395.093750, 82507.375000, 156870.281250, 126026.531250, 143369.375000, 98988.515625, 123579.750000, 143936.437500, 0.000, 0.000, 0.000,0.7600656,0.0,0.76616293,0.70476305,0.42359173, 14:48:01.214
79467.531250, 82579.546875, 156937.828125, 125960.617188, 143430.671875, 98880.406250, 123590.703125, 143942.859375, 0.000, 0.000, 0.000,0.7600656,0.0,0.76616293,0.70476305,0.42359173, 14:48:01.215
79450.304688, 82569.062500, 156940.843750, 126020.156250, 143441.000000, 98993.640625, 123630.937500, 143991.812500, 0.000, 0.000, 0.000,0.7600656,0.0,0.76616293,0.70476305,0.42359173, 14:48:01.215
79363.664063, 82488.398438, 156861.140625, 126083.210938, 143368.359375, 99097.101563, 123609.992188, 143982.640625, 0.000, 0.000, 0.000,0.7600656,0.0,0.76616293,0.70476305,0.42359173, 14:48:01.216
79361.742188, 82484.953125, 156844.718750, 126033.640625, 143353.125000, 99006.468750, 123575.304688, 143937.453125, 0.000, 0.000, 0.000,0.7600656,0.0,0.76616293,0.70476305,0.42359173, 14:48:01.216
79444.734375, 82565.015625, 156922.812500, 125962.289063, 143416.812500, 98883.531250, 123582.007813, 143938.875000, 0.000, 0.000, 0.000,0.7600656,0.0,0.76616293,0.70476305,0.42359173, 14:48:01.216
79453.203125, 82570.445313, 156943.343750, 125999.437500, 143442.031250, 98956.445313, 123617.859375, 143977.937500, 0.160, 0.208, 0.966,0.7600656,0.0,0.76616293,0.70476305,0.42359173, 14:48:01.217
79376.562500, 82494.609375, 156873.656250, 126077.156250, 143382.437500, 99084.585938, 123612.968750, 143979.703125, 0.000, 0.000, 0.000,0.7600656,0.0,0.76616293,0.70476305,0.42359173, 14:48:01.217
79357.562500, 82478.406250, 156844.750000, 126051.539063, 143348.859375, 99031.140625, 123578.679688, 143939.062500, 0.000, 0.000, 0.000,0.7600656,0.0,0.76616293,0.70476305,0.42359173, 14:48:01.217
79432.148438, 82548.992188, 156910.984375, 125973.218750, 143406.109375, 98896.632813, 123580.468750, 143927.500000, 0.000, 0.000, 0.000,0.7600656,0.0,0.76616293,0.70476305,0.42359173, 14:48:01.218
79470.062500, 82584.531250, 156959.375000, 125996.015625, 143458.625000, 98940.953125, 123628.921875, 143975.609375, 0.000, 0.000, 0.000,0.7600656,0.0,0.76616293,0.70476305,0.42359173, 14:48:01.219
79401.640625, 82519.265625, 156897.531250, 126078.851563, 143407.765625, 99080.382813, 123635.585938, 143989.265625, 0.000, 0.000, 0.000,0.7600656,0.0,0.76616293,0.70476305,0.42359173, 14:48:01.219
79367.039063, 82482.875000, 156851.375000, 126071.726563, 143356.953125, 99059.109375, 123595.796875, 143951.531250, 0.000, 0.000, 0.000,0.7600656,0.0,0.76616293,0.70476305,0.42359173, 14:48:01.220
79413.734375, 82529.140625, 156886.734375, 125976.328125, 143385.468750, 98906.554688, 123566.789063, 143920.062500, 0.000, 0.000, 0.000,0.7600656,0.0,0.76616293,0.70476305,0.42359173, 14:48:01.220
79462.125000, 82578.539063, 156943.750000, 125971.007813, 143442.765625, 98905.390625, 123606.726563, 143958.500000, 0.000, 0.000, 0.000,0.7600656,0.0,0.76616293,0.70476305,0.42359173, 14:48:01.220
79397.101563, 82516.601563, 156896.250000, 126057.710938, 143402.328125, 99059.351563, 123622.781250, 143985.953125, 0.000, 0.000, 0.000,0.7600656,0.0,0.76616293,0.70476305,0.42359173, 14:48:01.221
79340.820313, 82465.328125, 156831.093750, 126072.953125, 143340.140625, 99071.171875, 123586.921875, 143951.593750, 0.168, 0.200, 0.964,0.7600656,0.0,0.76616293,0.70476305,0.42359173, 14:48:01.221
79398.554688, 82519.328125, 156874.281250, 125995.570313, 143377.343750, 98932.437500, 123573.625000, 143927.031250, 0.000, 0.000, 0.000,0.7600656,0.0,0.76616293,0.70476305,0.42359173, 14:48:01.221
79457.679688, 82575.835938, 156940.015625, 125966.109375, 143436.375000, 98892.968750, 123601.093750, 143953.562500, 0.000, 0.000, 0.000,0.7600656,0.0,0.76616293,0.70476305,0.42359173, 14:48:01.221
79409.242188, 82527.820313, 156909.578125, 126045.593750, 143413.218750, 99036.867188, 123624.343750, 143986.828125, 0.000, 0.000, 0.000,0.7600656,0.0,0.76616293,0.70476305,0.42359173, 14:48:01.222
79341.515625, 82455.289063, 156839.437500, 126084.265625, 143345.171875, 99088.585938, 123595.460938, 143960.109375, 0.000, 0.000, 0.000,0.7600656,0.0,0.76616293,0.70476305,0.42359173, 14:48:01.222
79372.429688, 82479.679688, 156852.718750, 126009.007813, 143352.125000, 98950.812500, 123561.781250, 143917.328125, 0.000, 0.000, 0.000,0.7600656,0.0,0.76616293,0.70476305,0.42359173, 14:48:01.222
79445.250000, 82556.296875, 156920.796875, 125956.414063, 143415.515625, 98863.101563, 123580.531250, 143927.375000, 0.000, 0.000, 0.000,0.7600656,0.0,0.76616293,0.70476305,0.42359173, 14:48:01.223
79426.875000, 82541.796875, 156918.343750, 126028.742188, 143419.687500, 98997.593750, 123620.382813, 143972.515625, 0.000, 0.000, 0.000,0.7600656,0.0,0.76616293,0.70476305,0.42359173, 14:48:01.223
79354.187500, 82468.703125, 156847.812500, 126088.062500, 143350.921875, 99087.578125, 123600.250000, 143958.593750, 0.000, 0.000, 0.000,0.7600656,0.0,0.76616293,0.70476305,0.42359173, 14:48:01.223
79358.304688, 82471.140625, 156835.968750, 126026.484375, 143338.203125, 98977.273438, 123562.539063, 143911.328125, 0.000, 0.000, 0.000,0.7600656,0.0,0.76616293,0.70476305,0.42359173, 14:48:01.223
79438.140625, 82549.726563, 156905.125000, 125958.648438, 143402.125000, 98866.765625, 123571.906250, 143916.968750, 0.164, 0.200, 0.960,0.7600656,0.0,0.76616293,0.70476305,0.42359173, 14:48:01.223
79429.468750, 82541.164063, 156913.062500, 126009.007813, 143416.468750, 98969.117188, 123608.203125, 143961.093750, 0.000, 0.000, 0.000,0.7600656,0.0,0.76616293,0.70476305,0.42359173, 14:48:01.224
79358.281250, 82470.578125, 156848.156250, 126080.687500, 143360.843750, 99085.593750, 123604.585938, 143964.203125, 0.000, 0.000, 0.000,0.7600656,0.0,0.76616293,0.70476305,0.42359173, 14:48:01.224
79343.507813, 82455.070313, 156821.750000, 126035.578125, 143334.375000, 99002.015625, 123566.117188, 143918.421875, 0.000, 0.000, 0.000,0.7600656,0.0,0.76616293,0.70476305,0.42359173, 14:48:01.224
79415.453125, 82522.234375, 156881.390625, 125954.218750, 143385.781250, 98867.687500, 123561.375000, 143906.828125, 0.000, 0.000, 0.000,0.7600656,0.0,0.76616293,0.70476305,0.42359173, 14:48:01.224
79423.656250, 82531.601563, 156901.625000, 125982.968750, 143409.812500, 98934.312500, 123595.796875, 143947.890625, 0.000, 0.000, 0.000,0.7600656,0.0,0.76616293,0.70476305,0.42359173, 14:48:01.224
79347.953125, 82461.820313, 156836.468750, 126064.773438, 143352.171875, 99071.421875, 123593.500000, 143958.281250, 0.000, 0.000, 0.000,0.7600656,0.0,0.76616293,0.70476305,0.42359173, 14:48:01.225
79324.687500, 82441.367188, 156800.906250, 126042.867188, 143317.593750, 99021.328125, 123556.437500, 143920.015625, 0.000, 0.000, 0.000,0.7600656,0.0,0.76616293,0.70476305,0.42359173, 14:48:01.225
79402.421875, 82515.257813, 156865.296875, 125959.406250, 143374.656250, 98883.156250, 123560.414063, 143914.312500, 0.000, 0.000, 0.000,0.7600656,0.0,0.76616293,0.70476305,0.42359173, 14:48:01.225
79428.734375, 82539.734375, 156902.312500, 125969.421875, 143413.546875, 98913.257813, 123595.460938, 143946.546875, 0.156, 0.206, 0.952,0.7600656,0.0,0.76616293,0.70476305,0.42359173, 14:48:01.225
79363.578125, 82478.335938, 156851.437500, 126051.117188, 143366.781250, 99055.750000, 123602.726563, 143965.093750, 0.000, 0.000, 0.000,0.7600656,0.0,0.76616293,0.70476305,0.42359173, 14:48:01.226
79325.468750, 82440.070313, 156809.640625, 126058.851563, 143323.687500, 99054.140625, 123572.843750, 143937.984375, 0.000, 0.000, 0.000,0.7600656,0.0,0.76616293,0.70476305,0.42359173, 14:48:01.226
79380.539063, 82494.343750, 156853.031250, 125975.343750, 143359.640625, 98906.484375, 123556.328125, 143914.250000, 0.000, 0.000, 0.000,0.7600656,0.0,0.76616293,0.70476305,0.42359173, 14:48:01.226
79435.593750, 82550.015625, 156913.390625, 125964.304688, 143419.500000, 98896.046875, 123594.796875, 143949.750000, 0.000, 0.000, 0.000,0.7600656,0.0,0.76616293,0.70476305,0.42359173, 14:48:01.226
79377.859375, 82491.992188, 156870.593750, 126049.953125, 143386.906250, 99048.335938, 123613.617188, 143979.296875, 0.000, 0.000, 0.000,0.7600656,0.0,0.76616293,0.70476305,0.42359173, 14:48:01.226
79323.187500, 82436.921875, 156810.046875, 126071.187500, 143326.734375, 99077.476563, 123580.398438, 143951.171875, 0.000, 0.000, 0.000,0.7600656,0.0,0.76616293,0.70476305,0.42359173, 14:48:01.226
79357.632813, 82468.210938, 156834.812500, 125988.710938, 143346.609375, 98937.578125, 123552.460938, 143913.312500, 0.000, 0.000, 0.000,0.7600656,0.0,0.76616293,0.70476305,0.42359173, 14:48:01.227
79424.218750, 82538.890625, 156905.531250, 125953.640625, 143411.718750, 98884.695313, 123581.382813, 143938.718750, 0.000, 0.000, 0.000,0.7600656,0.0,0.76616293,0.70476305,0.42359173, 14:48:01.227
79384.812500, 82502.367188, 156882.500000, 126032.679688, 143397.765625, 99026.742188, 123613.906250, 143976.093750, 0.000, 0.000, 0.000,0.7600656,0.0,0.76616293,0.70476305,0.42359173, 14:48:01.227
79315.562500, 82432.648438, 156810.140625, 126073.648438, 143329.859375, 99083.398438, 123589.007813, 143947.078125, 0.154, 0.216, 0.952,0.7600656,0.0,0.76616293,0.70476305,0.42359173, 14:48:01.227
79344.015625, 82456.789063, 156822.875000, 126004.398438, 143331.968750, 98954.093750, 123552.187500, 143902.718750, 0.000, 0.000, 0.000,0.7600656,0.0,0.76616293,0.70476305,0.42359173, 14:48:01.227
79418.804688, 82528.937500, 156895.453125, 125949.460938, 143390.921875, 98862.632813, 123558.742188, 143908.265625, 0.000, 0.000, 0.000,0.7600656,0.0,0.76616293,0.70476305,0.42359173, 14:48:01.228
79406.070313, 82517.359375, 156898.531250, 126014.187500, 143398.375000, 98983.914063, 123597.140625, 143952.687500, 0.000, 0.000, 0.000,0.7600656,0.0,0.76616293,0.70476305,0.42359173, 14:48:01.228
79322.406250, 82435.648438, 156822.312500, 126073.914063, 143328.234375, 99077.750000, 123576.890625, 143939.265625, 0.000, 0.000, 0.000,0.7600656,0.0,0.76616293,0.70476305,0.42359173, 14:48:01.228
79347.078125, 82454.640625, 156828.546875, 126025.367188, 143327.625000, 98977.406250, 123552.234375, 143906.718750, 0.000, 0.000, 0.000,0.7600656,0.0,0.76616293,0.70476305,0.42359173, 14:48:01.228
79425.984375, 82526.664063, 156903.078125, 125957.351563, 143391.437500, 98866.187500, 123565.398438, 143912.500000, 0.000, 0.000, 0.000,0.7600656,0.0,0.76616293,0.70476305,0.42359173, 14:48:01.228
79420.195313, 82522.390625, 156915.156250, 126006.882813, 143406.312500, 98958.570313, 123601.945313, 143952.218750, 0.000, 0.000, 0.000,0.7600656,0.0,0.76616293,0.70476305,0.42359173, 14:48:01.229
79347.148438, 82452.273438, 156847.343750, 126081.109375, 143345.046875, 99075.039063, 123592.421875, 143952.062500, 0.000, 0.000, 0.000,0.7600656,0.0,0.76616293,0.70476305,0.42359173, 14:48:01.229
79330.562500, 82437.546875, 156819.562500, 126041.484375, 143319.453125, 99000.429688, 123554.898438, 143908.656250, 0.154, 0.220, 0.952,0.07619538,0.23892589,0.063238904,0.04711117,0.029990852, 14:48:01.665
79402.398438, 82506.054688, 156874.390625, 125952.320313, 143370.093750, 98859.125000, 123549.773438, 143894.328125, 0.000, 0.000, 0.000,0.07619538,0.23892589,0.063238904,0.04711117,0.029990852, 14:48:01.665
79418.140625, 82520.718750, 156900.187500, 125981.179688, 143400.859375, 98922.960938, 123585.406250, 143934.703125, 0.000, 0.000, 0.000,0.07619538,0.23892589,0.063238904,0.04711117,0.029990852, 14:48:01.666
79335.187500, 82443.132813, 156828.390625, 126059.296875, 143333.750000, 99053.671875, 123574.210938, 143932.890625, 0.000, 0.000, 0.000,0.07619538,0.23892589,0.063238904,0.04711117,0.029990852, 14:48:01.666
79316.703125, 82426.281250, 156798.671875, 126046.445313, 143301.031250, 99014.757813, 123542.671875, 143896.703125, 0.000, 0.000, 0.000,0.07619538,0.23892589,0.063238904,0.04711117,0.029990852, 14:48:01.666
79381.390625, 82489.421875, 156853.546875, 125961.843750, 143346.468750, 98869.046875, 123535.273438, 143877.484375, 0.000, 0.000, 0.000,0.07619538,0.23892589,0.063238904,0.04711117,0.029990852, 14:48:01.666
79424.687500, 82533.140625, 156904.140625, 125968.726563, 143396.218750, 98889.835938, 123574.320313, 143919.328125, 0.000, 0.000, 0.000,0.07619538,0.23892589,0.063238904,0.04711117,0.029990852, 14:48:01.667
79369.789063, 82479.476563, 156856.093750, 126055.226563, 143358.984375, 99042.453125, 123589.070313, 143947.171875, 0.000, 0.000, 0.000,0.07619538,0.23892589,0.063238904,0.04711117,0.029990852, 14:48:01.667
79317.039063, 82430.414063, 156795.375000, 126057.304688, 143301.828125, 99036.867188, 123550.093750, 143909.984375, 0.000, 0.000, 0.000,0.07619538,0.23892589,0.063238904,0.04711117,0.029990852, 14:48:01.668
79375.062500, 82490.828125, 156840.265625, 125973.351563, 143340.375000, 98894.328125, 123536.546875, 143888.703125, 0.000, 0.000, 0.000,0.07619538,0.23892589,0.063238904,0.04711117,0.029990852, 14:48:01.668
79427.101563, 82544.695313, 156899.578125, 125956.992188, 143398.656250, 98876.335938, 123569.203125, 143921.687500, 0.156, 0.214, 0.952,0.07619538,0.23892589,0.063238904,0.04711117,0.029990852, 14:48:01.669
79370.882813, 82486.359375, 156860.828125, 126039.429688, 143368.046875, 99025.132813, 123589.429688, 143953.140625, 0.000, 0.000, 0.000,0.07619538,0.23892589,0.063238904,0.04711117,0.029990852, 14:48:01.669
79307.945313, 82421.539063, 156796.781250, 126065.218750, 143307.359375, 99061.789063, 123559.968750, 143926.093750, 0.000, 0.000, 0.000,0.07619538,0.23892589,0.063238904,0.04711117,0.029990852, 14:48:01.669
79345.359375, 82459.648438, 156819.968750, 125982.921875, 143323.093750, 98922.023438, 123534.351563, 143889.171875, 0.000, 0.000, 0.000,0.07619538,0.23892589,0.063238904,0.04711117,0.029990852, 14:48:01.670
79408.656250, 82522.187500, 156884.187500, 125938.195313, 143383.031250, 98857.429688, 123558.000000, 143907.390625, 0.000, 0.000, 0.000,0.07619538,0.23892589,0.063238904,0.04711117,0.029990852, 14:48:01.670
79374.218750, 82489.179688, 156864.671875, 126013.632813, 143372.687500, 98992.875000, 123589.046875, 143947.375000, 0.000, 0.000, 0.000,0.07619538,0.23892589,0.063238904,0.04711117,0.029990852, 14:48:01.670
79308.835938, 82422.437500, 156796.671875, 126062.023438, 143310.906250, 99064.851563, 123567.859375, 143932.125000, 0.000, 0.000, 0.000,0.07619538,0.23892589,0.063238904,0.04711117,0.029990852, 14:48:01.671
79333.601563, 82442.796875, 156803.296875, 125992.171875, 143312.968750, 98942.695313, 123533.976563, 143890.062500, 0.000, 0.000, 0.000,0.07619538,0.23892589,0.063238904,0.04711117,0.029990852, 14:48:01.671
79410.695313, 82522.304688, 156878.265625, 125933.789063, 143381.046875, 98845.960938, 123554.289063, 143899.390625, 0.000, 0.000, 0.000,0.07619538,0.23892589,0.063238904,0.04711117,0.029990852, 14:48:01.672
79404.882813, 82521.343750, 156888.140625, 126001.828125, 143397.500000, 98968.781250, 123598.343750, 143951.515625, 0.154, 0.212, 0.956,0.07619538,0.23892589,0.063238904,0.04711117,0.029990852, 14:48:01.672
79327.320313, 82444.968750, 156817.984375, 126066.765625, 143332.437500, 99073.101563, 123582.921875, 143945.656250, 0.000, 0.000, 0.000,0.07619538,0.23892589,0.063238904,0.04711117,0.029990852, 14:48:01.673
79325.312500, 82442.867188, 156801.375000, 126012.359375, 143307.406250, 98972.601563, 123538.804688, 143896.843750, 0.000, 0.000, 0.000,0.0776525,0.23786588,0.05849692,0.042688824,0.026922632, 14:48:01.673
79402.867188, 82520.265625, 156869.078125, 125937.523438, 143362.718750, 98845.359375, 123540.343750, 143890.734375, 0.000, 0.000, 0.000,0.0776525,0.23786588,0.05849692,0.042688824,0.026922632, 14:48:01.674
79400.859375, 82516.468750, 156882.734375, 125981.312500, 143379.890625, 98932.820313, 123573.359375, 143929.812500, 0.000, 0.000, 0.000,0.0776525,0.23786588,0.05849692,0.042688824,0.026922632, 14:48:01.675
79328.726563, 82444.164063, 156818.609375, 126061.109375, 143324.812500, 99056.828125, 123569.625000, 143934.437500, 0.000, 0.000, 0.000,0.0776525,0.23786588,0.05849692,0.042688824,0.026922632, 14:48:01.675
79315.320313, 82430.281250, 156794.937500, 126030.664063, 143301.250000, 98989.859375, 123534.421875, 143894.921875, 0.000, 0.000, 0.000,0.0776525,0.23786588,0.05849692,0.042688824,0.026922632, 14:48:01.676
79387.898438, 82498.140625, 156856.468750, 125945.726563, 143351.703125, 98850.742188, 123530.468750, 143881.343750, 0.000, 0.000, 0.000,0.0776525,0.23786588,0.05849692,0.042688824,0.026922632, 14:48:01.676
79409.953125, 82519.304688, 156890.375000, 125968.820313, 143385.109375, 98902.625000, 123569.515625, 143919.281250, 0.000, 0.000, 0.000,0.0776525,0.23786588,0.05849692,0.042688824,0.026922632, 14:48:01.677
79339.570313, 82452.117188, 156829.687500, 126047.632813, 143331.718750, 99043.015625, 123570.812500, 143931.640625, 0.000, 0.000, 0.000,0.0776525,0.23786588,0.05849692,0.042688824,0.026922632, 14:48:01.677
79323.679688, 82434.210938, 156799.062500, 126040.453125, 143304.000000, 99019.320313, 123545.929688, 143903.671875, 0.150, 0.204, 0.956,0.0776525,0.23786588,0.05849692,0.042688824,0.026922632, 14:48:01.677
79395.203125, 82502.968750, 156858.875000, 125959.562500, 143357.125000, 98879.242188, 123543.695313, 143888.812500, 0.000, 0.000, 0.000,0.0776525,0.23786588,0.05849692,0.042688824,0.026922632, 14:48:01.678
79424.281250, 82531.085938, 156898.046875, 125959.335938, 143391.687500, 98885.500000, 123568.281250, 143914.140625, 0.000, 0.000, 0.000,0.0776525,0.23786588,0.05849692,0.042688824,0.026922632, 14:48:01.678
79363.148438, 82473.281250, 156849.140625, 126042.445313, 143352.843750, 99030.765625, 123581.742188, 143937.656250, 0.000, 0.000, 0.000,0.0776525,0.23786588,0.05849692,0.042688824,0.026922632, 14:48:01.679
79315.765625, 82425.789063, 156796.875000, 126054.070313, 143302.765625, 99041.515625, 123551.585938, 143908.265625, 0.000, 0.000, 0.000,0.0776525,0.23786588,0.05849692,0.042688824,0.026922632, 14:48:01.679
79369.054688, 82476.031250, 156834.468750, 125971.210938, 143331.875000, 98894.304688, 123530.468750, 143878.109375, 0.000, 0.000, 0.000,0.0776525,0.23786588,0.05849692,0.042688824,0.026922632, 14:48:01.679
79431.148438, 82539.890625, 156892.656250, 125946.015625, 143385.703125, 98858.968750, 123555.562500, 143903.984375, 0.000, 0.000, 0.000,0.0776525,0.23786588,0.05849692,0.042688824,0.026922632, 14:48:01.679
79392.585938, 82506.632813, 156864.109375, 126030.421875, 143365.406250, 99005.460938, 123578.390625, 143941.578125, 0.000, 0.000, 0.000,0.0776525,0.23786588,0.05849692,0.042688824,0.026922632, 14:48:01.680
79326.718750, 82445.500000, 156800.187500, 126063.210938, 143304.781250, 99048.195313, 123550.695313, 143914.234375, 0.000, 0.000, 0.000,0.0776525,0.23786588,0.05849692,0.042688824,0.026922632, 14:48:01.680
79368.226563, 82482.156250, 156825.687500, 125985.289063, 143325.390625, 98912.593750, 123530.890625, 143881.484375, 0.000, 0.000, 0.000,0.0776525,0.23786588,0.05849692,0.042688824,0.026922632, 14:48:01.680
79436.664063, 82546.484375, 156895.312500, 125941.343750, 143390.578125, 98846.695313, 123555.390625, 143901.578125, 0.146, 0.202, 0.960,0.0776525,0.23786588,0.05849692,0.042688824,0.026922632, 14:48:01.681
79401.687500, 82515.062500, 156876.546875, 126011.015625, 143379.375000, 98980.250000, 123581.960938, 143939.656250, 0.000, 0.000, 0.000,0.0776525,0.23786588,0.05849692,0.042688824,0.026922632, 14:48:01.681
79334.515625, 82447.226563, 156810.484375, 126062.359375, 143319.484375, 99060.781250, 123563.703125, 143928.671875, 0.000, 0.000, 0.000,0.0776525,0.23786588,0.05849692,0.042688824,0.026922632, 14:48:01.682
79358.750000, 82469.437500, 156819.593750, 126000.937500, 143324.406250, 98947.953125, 123535.312500, 143892.078125, 0.000, 0.000, 0.000,0.0776525,0.23786588,0.05849692,0.042688824,0.026922632, 14:48:01.682
79429.734375, 82540.718750, 156888.312500, 125939.046875, 143385.140625, 98846.921875, 123549.531250, 143899.343750, 0.000, 0.000, 0.000,0.0776525,0.23786588,0.05849692,0.042688824,0.026922632, 14:48:01.682
79411.187500, 82525.812500, 156889.734375, 125996.914063, 143390.609375, 98955.015625, 123585.406250, 143940.250000, 0.000, 0.000, 0.000,0.0776525,0.23786588,0.05849692,0.042688824,0.026922632, 14:48:01.683
79331.210938, 82451.875000, 156816.390625, 126065.265625, 143320.453125, 99060.109375, 123567.789063, 143929.406250, 0.000, 0.000, 0.000,0.0776525,0.23786588,0.05849692,0.042688824,0.026922632, 14:48:01.683
79340.953125, 82463.718750, 156806.062500, 126016.492188, 143305.828125, 98965.671875, 123531.742188, 143886.265625, 0.000, 0.000, 0.000,0.0776525,0.23786588,0.05849692,0.042688824,0.026922632, 14:48:01.683
79424.890625, 82545.367188, 156880.109375, 125942.578125, 143372.718750, 98842.515625, 123543.539063, 143888.359375, 0.000, 0.000, 0.000,0.0776525,0.23786588,0.05849692,0.042688824,0.026922632, 14:48:01.684
79424.570313, 82544.429688, 156895.937500, 125982.875000, 143391.046875, 98924.820313, 123578.742188, 143929.250000, 0.152, 0.210, 0.962,0.0776525,0.23786588,0.05849692,0.042688824,0.026922632, 14:48:01.684
79351.843750, 82477.304688, 156832.812500, 126063.007813, 143337.281250, 99053.406250, 123576.578125, 143935.390625, 0.000, 0.000, 0.000,0.0776525,0.23786588,0.05849692,0.042688824,0.026922632, 14:48:01.685
79329.687500, 82457.796875, 156801.375000, 126032.585938, 143300.781250, 98993.484375, 123532.835938, 143892.500000, 0.000, 0.000, 0.000,0.0776525,0.23786588,0.05849692,0.042688824,0.026922632, 14:48:01.685
79406.718750, 82531.421875, 156869.390625, 125950.132813, 143359.390625, 98854.273438, 123533.976563, 143884.046875, 0.000, 0.000, 0.000,0.0776525,0.23786588,0.05849692,0.042688824,0.026922632, 14:48:01.685
79434.945313, 82558.085938, 156911.203125, 125972.906250, 143406.531250, 98903.468750, 123581.585938, 143928.531250, 0.000, 0.000, 0.000,0.0776525,0.23786588,0.05849692,0.042688824,0.026922632, 14:48:01.686
79360.734375, 82482.359375, 156853.234375, 126055.539063, 143356.062500, 99051.078125, 123584.242188, 143943.218750, 0.000, 0.000, 0.000,0.0776525,0.23786588,0.05849692,0.042688824,0.026922632, 14:48:01.686
79333.109375, 82449.343750, 156811.765625, 126047.648438, 143308.968750, 99030.765625, 123544.906250, 143908.796875, 0.000, 0.000, 0.000,0.0776525,0.23786588,0.05849692,0.042688824,0.026922632, 14:48:01.686
79405.304688, 82521.273438, 156869.515625, 125964.726563, 143359.296875, 98888.359375, 123539.921875, 143893.703125, 0.000, 0.000, 0.000,0.0776525,0.23786588,0.05849692,0.042688824,0.026922632, 14:48:01.686
79449.742188, 82565.062500, 156921.000000, 125963.539063, 143407.921875, 98893.882813, 123574.429688, 143926.953125, 0.000, 0.000, 0.000,0.0776525,0.23786588,0.05849692,0.042688824,0.026922632, 14:48:01.687
79389.507813, 82506.031250, 156871.625000, 126048.882813, 143367.375000, 99039.882813, 123589.453125, 143951.578125, 0.000, 0.000, 0.000,0.0776525,0.23786588,0.05849692,0.042688824,0.026922632, 14:48:01.687
79339.773438, 82459.250000, 156820.015625, 126065.398438, 143319.359375, 99056.867188, 123562.296875, 143924.171875, 0.148, 0.218, 0.952,0.0776525,0.23786588,0.05849692,0.042688824,0.026922632, 14:48:01.687
79382.710938, 82501.492188, 156850.500000, 125979.500000, 143345.359375, 98912.031250, 123538.351563, 143889.968750, 0.000, 0.000, 0.000,0.0776525,0.23786588,0.05849692,0.042688824,0.026922632, 14:48:01.687
79442.476563, 82563.921875, 156911.250000, 125948.320313, 143399.890625, 98868.289063, 123564.101563, 143914.031250, 0.000, 0.000, 0.000,0.0776525,0.23786588,0.05849692,0.042688824,0.026922632, 14:48:01.687
79395.898438, 82520.023438, 156882.062500, 126027.578125, 143379.937500, 99012.546875, 123587.617188, 143948.109375, 0.000, 0.000, 0.000,0.0776525,0.23786588,0.05849692,0.042688824,0.026922632, 14:48:01.688
79329.445313, 82455.742188, 156817.234375, 126065.085938, 143317.843750, 99064.070313, 123560.687500, 143924.484375, 0.000, 0.000, 0.000,0.0776525,0.23786588,0.05849692,0.042688824,0.026922632, 14:48:01.688
79368.718750, 82489.039063, 156837.765625, 125992.328125, 143332.359375, 98931.921875, 123535.453125, 143890.921875, 0.000, 0.000, 0.000,0.0776525,0.23786588,0.05849692,0.042688824,0.026922632, 14:48:01.688
79440.039063, 82559.335938, 156909.625000, 125945.281250, 143396.531250, 98853.203125, 123559.257813, 143908.109375, 0.000, 0.000, 0.000,0.0776525,0.23786588,0.05849692,0.042688824,0.026922632, 14:48:01.688
79409.867188, 82533.632813, 156895.406250, 126014.015625, 143386.843750, 98980.000000, 123587.351563, 143944.359375, 0.000, 0.000, 0.000,0.0776525,0.23786588,0.05849692,0.042688824,0.026922632, 14:48:01.688
79328.820313, 82455.250000, 156816.812500, 126067.343750, 143317.859375, 99062.367188, 123566.765625, 143927.609375, 0.000, 0.000, 0.000,0.0776525,0.23786588,0.05849692,0.042688824,0.026922632, 14:48:01.688
79345.515625, 82471.812500, 156817.578125, 126005.335938, 143315.109375, 98952.398438, 123529.437500, 143887.390625, 0.148, 0.218, 0.952,0.0776525,0.23786588,0.05849692,0.042688824,0.026922632, 14:48:01.689
79424.039063, 82548.859375, 156889.953125, 125940.031250, 143378.078125, 98846.320313, 123538.687500, 143892.343750, 0.000, 0.000, 0.000,0.0776525,0.23786588,0.05849692,0.042688824,0.026922632, 14:48:01.689
79414.445313, 82539.781250, 156898.312500, 125995.523438, 143392.406250, 98954.859375, 123577.117188, 143936.265625, 0.000, 0.000, 0.000,0.0776525,0.23786588,0.05849692,0.042688824,0.026922632, 14:48:01.689
79348.890625, 82473.015625, 156835.078125, 126067.726563, 143337.843750, 99072.359375, 123574.632813, 143939.312500, 0.000, 0.000, 0.000,0.0776525,0.23786588,0.05849692,0.042688824,0.026922632, 14:48:01.689
79350.523438, 82471.851563, 156824.015625, 126025.367188, 143322.484375, 98990.710938, 123544.164063, 143903.750000, 0.000, 0.000, 0.000,0.0776525,0.23786588,0.05849692,0.042688824,0.026922632, 14:48:01.689
79428.195313, 82546.640625, 156893.890625, 125949.437500, 143382.406250, 98864.289063, 123549.304688, 143900.343750, 0.000, 0.000, 0.000,0.0776525,0.23786588,0.05849692,0.042688824,0.026922632, 14:48:01.690
79439.281250, 82556.968750, 156915.296875, 125981.023438, 143406.796875, 98933.664063, 123583.257813, 143938.609375, 0.000, 0.000, 0.000,0.0776525,0.23786588,0.05849692,0.042688824,0.026922632, 14:48:01.690
79365.093750, 82487.593750, 156850.093750, 126060.859375, 143349.984375, 99063.148438, 123580.554688, 143944.375000, 0.000, 0.000, 0.000,0.0776525,0.23786588,0.05849692,0.042688824,0.026922632, 14:48:01.690
79346.476563, 82464.500000, 156820.031250, 126039.718750, 143317.687500, 99011.164063, 123548.164063, 143906.562500, 0.000, 0.000, 0.000,0.0776525,0.23786588,0.05849692,0.042688824,0.026922632, 14:48:01.690
79424.437500, 82542.125000, 156886.937500, 125958.085938, 143375.781250, 98870.992188, 123553.085938, 143899.671875, 0.000, 0.000, 0.000,0.0776525,0.23786588,0.05849692,0.042688824,0.026922632, 14:48:01.691
79461.609375, 82578.429688, 156934.156250, 125973.757813, 143422.406250, 98908.859375, 123594.992188, 143944.203125, 0.154, 0.222, 0.954,0.0776525,0.23786588,0.05849692,0.042688824,0.026922632, 14:48:01.691
79391.289063, 82512.109375, 156882.281250, 126061.039063, 143380.468750, 99059.171875, 123604.765625, 143963.875000, 0.000, 0.000, 0.000,0.0776525,0.23786588,0.05849692,0.042688824,0.026922632, 14:48:01.691
79346.476563, 82471.742188, 156832.031250, 126060.234375, 143331.250000, 99045.093750, 123567.234375, 143927.328125, 0.000, 0.000, 0.000,0.0776525,0.23786588,0.05849692,0.042688824,0.026922632, 14:48:01.692
79404.726563, 82525.070313, 156876.296875, 125973.351563, 143364.328125, 98898.218750, 123548.078125, 143903.296875, 0.000, 0.000, 0.000,0.0776525,0.23786588,0.05849692,0.042688824,0.026922632, 14:48:01.692
79446.632813, 82564.257813, 156923.484375, 125961.554688, 143407.828125, 98886.437500, 123575.054688, 143928.359375, 0.000, 0.000, 0.000,0.0776525,0.23786588,0.05849692,0.042688824,0.026922632, 14:48:01.692
79395.273438, 82515.257813, 156885.234375, 126047.453125, 143378.500000, 99035.593750, 123597.921875, 143959.375000, 0.000, 0.000, 0.000,0.0776525,0.23786588,0.05849692,0.042688824,0.026922632, 14:48:01.693
79341.648438, 82466.960938, 156827.921875, 126064.843750, 143325.796875, 99059.734375, 123569.734375, 143933.093750, 0.000, 0.000, 0.000,0.0776525,0.23786588,0.05849692,0.042688824,0.026922632, 14:48:01.693
79396.679688, 82519.929688, 156866.703125, 125984.796875, 143358.890625, 98923.921875, 123553.976563, 143906.031250, 0.000, 0.000, 0.000,0.0776525,0.23786588,0.05849692,0.042688824,0.026922632, 14:48:01.693
79459.484375, 82577.507813, 156929.890625, 125952.585938, 143417.968750, 98879.890625, 123581.156250, 143927.437500, 0.000, 0.000, 0.000,0.0776525,0.23786588,0.05849692,0.042688824,0.026922632, 14:48:01.694
79409.531250, 82530.351563, 156893.140625, 126025.390625, 143389.703125, 99017.820313, 123598.679688, 143957.171875, 0.158, 0.230, 0.954,0.0776525,0.23786588,0.05849692,0.042688824,0.026922632, 14:48:01.694
79341.265625, 82463.984375, 156822.609375, 126062.804688, 143320.968750, 99075.312500, 123569.734375, 143934.328125, 0.000, 0.000, 0.000,0.0776525,0.23786588,0.05849692,0.042688824,0.026922632, 14:48:01.695
79377.187500, 82498.296875, 156842.500000, 125991.882813, 143334.921875, 98945.671875, 123543.789063, 143902.000000, 0.000, 0.000, 0.000,0.0776525,0.23786588,0.05849692,0.042688824,0.026922632, 14:48:01.695
79445.335938, 82560.859375, 156912.453125, 125943.070313, 143401.703125, 98863.976563, 123566.320313, 143912.750000, 0.000, 0.000, 0.000,0.0776525,0.23786588,0.05849692,0.042688824,0.026922632, 14:48:01.695
79418.960938, 82535.625000, 156896.750000, 126005.406250, 143392.968750, 98980.765625, 123592.265625, 143945.718750, 0.000, 0.000, 0.000,0.0776525,0.23786588,0.05849692,0.042688824,0.026922632, 14:48:01.696
79352.335938, 82475.343750, 156835.796875, 126066.070313, 143337.890625, 99074.929688, 123582.789063, 143943.125000, 0.000, 0.000, 0.000,0.0776525,0.23786588,0.05849692,0.042688824,0.026922632, 14:48:01.696
79372.296875, 82493.757813, 156843.015625, 126016.156250, 143335.968750, 98977.898438, 123555.992188, 143910.875000, 0.000, 0.000, 0.000,0.0776525,0.23786588,0.05849692,0.042688824,0.026922632, 14:48:01.696
79437.695313, 82557.882813, 156903.359375, 125947.429688, 143389.437500, 98864.507813, 123562.070313, 143907.546875, 0.000, 0.000, 0.000,0.0776525,0.23786588,0.05849692,0.042688824,0.026922632, 14:48:01.697
79426.632813, 82551.875000, 156906.687500, 125993.406250, 143400.718750, 98957.625000, 123593.812500, 143946.140625, 0.000, 0.000, 0.000,0.0776525,0.23786588,0.05849692,0.042688824,0.026922632, 14:48:01.697
79352.312500, 82473.328125, 156837.375000, 126063.343750, 143339.515625, 99071.937500, 123580.531250, 143942.343750, 0.000, 0.000, 0.000,0.0776525,0.23786588,0.05849692,0.042688824,0.026922632, 14:48:01.697
79354.140625, 82464.750000, 156821.484375, 126022.843750, 143319.140625, 98995.562500, 123546.539063, 143902.890625, 0.156, 0.228, 0.954,0.0776525,0.23786588,0.05849692,0.042688824,0.026922632, 14:48:01.697
79423.031250, 82535.000000, 156881.687500, 125941.257813, 143370.703125, 98860.351563, 123544.500000, 143892.187500, 0.000, 0.000, 0.000,0.0776525,0.23786588,0.05849692,0.042688824,0.026922632, 14:48:01.698
79441.429688, 82563.023438, 156911.343750, 125974.406250, 143404.546875, 98924.835938, 123584.781250, 143935.484375, 0.000, 0.000, 0.000,0.0776525,0.23786588,0.05849692,0.042688824,0.026922632, 14:48:01.698
79371.625000, 82499.726563, 156855.109375, 126061.304688, 143355.562500, 99066.617188, 123589.875000, 143952.296875, 0.000, 0.000, 0.000,0.0776525,0.23786588,0.05849692,0.042688824,0.026922632, 14:48:01.698
79341.226563, 82471.695313, 156818.421875, 126042.492188, 143314.484375, 99022.000000, 123552.546875, 143913.515625, 0.000, 0.000, 0.000,0.0776525,0.23786588,0.05849692,0.042688824,0.026922632, 14:48:01.698
79405.328125, 82534.906250, 156872.734375, 125957.796875, 143358.718750, 98877.742188, 123544.367188, 143893.734375, 0.000, 0.000, 0.000,0.0776525,0.23786588,0.05849692,0.042688824,0.026922632, 14:48:01.699
79441.140625, 82569.289063, 156918.046875, 125963.789063, 143402.656250, 98900.656250, 123580.687500, 143929.531250, 0.000, 0.000, 0.000,0.0776525,0.23786588,0.05849692,0.042688824,0.026922632, 14:48:01.699
79384.789063, 82513.273438, 156872.625000, 126050.625000, 143361.531250, 99050.789063, 123592.359375, 143953.390625, 0.000, 0.000, 0.000,0.0776525,0.23786588,0.05849692,0.042688824,0.026922632, 14:48:01.699
79348.781250, 82474.335938, 156825.421875, 126054.203125, 143317.234375, 99047.750000, 123560.078125, 143921.968750, 0.000, 0.000, 0.000,0.0776525,0.23786588,0.05849692,0.042688824,0.026922632, 14:48:01.700
79415.406250, 82538.085938, 156876.406250, 125971.992188, 143362.546875, 98905.953125, 123552.992188, 143903.656250, 0.000, 0.000, 0.000,0.0776525,0.23786588,0.05849692,0.042688824,0.026922632, 14:48:01.700
79457.632813, 82585.000000, 156929.796875, 125957.710938, 143417.375000, 98889.523438, 123587.085938, 143934.593750, 0.158, 0.234, 0.952,0.0776525,0.23786588,0.05849692,0.042688824,0.026922632, 14:48:01.700
79397.593750, 82527.937500, 156888.078125, 126038.218750, 143387.671875, 99034.023438, 123606.867188, 143962.578125, 0.000, 0.000, 0.000,0.0776525,0.23786588,0.05849692,0.042688824,0.026922632, 14:48:01.700
79348.601563, 82474.085938, 156830.312500, 126062.804688, 143333.656250, 99064.492188, 123579.437500, 143935.546875, 0.000, 0.000, 0.000,0.0776525,0.23786588,0.05849692,0.042688824,0.026922632, 14:48:01.701
79397.507813, 82520.625000, 156867.734375, 125986.968750, 143362.500000, 98929.085938, 123561.648438, 143907.328125, 0.000, 0.000, 0.000,0.0776525,0.23786588,0.05849692,0.042688824,0.026922632, 14:48:01.702
79453.140625, 82575.250000, 156930.703125, 125950.890625, 143419.765625, 98873.789063, 123584.289063, 143926.468750, 0.000, 0.000, 0.000,0.0776525,0.23786588,0.05849692,0.042688824,0.026922632, 14:48:01.703
79408.234375, 82537.500000, 156897.437500, 126023.421875, 143391.171875, 99007.023438, 123600.781250, 143956.000000, 0.000, 0.000, 0.000,0.0776525,0.23786588,0.05849692,0.042688824,0.026922632, 14:48:01.703
79344.289063, 82478.179688, 156831.953125, 126066.023438, 143333.421875, 99076.429688, 123585.203125, 143942.437500, 0.000, 0.000, 0.000,0.0776525,0.23786588,0.05849692,0.042688824,0.026922632, 14:48:01.703
79364.742188, 82493.890625, 156833.375000, 125995.328125, 143333.171875, 98955.617188, 123551.117188, 143899.625000, 0.000, 0.000, 0.000,0.0776525,0.23786588,0.05849692,0.042688824,0.026922632, 14:48:01.703
79436.507813, 82564.632813, 156898.531250, 125934.015625, 143388.921875, 98857.406250, 123558.093750, 143904.062500, 0.000, 0.000, 0.000,0.0776525,0.23786588,0.05849692,0.042688824,0.026922632, 14:48:01.704
79421.781250, 82552.078125, 156897.625000, 125995.171875, 143393.859375, 98976.093750, 123593.539063, 143947.484375, 0.152, 0.224, 0.948,0.0776525,0.23786588,0.05849692,0.042688824,0.026922632, 14:48:01.704
79347.703125, 82477.734375, 156826.203125, 126057.617188, 143329.281250, 99078.328125, 123577.804688, 143938.250000, 0.000, 0.000, 0.000,0.0776525,0.23786588,0.05849692,0.042688824,0.026922632, 14:48:01.704
79360.023438, 82486.851563, 156823.234375, 126004.515625, 143323.453125, 98974.882813, 123545.890625, 143901.125000, 0.000, 0.000, 0.000,0.0776525,0.23786588,0.05849692,0.042688824,0.026922632, 14:48:01.704
79441.945313, 82567.656250, 156903.468750, 125936.968750, 143396.046875, 98862.453125, 123562.921875, 143911.031250, 0.000, 0.000, 0.000,0.0776525,0.23786588,0.05849692,0.042688824,0.026922632, 14:48:01.704
79438.859375, 82565.437500, 156916.328125, 125986.695313, 143411.890625, 98955.796875, 123597.539063, 143953.718750, 0.000, 0.000, 0.000,0.0776525,0.23786588,0.05849692,0.042688824,0.026922632, 14:48:01.705
79360.960938, 82487.968750, 156841.656250, 126060.015625, 143347.468750, 99073.835938, 123585.742188, 143951.312500, 0.000, 0.000, 0.000,0.0776525,0.23786588,0.05849692,0.042688824,0.026922632, 14:48:01.705
79351.414063, 82476.187500, 156817.218750, 126025.007813, 143320.968750, 99004.546875, 123548.750000, 143909.671875, 0.000, 0.000, 0.000,0.045003828,0.08564111,0.01768713,0.027209591,0.012036967, 14:48:02.145
79419.367188, 82541.570313, 156875.484375, 125942.265625, 143369.093750, 98866.390625, 123541.734375, 143894.453125, 0.000, 0.000, 0.000,0.045003828,0.08564111,0.01768713,0.027209591,0.012036967, 14:48:02.145
79445.000000, 82564.570313, 156914.359375, 125971.500000, 143412.390625, 98924.148438, 123585.539063, 143941.187500, 0.000, 0.000, 0.000,0.045003828,0.08564111,0.01768713,0.027209591,0.012036967, 14:48:02.145
79366.664063, 82485.601563, 156849.703125, 126055.140625, 143358.515625, 99060.226563, 123586.789063, 143951.234375, 0.000, 0.000, 0.000,0.045003828,0.08564111,0.01768713,0.027209591,0.012036967, 14:48:02.145
79334.742188, 82459.132813, 156808.437500, 126039.742188, 143314.390625, 99018.648438, 123549.953125, 143910.968750, 0.154, 0.224, 0.956,0.045003828,0.08564111,0.01768713,0.027209591,0.012036967, 14:48:02.146
79406.937500, 82531.625000, 156866.703125, 125954.757813, 143361.140625, 98875.554688, 123543.945313, 143894.015625, 0.000, 0.000, 0.000,0.045003828,0.08564111,0.01768713,0.027209591,0.012036967, 14:48:02.146
