%OpenBCI Raw EEG Data
%
%Sample Rate = 250.0 Hz
%First Column = SampleIndex
%Last Column = Timestamp 
%Other Columns = EEG data in microvolts followed by Accel Data (in G) interleaved with Aux Data
0, -58624.80, -71060.44, -187500.02, 187500.00, -72801.26, -187500.02, -92114.13, -72946.55, 0.058, 0.332, 0.352, 13:01:57.852
1, -58587.52, -71022.46, -187500.02, 187500.00, -72822.02, -187500.02, -92162.95, -72977.80, 0.000, 0.000, 0.000, 13:01:57.852
2, -58477.77, -70910.51, -187500.02, 187500.00, -72750.81, -187500.02, -92267.87, -73180.15, 0.000, 0.000, 0.000, 13:01:57.852
3, -58493.11, -70924.34, -187500.02, 187500.00, -72711.67, -187500.02, -92236.82, -73188.13, 0.000, 0.000, 0.000, 13:01:57.852
4, -58619.57, -71055.41, -187500.02, 187500.00, -72781.57, -187500.02, -92098.48, -72955.84, 0.000, 0.000, 0.000, 13:01:57.852
5, -58627.55, -71060.69, -187500.02, 187500.00, -72838.52, -187500.02, -92127.20, -72935.28, 0.000, 0.000, 0.000, 13:01:57.853
6, -58529.00, -70965.69, -187500.02, 187500.00, -72795.36, -187500.02, -92251.68, -73137.23, 0.088, 0.492, 0.526, 13:01:57.853
7, -58506.14, -70940.73, -187500.02, 187500.00, -72737.09, -187500.02, -92259.59, -73202.23, 0.000, 0.000, 0.000, 13:01:57.853
8, -58600.71, -71038.78, -187500.02, 187500.00, -72769.43, -187500.02, -92123.85, -72991.01, 0.000, 0.000, 0.000, 13:01:57.853
9, -58628.98, -71068.84, -187500.02, 187500.00, -72826.90, -187500.02, -92112.61, -72911.32, 0.000, 0.000, 0.000, 13:01:57.853
10, -58556.36, -70984.89, -187500.02, 187500.00, -72802.18, -187500.02, -92225.62, -73082.87, 0.000, 0.000, 0.000, 13:01:57.853
11, -58514.09, -70940.55, -187500.02, 187500.00, -72743.21, -187500.02, -92270.79, -73200.30, 0.000, 0.000, 0.000, 13:01:57.853
12, -58600.55, -71045.89, -187500.02, 187500.00, -72766.68, -187500.02, -92139.88, -73015.10, 0.000, 0.000, 0.000, 13:01:57.853
13, -58625.74, -71075.08, -187500.02, 187500.00, -72819.23, -187500.02, -92097.07, -72899.36, 0.000, 0.000, 0.000, 13:01:57.853
14, -58562.37, -71006.53, -187500.02, 187500.00, -72801.08, -187500.02, -92196.27, -73043.30, 0.000, 0.000, 0.000, 13:01:57.853
15, -58483.27, -70922.46, -187500.02, 187500.00, -72730.79, -187500.02, -92263.91, -73202.12, 0.000, 0.000, 0.000, 13:01:57.854
16, -58540.76, -70981.29, -187500.02, 187500.00, -72722.83, -187500.02, -92147.86, -73048.45, 0.104, 0.580, 0.618, 13:01:57.854
17, -58633.45, -71076.78, -187500.02, 187500.00, -72810.49, -187500.02, -92063.97, -72866.39, 0.000, 0.000, 0.000, 13:01:57.854
18, -58562.29, -71002.91, -187500.02, 187500.00, -72810.60, -187500.02, -92152.57, -72980.92, 0.000, 0.000, 0.000, 13:01:57.854
19, -58472.34, -70911.89, -187500.02, 187500.00, -72738.14, -187500.02, -92237.22, -73164.99, 0.000, 0.000, 0.000, 13:01:57.854
20, -58534.39, -70980.87, -187500.02, 187500.00, -72731.99, -187500.02, -92153.84, -73068.66, 0.000, 0.000, 0.000, 13:01:57.854
21, -58632.07, -71083.41, -187500.02, 187500.00, -72812.39, -187500.02, -92051.19, -72865.25, 0.000, 0.000, 0.000, 13:01:57.854
22, -58575.52, -71020.74, -187500.02, 187500.00, -72816.77, -187500.02, -92124.32, -72938.91, 0.000, 0.000, 0.000, 13:01:57.854
23, -58476.23, -70917.86, -187500.02, 187500.00, -72734.50, -187500.02, -92231.56, -73146.04, 0.000, 0.000, 0.000, 13:01:57.854
24, -58510.63, -70956.66, -187500.02, 187500.00, -72701.41, -187500.02, -92167.59, -73099.79, 0.000, 0.000, 0.000, 13:01:57.854
25, -58623.35, -71072.31, -187500.02, 187500.00, -72780.67, -187500.02, -92043.85, -72874.44, 0.114, 0.620, 0.672, 13:01:57.855
26, -58598.38, -71048.02, -187500.02, 187500.00, -72819.01, -187500.02, -92099.51, -72900.84, 0.000, 0.000, 0.000, 13:01:57.855
27, -58491.79, -70937.80, -187500.02, 187500.00, -72759.30, -187500.02, -92230.05, -73126.05, 0.000, 0.000, 0.000, 13:01:57.855
28, -58482.51, -70930.82, -187500.02, 187500.00, -72697.19, -187500.02, -92217.51, -73161.44, 0.000, 0.000, 0.000, 13:01:57.855
29, -58606.38, -71059.88, -187500.02, 187500.00, -72762.39, -187500.02, -92080.06, -72932.76, 0.000, 0.000, 0.000, 13:01:57.855
30, -58615.23, -71069.02, -187500.02, 187500.00, -72821.47, -187500.02, -92105.03, -72903.99, 0.000, 0.000, 0.000, 13:01:57.855
31, -58510.16, -70963.77, -187500.02, 187500.00, -72768.36, -187500.02, -92236.13, -73114.23, 0.000, 0.000, 0.000, 13:01:57.855
32, -58467.94, -70926.27, -187500.02, 187500.00, -72701.75, -187500.02, -92259.64, -73205.54, 0.000, 0.000, 0.000, 13:01:57.855
33, -58564.05, -71022.40, -187500.02, 187500.00, -72730.59, -187500.02, -92123.29, -73006.74, 0.000, 0.000, 0.000, 13:01:57.855
34, -58601.45, -71061.52, -187500.02, 187500.00, -72801.33, -187500.02, -92104.63, -72922.72, 0.000, 0.000, 0.000, 13:01:57.855
35, -58523.39, -70981.88, -187500.02, 187500.00, -72783.20, -187500.02, -92227.12, -73103.81, 0.122, 0.644, 0.684, 13:01:57.855
36, -58466.89, -70921.34, -187500.02, 187500.00, -72715.90, -187500.02, -92287.60, -73245.14, 0.000, 0.000, 0.000, 13:01:57.856
37, -58557.07, -71021.77, -187500.02, 187500.00, -72740.48, -187500.02, -92168.84, -73075.61, 0.000, 0.000, 0.000, 13:01:57.856
38, -58626.43, -71088.91, -187500.02, 187500.00, -72819.34, -187500.02, -92116.54, -72937.49, 0.000, 0.000, 0.000, 13:01:57.856
39, -58545.72, -71006.04, -187500.02, 187500.00, -72801.48, -187500.02, -92227.63, -73093.94, 0.000, 0.000, 0.000, 13:01:57.856
40, -58451.69, -70916.18, -187500.02, 187500.00, -72712.95, -187500.02, -92306.40, -73272.73, 0.000, 0.000, 0.000, 13:01:57.856
41, -58521.25, -70985.74, -187500.02, 187500.00, -72707.45, -187500.02, -92197.34, -73142.70, 0.000, 0.000, 0.000, 13:01:57.856
42, -58612.29, -71071.30, -187500.02, 187500.00, -72781.63, -187500.02, -92099.29, -72954.28, 0.000, 0.000, 0.000, 13:01:57.856
43, -58548.71, -71006.51, -187500.02, 187500.00, -72791.90, -187500.02, -92183.71, -73061.19, 0.000, 0.000, 0.000, 13:01:57.856
44, -58466.95, -70922.02, -187500.02, 187500.00, -72732.04, -187500.02, -92279.38, -73254.48, 0.000, 0.000, 0.000, 13:01:57.856
45, -58497.06, -70958.43, -187500.02, 187500.00, -72703.02, -187500.02, -92207.36, -73180.93, 0.124, 0.656, 0.688, 13:01:57.856
46, -58606.18, -71069.98, -187500.02, 187500.00, -72773.30, -187500.02, -92081.07, -72958.77, 0.000, 0.000, 0.000, 13:01:57.857
47, -58585.89, -71042.05, -187500.02, 187500.00, -72811.99, -187500.02, -92143.32, -73013.20, 0.000, 0.000, 0.000, 13:01:57.857
48, -58477.84, -70934.35, -187500.02, 187500.00, -72755.13, -187500.02, -92270.16, -73234.77, 0.000, 0.000, 0.000, 13:01:57.857
49, -58491.56, -70943.23, -187500.02, 187500.00, -72715.27, -187500.02, -92230.34, -73215.23, 0.000, 0.000, 0.000, 13:01:57.857
50, -58613.56, -71057.94, -187500.02, 187500.00, -72780.70, -187500.02, -92094.82, -72978.71, 0.000, 0.000, 0.000, 13:01:57.857
51, -58616.24, -71063.88, -187500.02, 187500.00, -72839.05, -187500.02, -92127.07, -72971.24, 0.000, 0.000, 0.000, 13:01:57.857
52, -58510.47, -70954.29, -187500.02, 187500.00, -72787.80, -187500.02, -92252.40, -73180.41, 0.000, 0.000, 0.000, 13:01:57.857
53, -58482.73, -70925.03, -187500.02, 187500.00, -72723.55, -187500.02, -92246.45, -73224.06, 0.000, 0.000, 0.000, 13:01:57.857
54, -58595.21, -71039.32, -187500.02, 187500.00, -72765.38, -187500.02, -92099.76, -72995.09, 0.124, 0.656, 0.698, 13:01:57.857
55, -58605.38, -71044.15, -187500.02, 187500.00, -72823.26, -187500.02, -92104.70, -72941.02, 0.000, 0.000, 0.000, 13:01:57.857
56, -58508.08, -70943.07, -187500.02, 187500.00, -72774.51, -187500.02, -92224.75, -73132.55, 0.000, 0.000, 0.000, 13:01:57.857
57, -58487.11, -70915.73, -187500.02, 187500.00, -72710.11, -187500.02, -92242.98, -73213.96, 0.000, 0.000, 0.000, 13:01:57.858
58, -58600.59, -71026.78, -187500.02, 187500.00, -72756.91, -187500.02, -92108.12, -73002.12, 0.000, 0.000, 0.000, 13:01:57.858
59, -58637.00, -71062.14, -187500.02, 187500.00, -72821.22, -187500.02, -92079.66, -72895.77, 0.000, 0.000, 0.000, 13:01:57.858
60, -58545.30, -70972.13, -187500.02, 187500.00, -72798.27, -187500.02, -92195.87, -73067.13, 0.000, 0.000, 0.000, 13:01:57.858
61, -58462.15, -70883.62, -187500.02, 187500.00, -72717.29, -187500.02, -92268.58, -73227.48, 0.000, 0.000, 0.000, 13:01:57.858
62, -58558.86, -70981.92, -187500.02, 187500.00, -72728.15, -187500.02, -92140.08, -73054.15, 0.000, 0.000, 0.000, 13:01:57.858
63, -58630.41, -71053.76, -187500.02, 187500.00, -72819.55, -187500.02, -92078.95, -72901.02, 0.000, 0.000, 0.000, 13:01:57.858
64, -58555.15, -70971.10, -187500.02, 187500.00, -72803.20, -187500.02, -92187.33, -73044.49, 0.116, 0.658, 0.696, 13:01:57.865
65, -58492.66, -70903.95, -187500.02, 187500.00, -72734.09, -187500.02, -92266.66, -73216.65, 0.000, 0.000, 0.000, 13:01:57.865
66, -58534.32, -70949.89, -187500.02, 187500.00, -72719.59, -187500.02, -92177.49, -73111.75, 0.000, 0.000, 0.000, 13:01:57.865
67, -58628.55, -71042.88, -187500.02, 187500.00, -72786.87, -187500.02, -92079.05, -72922.05, 0.000, 0.000, 0.000, 13:01:57.865
68, -58595.50, -71003.16, -187500.02, 187500.00, -72810.27, -187500.02, -92159.99, -73011.01, 0.000, 0.000, 0.000, 13:01:57.865
69, -58502.71, -70915.02, -187500.02, 187500.00, -72745.47, -187500.02, -92263.69, -73212.94, 0.000, 0.000, 0.000, 13:01:57.865
70, -58537.83, -70954.54, -187500.02, 187500.00, -72724.46, -187500.02, -92199.98, -73154.46, 0.000, 0.000, 0.000, 13:01:57.865
71, -58625.47, -71042.88, -187500.02, 187500.00, -72784.03, -187500.02, -92086.26, -72942.68, 0.000, 0.000, 0.000, 13:01:57.865
72, -58618.27, -71034.80, -187500.02, 187500.00, -72825.02, -187500.02, -92132.95, -72974.06, 0.000, 0.000, 0.000, 13:01:57.865
73, -58517.09, -70928.84, -187500.02, 187500.00, -72766.48, -187500.02, -92255.19, -73186.72, 0.120, 0.656, 0.694, 13:01:57.866
74, -58510.50, -70925.93, -187500.02, 187500.00, -72718.56, -187500.02, -92220.70, -73185.98, 0.000, 0.000, 0.000, 13:01:57.866
75, -58603.16, -71019.36, -187500.02, 187500.00, -72765.52, -187500.02, -92087.24, -72963.16, 0.000, 0.000, 0.000, 13:01:57.866
76, -58607.93, -71024.50, -187500.02, 187500.00, -72813.13, -187500.02, -92109.41, -72947.42, 0.000, 0.000, 0.000, 13:01:57.866
77, -58523.44, -70936.63, -187500.02, 187500.00, -72773.08, -187500.02, -92226.54, -73142.73, 0.000, 0.000, 0.000, 13:01:57.866
78, -58485.89, -70900.49, -187500.02, 187500.00, -72710.87, -187500.02, -92233.48, -73196.95, 0.000, 0.000, 0.000, 13:01:57.866
79, -58611.41, -71025.13, -187500.02, 187500.00, -72756.80, -187500.02, -92083.53, -72965.45, 0.000, 0.000, 0.000, 13:01:57.866
80, -58649.01, -71056.15, -187500.02, 187500.00, -72832.51, -187500.02, -92070.79, -72890.84, 0.000, 0.000, 0.000, 13:01:57.866
81, -58535.55, -70941.33, -187500.02, 187500.00, -72786.91, -187500.02, -92199.09, -73092.80, 0.000, 0.000, 0.000, 13:01:57.866
82, -58490.36, -70894.26, -187500.02, 187500.00, -72715.25, -187500.02, -92229.04, -73199.77, 0.000, 0.000, 0.000, 13:01:57.866
83, -58594.36, -70997.90, -187500.02, 187500.00, -72745.60, -187500.02, -92092.96, -73000.88, 0.124, 0.650, 0.704, 13:01:57.866
84, -58645.99, -71047.88, -187500.02, 187500.00, -72820.95, -187500.02, -92053.51, -72875.94, 0.000, 0.000, 0.000, 13:01:57.867
85, -58549.25, -70948.97, -187500.02, 187500.00, -72792.81, -187500.02, -92163.93, -73034.63, 0.000, 0.000, 0.000, 13:01:57.867
86, -58485.28, -70879.81, -187500.02, 187500.00, -72719.30, -187500.02, -92223.92, -73181.58, 0.000, 0.000, 0.000, 13:01:57.867
87, -58563.67, -70964.80, -187500.02, 187500.00, -72735.23, -187500.02, -92112.66, -73026.99, 0.000, 0.000, 0.000, 13:01:57.867
88, -58622.75, -71027.49, -187500.02, 187500.00, -72803.14, -187500.02, -92044.64, -72874.93, 0.000, 0.000, 0.000, 13:01:57.867
89, -58555.22, -70957.69, -187500.02, 187500.00, -72788.95, -187500.02, -92142.25, -73008.02, 0.000, 0.000, 0.000, 13:01:57.867
90, -58482.58, -70881.60, -187500.02, 187500.00, -72723.21, -187500.02, -92237.20, -73195.86, 0.000, 0.000, 0.000, 13:01:57.867
91, -58543.26, -70950.47, -187500.02, 187500.00, -72718.52, -187500.02, -92151.75, -73094.59, 0.000, 0.000, 0.000, 13:01:57.867
92, -58642.01, -71053.65, -187500.02, 187500.00, -72806.38, -187500.02, -92062.18, -72906.65, 0.124, 0.656, 0.708, 13:01:57.867
93, -58604.48, -71001.86, -187500.02, 187500.00, -72821.29, -187500.02, -92153.24, -73003.52, 0.000, 0.000, 0.000, 13:01:57.867
94, -58515.12, -70907.42, -187500.02, 187500.00, -72749.12, -187500.02, -92258.30, -73209.05, 0.000, 0.000, 0.000, 13:01:57.868
95, -58527.37, -70925.37, -187500.02, 187500.00, -72707.14, -187500.02, -92202.87, -73172.39, 0.000, 0.000, 0.000, 13:01:57.868
96, -58634.39, -71033.93, -187500.02, 187500.00, -72778.38, -187500.02, -92079.04, -72954.44, 0.000, 0.000, 0.000, 13:01:57.868
97, -58624.38, -71017.88, -187500.02, 187500.00, -72825.09, -187500.02, -92133.77, -72990.49, 0.000, 0.000, 0.000, 13:01:57.868
98, -58524.84, -70914.86, -187500.02, 187500.00, -72763.11, -187500.02, -92256.06, -73204.13, 0.000, 0.000, 0.000, 13:01:57.868
99, -58516.29, -70910.91, -187500.02, 187500.00, -72711.20, -187500.02, -92232.77, -73219.44, 0.000, 0.000, 0.000, 13:01:57.868
100, -58629.59, -71027.94, -187500.02, 187500.00, -72772.05, -187500.02, -92100.83, -73001.06, 0.000, 0.000, 0.000, 13:01:57.868
101, -58638.35, -71029.80, -187500.02, 187500.00, -72823.91, -187500.02, -92124.86, -72982.84, 0.000, 0.000, 0.000, 13:01:57.868
102, -58548.07, -70931.23, -187500.02, 187500.00, -72774.06, -187500.02, -92246.23, -73189.38, 0.116, 0.664, 0.710, 13:01:57.868
103, -58506.38, -70895.35, -187500.02, 187500.00, -72708.32, -187500.02, -92261.54, -73264.70, 0.000, 0.000, 0.000, 13:01:57.868
104, -58622.54, -71015.11, -187500.02, 187500.00, -72755.98, -187500.02, -92117.93, -73045.41, 0.000, 0.000, 0.000, 13:01:57.868
105, -58664.92, -71054.61, -187500.02, 187500.00, -72821.20, -187500.02, -92095.73, -72959.65, 0.000, 0.000, 0.000, 13:01:57.869
106, -58568.14, -70951.27, -187500.02, 187500.00, -72788.81, -187500.02, -92222.18, -73154.66, 0.000, 0.000, 0.000, 13:01:57.869
107, -58511.03, -70891.69, -187500.02, 187500.00, -72711.18, -187500.02, -92263.15, -73275.72, 0.000, 0.000, 0.000, 13:01:57.869
108, -58621.63, -71006.26, -187500.02, 187500.00, -72744.66, -187500.02, -92122.69, -73078.00, 0.000, 0.000, 0.000, 13:01:57.869
109, -58670.40, -71054.56, -187500.02, 187500.00, -72819.52, -187500.02, -92076.48, -72952.13, 0.000, 0.000, 0.000, 13:01:57.869
110, -58599.59, -70981.12, -187500.02, 187500.00, -72811.77, -187500.02, -92185.01, -73106.67, 0.000, 0.000, 0.000, 13:01:57.869
111, -58513.11, -70893.98, -187500.02, 187500.00, -72736.40, -187500.02, -92255.95, -73269.17, 0.000, 0.000, 0.000, 13:01:57.869
112, -58574.76, -70960.20, -187500.02, 187500.00, -72727.59, -187500.02, -92148.35, -73129.12, 0.126, 0.668, 0.704, 13:01:57.869
113, -58665.59, -71053.98, -187500.02, 187500.00, -72813.94, -187500.02, -92062.56, -72945.88, 0.000, 0.000, 0.000, 13:01:57.869
114, -58619.48, -71001.59, -187500.02, 187500.00, -72828.55, -187500.02, -92151.12, -73050.55, 0.000, 0.000, 0.000, 13:01:57.870
115, -58525.00, -70903.27, -187500.02, 187500.00, -72757.07, -187500.02, -92251.28, -73243.96, 0.000, 0.000, 0.000, 13:01:57.870
116, -58572.88, -70954.74, -187500.02, 187500.00, -72737.88, -187500.02, -92166.39, -73151.38, 0.000, 0.000, 0.000, 13:01:57.870
117, -58658.71, -71045.64, -187500.02, 187500.00, -72809.06, -187500.02, -92056.70, -72945.56, 0.000, 0.000, 0.000, 13:01:57.870
118, -58621.63, -71011.02, -187500.02, 187500.00, -72824.20, -187500.02, -92118.09, -73006.59, 0.000, 0.000, 0.000, 13:01:57.870
119, -58534.79, -70923.76, -187500.02, 187500.00, -72774.55, -187500.02, -92228.57, -73209.54, 0.000, 0.000, 0.000, 13:01:57.870
120, -58541.95, -70934.63, -187500.02, 187500.00, -72727.08, -187500.02, -92176.73, -73177.95, 0.000, 0.000, 0.000, 13:01:58.332
121, -58634.17, -71031.02, -187500.02, 187500.00, -72787.91, -187500.02, -92044.62, -72952.63, 0.120, 0.664, 0.692, 13:01:58.332
122, -58613.92, -71014.30, -187500.02, 187500.00, -72817.33, -187500.02, -92078.03, -72967.85, 0.000, 0.000, 0.000, 13:01:58.332
123, -58511.37, -70918.38, -187500.02, 187500.00, -72754.05, -187500.02, -92187.24, -73167.09, 0.000, 0.000, 0.000, 13:01:58.332
124, -58502.09, -70914.17, -187500.02, 187500.00, -72703.94, -187500.02, -92172.16, -73191.39, 0.000, 0.000, 0.000, 13:01:58.332
125, -58622.05, -71033.33, -187500.02, 187500.00, -72762.55, -187500.02, -92030.89, -72962.17, 0.000, 0.000, 0.000, 13:01:58.332
126, -58637.48, -71049.17, -187500.02, 187500.00, -72820.95, -187500.02, -92038.71, -72918.98, 0.000, 0.000, 0.000, 13:01:58.332
127, -58551.15, -70961.84, -187500.02, 187500.00, -72785.86, -187500.02, -92161.63, -73116.87, 0.000, 0.000, 0.000, 13:01:58.333
128, -58511.95, -70920.30, -187500.02, 187500.00, -72721.53, -187500.02, -92184.85, -73205.73, 0.000, 0.000, 0.000, 13:01:58.333
129, -58612.44, -71028.08, -187500.02, 187500.00, -72758.52, -187500.02, -92053.78, -73006.02, 0.000, 0.000, 0.000, 13:01:58.333
130, -58656.96, -71072.48, -187500.02, 187500.00, -72835.33, -187500.02, -92032.74, -72917.09, 0.000, 0.000, 0.000, 13:01:58.333
131, -58566.35, -70975.64, -187500.02, 187500.00, -72806.94, -187500.02, -92160.58, -73105.76, 0.120, 0.670, 0.698, 13:01:58.333
132, -58492.03, -70896.89, -187500.02, 187500.00, -72729.16, -187500.02, -92228.55, -73258.45, 0.000, 0.000, 0.000, 13:01:58.333
133, -58568.32, -70975.59, -187500.02, 187500.00, -72732.48, -187500.02, -92107.27, -73094.09, 0.000, 0.000, 0.000, 13:01:58.333
134, -58632.18, -71041.30, -187500.02, 187500.00, -72801.82, -187500.02, -92039.38, -72948.63, 0.000, 0.000, 0.000, 13:01:58.333
135, -58562.89, -70970.27, -187500.02, 187500.00, -72794.65, -187500.02, -92136.77, -73088.05, 0.000, 0.000, 0.000, 13:01:58.333
136, -58478.04, -70877.40, -187500.02, 187500.00, -72713.40, -187500.02, -92221.15, -73265.46, 0.000, 0.000, 0.000, 13:01:58.333
137, -58562.30, -70962.34, -187500.02, 187500.00, -72720.66, -187500.02, -92119.16, -73136.60, 0.000, 0.000, 0.000, 13:01:58.333
138, -58639.60, -71042.42, -187500.02, 187500.00, -72802.22, -187500.02, -92044.28, -72963.94, 0.000, 0.000, 0.000, 13:01:58.334
139, -58596.59, -70995.76, -187500.02, 187500.00, -72814.07, -187500.02, -92139.54, -73074.11, 0.000, 0.000, 0.000, 13:01:58.334
140, -58506.70, -70897.14, -187500.02, 187500.00, -72743.39, -187500.02, -92259.55, -73287.10, 0.116, 0.678, 0.702, 13:01:58.334
141, -58544.11, -70936.30, -187500.02, 187500.00, -72711.12, -187500.02, -92189.79, -73218.52, 0.000, 0.000, 0.000, 13:01:58.334
142, -58635.13, -71026.55, -187500.02, 187500.00, -72779.69, -187500.02, -92076.24, -73011.59, 0.000, 0.000, 0.000, 13:01:58.334
143, -58616.75, -71001.55, -187500.02, 187500.00, -72815.25, -187500.02, -92133.93, -73061.39, 0.000, 0.000, 0.000, 13:01:58.334
144, -58534.07, -70910.15, -187500.02, 187500.00, -72756.96, -187500.02, -92242.59, -73266.02, 0.000, 0.000, 0.000, 13:01:58.334
145, -58543.22, -70915.35, -187500.02, 187500.00, -72712.26, -187500.02, -92204.32, -73256.09, 0.000, 0.000, 0.000, 13:01:58.334
146, -58645.28, -71014.53, -187500.02, 187500.00, -72774.39, -187500.02, -92077.49, -73033.77, 0.000, 0.000, 0.000, 13:01:58.334
147, -58638.35, -71004.88, -187500.02, 187500.00, -72817.96, -187500.02, -92113.01, -73037.59, 0.000, 0.000, 0.000, 13:01:58.334
148, -58533.61, -70898.34, -187500.02, 187500.00, -72763.64, -187500.02, -92237.53, -73251.29, 0.000, 0.000, 0.000, 13:01:58.335
149, -58528.09, -70894.03, -187500.02, 187500.00, -72712.37, -187500.02, -92222.13, -73284.73, 0.000, 0.000, 0.000, 13:01:58.335
150, -58633.83, -71006.88, -187500.02, 187500.00, -72770.21, -187500.02, -92084.65, -73062.73, 0.114, 0.676, 0.706, 13:01:58.335
151, -58655.02, -71022.48, -187500.02, 187500.00, -72824.59, -187500.02, -92080.89, -73006.07, 0.000, 0.000, 0.000, 13:01:58.335
152, -58556.36, -70919.83, -187500.02, 187500.00, -72780.38, -187500.02, -92199.69, -73202.27, 0.000, 0.000, 0.000, 13:01:58.335
153, -58504.17, -70870.41, -187500.02, 187500.00, -72708.81, -187500.02, -92232.34, -73305.31, 0.000, 0.000, 0.000, 13:01:58.335
154, -58594.80, -70964.91, -187500.02, 187500.00, -72735.88, -187500.02, -92100.78, -73109.45, 0.000, 0.000, 0.000, 13:01:58.335
155, -58640.05, -71009.30, -187500.02, 187500.00, -72806.94, -187500.02, -92060.93, -72996.23, 0.000, 0.000, 0.000, 13:01:58.335
156, -58575.23, -70942.58, -187500.02, 187500.00, -72789.41, -187500.02, -92165.45, -73155.49, 0.000, 0.000, 0.000, 13:01:58.335
157, -58512.39, -70878.66, -187500.02, 187500.00, -72720.02, -187500.02, -92225.35, -73298.52, 0.000, 0.000, 0.000, 13:01:58.335
158, -58577.80, -70954.25, -187500.02, 187500.00, -72715.92, -187500.02, -92105.45, -73140.54, 0.000, 0.000, 0.000, 13:01:58.335
159, -58656.83, -71030.98, -187500.02, 187500.00, -72791.45, -187500.02, -92033.48, -72984.97, 0.128, 0.670, 0.698, 13:01:58.336
160, -58588.30, -70954.70, -187500.02, 187500.00, -72789.84, -187500.02, -92140.21, -73126.86, 0.000, 0.000, 0.000, 13:01:58.336
161, -58508.06, -70876.42, -187500.02, 187500.00, -72712.81, -187500.02, -92218.91, -73301.36, 0.000, 0.000, 0.000, 13:01:58.336
162, -58561.84, -70942.96, -187500.02, 187500.00, -72703.96, -187500.02, -92120.79, -73179.70, 0.000, 0.000, 0.000, 13:01:58.336
163, -58638.17, -71035.07, -187500.02, 187500.00, -72772.49, -187500.02, -92024.61, -72981.04, 0.000, 0.000, 0.000, 13:01:58.336
164, -58585.39, -70984.24, -187500.02, 187500.00, -72773.95, -187500.02, -92098.39, -73062.64, 0.000, 0.000, 0.000, 13:01:58.336
165, -58501.35, -70901.54, -187500.02, 187500.00, -72712.50, -187500.02, -92200.18, -73251.31, 0.000, 0.000, 0.000, 13:01:58.336
166, -58547.78, -70954.96, -187500.02, 187500.00, -72694.27, -187500.02, -92137.93, -73182.67, 0.000, 0.000, 0.000, 13:01:58.336
167, -58633.07, -71048.02, -187500.02, 187500.00, -72765.27, -187500.02, -92043.61, -72979.77, 0.000, 0.000, 0.000, 13:01:58.337
168, -58604.33, -71025.84, -187500.02, 187500.00, -72788.70, -187500.02, -92097.27, -73013.52, 0.000, 0.000, 0.000, 13:01:58.337
169, -58506.09, -70931.74, -187500.02, 187500.00, -72729.91, -187500.02, -92219.00, -73224.47, 0.136, 0.660, 0.704, 13:01:58.337
170, -58514.83, -70948.62, -187500.02, 187500.00, -72685.99, -187500.02, -92189.34, -73224.24, 0.000, 0.000, 0.000, 13:01:58.337
171, -58614.45, -71063.62, -187500.02, 187500.00, -72746.74, -187500.02, -92061.27, -73003.37, 0.000, 0.000, 0.000, 13:01:58.337
172, -58627.44, -71076.58, -187500.02, 187500.00, -72805.51, -187500.02, -92085.05, -72984.43, 0.000, 0.000, 0.000, 13:01:58.337
173, -58518.52, -70962.92, -187500.02, 187500.00, -72753.02, -187500.02, -92217.35, -73196.64, 0.000, 0.000, 0.000, 13:01:58.337
174, -58480.86, -70931.60, -187500.02, 187500.00, -72679.82, -187500.02, -92219.98, -73252.30, 0.000, 0.000, 0.000, 13:01:58.337
175, -58589.20, -71047.72, -187500.02, 187500.00, -72723.52, -187500.02, -92070.68, -73023.46, 0.000, 0.000, 0.000, 13:01:58.337
176, -58628.24, -71090.97, -187500.02, 187500.00, -72796.48, -187500.02, -92056.57, -72946.62, 0.000, 0.000, 0.000, 13:01:58.337
177, -58544.60, -71004.92, -187500.02, 187500.00, -72769.77, -187500.02, -92178.08, -73130.26, 0.000, 0.000, 0.000, 13:01:58.338
178, -58491.88, -70959.27, -187500.02, 187500.00, -72706.89, -187500.02, -92219.25, -73234.37, 0.000, 0.000, 0.000, 13:01:58.338
179, -58558.39, -71035.49, -187500.02, 187500.00, -72717.64, -187500.02, -92095.04, -73044.29, 0.134, 0.660, 0.694, 13:01:58.338
180, -58619.08, -71097.41, -187500.02, 187500.00, -72789.95, -187500.02, -92046.63, -72913.65, 0.000, 0.000, 0.000, 13:01:58.338
181, -58530.19, -71007.63, -187500.02, 187500.00, -72770.66, -187500.02, -92163.88, -73079.30, 0.000, 0.000, 0.000, 13:01:58.338
182, -58453.30, -70931.78, -187500.02, 187500.00, -72686.06, -187500.02, -92229.38, -73231.76, 0.000, 0.000, 0.000, 13:01:58.338
183, -58533.29, -71016.48, -187500.02, 187500.00, -72697.82, -187500.02, -92112.09, -73073.55, 0.000, 0.000, 0.000, 13:01:58.338
184, -58554.80, -71031.27, -187500.02, 187500.00, -72758.30, -187500.02, -92090.32, -72961.43, 0.000, 0.000, 0.000, 13:01:58.338
185, -58459.06, -70933.73, -187500.02, 187500.00, -72713.42, -187500.02, -92204.32, -73112.45, 0.000, 0.000, 0.000, 13:01:58.338
186, -58381.32, -70858.36, -187500.02, 187500.00, -72629.95, -187500.02, -92263.02, -73274.76, 0.000, 0.000, 0.000, 13:01:58.338
187, -58426.41, -70909.39, -187500.02, 187500.00, -72606.42, -187500.02, -92152.46, -73160.30, 0.000, 0.000, 0.000, 13:01:58.338
188, -58521.13, -71005.84, -187500.02, 187500.00, -72685.23, -187500.02, -92043.90, -72956.96, 0.124, 0.666, 0.704, 13:01:58.339
189, -58514.25, -70997.20, -187500.02, 187500.00, -72715.84, -187500.02, -92102.35, -73013.94, 0.000, 0.000, 0.000, 13:01:58.339
190, -58446.55, -70926.24, -187500.02, 187500.00, -72675.45, -187500.02, -92204.09, -73200.75, 0.000, 0.000, 0.000, 13:01:58.339
191, -58469.86, -70953.53, -187500.02, 187500.00, -72645.40, -187500.02, -92158.12, -73158.80, 0.000, 0.000, 0.000, 13:01:58.339
192, -58555.67, -71040.57, -187500.02, 187500.00, -72708.30, -187500.02, -92050.60, -72952.98, 0.000, 0.000, 0.000, 13:01:58.339
193, -58538.41, -71019.24, -187500.02, 187500.00, -72736.82, -187500.02, -92101.39, -72984.50, 0.000, 0.000, 0.000, 13:01:58.339
194, -58462.37, -70938.31, -187500.02, 187500.00, -72690.17, -187500.02, -92213.88, -73182.20, 0.000, 0.000, 0.000, 13:01:58.339
195, -58474.80, -70954.76, -187500.02, 187500.00, -72663.69, -187500.02, -92190.95, -73190.09, 0.000, 0.000, 0.000, 13:01:58.339
196, -58574.46, -71055.52, -187500.02, 187500.00, -72719.68, -187500.02, -92069.89, -72976.68, 0.000, 0.000, 0.000, 13:01:58.339
197, -58584.05, -71055.12, -187500.02, 187500.00, -72763.62, -187500.02, -92089.77, -72954.35, 0.000, 0.000, 0.000, 13:01:58.339
198, -58504.84, -70965.40, -187500.02, 187500.00, -72727.95, -187500.02, -92210.30, -73156.07, 0.122, 0.664, 0.714, 13:01:58.340
199, -58486.33, -70942.47, -187500.02, 187500.00, -72688.45, -187500.02, -92221.44, -73224.78, 0.000, 0.000, 0.000, 13:01:58.340
200, -58579.79, -71044.62, -187500.02, 187500.00, -72734.74, -187500.02, -92099.00, -73023.88, 0.000, 0.000, 0.000, 13:01:58.340
201, -58602.56, -71065.38, -187500.02, 187500.00, -72785.03, -187500.02, -92087.91, -72945.12, 0.000, 0.000, 0.000, 13:01:58.340
202, -58506.83, -70973.42, -187500.02, 187500.00, -72741.05, -187500.02, -92197.97, -73118.32, 0.000, 0.000, 0.000, 13:01:58.340
203, -58446.57, -70916.47, -187500.02, 187500.00, -72665.61, -187500.02, -92233.27, -73232.36, 0.000, 0.000, 0.000, 13:01:58.340
204, -58547.20, -71015.42, -187500.02, 187500.00, -72690.09, -187500.02, -92097.59, -73039.95, 0.000, 0.000, 0.000, 13:01:58.340
205, -58611.91, -71077.30, -187500.02, 187500.00, -72771.55, -187500.02, -92043.61, -72900.08, 0.000, 0.000, 0.000, 13:01:58.340
206, -58530.48, -70993.61, -187500.02, 187500.00, -72761.88, -187500.02, -92151.12, -73047.22, 0.000, 0.000, 0.000, 13:01:58.340
207, -58441.70, -70899.93, -187500.02, 187500.00, -72683.24, -187500.02, -92225.10, -73206.90, 0.126, 0.654, 0.710, 13:01:58.340
208, -58515.21, -70974.14, -187500.02, 187500.00, -72681.81, -187500.02, -92109.10, -73059.11, 0.000, 0.000, 0.000, 13:01:58.340
209, -58601.87, -71061.55, -187500.02, 187500.00, -72766.48, -187500.02, -92017.37, -72871.18, 0.000, 0.000, 0.000, 13:01:58.341
210, -58544.02, -70997.50, -187500.02, 187500.00, -72769.25, -187500.02, -92099.71, -72967.47, 0.000, 0.000, 0.000, 13:01:58.341
211, -58451.29, -70902.75, -187500.02, 187500.00, -72693.44, -187500.02, -92187.89, -73141.63, 0.000, 0.000, 0.000, 13:01:58.341
212, -58510.65, -70964.44, -187500.02, 187500.00, -72681.86, -187500.02, -92094.03, -73032.52, 0.000, 0.000, 0.000, 13:01:58.341
213, -58593.78, -71053.71, -187500.02, 187500.00, -72755.98, -187500.02, -91988.89, -72821.78, 0.000, 0.000, 0.000, 13:01:58.341
214, -58557.63, -71018.62, -187500.02, 187500.00, -72779.67, -187500.02, -92050.18, -72875.96, 0.000, 0.000, 0.000, 13:01:58.341
215, -58464.90, -70918.02, -187500.02, 187500.00, -72711.54, -187500.02, -92159.08, -73076.05, 0.000, 0.000, 0.000, 13:01:58.341
216, -58492.19, -70944.08, -187500.02, 187500.00, -72677.73, -187500.02, -92107.04, -73036.70, 0.000, 0.000, 0.000, 13:01:58.341
217, -58581.53, -71038.45, -187500.02, 187500.00, -72735.14, -187500.02, -91980.09, -72817.53, 0.132, 0.650, 0.694, 13:01:58.341
218, -58581.71, -71040.68, -187500.02, 187500.00, -72786.80, -187500.02, -92015.55, -72825.36, 0.000, 0.000, 0.000, 13:01:58.341
219, -58503.14, -70962.27, -187500.02, 187500.00, -72747.46, -187500.02, -92146.00, -73035.28, 0.000, 0.000, 0.000, 13:01:58.341
220, -58488.50, -70953.55, -187500.02, 187500.00, -72688.52, -187500.02, -92134.85, -73062.40, 0.000, 0.000, 0.000, 13:01:58.342
221, -58597.42, -71071.10, -187500.02, 187500.00, -72742.79, -187500.02, -91998.08, -72833.88, 0.000, 0.000, 0.000, 13:01:58.342
222, -58599.59, -71079.82, -187500.02, 187500.00, -72799.98, -187500.02, -92023.72, -72804.93, 0.000, 0.000, 0.000, 13:01:58.342
223, -58498.04, -70984.76, -187500.02, 187500.00, -72761.84, -187500.02, -92190.15, -73034.59, 0.000, 0.000, 0.000, 13:01:58.342
224, -58452.31, -70942.18, -187500.02, 187500.00, -72694.42, -187500.02, -92241.38, -73147.55, 0.000, 0.000, 0.000, 13:01:58.342
225, -58543.96, -71040.28, -187500.02, 187500.00, -72721.91, -187500.02, -92098.88, -72945.67, 0.000, 0.000, 0.000, 13:01:58.342
226, -58609.63, -71109.14, -187500.02, 187500.00, -72802.91, -187500.02, -92053.31, -72828.77, 0.124, 0.664, 0.702, 13:01:58.342
227, -58524.98, -71024.77, -187500.02, 187500.00, -72782.10, -187500.02, -92171.30, -73007.86, 0.000, 0.000, 0.000, 13:01:58.342
228, -58453.01, -70957.13, -187500.02, 187500.00, -72706.55, -187500.02, -92232.30, -73153.26, 0.000, 0.000, 0.000, 13:01:58.342
229, -58530.61, -71041.09, -187500.02, 187500.00, -72713.62, -187500.02, -92114.44, -72986.91, 0.000, 0.000, 0.000, 13:01:58.342
230, -58591.27, -71104.18, -187500.02, 187500.00, -72778.71, -187500.02, -92055.59, -72849.32, 0.000, 0.000, 0.000, 13:01:58.343
231, -58527.86, -71039.45, -187500.02, 187500.00, -72773.73, -187500.02, -92155.61, -72993.58, 0.000, 0.000, 0.000, 13:01:58.343
232, -58449.79, -70961.31, -187500.02, 187500.00, -72700.32, -187500.02, -92238.13, -73172.88, 0.000, 0.000, 0.000, 13:01:58.343
233, -58509.36, -71024.99, -187500.02, 187500.00, -72692.14, -187500.02, -92144.33, -73056.52, 0.000, 0.000, 0.000, 13:01:58.343
234, -58600.06, -71122.35, -187500.02, 187500.00, -72776.36, -187500.02, -92061.55, -72880.23, 0.000, 0.000, 0.000, 13:01:58.343
235, -58557.52, -71071.86, -187500.02, 187500.00, -72793.17, -187500.02, -92152.41, -72984.79, 0.000, 0.000, 0.000, 13:01:58.343
236, -58477.57, -70985.70, -187500.02, 187500.00, -72733.36, -187500.02, -92257.47, -73186.96, 0.126, 0.678, 0.702, 13:01:58.343
237, -58508.75, -71019.45, -187500.02, 187500.00, -72707.54, -187500.02, -92197.45, -73127.87, 0.000, 0.000, 0.000, 13:01:58.343
238, -58607.30, -71117.17, -187500.02, 187500.00, -72768.80, -187500.02, -92085.02, -72919.44, 0.000, 0.000, 0.000, 13:01:58.343
239, -58577.26, -71082.03, -187500.02, 187500.00, -72797.38, -187500.02, -92145.78, -72971.27, 0.000, 0.000, 0.000, 13:01:58.343
240, -58483.16, -70986.43, -187500.02, 187500.00, -72741.00, -187500.02, -92264.06, -73186.60, 0.000, 0.000, 0.000, 13:01:58.811
241, -58502.00, -71007.58, -187500.02, 187500.00, -72708.48, -187500.02, -92226.96, -73181.58, 0.000, 0.000, 0.000, 13:01:58.811
242, -58600.57, -71109.19, -187500.02, 187500.00, -72769.27, -187500.02, -92108.98, -72974.58, 0.000, 0.000, 0.000, 13:01:58.811
243, -58605.51, -71112.41, -187500.02, 187500.00, -72809.62, -187500.02, -92139.32, -72977.08, 0.000, 0.000, 0.000, 13:01:58.811
244, -58508.73, -71011.84, -187500.02, 187500.00, -72758.91, -187500.02, -92261.45, -73191.59, 0.000, 0.000, 0.000, 13:01:58.812
245, -58505.42, -71009.23, -187500.02, 187500.00, -72706.96, -187500.02, -92251.16, -73233.27, 0.000, 0.000, 0.000, 13:01:58.812
246, -58613.94, -71120.41, -187500.02, 187500.00, -72761.19, -187500.02, -92120.61, -73019.05, 0.124, 0.686, 0.698, 13:01:58.812
247, -58618.25, -71123.27, -187500.02, 187500.00, -72808.03, -187500.02, -92130.00, -72976.68, 0.000, 0.000, 0.000, 13:01:58.812
248, -58532.00, -71031.85, -187500.02, 187500.00, -72770.35, -187500.02, -92248.44, -73171.09, 0.000, 0.000, 0.000, 13:01:58.812
249, -58498.89, -70994.59, -187500.02, 187500.00, -72719.59, -187500.02, -92277.03, -73269.15, 0.000, 0.000, 0.000, 13:01:58.812
250, -58583.65, -71083.22, -187500.02, 187500.00, -72745.02, -187500.02, -92154.63, -73082.36, 0.000, 0.000, 0.000, 13:01:58.812
251, -58628.11, -71125.44, -187500.02, 187500.00, -72816.52, -187500.02, -92119.09, -72973.68, 0.000, 0.000, 0.000, 13:01:58.812
252, -58561.43, -71057.67, -187500.02, 187500.00, -72804.14, -187500.02, -92227.25, -73132.36, 0.000, 0.000, 0.000, 13:01:58.812
253, -58482.87, -70982.30, -187500.02, 187500.00, -72724.26, -187500.02, -92288.07, -73271.19, 0.000, 0.000, 0.000, 13:01:58.812
254, -58553.43, -71057.91, -187500.02, 187500.00, -72725.09, -187500.02, -92162.07, -73100.95, 0.000, 0.000, 0.000, 13:01:58.813
255, -58609.56, -71113.81, -187500.02, 187500.00, -72800.41, -187500.02, -92094.46, -72943.69, 0.118, 0.688, 0.694, 13:01:58.813
0, -58531.19, -71034.20, -187500.02, 187500.00, -72785.70, -187500.02, -92190.68, -73078.18, 0.000, 0.000, 0.000, 13:01:58.813
1, -58448.96, -70948.97, -187500.02, 187500.00, -72708.01, -187500.02, -92265.80, -73249.50, 0.000, 0.000, 0.000, 13:01:58.813
2, -58516.29, -71020.52, -187500.02, 187500.00, -72706.38, -187500.02, -92160.87, -73123.39, 0.000, 0.000, 0.000, 13:01:58.813
3, -58599.97, -71104.98, -187500.02, 187500.00, -72787.34, -187500.02, -92069.88, -72934.14, 0.000, 0.000, 0.000, 13:01:58.813
4, -58564.27, -71067.86, -187500.02, 187500.00, -72804.63, -187500.02, -92143.09, -73016.64, 0.000, 0.000, 0.000, 13:01:58.813
5, -58470.51, -70972.71, -187500.02, 187500.00, -72738.45, -187500.02, -92246.12, -73214.37, 0.000, 0.000, 0.000, 13:01:58.813
6, -58496.17, -71003.35, -187500.02, 187500.00, -72711.85, -187500.02, -92184.56, -73158.62, 0.000, 0.000, 0.000, 13:01:58.813
7, -58577.89, -71090.37, -187500.02, 187500.00, -72774.44, -187500.02, -92070.84, -72947.35, 0.000, 0.000, 0.000, 13:01:58.813
8, -58550.82, -71064.02, -187500.02, 187500.00, -72793.46, -187500.02, -92113.93, -72977.57, 0.000, 0.000, 0.000, 13:01:58.814
9, -58457.27, -70969.47, -187500.02, 187500.00, -72736.71, -187500.02, -92224.91, -73180.97, 0.126, 0.682, 0.700, 13:01:58.814
10, -58471.09, -70982.12, -187500.02, 187500.00, -72700.86, -187500.02, -92197.23, -73180.80, 0.000, 0.000, 0.000, 13:01:58.814
11, -58565.03, -71082.95, -187500.02, 187500.00, -72758.16, -187500.02, -92074.05, -72967.13, 0.000, 0.000, 0.000, 13:01:58.814
12, -58550.26, -71068.87, -187500.02, 187500.00, -72796.52, -187500.02, -92102.41, -72960.61, 0.000, 0.000, 0.000, 13:01:58.814
13, -58464.88, -70972.44, -187500.02, 187500.00, -72740.20, -187500.02, -92217.69, -73160.09, 0.000, 0.000, 0.000, 13:01:58.814
14, -58447.71, -70954.07, -187500.02, 187500.00, -72691.09, -187500.02, -92226.29, -73220.67, 0.000, 0.000, 0.000, 13:01:58.814
15, -58542.66, -71059.21, -187500.02, 187500.00, -72728.57, -187500.02, -92093.41, -73010.34, 0.000, 0.000, 0.000, 13:01:58.814
16, -58568.63, -71089.38, -187500.02, 187500.00, -72790.02, -187500.02, -92083.30, -72941.79, 0.000, 0.000, 0.000, 13:01:58.814
17, -58507.95, -71023.60, -187500.02, 187500.00, -72773.27, -187500.02, -92193.45, -73120.49, 0.000, 0.000, 0.000, 13:01:58.814
18, -58450.75, -70968.55, -187500.02, 187500.00, -72711.97, -187500.02, -92237.71, -73234.73, 0.130, 0.674, 0.696, 13:01:58.815
19, -58513.27, -71038.49, -187500.02, 187500.00, -72717.98, -187500.02, -92118.69, -73055.76, 0.000, 0.000, 0.000, 13:01:58.815
20, -58568.97, -71095.13, -187500.02, 187500.00, -72793.10, -187500.02, -92080.06, -72942.05, 0.000, 0.000, 0.000, 13:01:58.815
21, -58497.71, -71023.54, -187500.02, 187500.00, -72786.60, -187500.02, -92190.17, -73101.40, 0.000, 0.000, 0.000, 13:01:58.815
22, -58418.27, -70939.98, -187500.02, 187500.00, -72706.53, -187500.02, -92255.50, -73254.95, 0.000, 0.000, 0.000, 13:01:58.815
23, -58507.30, -71027.29, -187500.02, 187500.00, -72718.09, -187500.02, -92137.46, -73097.42, 0.000, 0.000, 0.000, 13:01:58.815
24, -58578.46, -71097.59, -187500.02, 187500.00, -72792.77, -187500.02, -92064.53, -72932.82, 0.000, 0.000, 0.000, 13:01:58.815
25, -58503.79, -71024.99, -187500.02, 187500.00, -72785.64, -187500.02, -92160.71, -73055.98, 0.000, 0.000, 0.000, 13:01:58.815
26, -58424.71, -70941.13, -187500.02, 187500.00, -72716.75, -187500.02, -92244.55, -73236.25, 0.000, 0.000, 0.000, 13:01:58.815
27, -58481.64, -70998.10, -187500.02, 187500.00, -72715.79, -187500.02, -92157.89, -73136.56, 0.000, 0.000, 0.000, 13:01:58.815
28, -58558.04, -71077.65, -187500.02, 187500.00, -72776.54, -187500.02, -92059.52, -72945.34, 0.126, 0.668, 0.694, 13:01:58.815
29, -58522.72, -71036.88, -187500.02, 187500.00, -72794.84, -187500.02, -92125.98, -73018.14, 0.000, 0.000, 0.000, 13:01:58.816
30, -58420.89, -70930.02, -187500.02, 187500.00, -72721.24, -187500.02, -92236.59, -73232.41, 0.000, 0.000, 0.000, 13:01:58.816
31, -58448.60, -70963.92, -187500.02, 187500.00, -72694.48, -187500.02, -92172.51, -73181.82, 0.000, 0.000, 0.000, 13:01:58.816
32, -58550.48, -71071.17, -187500.02, 187500.00, -72768.13, -187500.02, -92051.95, -72965.05, 0.000, 0.000, 0.000, 13:01:58.816
33, -58544.92, -71056.77, -187500.02, 187500.00, -72810.41, -187500.02, -92106.26, -72994.45, 0.000, 0.000, 0.000, 13:01:58.816
34, -58442.68, -70951.68, -187500.02, 187500.00, -72756.65, -187500.02, -92231.25, -73213.78, 0.000, 0.000, 0.000, 13:01:58.816
35, -58435.37, -70946.27, -187500.02, 187500.00, -72700.86, -187500.02, -92207.47, -73230.03, 0.000, 0.000, 0.000, 13:01:58.816
36, -58552.07, -71062.92, -187500.02, 187500.00, -72761.68, -187500.02, -92073.52, -73002.96, 0.000, 0.000, 0.000, 13:01:58.816
37, -58554.48, -71061.80, -187500.02, 187500.00, -72815.95, -187500.02, -92096.60, -72982.04, 0.000, 0.000, 0.000, 13:01:58.816
38, -58466.26, -70964.38, -187500.02, 187500.00, -72771.76, -187500.02, -92226.52, -73194.34, 0.126, 0.666, 0.696, 13:01:58.816
39, -58440.18, -70937.82, -187500.02, 187500.00, -72708.03, -187500.02, -92239.32, -73267.92, 0.000, 0.000, 0.000, 13:01:58.816
40, -58534.81, -71032.66, -187500.02, 187500.00, -72737.42, -187500.02, -92105.05, -73064.50, 0.000, 0.000, 0.000, 13:01:58.817
41, -58567.87, -71063.14, -187500.02, 187500.00, -72796.43, -187500.02, -92086.84, -72981.84, 0.000, 0.000, 0.000, 13:01:58.817
42, -58492.14, -70989.59, -187500.02, 187500.00, -72773.70, -187500.02, -92199.84, -73154.66, 0.000, 0.000, 0.000, 13:01:58.817
43, -58417.82, -70917.77, -187500.02, 187500.00, -72701.30, -187500.02, -92249.54, -73281.02, 0.000, 0.000, 0.000, 13:01:58.817
44, -58517.20, -71022.66, -187500.02, 187500.00, -72725.82, -187500.02, -92120.50, -73096.04, 0.000, 0.000, 0.000, 13:01:58.817
45, -58589.60, -71093.54, -187500.02, 187500.00, -72808.05, -187500.02, -92065.80, -72955.80, 0.000, 0.000, 0.000, 13:01:58.817
46, -58516.29, -71019.20, -187500.02, 187500.00, -72803.25, -187500.02, -92182.28, -73115.82, 0.000, 0.000, 0.000, 13:01:58.817
47, -58435.28, -70937.59, -187500.02, 187500.00, -72722.45, -187500.02, -92261.63, -73287.26, 0.120, 0.670, 0.696, 13:01:58.817
48, -58490.27, -70993.52, -187500.02, 187500.00, -72713.35, -187500.02, -92164.45, -73160.86, 0.000, 0.000, 0.000, 13:01:58.817
49, -58572.75, -71080.00, -187500.02, 187500.00, -72790.40, -187500.02, -92073.25, -72978.89, 0.000, 0.000, 0.000, 13:01:58.817
50, -58519.55, -71022.64, -187500.02, 187500.00, -72802.53, -187500.02, -92153.20, -73080.79, 0.000, 0.000, 0.000, 13:01:58.818
51, -58429.69, -70916.49, -187500.02, 187500.00, -72725.78, -187500.02, -92250.45, -73283.86, 0.000, 0.000, 0.000, 13:01:58.818
52, -58479.29, -70976.22, -187500.02, 187500.00, -72709.04, -187500.02, -92173.27, -73197.40, 0.000, 0.000, 0.000, 13:01:58.818
53, -58575.00, -71076.40, -187500.02, 187500.00, -72791.63, -187500.02, -92065.96, -72980.09, 0.000, 0.000, 0.000, 13:01:58.818
54, -58537.85, -71030.98, -187500.02, 187500.00, -72811.05, -187500.02, -92133.09, -73038.93, 0.000, 0.000, 0.000, 13:01:58.818
55, -58451.71, -70939.14, -187500.02, 187500.00, -72744.55, -187500.02, -92231.79, -73232.56, 0.000, 0.000, 0.000, 13:01:58.818
56, -58472.86, -70959.03, -187500.02, 187500.00, -72718.31, -187500.02, -92182.95, -73201.76, 0.000, 0.000, 0.000, 13:01:58.818
57, -58561.37, -71046.00, -187500.02, 187500.00, -72775.51, -187500.02, -92066.92, -72989.53, 0.130, 0.674, 0.696, 13:01:58.818
58, -58542.95, -71024.27, -187500.02, 187500.00, -72804.75, -187500.02, -92103.80, -73003.61, 0.000, 0.000, 0.000, 13:01:58.818
59, -58439.89, -70923.70, -187500.02, 187500.00, -72740.27, -187500.02, -92217.39, -73206.63, 0.000, 0.000, 0.000, 13:01:58.818
60, -58426.36, -70910.26, -187500.02, 187500.00, -72690.24, -187500.02, -92203.94, -73235.66, 0.000, 0.000, 0.000, 13:01:58.818
61, -58529.61, -71018.02, -187500.02, 187500.00, -72745.65, -187500.02, -92061.49, -73004.98, 0.000, 0.000, 0.000, 13:01:58.819
62, -58528.20, -71016.66, -187500.02, 187500.00, -72796.19, -187500.02, -92067.05, -72958.30, 0.000, 0.000, 0.000, 13:01:58.819
63, -58437.72, -70924.85, -187500.02, 187500.00, -72753.43, -187500.02, -92184.00, -73148.41, 0.000, 0.000, 0.000, 13:01:58.819
64, -58399.32, -70885.02, -187500.02, 187500.00, -72684.52, -187500.02, -92207.91, -73233.45, 0.000, 0.000, 0.000, 13:01:58.819
65, -58517.31, -71003.96, -187500.02, 187500.00, -72724.70, -187500.02, -92064.98, -73017.00, 0.000, 0.000, 0.000, 13:01:58.819
66, -58553.95, -71039.41, -187500.02, 187500.00, -72796.21, -187500.02, -92041.93, -72922.30, 0.132, 0.670, 0.698, 13:01:58.819
67, -58478.98, -70966.49, -187500.02, 187500.00, -72785.41, -187500.02, -92158.23, -73094.90, 0.000, 0.000, 0.000, 13:01:58.819
68, -58410.00, -70896.63, -187500.02, 187500.00, -72714.49, -187500.02, -92223.77, -73241.79, 0.000, 0.000, 0.000, 13:01:58.819
69, -58483.98, -70971.75, -187500.02, 187500.00, -72708.16, -187500.02, -92104.74, -73078.31, 0.000, 0.000, 0.000, 13:01:58.819
70, -58572.32, -71063.46, -187500.02, 187500.00, -72791.38, -187500.02, -92030.16, -72913.11, 0.000, 0.000, 0.000, 13:01:58.819
71, -58501.31, -70986.95, -187500.02, 187500.00, -72785.52, -187500.02, -92136.50, -73055.47, 0.000, 0.000, 0.000, 13:01:58.819
72, -58414.41, -70899.59, -187500.02, 187500.00, -72712.50, -187500.02, -92230.31, -73241.45, 0.000, 0.000, 0.000, 13:01:58.820
73, -58474.31, -70961.91, -187500.02, 187500.00, -72700.59, -187500.02, -92130.06, -73119.73, 0.000, 0.000, 0.000, 13:01:58.820
74, -58569.97, -71060.71, -187500.02, 187500.00, -72787.18, -187500.02, -92034.73, -72928.40, 0.000, 0.000, 0.000, 13:01:58.820
75, -58518.59, -71007.29, -187500.02, 187500.00, -72800.55, -187500.02, -92129.88, -73033.18, 0.000, 0.000, 0.000, 13:01:58.820
76, -58428.78, -70922.24, -187500.02, 187500.00, -72741.76, -187500.02, -92236.30, -73226.34, 0.128, 0.666, 0.700, 13:01:58.820
77, -58463.51, -70953.62, -187500.02, 187500.00, -72720.13, -187500.02, -92178.84, -73162.02, 0.000, 0.000, 0.000, 13:01:58.820
78, -58564.16, -71057.18, -187500.02, 187500.00, -72791.85, -187500.02, -92067.37, -72953.56, 0.000, 0.000, 0.000, 13:01:58.820
79, -58526.39, -71019.45, -187500.02, 187500.00, -72809.02, -187500.02, -92116.70, -72999.27, 0.000, 0.000, 0.000, 13:01:58.820
80, -58406.83, -70895.33, -187500.02, 187500.00, -72732.15, -187500.02, -92243.92, -73225.12, 0.000, 0.000, 0.000, 13:01:58.820
81, -58423.21, -70909.90, -187500.02, 187500.00, -72682.69, -187500.02, -92201.05, -73212.71, 0.000, 0.000, 0.000, 13:01:58.820
82, -58547.42, -71034.34, -187500.02, 187500.00, -72766.59, -187500.02, -92066.34, -72981.66, 0.000, 0.000, 0.000, 13:01:58.820
83, -58531.57, -71021.81, -187500.02, 187500.00, -72803.45, -187500.02, -92108.48, -72989.98, 0.000, 0.000, 0.000, 13:01:58.821
84, -58430.57, -70918.13, -187500.02, 187500.00, -72740.46, -187500.02, -92229.24, -73194.00, 0.000, 0.000, 0.000, 13:01:58.821
85, -58408.05, -70894.68, -187500.02, 187500.00, -72683.91, -187500.02, -92231.45, -73243.52, 0.124, 0.664, 0.694, 13:01:58.821
86, -58529.74, -71020.56, -187500.02, 187500.00, -72751.55, -187500.02, -92097.03, -73022.34, 0.000, 0.000, 0.000, 13:01:58.821
87, -58544.98, -71037.17, -187500.02, 187500.00, -72814.20, -187500.02, -92106.48, -72971.94, 0.000, 0.000, 0.000, 13:01:58.821
88, -58445.61, -70929.34, -187500.02, 187500.00, -72762.15, -187500.02, -92234.91, -73170.87, 0.000, 0.000, 0.000, 13:01:58.821
89, -58411.61, -70891.93, -187500.02, 187500.00, -72697.51, -187500.02, -92270.48, -73273.87, 0.000, 0.000, 0.000, 13:01:58.821
90, -58513.82, -70995.55, -187500.02, 187500.00, -72728.08, -187500.02, -92143.50, -73077.55, 0.000, 0.000, 0.000, 13:01:58.821
91, -58562.84, -71045.40, -187500.02, 187500.00, -72802.98, -187500.02, -92115.91, -72968.09, 0.000, 0.000, 0.000, 13:01:58.821
92, -58472.65, -70957.53, -187500.02, 187500.00, -72774.35, -187500.02, -92234.54, -73140.63, 0.000, 0.000, 0.000, 13:01:58.821
93, -58404.52, -70888.87, -187500.02, 187500.00, -72700.79, -187500.02, -92292.16, -73277.51, 0.000, 0.000, 0.000, 13:01:58.821
94, -58494.11, -70980.84, -187500.02, 187500.00, -72716.19, -187500.02, -92173.47, -73106.27, 0.000, 0.000, 0.000, 13:01:58.822
95, -58555.36, -71041.55, -187500.02, 187500.00, -72789.48, -187500.02, -92114.82, -72948.78, 0.124, 0.674, 0.698, 13:01:58.822
96, -58476.57, -70961.38, -187500.02, 187500.00, -72769.41, -187500.02, -92213.21, -73077.77, 0.000, 0.000, 0.000, 13:01:58.822
97, -58390.55, -70873.87, -187500.02, 187500.00, -72695.16, -187500.02, -92297.26, -73255.70, 0.000, 0.000, 0.000, 13:01:58.822
98, -58463.31, -70947.41, -187500.02, 187500.00, -72694.15, -187500.02, -92194.15, -73131.38, 0.000, 0.000, 0.000, 13:01:58.822
99, -58554.33, -71041.38, -187500.02, 187500.00, -72777.27, -187500.02, -92097.05, -72935.26, 0.000, 0.000, 0.000, 13:01:58.822
100, -58504.75, -70991.75, -187500.02, 187500.00, -72787.05, -187500.02, -92178.41, -73025.60, 0.000, 0.000, 0.000, 13:01:58.822
101, -58418.38, -70902.55, -187500.02, 187500.00, -72719.70, -187500.02, -92278.86, -73218.48, 0.000, 0.000, 0.000, 13:01:58.822
102, -58448.43, -70933.35, -187500.02, 187500.00, -72694.64, -187500.02, -92217.69, -73162.55, 0.000, 0.000, 0.000, 13:01:58.822
103, -58540.13, -71025.66, -187500.02, 187500.00, -72757.97, -187500.02, -92102.51, -72952.38, 0.000, 0.000, 0.000, 13:01:58.822
104, -58523.01, -71016.77, -187500.02, 187500.00, -72791.23, -187500.02, -92149.11, -72981.44, 0.000, 0.000, 0.000, 13:01:59.292
105, -58428.71, -70920.90, -187500.02, 187500.00, -72737.49, -187500.02, -92266.03, -73188.37, 0.130, 0.678, 0.708, 13:01:59.292
106, -58433.96, -70923.80, -187500.02, 187500.00, -72696.16, -187500.02, -92241.58, -73197.52, 0.000, 0.000, 0.000, 13:01:59.292
107, -58525.29, -71018.59, -187500.02, 187500.00, -72741.85, -187500.02, -92112.12, -72980.19, 0.000, 0.000, 0.000, 13:01:59.292
108, -58544.67, -71033.08, -187500.02, 187500.00, -72796.32, -187500.02, -92126.38, -72952.91, 0.000, 0.000, 0.000, 13:01:59.292
109, -58455.11, -70940.41, -187500.02, 187500.00, -72757.52, -187500.02, -92248.93, -73154.89, 0.000, 0.000, 0.000, 13:01:59.292
110, -58437.63, -70919.00, -187500.02, 187500.00, -72707.41, -187500.02, -92261.23, -73219.44, 0.000, 0.000, 0.000, 13:01:59.292
111, -58529.18, -71019.58, -187500.02, 187500.00, -72749.36, -187500.02, -92139.05, -73019.28, 0.000, 0.000, 0.000, 13:01:59.292
112, -58558.06, -71045.11, -187500.02, 187500.00, -72810.18, -187500.02, -92136.30, -72954.19, 0.000, 0.000, 0.000, 13:01:59.292
113, -58465.66, -70949.59, -187500.02, 187500.00, -72765.12, -187500.02, -92254.25, -73141.09, 0.000, 0.000, 0.000, 13:01:59.292
114, -58407.90, -70889.49, -187500.02, 187500.00, -72693.95, -187500.02, -92294.02, -73253.80, 0.134, 0.680, 0.702, 13:01:59.293
115, -58507.14, -70987.33, -187500.02, 187500.00, -72723.50, -187500.02, -92156.41, -73056.12, 0.000, 0.000, 0.000, 13:01:59.293
116, -58560.43, -71041.13, -187500.02, 187500.00, -72805.15, -187500.02, -92115.29, -72936.73, 0.000, 0.000, 0.000, 13:01:59.293
117, -58481.19, -70970.34, -187500.02, 187500.00, -72776.61, -187500.02, -92220.43, -73094.59, 0.000, 0.000, 0.000, 13:01:59.293
118, -58403.92, -70891.28, -187500.02, 187500.00, -72700.99, -187500.02, -92275.62, -73239.04, 0.000, 0.000, 0.000, 13:01:59.293
119, -58466.26, -70955.41, -187500.02, 187500.00, -72701.39, -187500.02, -92171.04, -73093.95, 0.000, 0.000, 0.000, 13:01:59.293
120, -58543.89, -71037.15, -187500.02, 187500.00, -72783.85, -187500.02, -92100.83, -72928.13, 0.000, 0.000, 0.000, 13:01:59.293
121, -58489.39, -70978.88, -187500.02, 187500.00, -72784.20, -187500.02, -92182.28, -73038.70, 0.000, 0.000, 0.000, 13:01:59.293
122, -58403.52, -70886.23, -187500.02, 187500.00, -72715.16, -187500.02, -92273.12, -73223.58, 0.000, 0.000, 0.000, 13:01:59.293
123, -58445.83, -70927.76, -187500.02, 187500.00, -72703.23, -187500.02, -92187.76, -73127.77, 0.000, 0.000, 0.000, 13:01:59.293
124, -58551.15, -71037.13, -187500.02, 187500.00, -72773.21, -187500.02, -92081.63, -72929.96, 0.136, 0.674, 0.702, 13:01:59.294
125, -58528.87, -71003.58, -187500.02, 187500.00, -72802.00, -187500.02, -92162.19, -73010.09, 0.000, 0.000, 0.000, 13:01:59.294
126, -58420.44, -70900.36, -187500.02, 187500.00, -72728.20, -187500.02, -92269.49, -73209.98, 0.000, 0.000, 0.000, 13:01:59.294
127, -58425.16, -70907.76, -187500.02, 187500.00, -72684.34, -187500.02, -92212.70, -73167.49, 0.000, 0.000, 0.000, 13:01:59.294
128, -58532.40, -71009.52, -187500.02, 187500.00, -72742.95, -187500.02, -92086.97, -72948.89, 0.000, 0.000, 0.000, 13:01:59.294
129, -58527.64, -71002.30, -187500.02, 187500.00, -72777.95, -187500.02, -92109.08, -72951.82, 0.000, 0.000, 0.000, 13:01:59.294
130, -58430.14, -70901.79, -187500.02, 187500.00, -72728.23, -187500.02, -92230.49, -73158.51, 0.000, 0.000, 0.000, 13:01:59.294
131, -58424.26, -70898.59, -187500.02, 187500.00, -72686.77, -187500.02, -92217.08, -73178.52, 0.000, 0.000, 0.000, 13:01:59.295
132, -58521.25, -70996.78, -187500.02, 187500.00, -72733.18, -187500.02, -92080.47, -72953.52, 0.000, 0.000, 0.000, 13:01:59.295
133, -58536.69, -71007.69, -187500.02, 187500.00, -72783.40, -187500.02, -92084.00, -72911.19, 0.134, 0.668, 0.694, 13:01:59.295
134, -58438.34, -70906.23, -187500.02, 187500.00, -72743.70, -187500.02, -92212.50, -73119.62, 0.000, 0.000, 0.000, 13:01:59.295
135, -58388.25, -70860.70, -187500.02, 187500.00, -72667.89, -187500.02, -92231.37, -73198.36, 0.000, 0.000, 0.000, 13:01:59.295
136, -58499.12, -70974.14, -187500.02, 187500.00, -72705.57, -187500.02, -92084.27, -72976.38, 0.000, 0.000, 0.000, 13:01:59.295
137, -58552.09, -71025.46, -187500.02, 187500.00, -72786.35, -187500.02, -92060.04, -72884.19, 0.000, 0.000, 0.000, 13:01:59.295
138, -58453.27, -70923.63, -187500.02, 187500.00, -72754.41, -187500.02, -92192.02, -73084.19, 0.000, 0.000, 0.000, 13:01:59.295
139, -58392.05, -70849.88, -187500.02, 187500.00, -72681.79, -187500.02, -92250.09, -73223.58, 0.000, 0.000, 0.000, 13:01:59.295
140, -58477.79, -70941.23, -187500.02, 187500.00, -72697.91, -187500.02, -92128.16, -73048.18, 0.000, 0.000, 0.000, 13:01:59.296
141, -58537.18, -70996.00, -187500.02, 187500.00, -72771.11, -187500.02, -92078.23, -72921.71, 0.000, 0.000, 0.000, 13:01:59.296
142, -58467.91, -70927.65, -187500.02, 187500.00, -72748.27, -187500.02, -92176.13, -73072.37, 0.000, 0.000, 0.000, 13:01:59.296
143, -58383.96, -70844.66, -187500.02, 187500.00, -72673.05, -187500.02, -92251.84, -73238.46, 0.130, 0.664, 0.686, 13:01:59.296
144, -58461.68, -70923.65, -187500.02, 187500.00, -72681.88, -187500.02, -92150.02, -73106.20, 0.000, 0.000, 0.000, 13:01:59.296
145, -58552.25, -71012.65, -187500.02, 187500.00, -72767.98, -187500.02, -92063.14, -72926.72, 0.000, 0.000, 0.000, 13:01:59.296
146, -58475.52, -70933.39, -187500.02, 187500.00, -72761.85, -187500.02, -92164.55, -73048.27, 0.000, 0.000, 0.000, 13:01:59.296
147, -58404.70, -70864.35, -187500.02, 187500.00, -72694.95, -187500.02, -92260.82, -73236.00, 0.000, 0.000, 0.000, 13:01:59.296
148, -58438.25, -70898.48, -187500.02, 187500.00, -72677.27, -187500.02, -92184.36, -73154.15, 0.000, 0.000, 0.000, 13:01:59.296
149, -58529.25, -70986.59, -187500.02, 187500.00, -72738.48, -187500.02, -92070.66, -72936.47, 0.000, 0.000, 0.000, 13:01:59.296
150, -58491.70, -70946.70, -187500.02, 187500.00, -72756.63, -187500.02, -92129.69, -72985.53, 0.000, 0.000, 0.000, 13:01:59.297
151, -58400.55, -70858.24, -187500.02, 187500.00, -72700.90, -187500.02, -92232.16, -73181.04, 0.000, 0.000, 0.000, 13:01:59.297
152, -58390.85, -70857.87, -187500.02, 187500.00, -72654.12, -187500.02, -92195.16, -73163.05, 0.130, 0.674, 0.690, 13:01:59.297
153, -58498.13, -70968.93, -187500.02, 187500.00, -72708.63, -187500.02, -92061.60, -72934.66, 0.000, 0.000, 0.000, 13:01:59.297
154, -58498.71, -70964.20, -187500.02, 187500.00, -72757.07, -187500.02, -92100.38, -72941.56, 0.000, 0.000, 0.000, 13:01:59.297
155, -58400.03, -70865.69, -187500.02, 187500.00, -72700.68, -187500.02, -92211.20, -73142.30, 0.000, 0.000, 0.000, 13:01:59.297
156, -58391.56, -70861.64, -187500.02, 187500.00, -72655.66, -187500.02, -92199.53, -73175.90, 0.000, 0.000, 0.000, 13:01:59.297
157, -58493.78, -70959.59, -187500.02, 187500.00, -72704.10, -187500.02, -92067.48, -72957.70, 0.000, 0.000, 0.000, 13:01:59.297
158, -58509.76, -70977.41, -187500.02, 187500.00, -72757.36, -187500.02, -92061.29, -72903.88, 0.000, 0.000, 0.000, 13:01:59.297
159, -58422.96, -70884.22, -187500.02, 187500.00, -72722.36, -187500.02, -92179.51, -73097.78, 0.000, 0.000, 0.000, 13:01:59.297
160, -58368.09, -70834.17, -187500.02, 187500.00, -72644.75, -187500.02, -92204.63, -73185.47, 0.000, 0.000, 0.000, 13:01:59.297
161, -58459.44, -70928.20, -187500.02, 187500.00, -72676.16, -187500.02, -92070.45, -72978.06, 0.000, 0.000, 0.000, 13:01:59.298
162, -58511.03, -70977.49, -187500.02, 187500.00, -72756.98, -187500.02, -92041.55, -72868.61, 0.132, 0.684, 0.694, 13:01:59.298
163, -58432.09, -70892.58, -187500.02, 187500.00, -72744.94, -187500.02, -92162.09, -73038.57, 0.000, 0.000, 0.000, 13:01:59.298
164, -58363.80, -70827.91, -187500.02, 187500.00, -72670.23, -187500.02, -92212.81, -73168.03, 0.000, 0.000, 0.000, 13:01:59.298
165, -58449.14, -70924.14, -187500.02, 187500.00, -72680.65, -187500.02, -92096.59, -73001.29, 0.000, 0.000, 0.000, 13:01:59.298
166, -58511.52, -70984.24, -187500.02, 187500.00, -72755.59, -187500.02, -92045.38, -72861.41, 0.000, 0.000, 0.000, 13:01:59.298
167, -58456.58, -70929.59, -187500.02, 187500.00, -72753.79, -187500.02, -92132.86, -72991.27, 0.000, 0.000, 0.000, 13:01:59.298
168, -58360.16, -70831.54, -187500.02, 187500.00, -72675.98, -187500.02, -92228.68, -73184.13, 0.000, 0.000, 0.000, 13:01:59.298
169, -58409.00, -70888.47, -187500.02, 187500.00, -72667.17, -187500.02, -92144.39, -73083.90, 0.000, 0.000, 0.000, 13:01:59.298
170, -58509.00, -70984.60, -187500.02, 187500.00, -72747.15, -187500.02, -92058.47, -72908.33, 0.000, 0.000, 0.000, 13:01:59.299
171, -58463.67, -70931.67, -187500.02, 187500.00, -72749.98, -187500.02, -92149.51, -73012.44, 0.000, 0.000, 0.000, 13:01:59.299
172, -58380.74, -70837.44, -187500.02, 187500.00, -72667.24, -187500.02, -92253.18, -73213.49, 0.132, 0.672, 0.692, 13:01:59.299
173, -58443.08, -70905.54, -187500.02, 187500.00, -72659.59, -187500.02, -92189.81, -73149.41, 0.000, 0.000, 0.000, 13:01:59.299
174, -58563.78, -71025.73, -187500.02, 187500.00, -72753.83, -187500.02, -92076.91, -72930.81, 0.000, 0.000, 0.000, 13:01:59.299
175, -58534.39, -70986.03, -187500.02, 187500.00, -72776.31, -187500.02, -92141.13, -72987.30, 0.000, 0.000, 0.000, 13:01:59.299
176, -58446.10, -70888.82, -187500.02, 187500.00, -72718.70, -187500.02, -92262.37, -73206.43, 0.000, 0.000, 0.000, 13:01:59.299
177, -58447.48, -70885.36, -187500.02, 187500.00, -72676.52, -187500.02, -92237.63, -73208.13, 0.000, 0.000, 0.000, 13:01:59.299
178, -58555.62, -70991.30, -187500.02, 187500.00, -72738.30, -187500.02, -92109.68, -72988.66, 0.000, 0.000, 0.000, 13:01:59.299
179, -58544.85, -70975.37, -187500.02, 187500.00, -72777.91, -187500.02, -92140.39, -72987.59, 0.000, 0.000, 0.000, 13:01:59.300
180, -58445.61, -70881.05, -187500.02, 187500.00, -72732.20, -187500.02, -92256.71, -73193.63, 0.000, 0.000, 0.000, 13:01:59.300
181, -58414.63, -70852.45, -187500.02, 187500.00, -72670.57, -187500.02, -92253.91, -73248.43, 0.124, 0.668, 0.692, 13:01:59.300
182, -58511.97, -70944.48, -187500.02, 187500.00, -72706.40, -187500.02, -92123.41, -73042.46, 0.000, 0.000, 0.000, 13:01:59.300
183, -58545.74, -70974.19, -187500.02, 187500.00, -72767.63, -187500.02, -92112.79, -72981.26, 0.000, 0.000, 0.000, 13:01:59.300
184, -58457.32, -70881.41, -187500.02, 187500.00, -72738.52, -187500.02, -92237.02, -73178.31, 0.000, 0.000, 0.000, 13:01:59.300
185, -58403.00, -70822.73, -187500.02, 187500.00, -72665.88, -187500.02, -92276.27, -73290.38, 0.000, 0.000, 0.000, 13:01:59.300
186, -58519.46, -70940.61, -187500.02, 187500.00, -72704.50, -187500.02, -92140.17, -73088.57, 0.000, 0.000, 0.000, 13:01:59.300
187, -58551.38, -70966.92, -187500.02, 187500.00, -72771.00, -187500.02, -92099.27, -72967.73, 0.000, 0.000, 0.000, 13:01:59.300
188, -58471.20, -70877.76, -187500.02, 187500.00, -72749.20, -187500.02, -92206.62, -73125.45, 0.000, 0.000, 0.000, 13:01:59.300
189, -58418.47, -70822.80, -187500.02, 187500.00, -72684.12, -187500.02, -92258.34, -73261.02, 0.000, 0.000, 0.000, 13:01:59.300
190, -58500.01, -70901.19, -187500.02, 187500.00, -72702.89, -187500.02, -92136.99, -73089.66, 0.000, 0.000, 0.000, 13:01:59.301
191, -58562.46, -70967.28, -187500.02, 187500.00, -72773.09, -187500.02, -92062.52, -72920.38, 0.122, 0.664, 0.684, 13:01:59.301
192, -58491.52, -70896.53, -187500.02, 187500.00, -72762.55, -187500.02, -92150.31, -73038.57, 0.000, 0.000, 0.000, 13:01:59.301
193, -58405.20, -70806.16, -187500.02, 187500.00, -72685.45, -187500.02, -92234.74, -73221.34, 0.000, 0.000, 0.000, 13:01:59.301
194, -58470.86, -70868.91, -187500.02, 187500.00, -72680.43, -187500.02, -92145.94, -73115.77, 0.000, 0.000, 0.000, 13:01:59.301
195, -58559.29, -70956.26, -187500.02, 187500.00, -72757.66, -187500.02, -92047.97, -72916.53, 0.000, 0.000, 0.000, 13:01:59.301
196, -58526.16, -70921.28, -187500.02, 187500.00, -72782.84, -187500.02, -92125.48, -72994.00, 0.000, 0.000, 0.000, 13:01:59.301
197, -58431.39, -70824.70, -187500.02, 187500.00, -72718.72, -187500.02, -92241.04, -73206.30, 0.000, 0.000, 0.000, 13:01:59.301
198, -58439.13, -70840.41, -187500.02, 187500.00, -72673.66, -187500.02, -92172.45, -73149.52, 0.000, 0.000, 0.000, 13:01:59.301
199, -58534.07, -70938.84, -187500.02, 187500.00, -72733.38, -187500.02, -92044.52, -72925.24, 0.000, 0.000, 0.000, 13:01:59.301
200, -58510.20, -70917.19, -187500.02, 187500.00, -72765.07, -187500.02, -92091.51, -72959.13, 0.126, 0.668, 0.694, 13:01:59.301
201, -58419.05, -70825.91, -187500.02, 187500.00, -72709.53, -187500.02, -92200.02, -73164.05, 0.000, 0.000, 0.000, 13:01:59.301
202, -58423.84, -70829.03, -187500.02, 187500.00, -72666.34, -187500.02, -92170.63, -73170.73, 0.000, 0.000, 0.000, 13:01:59.302
203, -58529.98, -70938.60, -187500.02, 187500.00, -72720.82, -187500.02, -92029.37, -72941.92, 0.000, 0.000, 0.000, 13:01:59.302
204, -58556.81, -70963.88, -187500.02, 187500.00, -72785.01, -187500.02, -92045.04, -72909.17, 0.000, 0.000, 0.000, 13:01:59.302
205, -58443.15, -70844.08, -187500.02, 187500.00, -72732.33, -187500.02, -92182.32, -73126.66, 0.000, 0.000, 0.000, 13:01:59.302
206, -58401.26, -70816.63, -187500.02, 187500.00, -72658.97, -187500.02, -92196.70, -73199.52, 0.000, 0.000, 0.000, 13:01:59.302
207, -58492.19, -70915.00, -187500.02, 187500.00, -72687.34, -187500.02, -92066.20, -72991.95, 0.000, 0.000, 0.000, 13:01:59.302
208, -58539.48, -70964.71, -187500.02, 187500.00, -72755.41, -187500.02, -92035.30, -72900.08, 0.000, 0.000, 0.000, 13:01:59.302
209, -58470.98, -70897.67, -187500.02, 187500.00, -72748.17, -187500.02, -92157.05, -73079.05, 0.000, 0.000, 0.000, 13:01:59.302
210, -58404.86, -70826.46, -187500.02, 187500.00, -72681.50, -187500.02, -92217.39, -73208.48, 0.134, 0.668, 0.694, 13:01:59.302
211, -58492.03, -70917.19, -187500.02, 187500.00, -72698.53, -187500.02, -92098.93, -73030.97, 0.000, 0.000, 0.000, 13:01:59.303
212, -58561.57, -70980.20, -187500.02, 187500.00, -72770.15, -187500.02, -92050.38, -72900.70, 0.000, 0.000, 0.000, 13:01:59.303
213, -58476.79, -70897.34, -187500.02, 187500.00, -72751.82, -187500.02, -92157.63, -73059.38, 0.000, 0.000, 0.000, 13:01:59.303
214, -58390.93, -70805.49, -187500.02, 187500.00, -72669.12, -187500.02, -92235.38, -73225.25, 0.000, 0.000, 0.000, 13:01:59.303
215, -58475.16, -70891.04, -187500.02, 187500.00, -72669.45, -187500.02, -92120.19, -73073.53, 0.000, 0.000, 0.000, 13:01:59.303
216, -58552.72, -70972.22, -187500.02, 187500.00, -72755.02, -187500.02, -92039.32, -72898.34, 0.000, 0.000, 0.000, 13:01:59.303
217, -58493.69, -70909.59, -187500.02, 187500.00, -72749.98, -187500.02, -92127.09, -73008.73, 0.000, 0.000, 0.000, 13:01:59.303
218, -58405.71, -70819.00, -187500.02, 187500.00, -72679.13, -187500.02, -92217.46, -73194.49, 0.000, 0.000, 0.000, 13:01:59.303
219, -58450.08, -70864.17, -187500.02, 187500.00, -72666.23, -187500.02, -92141.24, -73106.18, 0.136, 0.676, 0.694, 13:01:59.303
220, -58553.79, -70975.05, -187500.02, 187500.00, -72763.45, -187500.02, -92039.77, -72900.59, 0.000, 0.000, 0.000, 13:01:59.304
221, -58513.89, -70938.27, -187500.02, 187500.00, -72776.56, -187500.02, -92114.95, -72972.41, 0.000, 0.000, 0.000, 13:01:59.304
222, -58427.44, -70848.37, -187500.02, 187500.00, -72703.59, -187500.02, -92223.34, -73178.54, 0.000, 0.000, 0.000, 13:01:59.304
223, -58430.61, -70857.06, -187500.02, 187500.00, -72656.40, -187500.02, -92170.39, -73144.90, 0.000, 0.000, 0.000, 13:01:59.304
224, -58526.90, -70960.46, -187500.02, 187500.00, -72721.48, -187500.02, -92040.70, -72921.70, 0.000, 0.000, 0.000, 13:01:59.304
225, -58532.51, -70969.05, -187500.02, 187500.00, -72766.37, -187500.02, -92071.08, -72931.77, 0.000, 0.000, 0.000, 13:01:59.772
226, -58430.03, -70867.63, -187500.02, 187500.00, -72714.23, -187500.02, -92192.09, -73136.90, 0.000, 0.000, 0.000, 13:01:59.772
227, -58394.63, -70834.20, -187500.02, 187500.00, -72646.84, -187500.02, -92183.38, -73173.10, 0.000, 0.000, 0.000, 13:01:59.772
228, -58509.58, -70950.47, -187500.02, 187500.00, -72696.52, -187500.02, -92045.84, -72949.48, 0.000, 0.000, 0.000, 13:01:59.772
229, -58533.16, -70971.16, -187500.02, 187500.00, -72762.68, -187500.02, -92061.18, -72915.86, 0.136, 0.674, 0.690, 13:01:59.772
230, -58449.90, -70884.46, -187500.02, 187500.00, -72729.42, -187500.02, -92183.93, -73115.33, 0.000, 0.000, 0.000, 13:01:59.772
231, -58395.27, -70834.58, -187500.02, 187500.00, -72662.59, -187500.02, -92213.88, -73205.94, 0.000, 0.000, 0.000, 13:01:59.772
232, -58498.63, -70943.41, -187500.02, 187500.00, -72699.25, -187500.02, -92074.16, -72995.19, 0.000, 0.000, 0.000, 13:01:59.773
233, -58537.50, -70976.38, -187500.02, 187500.00, -72762.62, -187500.02, -92052.66, -72910.12, 0.000, 0.000, 0.000, 13:01:59.773
234, -58442.41, -70881.70, -187500.02, 187500.00, -72729.09, -187500.02, -92173.36, -73090.49, 0.000, 0.000, 0.000, 13:01:59.773
235, -58392.63, -70831.83, -187500.02, 187500.00, -72661.98, -187500.02, -92217.73, -73214.03, 0.000, 0.000, 0.000, 13:01:59.773
236, -58471.18, -70921.93, -187500.02, 187500.00, -72681.68, -187500.02, -92089.63, -73031.69, 0.000, 0.000, 0.000, 13:01:59.773
237, -58531.39, -70979.41, -187500.02, 187500.00, -72759.64, -187500.02, -92035.47, -72892.23, 0.000, 0.000, 0.000, 13:01:59.773
238, -58460.29, -70903.66, -187500.02, 187500.00, -72745.00, -187500.02, -92146.47, -73046.17, 0.000, 0.000, 0.000, 13:01:59.773
239, -58400.82, -70842.73, -187500.02, 187500.00, -72681.01, -187500.02, -92229.58, -73217.90, 0.128, 0.674, 0.698, 13:01:59.773
240, -58471.60, -70915.06, -187500.02, 187500.00, -72680.18, -187500.02, -92131.38, -73090.85, 0.000, 0.000, 0.000, 13:01:59.773
241, -58540.65, -70984.58, -187500.02, 187500.00, -72753.09, -187500.02, -92052.80, -72917.98, 0.000, 0.000, 0.000, 13:01:59.773
242, -58496.77, -70934.84, -187500.02, 187500.00, -72765.79, -187500.02, -92138.41, -73024.53, 0.000, 0.000, 0.000, 13:01:59.774
243, -58405.20, -70842.27, -187500.02, 187500.00, -72693.41, -187500.02, -92229.24, -73215.62, 0.000, 0.000, 0.000, 13:01:59.774
244, -58449.07, -70891.77, -187500.02, 187500.00, -72672.72, -187500.02, -92156.91, -73143.60, 0.000, 0.000, 0.000, 13:01:59.774
245, -58537.18, -70975.30, -187500.02, 187500.00, -72743.13, -187500.02, -92051.12, -72935.44, 0.000, 0.000, 0.000, 13:01:59.774
246, -58512.98, -70947.30, -187500.02, 187500.00, -72770.52, -187500.02, -92113.44, -72991.61, 0.000, 0.000, 0.000, 13:01:59.774
247, -58427.52, -70861.69, -187500.02, 187500.00, -72717.02, -187500.02, -92224.59, -73190.54, 0.000, 0.000, 0.000, 13:01:59.774
248, -58428.73, -70861.15, -187500.02, 187500.00, -72676.31, -187500.02, -92183.95, -73173.53, 0.126, 0.664, 0.700, 13:01:59.774
249, -58537.23, -70966.59, -187500.02, 187500.00, -72742.95, -187500.02, -92065.11, -72967.00, 0.000, 0.000, 0.000, 13:01:59.774
250, -58530.23, -70950.11, -187500.02, 187500.00, -72781.23, -187500.02, -92101.90, -72976.66, 0.000, 0.000, 0.000, 13:01:59.774
251, -58433.92, -70854.85, -187500.02, 187500.00, -72722.90, -187500.02, -92207.23, -73173.82, 0.000, 0.000, 0.000, 13:01:59.774
252, -58427.88, -70851.85, -187500.02, 187500.00, -72674.55, -187500.02, -92202.33, -73211.51, 0.000, 0.000, 0.000, 13:01:59.775
253, -58525.11, -70953.29, -187500.02, 187500.00, -72722.27, -187500.02, -92076.13, -72998.00, 0.000, 0.000, 0.000, 13:01:59.775
254, -58534.97, -70962.07, -187500.02, 187500.00, -72772.61, -187500.02, -92077.56, -72954.84, 0.000, 0.000, 0.000, 13:01:59.775
255, -58441.72, -70866.13, -187500.02, 187500.00, -72729.24, -187500.02, -92199.69, -73156.84, 0.000, 0.000, 0.000, 13:01:59.775
0, -58408.10, -70827.65, -187500.02, 187500.00, -72668.72, -187500.02, -92226.52, -73248.99, 0.000, 0.000, 0.000, 13:01:59.775
1, -58510.07, -70930.60, -187500.02, 187500.00, -72701.93, -187500.02, -92090.34, -73039.89, 0.000, 0.000, 0.000, 13:01:59.775
2, -58547.40, -70967.66, -187500.02, 187500.00, -72769.39, -187500.02, -92062.67, -72935.80, 0.132, 0.668, 0.692, 13:01:59.775
3, -58458.21, -70874.88, -187500.02, 187500.00, -72749.54, -187500.02, -92189.95, -73116.60, 0.000, 0.000, 0.000, 13:01:59.775
4, -58403.30, -70818.35, -187500.02, 187500.00, -72683.55, -187500.02, -92246.74, -73250.13, 0.000, 0.000, 0.000, 13:01:59.775
5, -58471.25, -70892.49, -187500.02, 187500.00, -72693.48, -187500.02, -92136.99, -73091.59, 0.000, 0.000, 0.000, 13:01:59.775
6, -58525.61, -70955.09, -187500.02, 187500.00, -72761.70, -187500.02, -92075.57, -72943.41, 0.000, 0.000, 0.000, 13:01:59.775
7, -58472.68, -70894.61, -187500.02, 187500.00, -72759.82, -187500.02, -92175.66, -73076.10, 0.000, 0.000, 0.000, 13:01:59.776
8, -58395.65, -70819.69, -187500.02, 187500.00, -72688.48, -187500.02, -92259.28, -73245.52, 0.000, 0.000, 0.000, 13:01:59.776
9, -58463.91, -70892.34, -187500.02, 187500.00, -72687.85, -187500.02, -92167.17, -73126.21, 0.000, 0.000, 0.000, 13:01:59.776
10, -58545.88, -70971.95, -187500.02, 187500.00, -72755.17, -187500.02, -92080.63, -72944.49, 0.000, 0.000, 0.000, 13:01:59.776
11, -58511.43, -70931.60, -187500.02, 187500.00, -72775.40, -187500.02, -92163.21, -73039.22, 0.126, 0.676, 0.696, 13:01:59.776
12, -58427.28, -70840.70, -187500.02, 187500.00, -72717.46, -187500.02, -92270.10, -73234.77, 0.000, 0.000, 0.000, 13:01:59.776
13, -58444.71, -70877.58, -187500.02, 187500.00, -72684.77, -187500.02, -92216.99, -73181.87, 0.000, 0.000, 0.000, 13:01:59.776
14, -58534.50, -70976.17, -187500.02, 187500.00, -72739.15, -187500.02, -92105.92, -72972.77, 0.000, 0.000, 0.000, 13:01:59.776
15, -58505.60, -70943.23, -187500.02, 187500.00, -72776.43, -187500.02, -92170.88, -73019.81, 0.000, 0.000, 0.000, 13:01:59.776
16, -58411.27, -70841.57, -187500.02, 187500.00, -72708.50, -187500.02, -92280.80, -73219.33, 0.000, 0.000, 0.000, 13:01:59.776
17, -58434.32, -70868.22, -187500.02, 187500.00, -72671.76, -187500.02, -92236.23, -73199.03, 0.000, 0.000, 0.000, 13:01:59.777
18, -58545.72, -70980.80, -187500.02, 187500.00, -72749.02, -187500.02, -92116.66, -72981.05, 0.000, 0.000, 0.000, 13:01:59.777
19, -58528.29, -70958.34, -187500.02, 187500.00, -72785.03, -187500.02, -92150.90, -72980.05, 0.000, 0.000, 0.000, 13:01:59.777
20, -58419.72, -70850.31, -187500.02, 187500.00, -72728.75, -187500.02, -92272.89, -73188.17, 0.000, 0.000, 0.000, 13:01:59.777
21, -58408.37, -70845.46, -187500.02, 187500.00, -72670.13, -187500.02, -92260.15, -73227.64, 0.134, 0.672, 0.684, 13:01:59.777
22, -58501.58, -70947.95, -187500.02, 187500.00, -72716.57, -187500.02, -92126.04, -73014.34, 0.000, 0.000, 0.000, 13:01:59.777
23, -58523.39, -70973.58, -187500.02, 187500.00, -72770.44, -187500.02, -92118.78, -72949.77, 0.000, 0.000, 0.000, 13:01:59.777
24, -58453.72, -70895.46, -187500.02, 187500.00, -72751.62, -187500.02, -92234.05, -73136.38, 0.000, 0.000, 0.000, 13:01:59.777
25, -58388.88, -70833.39, -187500.02, 187500.00, -72679.63, -187500.02, -92274.77, -73246.20, 0.000, 0.000, 0.000, 13:01:59.777
26, -58483.88, -70934.04, -187500.02, 187500.00, -72693.84, -187500.02, -92139.88, -73045.34, 0.000, 0.000, 0.000, 13:01:59.778
27, -58535.08, -70986.10, -187500.02, 187500.00, -72764.36, -187500.02, -92089.67, -72917.96, 0.000, 0.000, 0.000, 13:01:59.778
28, -58462.30, -70912.85, -187500.02, 187500.00, -72750.08, -187500.02, -92197.63, -73077.51, 0.000, 0.000, 0.000, 13:01:59.778
29, -58393.28, -70846.18, -187500.02, 187500.00, -72680.88, -187500.02, -92272.34, -73236.80, 0.000, 0.000, 0.000, 13:01:59.778
30, -58485.46, -70941.39, -187500.02, 187500.00, -72692.38, -187500.02, -92154.95, -73072.19, 0.132, 0.668, 0.682, 13:01:59.778
31, -58541.12, -70996.72, -187500.02, 187500.00, -72763.22, -187500.02, -92099.45, -72923.32, 0.000, 0.000, 0.000, 13:01:59.778
32, -58481.08, -70940.79, -187500.02, 187500.00, -72755.62, -187500.02, -92189.66, -73043.80, 0.000, 0.000, 0.000, 13:01:59.778
33, -58393.28, -70852.14, -187500.02, 187500.00, -72689.57, -187500.02, -92270.23, -73214.81, 0.000, 0.000, 0.000, 13:01:59.778
34, -58438.39, -70896.47, -187500.02, 187500.00, -72669.85, -187500.02, -92174.77, -73108.51, 0.000, 0.000, 0.000, 13:01:59.778
35, -58514.83, -70980.24, -187500.02, 187500.00, -72730.38, -187500.02, -92078.77, -72921.94, 0.000, 0.000, 0.000, 13:01:59.778
36, -58472.32, -70937.26, -187500.02, 187500.00, -72738.23, -187500.02, -92150.77, -72999.34, 0.000, 0.000, 0.000, 13:01:59.778
37, -58386.53, -70852.59, -187500.02, 187500.00, -72677.70, -187500.02, -92245.91, -73191.08, 0.000, 0.000, 0.000, 13:01:59.778
38, -58409.40, -70881.85, -187500.02, 187500.00, -72644.73, -187500.02, -92183.02, -73139.47, 0.000, 0.000, 0.000, 13:01:59.779
39, -58507.75, -70987.15, -187500.02, 187500.00, -72719.59, -187500.02, -92058.23, -72918.07, 0.000, 0.000, 0.000, 13:01:59.779
40, -58487.96, -70972.51, -187500.02, 187500.00, -72756.18, -187500.02, -92102.22, -72943.28, 0.124, 0.674, 0.694, 13:01:59.779
41, -58373.46, -70862.70, -187500.02, 187500.00, -72693.16, -187500.02, -92221.33, -73155.83, 0.000, 0.000, 0.000, 13:01:59.779
42, -58378.20, -70863.43, -187500.02, 187500.00, -72641.40, -187500.02, -92192.49, -73163.47, 0.000, 0.000, 0.000, 13:01:59.779
43, -58480.25, -70972.33, -187500.02, 187500.00, -72699.63, -187500.02, -92067.64, -72943.40, 0.000, 0.000, 0.000, 13:01:59.779
44, -58505.40, -71002.57, -187500.02, 187500.00, -72760.42, -187500.02, -92083.10, -72912.20, 0.000, 0.000, 0.000, 13:01:59.779
45, -58404.19, -70900.91, -187500.02, 187500.00, -72717.02, -187500.02, -92208.56, -73117.78, 0.000, 0.000, 0.000, 13:01:59.779
46, -58362.32, -70855.38, -187500.02, 187500.00, -72642.98, -187500.02, -92223.41, -73194.72, 0.000, 0.000, 0.000, 13:01:59.779
47, -58457.32, -70954.16, -187500.02, 187500.00, -72679.31, -187500.02, -92086.70, -72981.21, 0.000, 0.000, 0.000, 13:01:59.779
48, -58491.72, -70988.83, -187500.02, 187500.00, -72741.27, -187500.02, -92076.91, -72911.77, 0.000, 0.000, 0.000, 13:01:59.780
49, -58414.81, -70908.36, -187500.02, 187500.00, -72715.63, -187500.02, -92194.28, -73099.50, 0.000, 0.000, 0.000, 13:01:59.780
50, -58369.07, -70863.66, -187500.02, 187500.00, -72647.70, -187500.02, -92225.57, -73205.36, 0.126, 0.678, 0.702, 13:01:59.780
51, -58476.79, -70979.05, -187500.02, 187500.00, -72687.63, -187500.02, -92100.90, -73014.34, 0.000, 0.000, 0.000, 13:01:59.780
52, -58518.86, -71023.02, -187500.02, 187500.00, -72758.66, -187500.02, -92068.38, -72900.15, 0.000, 0.000, 0.000, 13:01:59.780
53, -58430.05, -70933.77, -187500.02, 187500.00, -72724.88, -187500.02, -92174.14, -73057.05, 0.000, 0.000, 0.000, 13:01:59.780
54, -58354.41, -70856.66, -187500.02, 187500.00, -72646.84, -187500.02, -92248.48, -73220.87, 0.000, 0.000, 0.000, 13:01:59.780
55, -58423.34, -70934.53, -187500.02, 187500.00, -72648.69, -187500.02, -92140.73, -73075.98, 0.000, 0.000, 0.000, 13:01:59.780
56, -58501.80, -71013.45, -187500.02, 187500.00, -72726.70, -187500.02, -92071.46, -72913.98, 0.000, 0.000, 0.000, 13:01:59.780
57, -58456.09, -70966.74, -187500.02, 187500.00, -72740.64, -187500.02, -92159.81, -73023.15, 0.000, 0.000, 0.000, 13:01:59.780
58, -58362.41, -70878.27, -187500.02, 187500.00, -72663.87, -187500.02, -92252.95, -73209.91, 0.000, 0.000, 0.000, 13:01:59.780
59, -58421.73, -70938.78, -187500.02, 187500.00, -72649.74, -187500.02, -92160.82, -73107.84, 0.128, 0.678, 0.702, 13:01:59.781
60, -58510.23, -71024.55, -187500.02, 187500.00, -72725.87, -187500.02, -92057.45, -72906.56, 0.000, 0.000, 0.000, 13:01:59.781
61, -58454.86, -70962.23, -187500.02, 187500.00, -72731.14, -187500.02, -92132.41, -72979.92, 0.000, 0.000, 0.000, 13:01:59.781
62, -58345.89, -70857.35, -187500.02, 187500.00, -72656.73, -187500.02, -92237.63, -73181.42, 0.000, 0.000, 0.000, 13:01:59.781
63, -58389.35, -70911.00, -187500.02, 187500.00, -72634.07, -187500.02, -92181.02, -73138.55, 0.000, 0.000, 0.000, 13:01:59.781
64, -58504.84, -71029.86, -187500.02, 187500.00, -72722.16, -187500.02, -92071.03, -72919.79, 0.000, 0.000, 0.000, 13:01:59.781
65, -58470.89, -70996.49, -187500.02, 187500.00, -72747.64, -187500.02, -92123.59, -72950.44, 0.000, 0.000, 0.000, 13:01:59.781
66, -58375.94, -70900.94, -187500.02, 187500.00, -72678.28, -187500.02, -92230.54, -73151.98, 0.000, 0.000, 0.000, 13:01:59.781
67, -58381.26, -70910.30, -187500.02, 187500.00, -72645.60, -187500.02, -92220.27, -73176.13, 0.000, 0.000, 0.000, 13:01:59.781
68, -58487.41, -71019.67, -187500.02, 187500.00, -72702.11, -187500.02, -92099.42, -72966.20, 0.000, 0.000, 0.000, 13:01:59.781
69, -58492.88, -71024.41, -187500.02, 187500.00, -72750.43, -187500.02, -92113.84, -72934.68, 0.128, 0.676, 0.688, 13:01:59.781
70, -58385.26, -70913.48, -187500.02, 187500.00, -72695.88, -187500.02, -92233.94, -73139.91, 0.000, 0.000, 0.000, 13:01:59.782
71, -58342.59, -70873.76, -187500.02, 187500.00, -72633.04, -187500.02, -92252.15, -73221.77, 0.000, 0.000, 0.000, 13:01:59.782
72, -58451.91, -70994.39, -187500.02, 187500.00, -72677.32, -187500.02, -92117.21, -73011.03, 0.000, 0.000, 0.000, 13:01:59.782
73, -58500.77, -71035.85, -187500.02, 187500.00, -72752.20, -187500.02, -92090.01, -72914.43, 0.000, 0.000, 0.000, 13:01:59.782
74, -58402.29, -70931.74, -187500.02, 187500.00, -72712.70, -187500.02, -92206.51, -73094.43, 0.000, 0.000, 0.000, 13:01:59.782
75, -58340.15, -70870.77, -187500.02, 187500.00, -72638.96, -187500.02, -92256.51, -73221.32, 0.000, 0.000, 0.000, 13:01:59.782
76, -58430.77, -70970.18, -187500.02, 187500.00, -72664.06, -187500.02, -92141.09, -73052.52, 0.000, 0.000, 0.000, 13:01:59.782
77, -58498.71, -71042.42, -187500.02, 187500.00, -72736.22, -187500.02, -92087.09, -72913.53, 0.000, 0.000, 0.000, 13:01:59.782
78, -58429.27, -70975.70, -187500.02, 187500.00, -72731.59, -187500.02, -92189.01, -73056.80, 0.124, 0.678, 0.700, 13:01:59.782
79, -58350.77, -70902.32, -187500.02, 187500.00, -72658.10, -187500.02, -92263.70, -73220.27, 0.000, 0.000, 0.000, 13:01:59.782
80, -58426.05, -70978.16, -187500.02, 187500.00, -72663.10, -187500.02, -92162.14, -73085.35, 0.000, 0.000, 0.000, 13:01:59.782
81, -58509.91, -71064.13, -187500.02, 187500.00, -72736.87, -187500.02, -92081.18, -72912.26, 0.000, 0.000, 0.000, 13:01:59.782
82, -58437.81, -70990.68, -187500.02, 187500.00, -72725.11, -187500.02, -92161.65, -73016.66, 0.000, 0.000, 0.000, 13:01:59.783
83, -58350.88, -70899.02, -187500.02, 187500.00, -72655.70, -187500.02, -92257.42, -73210.05, 0.000, 0.000, 0.000, 13:01:59.783
84, -58396.23, -70950.91, -187500.02, 187500.00, -72642.52, -187500.02, -92185.38, -73131.59, 0.000, 0.000, 0.000, 13:01:59.783
85, -58491.52, -71050.98, -187500.02, 187500.00, -72715.74, -187500.02, -92071.48, -72920.69, 0.000, 0.000, 0.000, 13:01:59.783
86, -58457.39, -71010.57, -187500.02, 187500.00, -72738.36, -187500.02, -92136.37, -72977.55, 0.000, 0.000, 0.000, 13:01:59.783
87, -58350.10, -70900.67, -187500.02, 187500.00, -72653.80, -187500.02, -92244.66, -73186.36, 0.000, 0.000, 0.000, 13:01:59.783
88, -58359.11, -70916.30, -187500.02, 187500.00, -72603.11, -187500.02, -92189.50, -73158.09, 0.132, 0.682, 0.696, 13:01:59.783
89, -58480.52, -71041.53, -187500.02, 187500.00, -72674.73, -187500.02, -92055.81, -72928.51, 0.000, 0.000, 0.000, 13:02:00.140
90, -58486.00, -71037.62, -187500.02, 187500.00, -72724.88, -187500.02, -92094.86, -72932.89, 0.000, 0.000, 0.000, 13:02:00.140
91, -58391.34, -70939.98, -187500.02, 187500.00, -72673.48, -187500.02, -92220.10, -73141.55, 0.000, 0.000, 0.000, 13:02:00.140
92, -58394.85, -70945.95, -187500.02, 187500.00, -72634.88, -187500.02, -92211.90, -73175.16, 0.000, 0.000, 0.000, 13:02:00.140
93, -58497.11, -71049.80, -187500.02, 187500.00, -72692.79, -187500.02, -92092.67, -72964.49, 0.000, 0.000, 0.000, 13:02:00.140
94, -58496.30, -71042.76, -187500.02, 187500.00, -72733.78, -187500.02, -92110.26, -72931.95, 0.000, 0.000, 0.000, 13:02:00.140
95, -58401.13, -70944.63, -187500.02, 187500.00, -72683.84, -187500.02, -92232.08, -73131.71, 0.000, 0.000, 0.000, 13:02:00.140
96, -58373.41, -70918.06, -187500.02, 187500.00, -72628.46, -187500.02, -92252.02, -73216.18, 0.000, 0.000, 0.000, 13:02:00.140
97, -58467.91, -71015.29, -187500.02, 187500.00, -72662.81, -187500.02, -92126.18, -73018.52, 0.000, 0.000, 0.000, 13:02:00.140
98, -58525.67, -71067.52, -187500.02, 187500.00, -72743.80, -187500.02, -92098.48, -72915.73, 0.136, 0.674, 0.688, 13:02:00.141
99, -58428.33, -70962.45, -187500.02, 187500.00, -72709.80, -187500.02, -92213.21, -73093.13, 0.000, 0.000, 0.000, 13:02:00.141
100, -58353.94, -70882.88, -187500.02, 187500.00, -72622.98, -187500.02, -92269.27, -73237.52, 0.000, 0.000, 0.000, 13:02:00.141
101, -58444.31, -70976.20, -187500.02, 187500.00, -72633.76, -187500.02, -92142.98, -73062.77, 0.000, 0.000, 0.000, 13:02:00.141
102, -58531.26, -71062.20, -187500.02, 187500.00, -72723.55, -187500.02, -92072.55, -72899.79, 0.000, 0.000, 0.000, 13:02:00.141
103, -58459.76, -70985.77, -187500.02, 187500.00, -72714.83, -187500.02, -92172.40, -73033.12, 0.000, 0.000, 0.000, 13:02:00.141
104, -58392.25, -70914.88, -187500.02, 187500.00, -72645.55, -187500.02, -92244.10, -73192.82, 0.000, 0.000, 0.000, 13:02:00.141
105, -58470.64, -70998.34, -187500.02, 187500.00, -72649.65, -187500.02, -92145.94, -73067.38, 0.000, 0.000, 0.000, 13:02:00.141
106, -58549.48, -71079.30, -187500.02, 187500.00, -72727.57, -187500.02, -92064.69, -72893.48, 0.000, 0.000, 0.000, 13:02:00.141
107, -58480.66, -71009.63, -187500.02, 187500.00, -72727.03, -187500.02, -92152.87, -73001.82, 0.122, 0.676, 0.692, 13:02:00.141
108, -58386.38, -70914.57, -187500.02, 187500.00, -72650.23, -187500.02, -92254.45, -73204.60, 0.000, 0.000, 0.000, 13:02:00.141
109, -58428.93, -70963.23, -187500.02, 187500.00, -72630.43, -187500.02, -92185.56, -73138.39, 0.000, 0.000, 0.000, 13:02:00.142
110, -58535.84, -71077.16, -187500.02, 187500.00, -72710.02, -187500.02, -92066.61, -72919.34, 0.000, 0.000, 0.000, 13:02:00.142
111, -58524.26, -71059.13, -187500.02, 187500.00, -72753.12, -187500.02, -92124.92, -72963.71, 0.000, 0.000, 0.000, 13:02:00.142
112, -58407.99, -70944.86, -187500.02, 187500.00, -72684.90, -187500.02, -92248.24, -73185.02, 0.000, 0.000, 0.000, 13:02:00.142
113, -58399.50, -70941.75, -187500.02, 187500.00, -72630.85, -187500.02, -92219.18, -73187.86, 0.000, 0.000, 0.000, 13:02:00.142
114, -58515.05, -71061.27, -187500.02, 187500.00, -72694.09, -187500.02, -92093.70, -72970.69, 0.000, 0.000, 0.000, 13:02:00.142
115, -58528.93, -71065.29, -187500.02, 187500.00, -72749.72, -187500.02, -92125.17, -72961.73, 0.000, 0.000, 0.000, 13:02:00.142
116, -58431.14, -70957.89, -187500.02, 187500.00, -72696.97, -187500.02, -92247.39, -73169.88, 0.000, 0.000, 0.000, 13:02:00.142
117, -58425.54, -70952.30, -187500.02, 187500.00, -72649.11, -187500.02, -92244.46, -73218.55, 0.128, 0.676, 0.688, 13:02:00.142
118, -58516.93, -71046.11, -187500.02, 187500.00, -72687.71, -187500.02, -92113.23, -73009.22, 0.000, 0.000, 0.000, 13:02:00.142
119, -58522.18, -71048.57, -187500.02, 187500.00, -72735.10, -187500.02, -92107.04, -72951.89, 0.000, 0.000, 0.000, 13:02:00.143
120, -58435.97, -70961.78, -187500.02, 187500.00, -72698.63, -187500.02, -92225.41, -73143.04, 0.000, 0.000, 0.000, 13:02:00.143
121, -58406.27, -70930.66, -187500.02, 187500.00, -72641.36, -187500.02, -92257.88, -73245.37, 0.000, 0.000, 0.000, 13:02:00.143
122, -58505.67, -71035.12, -187500.02, 187500.00, -72681.34, -187500.02, -92132.59, -73052.65, 0.000, 0.000, 0.000, 13:02:00.143
123, -58537.16, -71070.48, -187500.02, 187500.00, -72746.79, -187500.02, -92111.00, -72951.87, 0.000, 0.000, 0.000, 13:02:00.143
124, -58454.10, -70988.58, -187500.02, 187500.00, -72716.62, -187500.02, -92219.27, -73116.30, 0.000, 0.000, 0.000, 13:02:00.143
125, -58401.39, -70934.17, -187500.02, 187500.00, -72656.22, -187500.02, -92276.63, -73255.63, 0.000, 0.000, 0.000, 13:02:00.143
126, -58478.58, -71013.73, -187500.02, 187500.00, -72670.03, -187500.02, -92159.95, -73094.96, 0.132, 0.668, 0.676, 13:02:00.143
127, -58539.29, -71077.34, -187500.02, 187500.00, -72740.82, -187500.02, -92092.70, -72939.57, 0.000, 0.000, 0.000, 13:02:00.143
128, -58481.13, -71012.18, -187500.02, 187500.00, -72734.85, -187500.02, -92185.79, -73062.87, 0.000, 0.000, 0.000, 13:02:00.144
129, -58400.73, -70929.44, -187500.02, 187500.00, -72660.20, -187500.02, -92263.51, -73234.59, 0.000, 0.000, 0.000, 13:02:00.144
130, -58452.76, -70986.39, -187500.02, 187500.00, -72650.61, -187500.02, -92173.88, -73127.13, 0.000, 0.000, 0.000, 13:02:00.144
131, -58548.27, -71082.48, -187500.02, 187500.00, -72726.85, -187500.02, -92076.20, -72930.03, 0.000, 0.000, 0.000, 13:02:00.144
132, -58505.00, -71040.95, -187500.02, 187500.00, -72746.08, -187500.02, -92150.52, -73008.39, 0.000, 0.000, 0.000, 13:02:00.144
133, -58406.07, -70947.50, -187500.02, 187500.00, -72681.26, -187500.02, -92258.03, -73212.48, 0.000, 0.000, 0.000, 13:02:00.144
134, -58431.21, -70975.05, -187500.02, 187500.00, -72647.13, -187500.02, -92193.50, -73157.62, 0.000, 0.000, 0.000, 13:02:00.144
135, -58542.61, -71088.42, -187500.02, 187500.00, -72714.55, -187500.02, -92064.84, -72931.23, 0.000, 0.000, 0.000, 13:02:00.144
136, -58514.81, -71055.84, -187500.02, 187500.00, -72746.01, -187500.02, -92118.27, -72964.45, 0.134, 0.670, 0.684, 13:02:00.144
137, -58421.67, -70956.51, -187500.02, 187500.00, -72690.13, -187500.02, -92234.83, -73168.59, 0.000, 0.000, 0.000, 13:02:00.144
138, -58405.29, -70943.23, -187500.02, 187500.00, -72639.01, -187500.02, -92219.36, -73187.90, 0.000, 0.000, 0.000, 13:02:00.145
139, -58518.34, -71059.79, -187500.02, 187500.00, -72699.02, -187500.02, -92083.75, -72958.98, 0.000, 0.000, 0.000, 13:02:00.145
140, -58528.13, -71067.57, -187500.02, 187500.00, -72757.05, -187500.02, -92100.34, -72928.40, 0.000, 0.000, 0.000, 13:02:00.145
141, -58423.19, -70958.96, -187500.02, 187500.00, -72708.59, -187500.02, -92229.35, -73135.80, 0.000, 0.000, 0.000, 13:02:00.145
142, -58400.05, -70936.57, -187500.02, 187500.00, -72653.31, -187500.02, -92244.51, -73205.23, 0.000, 0.000, 0.000, 13:02:00.145
143, -58507.90, -71047.84, -187500.02, 187500.00, -72693.44, -187500.02, -92107.04, -72988.48, 0.000, 0.000, 0.000, 13:02:00.145
144, -58535.02, -71075.39, -187500.02, 187500.00, -72754.57, -187500.02, -92092.34, -72910.34, 0.000, 0.000, 0.000, 13:02:00.145
145, -58449.96, -70992.76, -187500.02, 187500.00, -72727.34, -187500.02, -92206.02, -73089.13, 0.134, 0.668, 0.688, 13:02:00.145
146, -58396.93, -70939.83, -187500.02, 187500.00, -72660.20, -187500.02, -92254.07, -73210.99, 0.000, 0.000, 0.000, 13:02:00.145
147, -58494.74, -71044.81, -187500.02, 187500.00, -72687.29, -187500.02, -92133.15, -73030.99, 0.000, 0.000, 0.000, 13:02:00.145
148, -58547.31, -71102.33, -187500.02, 187500.00, -72752.63, -187500.02, -92091.02, -72911.25, 0.000, 0.000, 0.000, 13:02:00.146
149, -58477.21, -71032.14, -187500.02, 187500.00, -72739.30, -187500.02, -92195.31, -73061.32, 0.000, 0.000, 0.000, 13:02:00.146
150, -58395.47, -70950.29, -187500.02, 187500.00, -72665.98, -187500.02, -92273.54, -73229.92, 0.000, 0.000, 0.000, 13:02:00.146
151, -58476.30, -71041.35, -187500.02, 187500.00, -72672.65, -187500.02, -92163.15, -73084.21, 0.000, 0.000, 0.000, 13:02:00.146
152, -58555.49, -71128.75, -187500.02, 187500.00, -72763.66, -187500.02, -92090.52, -72913.76, 0.000, 0.000, 0.000, 13:02:00.146
153, -58479.09, -71060.35, -187500.02, 187500.00, -72744.80, -187500.02, -92186.21, -73038.19, 0.000, 0.000, 0.000, 13:02:00.146
154, -58391.79, -70970.25, -187500.02, 187500.00, -72665.79, -187500.02, -92269.72, -73223.53, 0.000, 0.000, 0.000, 13:02:00.146
155, -58455.15, -71031.30, -187500.02, 187500.00, -72656.51, -187500.02, -92178.73, -73128.06, 0.132, 0.670, 0.684, 13:02:00.146
156, -58559.98, -71153.02, -187500.02, 187500.00, -72743.33, -187500.02, -92069.34, -72927.08, 0.000, 0.000, 0.000, 13:02:00.146
157, -58522.12, -71129.55, -187500.02, 187500.00, -72766.64, -187500.02, -92134.13, -72993.15, 0.000, 0.000, 0.000, 13:02:00.146
158, -58429.94, -71045.53, -187500.02, 187500.00, -72700.41, -187500.02, -92237.64, -73189.27, 0.000, 0.000, 0.000, 13:02:00.146
159, -58457.43, -71083.93, -187500.02, 187500.00, -72675.66, -187500.02, -92183.53, -73145.45, 0.000, 0.000, 0.000, 13:02:00.147
160, -58535.19, -71175.38, -187500.02, 187500.00, -72730.72, -187500.02, -92067.01, -72930.66, 0.000, 0.000, 0.000, 13:02:00.147
161, -58507.79, -71153.06, -187500.02, 187500.00, -72754.08, -187500.02, -92110.55, -72954.44, 0.000, 0.000, 0.000, 13:02:00.147
162, -58430.81, -71076.45, -187500.02, 187500.00, -72703.52, -187500.02, -92214.42, -73150.71, 0.000, 0.000, 0.000, 13:02:00.147
163, -58429.20, -71082.92, -187500.02, 187500.00, -72669.19, -187500.02, -92187.91, -73160.07, 0.000, 0.000, 0.000, 13:02:00.147
164, -58523.05, -71182.39, -187500.02, 187500.00, -72722.67, -187500.02, -92065.06, -72946.93, 0.000, 0.000, 0.000, 13:02:00.147
165, -58530.34, -71194.08, -187500.02, 187500.00, -72765.74, -187500.02, -92083.48, -72920.53, 0.140, 0.676, 0.696, 13:02:00.147
166, -58433.43, -71095.80, -187500.02, 187500.00, -72720.33, -187500.02, -92206.80, -73121.52, 0.000, 0.000, 0.000, 13:02:00.147
167, -58399.36, -71066.34, -187500.02, 187500.00, -72663.95, -187500.02, -92219.31, -73193.40, 0.000, 0.000, 0.000, 13:02:00.147
168, -58486.54, -71162.25, -187500.02, 187500.00, -72696.72, -187500.02, -92090.93, -72986.18, 0.000, 0.000, 0.000, 13:02:00.147
169, -58526.34, -71198.88, -187500.02, 187500.00, -72762.46, -187500.02, -92070.23, -72891.09, 0.000, 0.000, 0.000, 13:02:00.147
170, -58446.10, -71124.70, -187500.02, 187500.00, -72737.63, -187500.02, -92176.34, -73053.39, 0.000, 0.000, 0.000, 13:02:00.148
171, -58386.75, -71073.16, -187500.02, 187500.00, -72671.09, -187500.02, -92223.70, -73169.53, 0.000, 0.000, 0.000, 13:02:00.148
172, -58478.58, -71174.41, -187500.02, 187500.00, -72686.40, -187500.02, -92098.55, -72985.46, 0.000, 0.000, 0.000, 13:02:00.148
173, -58532.55, -71237.48, -187500.02, 187500.00, -72756.40, -187500.02, -92049.94, -72847.28, 0.000, 0.000, 0.000, 13:02:00.148
174, -58443.04, -71157.09, -187500.02, 187500.00, -72724.44, -187500.02, -92155.84, -72989.41, 0.130, 0.672, 0.692, 13:02:00.148
175, -58366.35, -71087.55, -187500.02, 187500.00, -72649.00, -187500.02, -92221.75, -73139.11, 0.000, 0.000, 0.000, 13:02:00.148
176, -58432.80, -71168.47, -187500.02, 187500.00, -72653.02, -187500.02, -92119.31, -72993.48, 0.000, 0.000, 0.000, 13:02:00.148
177, -58521.80, -71263.41, -187500.02, 187500.00, -72734.59, -187500.02, -92036.01, -72802.34, 0.000, 0.000, 0.000, 13:02:00.148
