%OpenBCI Raw EEG Data
%
%Sample Rate = 250.0 Hz
%First Column = SampleIndex
%5 Columns before Timestamp are Frequency Power factors DELTA THETA ALPHA BETA GAMMA
%Last Column = Timestamp 
%Other Columns = EEG data in microvolts followed by Accel Data (in G) interleaved with Aux Data
0.000000, 0.000000, 0.000000, 0.000000, 0.000000, 0.000000, 0.000000, 0.000000, 0.210, 0.204, 0.940,0.0,0.0,0.0,0.0,0.0, 14:43:38.531
45509.757813, 39644.484375, 122338.734375, 62890.339844, 97107.281250, 81462.742188, 94403.507813, 107957.875000, 0.000, 0.000, 0.000,0.0,0.0,0.0,0.0,0.0, 14:43:39.012
45605.917969, 39746.003906, 122306.750000, 62276.359375, 97188.039063, 81212.531250, 94403.460938, 107999.242188, 0.000, 0.000, 0.000,0.0,0.0,0.0,0.0,0.0, 14:43:39.013
45588.125000, 39717.460938, 122339.539063, 61970.457031, 97186.585938, 81241.437500, 94408.000000, 108014.171875, 0.000, 0.000, 0.000,0.0,0.0,0.0,0.0,0.0, 14:43:39.013
45512.777344, 39638.046875, 122382.992188, 62537.296875, 97113.210938, 81492.867188, 94413.500000, 107984.734375, 0.000, 0.000, 0.000,0.0,0.0,0.0,0.0,0.0, 14:43:39.014
45515.167969, 39643.367188, 122363.992188, 62919.843750, 97112.265625, 81499.289063, 94410.281250, 107958.203125, 0.000, 0.000, 0.000,0.0,0.0,0.0,0.0,0.0, 14:43:39.015
45595.859375, 39735.164063, 122318.664063, 62408.726563, 97180.890625, 81250.195313, 94403.375000, 107988.359375, 0.000, 0.000, 0.000,0.0,0.0,0.0,0.0,0.0, 14:43:39.015
45606.699219, 39739.566406, 122338.851563, 61949.222656, 97206.593750, 81211.593750, 94410.125000, 108023.250000, 0.224, 0.204, 0.942,0.0,0.0,0.0,0.0,0.0, 14:43:39.016
45512.777344, 39639.632813, 122377.117188, 62423.078125, 97118.484375, 81453.304688, 94408.445313, 107986.953125, 0.000, 0.000, 0.000,0.0,0.0,0.0,0.0,0.0, 14:43:39.016
45496.863281, 39622.800781, 122360.976563, 62947.917969, 97089.804688, 81520.851563, 94403.437500, 107952.593750, 0.000, 0.000, 0.000,0.0,0.0,0.0,0.0,0.0, 14:43:39.017
45583.074219, 39711.226563, 122310.437500, 62564.003906, 97154.023438, 81284.843750, 94396.578125, 107974.414063, 0.000, 0.000, 0.000,0.0,0.0,0.0,0.0,0.0, 14:43:39.017
45611.972656, 39744.550781, 122318.132813, 61983.242188, 97207.195313, 81177.218750, 94407.195313, 108015.960938, 0.000, 0.000, 0.000,0.0,0.0,0.0,0.0,0.0, 14:43:39.018
45529.406250, 39657.089844, 122362.851563, 62317.308594, 97150.648438, 81405.250000, 94420.289063, 107996.429688, 0.000, 0.000, 0.000,0.0,0.0,0.0,0.0,0.0, 14:43:39.018
45487.742188, 39617.214844, 122357.515625, 62931.265625, 97089.718750, 81538.867188, 94412.023438, 107957.937500, 0.000, 0.000, 0.000,0.0,0.0,0.0,0.0,0.0, 14:43:39.019
45565.953125, 39699.894531, 122306.929688, 62682.000000, 97149.125000, 81334.773438, 94401.203125, 107972.335938, 0.000, 0.000, 0.000,0.0,0.0,0.0,0.0,0.0, 14:43:39.019
45630.882813, 39752.554688, 122304.250000, 62007.625000, 97206.500000, 81163.945313, 94400.578125, 108010.304688, 0.000, 0.000, 0.000,0.0,0.0,0.0,0.0,0.0, 14:43:39.020
45540.871094, 39667.394531, 122354.382813, 62183.109375, 97149.414063, 81358.578125, 94415.328125, 108005.031250, 0.000, 0.000, 0.000,0.0,0.0,0.0,0.0,0.0, 14:43:39.020
45462.796875, 39595.332031, 122359.859375, 62864.480469, 97083.679688, 81545.398438, 94410.906250, 107960.843750, 0.234, 0.194, 0.944,0.0,0.0,0.0,0.0,0.0, 14:43:39.021
45541.453125, 39672.625000, 122314.843750, 62805.695313, 97131.046875, 81390.453125, 94407.375000, 107968.914063, 0.000, 0.000, 0.000,0.0,0.0,0.0,0.0,0.0, 14:43:39.021
45621.339844, 39756.914063, 122299.171875, 62101.437500, 97206.835938, 81174.734375, 94415.195313, 108017.726563, 0.000, 0.000, 0.000,0.0,0.0,0.0,0.0,0.0, 14:43:39.022
45553.523438, 39679.796875, 122337.929688, 62091.445313, 97162.648438, 81313.046875, 94414.968750, 108015.921875, 0.000, 0.000, 0.000,0.0,0.0,0.0,0.0,0.0, 14:43:39.022
45476.343750, 39598.417969, 122361.718750, 62773.507813, 97092.640625, 81535.562500, 94411.437500, 107971.257813, 0.000, 0.000, 0.000,0.0,0.0,0.0,0.0,0.0, 14:43:39.022
45530.746094, 39654.675781, 122323.070313, 62873.152344, 97125.210938, 81435.539063, 94410.007813, 107967.953125, 0.000, 0.000, 0.000,0.0,0.0,0.0,0.0,0.0, 14:43:39.023
45624.179688, 39749.601563, 122300.828125, 62208.746094, 97200.875000, 81194.070313, 94411.218750, 108008.812500, 0.000, 0.000, 0.000,0.0,0.0,0.0,0.0,0.0, 14:43:39.023
45584.683594, 39705.101563, 122336.257813, 62026.402344, 97186.859375, 81272.906250, 94416.695313, 108018.914063, 0.000, 0.000, 0.000,0.0,0.0,0.0,0.0,0.0, 14:43:39.023
45498.046875, 39616.656250, 122367.992188, 62661.078125, 97112.023438, 81518.820313, 94418.679688, 107981.765625, 0.000, 0.000, 0.000,0.0,0.0,0.0,0.0,0.0, 14:43:39.023
45526.968750, 39647.054688, 122340.679688, 62935.289063, 97115.687500, 81481.250000, 94411.242188, 107962.945313, 0.232, 0.198, 0.938,0.0,0.0,0.0,0.0,0.0, 14:43:39.024
45620.734375, 39742.941406, 122309.929688, 62349.003906, 97196.398438, 81231.531250, 94407.640625, 107999.398438, 0.000, 0.000, 0.000,0.0,0.0,0.0,0.0,0.0, 14:43:39.024
45626.347656, 39742.496094, 122346.203125, 61990.593750, 97211.890625, 81247.070313, 94423.648438, 108034.851563, 0.000, 0.000, 0.000,0.0,0.0,0.0,0.0,0.0, 14:43:39.024
45524.242188, 39634.761719, 122382.617188, 62546.527344, 97131.265625, 81495.171875, 94421.273438, 107994.460938, 0.000, 0.000, 0.000,0.0,0.0,0.0,0.0,0.0, 14:43:39.025
45516.890625, 39626.421875, 122356.171875, 62968.082031, 97110.859375, 81517.812500, 94408.867188, 107964.421875, 0.000, 0.000, 0.000,0.0,0.0,0.0,0.0,0.0, 14:43:39.025
45611.882813, 39727.585938, 122313.476563, 62483.113281, 97178.851563, 81272.367188, 94406.007813, 107992.453125, 0.000, 0.000, 0.000,0.0,0.0,0.0,0.0,0.0, 14:43:39.025
45633.253906, 39748.507813, 122333.062500, 61992.335938, 97206.703125, 81218.593750, 94421.562500, 108031.382813, 0.000, 0.000, 0.000,0.0,0.0,0.0,0.0,0.0, 14:43:39.026
45546.238281, 39657.671875, 122378.101563, 62433.246094, 97138.914063, 81466.335938, 94429.414063, 108010.195313, 0.000, 0.000, 0.000,0.0,0.0,0.0,0.0,0.0, 14:43:39.026
45497.511719, 39596.695313, 122352.976563, 62985.605469, 97085.421875, 81548.148438, 94405.718750, 107960.976563, 0.000, 0.000, 0.000,0.0,0.0,0.0,0.0,0.0, 14:43:39.026
45596.015625, 39695.734375, 122302.304688, 62645.210938, 97157.351563, 81322.484375, 94407.593750, 107986.617188, 0.000, 0.000, 0.000,0.0,0.0,0.0,0.0,0.0, 14:43:39.026
45644.250000, 39746.519531, 122309.210938, 62027.675781, 97213.453125, 81195.257813, 94421.523438, 108032.773438, 0.240, 0.198, 0.940,0.0,0.0,0.0,0.0,0.0, 14:43:39.027
45555.246094, 39655.277344, 122361.914063, 62324.285156, 97151.250000, 81412.250000, 94425.273438, 108009.679688, 0.000, 0.000, 0.000,0.0,0.0,0.0,0.0,0.0, 14:43:39.027
45500.484375, 39601.007813, 122360.171875, 62960.437500, 97094.320313, 81552.929688, 94407.640625, 107958.093750, 0.000, 0.000, 0.000,0.0,0.0,0.0,0.0,0.0, 14:43:39.027
45570.062500, 39669.785156, 122317.640625, 62787.968750, 97146.625000, 81361.664063, 94400.468750, 107968.015625, 0.000, 0.000, 0.000,0.0,0.0,0.0,0.0,0.0, 14:43:39.028
45639.511719, 39740.886719, 122310.734375, 62116.097656, 97211.976563, 81181.328125, 94409.984375, 108017.570313, 0.000, 0.000, 0.000,0.0,0.0,0.0,0.0,0.0, 14:43:39.028
45572.613281, 39667.660156, 122357.492188, 62234.472656, 97166.695313, 81360.234375, 94423.421875, 108012.273438, 0.000, 0.000, 0.000,0.0,0.0,0.0,0.0,0.0, 14:43:39.029
45510.675781, 39603.019531, 122375.148438, 62910.503906, 97106.703125, 81558.179688, 94427.828125, 107972.156250, 0.000, 0.000, 0.000,0.0,0.0,0.0,0.0,0.0, 14:43:39.029
45575.695313, 39678.011719, 122339.164063, 62900.914063, 97144.453125, 81417.945313, 94425.546875, 107975.125000, 0.000, 0.000, 0.000,0.0,0.0,0.0,0.0,0.0, 14:43:39.029
45646.843750, 39743.546875, 122308.429688, 62210.871094, 97205.812500, 81187.390625, 94412.960938, 108013.953125, 0.000, 0.000, 0.000,0.0,0.0,0.0,0.0,0.0, 14:43:39.030
45600.507813, 39698.886719, 122349.445313, 62140.460938, 97186.117188, 81312.890625, 94423.507813, 108025.640625, 0.000, 0.000, 0.000,0.0,0.0,0.0,0.0,0.0, 14:43:39.030
45516.710938, 39615.023438, 122376.757813, 62806.433594, 97111.484375, 81542.421875, 94425.523438, 107980.984375, 0.236, 0.190, 0.940,0.0,0.0,0.0,0.0,0.0, 14:43:39.030
45558.242188, 39651.144531, 122342.312500, 62965.621094, 97128.789063, 81457.328125, 94423.015625, 107970.367188, 0.000, 0.000, 0.000,0.0,0.0,0.0,0.0,0.0, 14:43:39.031
45649.210938, 39741.625000, 122304.851563, 62309.128906, 97202.320313, 81203.101563, 94416.203125, 108006.710938, 0.000, 0.000, 0.000,0.0,0.0,0.0,0.0,0.0, 14:43:39.031
45614.789063, 39707.179688, 122346.156250, 62086.773438, 97194.500000, 81267.695313, 94424.132813, 108025.843750, 0.000, 0.000, 0.000,0.0,0.0,0.0,0.0,0.0, 14:43:39.038
45526.433594, 39617.324219, 122382.656250, 62726.925781, 97117.679688, 81519.914063, 94428.046875, 107986.953125, 0.000, 0.000, 0.000,0.0,0.0,0.0,0.0,0.0, 14:43:39.039
45554.464844, 39645.578125, 122353.000000, 63047.699219, 97125.414063, 81503.976563, 94426.351563, 107971.414063, 0.000, 0.000, 0.000,0.0,0.0,0.0,0.0,0.0, 14:43:39.039
45642.171875, 39731.609375, 122309.679688, 62473.636719, 97194.117188, 81251.093750, 94421.117188, 108003.000000, 0.000, 0.000, 0.000,0.0,0.0,0.0,0.0,0.0, 14:43:39.039
45634.460938, 39720.546875, 122324.632813, 62055.167969, 97201.992188, 81234.460938, 94426.015625, 108034.429688, 0.000, 0.000, 0.000,0.0,0.0,0.0,0.0,0.0, 14:43:39.039
45552.941406, 39642.738281, 122376.515625, 62581.796875, 97133.640625, 81490.257813, 94433.570313, 108006.664063, 0.000, 0.000, 0.000,0.0,0.0,0.0,0.0,0.0, 14:43:39.040
45545.679688, 39639.273438, 122362.250000, 63067.390625, 97115.218750, 81537.820313, 94430.062500, 107974.765625, 0.228, 0.200, 0.942,0.0,0.0,0.0,0.0,0.0, 14:43:39.040
45630.414063, 39717.796875, 122307.039063, 62602.808594, 97187.054688, 81290.164063, 94425.320313, 108003.265625, 0.000, 0.000, 0.000,0.0,0.0,0.0,0.0,0.0, 14:43:39.040
45645.613281, 39728.300781, 122318.265625, 62059.750000, 97218.398438, 81206.164063, 94426.257813, 108036.234375, 0.000, 0.000, 0.000,0.0,0.0,0.0,0.0,0.0, 14:43:39.040
45560.164063, 39640.972656, 122367.437500, 62445.542969, 97154.554688, 81441.773438, 94432.023438, 108012.585938, 0.000, 0.000, 0.000,0.0,0.0,0.0,0.0,0.0, 14:43:39.041
45534.613281, 39619.269531, 122362.632813, 63014.730469, 97117.992188, 81550.875000, 94430.664063, 107977.453125, 0.000, 0.000, 0.000,0.0,0.0,0.0,0.0,0.0, 14:43:39.041
45618.992188, 39713.304688, 122331.140625, 62736.964844, 97174.335938, 81342.000000, 94427.984375, 107998.398438, 0.000, 0.000, 0.000,0.0,0.0,0.0,0.0,0.0, 14:43:39.041
45683.656250, 39786.035156, 122341.421875, 62112.074219, 97243.250000, 81203.171875, 94444.250000, 108053.562500, 0.000, 0.000, 0.000,0.0,0.0,0.0,0.0,0.0, 14:43:39.044
45599.816406, 39695.289063, 122382.500000, 62339.996094, 97181.093750, 81406.929688, 94444.031250, 108034.984375, 0.000, 0.000, 0.000,0.0,0.0,0.0,0.0,0.0, 14:43:39.044
45524.152344, 39600.203125, 122377.828125, 62988.644531, 97112.562500, 81564.890625, 94430.867188, 107984.179688, 0.000, 0.000, 0.000,0.0,0.0,0.0,0.0,0.0, 14:43:39.045
45599.277344, 39679.687500, 122337.265625, 62863.406250, 97164.171875, 81391.773438, 94430.218750, 107994.546875, 0.000, 0.000, 0.000,0.0,0.0,0.0,0.0,0.0, 14:43:39.045
45661.304688, 39741.511719, 122319.265625, 62187.824219, 97227.875000, 81188.976563, 94429.500000, 108031.632813, 0.226, 0.196, 0.938,0.0,0.0,0.0,0.0,0.0, 14:43:39.045
45602.406250, 39678.480469, 122360.218750, 62250.210938, 97180.445313, 81353.242188, 94435.203125, 108033.132813, 0.000, 0.000, 0.000,0.0,0.0,0.0,0.0,0.0, 14:43:39.046
45528.914063, 39606.863281, 122378.164063, 62926.437500, 97116.625000, 81565.625000, 94439.250000, 107993.585938, 0.000, 0.000, 0.000,0.0,0.0,0.0,0.0,0.0, 14:43:39.046
45589.042969, 39678.433594, 122340.992188, 62959.207031, 97154.445313, 81438.804688, 94436.187500, 107992.539063, 0.000, 0.000, 0.000,0.0,0.0,0.0,0.0,0.0, 14:43:39.046
45665.773438, 39757.628906, 122312.179688, 62276.339844, 97218.554688, 81199.773438, 94419.820313, 108025.507813, 0.000, 0.000, 0.000,0.0,0.0,0.0,0.0,0.0, 14:43:39.047
45629.164063, 39711.695313, 122353.710938, 62158.679688, 97206.679688, 81305.007813, 94435.867188, 108040.882813, 0.000, 0.000, 0.000,0.0,0.0,0.0,0.0,0.0, 14:43:39.047
45547.066406, 39634.761719, 122382.992188, 62802.410156, 97137.257813, 81543.343750, 94441.304688, 108002.195313, 0.000, 0.000, 0.000,0.0,0.0,0.0,0.0,0.0, 14:43:39.047
45568.632813, 39655.054688, 122349.000000, 63028.207031, 97143.937500, 81478.273438, 94430.484375, 107979.531250, 0.000, 0.000, 0.000,0.0,0.0,0.0,0.0,0.0, 14:43:39.047
45661.394531, 39745.445313, 122307.351563, 62389.347656, 97217.765625, 81225.320313, 94423.687500, 108021.710938, 0.000, 0.000, 0.000,0.0,0.0,0.0,0.0,0.0, 14:43:39.048
45639.601563, 39724.972656, 122341.421875, 62101.457031, 97212.515625, 81266.734375, 94431.242188, 108042.453125, 0.232, 0.202, 0.940,0.0,0.0,0.0,0.0,0.0, 14:43:39.048
45547.175781, 39629.375000, 122380.132813, 62704.308594, 97137.414063, 81512.921875, 94432.632813, 107998.351563, 0.000, 0.000, 0.000,0.0,0.0,0.0,0.0,0.0, 14:43:39.048
45557.480469, 39637.441406, 122357.289063, 63075.414063, 97132.320313, 81514.531250, 94432.273438, 107976.000000, 0.000, 0.000, 0.000,0.0,0.0,0.0,0.0,0.0, 14:43:39.049
45644.292969, 39712.007813, 122306.531250, 62530.703125, 97200.179688, 81253.843750, 94421.429688, 107997.859375, 0.000, 0.000, 0.000,0.0,0.0,0.0,0.0,0.0, 14:43:39.049
45652.453125, 39725.285156, 122330.734375, 62088.316406, 97222.796875, 81216.265625, 94429.296875, 108023.453125, 0.000, 0.000, 0.000,0.0,0.0,0.0,0.0,0.0, 14:43:39.049
45569.304688, 39639.519531, 122379.125000, 62579.675781, 97154.335938, 81473.156250, 94437.773438, 108000.765625, 0.000, 0.000, 0.000,0.0,0.0,0.0,0.0,0.0, 14:43:39.049
45552.382813, 39622.242188, 122364.773438, 63077.937500, 97121.835938, 81540.992188, 94435.132813, 107973.695313, 0.000, 0.000, 0.000,0.0,0.0,0.0,0.0,0.0, 14:43:39.050
45633.746094, 39713.101563, 122314.328125, 62662.554688, 97189.203125, 81298.523438, 94430.640625, 107994.664063, 0.000, 0.000, 0.000,0.0,0.0,0.0,0.0,0.0, 14:43:39.051
45664.210938, 39741.312500, 122322.148438, 62080.335938, 97231.109375, 81189.757813, 94432.492188, 108029.242188, 0.000, 0.000, 0.000,0.0,0.0,0.0,0.0,0.0, 14:43:39.052
45580.882813, 39658.363281, 122374.585938, 62435.953125, 97163.187500, 81425.210938, 94438.304688, 108006.617188, 0.000, 0.000, 0.000,0.0,0.0,0.0,0.0,0.0, 14:43:39.052
45530.031250, 39602.171875, 122361.203125, 63032.945313, 97107.460938, 81550.226563, 94422.750000, 107964.867188, 0.232, 0.202, 0.936,0.0,0.0,0.0,0.0,0.0, 14:43:39.052
45613.070313, 39693.613281, 122319.109375, 62773.062500, 97164.054688, 81352.523438, 94415.304688, 107983.929688, 0.000, 0.000, 0.000,0.0,0.0,0.0,0.0,0.0, 14:43:39.053
45667.785156, 39754.207031, 122320.992188, 62132.281250, 97221.812500, 81176.257813, 94416.226563, 108018.179688, 0.000, 0.000, 0.000,0.0,0.0,0.0,0.0,0.0, 14:43:39.053
45591.566406, 39666.476563, 122363.007813, 62317.375000, 97171.523438, 81378.250000, 94427.312500, 108013.437500, 0.000, 0.000, 0.000,5.4117477E-6,7.16862E-6,8.811653E-6,2.772119E-5,3.520048E-5, 14:43:39.053
45531.777344, 39600.585938, 122365.781250, 62954.960938, 97116.492188, 81561.851563, 94433.125000, 107978.257813, 0.000, 0.000, 0.000,5.4117477E-6,7.16862E-6,8.811653E-6,2.772119E-5,3.520048E-5, 14:43:39.053
45591.210938, 39666.722656, 122312.343750, 62835.644531, 97160.882813, 81384.304688, 94425.031250, 107976.156250, 0.000, 0.000, 0.000,5.4117477E-6,7.16862E-6,8.811653E-6,2.772119E-5,3.520048E-5, 14:43:39.054
45661.750000, 39733.710938, 122302.039063, 62145.199219, 97229.328125, 81180.593750, 94427.195313, 108021.640625, 0.000, 0.000, 0.000,5.4117477E-6,7.16862E-6,8.811653E-6,2.772119E-5,3.520048E-5, 14:43:39.054
45607.054688, 39685.589844, 122351.234375, 62160.468750, 97191.726563, 81327.648438, 94433.992188, 108023.875000, 0.000, 0.000, 0.000,5.4117477E-6,7.16862E-6,8.811653E-6,2.772119E-5,3.520048E-5, 14:43:39.054
45538.011719, 39612.476563, 122378.968750, 62837.343750, 97127.156250, 81554.093750, 94436.789063, 107985.656250, 0.000, 0.000, 0.000,5.4117477E-6,7.16862E-6,8.811653E-6,2.772119E-5,3.520048E-5, 14:43:39.055
45580.277344, 39651.480469, 122330.195313, 62898.902344, 97149.554688, 81438.734375, 94425.054688, 107973.898438, 0.238, 0.200, 0.938,5.4117477E-6,7.16862E-6,8.811653E-6,2.772119E-5,3.520048E-5, 14:43:39.055
45674.582031, 39755.929688, 122303.734375, 62214.535156, 97219.984375, 81194.632813, 94423.468750, 108012.500000, 0.000, 0.000, 0.000,5.4117477E-6,7.16862E-6,8.811653E-6,2.772119E-5,3.520048E-5, 14:43:39.056
45638.929688, 39714.062500, 122344.679688, 62034.605469, 97208.093750, 81282.382813, 94436.429688, 108029.421875, 0.000, 0.000, 0.000,5.4117477E-6,7.16862E-6,8.811653E-6,2.772119E-5,3.520048E-5, 14:43:39.056
45545.835938, 39616.007813, 122379.125000, 62670.242188, 97127.359375, 81527.406250, 94428.023438, 107984.468750, 0.000, 0.000, 0.000,5.4117477E-6,7.16862E-6,8.811653E-6,2.772119E-5,3.520048E-5, 14:43:39.057
45563.046875, 39633.238281, 122339.429688, 62928.183594, 97121.390625, 81472.890625, 94409.179688, 107958.007813, 0.000, 0.000, 0.000,5.4117477E-6,7.16862E-6,8.811653E-6,2.772119E-5,3.520048E-5, 14:43:39.058
45641.457031, 39722.781250, 122294.414063, 62317.578125, 97193.093750, 81216.984375, 94403.796875, 107991.648438, 0.000, 0.000, 0.000,5.4117477E-6,7.16862E-6,8.811653E-6,2.772119E-5,3.520048E-5, 14:43:39.058
45630.660156, 39709.636719, 122322.328125, 61974.367188, 97203.304688, 81234.593750, 94417.320313, 108020.101563, 0.000, 0.000, 0.000,5.4117477E-6,7.16862E-6,8.811653E-6,2.772119E-5,3.520048E-5, 14:43:39.058
45546.574219, 39616.945313, 122369.960938, 62541.652344, 97125.390625, 81490.906250, 94422.390625, 107985.117188, 0.000, 0.000, 0.000,5.4117477E-6,7.16862E-6,8.811653E-6,2.772119E-5,3.520048E-5, 14:43:39.059
45540.246094, 39616.164063, 122345.085938, 62962.292969, 97106.726563, 81505.390625, 94411.171875, 107948.593750, 0.000, 0.000, 0.000,5.4117477E-6,7.16862E-6,8.811653E-6,2.772119E-5,3.520048E-5, 14:43:39.059
45641.523438, 39724.972656, 122299.578125, 62445.296875, 97189.132813, 81254.531250, 94413.945313, 107986.882813, 0.000, 0.000, 0.000,5.4117477E-6,7.16862E-6,8.811653E-6,2.772119E-5,3.520048E-5, 14:43:39.060
45657.480469, 39743.546875, 122324.031250, 61930.648438, 97218.640625, 81205.875000, 94420.445313, 108026.695313, 0.240, 0.194, 0.938,5.4117477E-6,7.16862E-6,8.811653E-6,2.772119E-5,3.520048E-5, 14:43:39.060
45553.726563, 39628.500000, 122362.695313, 62360.828125, 97142.554688, 81447.609375, 94417.718750, 107993.320313, 0.000, 0.000, 0.000,5.4117477E-6,7.16862E-6,8.811653E-6,2.772119E-5,3.520048E-5, 14:43:39.061
45534.390625, 39597.050781, 122360.640625, 62900.800781, 97112.898438, 81532.414063, 94413.742188, 107955.750000, 0.000, 0.000, 0.000,5.4117477E-6,7.16862E-6,8.811653E-6,2.772119E-5,3.520048E-5, 14:43:39.061
45617.539063, 39688.359375, 122310.242188, 62530.812500, 97169.351563, 81299.820313, 94407.218750, 107972.710938, 0.000, 0.000, 0.000,5.4117477E-6,7.16862E-6,8.811653E-6,2.772119E-5,3.520048E-5, 14:43:39.061
45660.433594, 39736.503906, 122322.015625, 61923.539063, 97226.171875, 81179.718750, 94422.304688, 108017.796875, 0.000, 0.000, 0.000,5.4117477E-6,7.16862E-6,8.811653E-6,2.772119E-5,3.520048E-5, 14:43:39.062
45572.566406, 39648.683594, 122372.804688, 62232.597656, 97168.039063, 81402.187500, 94427.421875, 107997.343750, 0.000, 0.000, 0.000,5.4117477E-6,7.16862E-6,8.811653E-6,2.772119E-5,3.520048E-5, 14:43:39.062
45527.460938, 39610.417969, 122370.585938, 62854.914063, 97115.289063, 81544.593750, 94420.406250, 107958.453125, 0.000, 0.000, 0.000,5.4117477E-6,7.16862E-6,8.811653E-6,2.772119E-5,3.520048E-5, 14:43:39.062
45617.160156, 39703.781250, 122327.093750, 62616.753906, 97173.914063, 81352.187500, 94421.609375, 107980.539063, 0.000, 0.000, 0.000,5.4117477E-6,7.16862E-6,8.811653E-6,2.772119E-5,3.520048E-5, 14:43:39.063
45667.363281, 39748.796875, 122323.898438, 61943.699219, 97232.390625, 81172.812500, 94421.562500, 108018.531250, 0.000, 0.000, 0.000,5.4117477E-6,7.16862E-6,8.811653E-6,2.772119E-5,3.520048E-5, 14:43:39.063
45587.968750, 39660.085938, 122360.554688, 62073.160156, 97179.679688, 81350.062500, 94423.804688, 108005.187500, 0.000, 0.000, 0.000,5.4117477E-6,7.16862E-6,8.811653E-6,2.772119E-5,3.520048E-5, 14:43:39.063
45518.855469, 39589.742188, 122372.914063, 62750.039063, 97114.773438, 81540.703125, 94422.015625, 107959.164063, 0.240, 0.196, 0.940,5.4117477E-6,7.16862E-6,8.811653E-6,2.772119E-5,3.520048E-5, 14:43:39.063
45578.312500, 39656.664063, 122328.117188, 62720.265625, 97150.531250, 81390.031250, 94411.578125, 107956.664063, 0.000, 0.000, 0.000,5.4117477E-6,7.16862E-6,8.811653E-6,2.772119E-5,3.520048E-5, 14:43:39.064
45659.226563, 39745.558594, 122311.515625, 62019.851563, 97226.351563, 81172.796875, 94416.960938, 108007.804688, 0.000, 0.000, 0.000,5.4117477E-6,7.16862E-6,8.811653E-6,2.772119E-5,3.520048E-5, 14:43:39.064
45605.359375, 39688.246094, 122355.703125, 61973.718750, 97194.414063, 81306.859375, 94426.507813, 108014.937500, 0.000, 0.000, 0.000,5.4117477E-6,7.16862E-6,8.811653E-6,2.772119E-5,3.520048E-5, 14:43:39.064
45521.269531, 39597.632813, 122378.945313, 62635.820313, 97121.968750, 81532.992188, 94429.500000, 107974.765625, 0.000, 0.000, 0.000,5.4117477E-6,7.16862E-6,8.811653E-6,2.772119E-5,3.520048E-5, 14:43:39.065
45568.097656, 39645.199219, 122350.921875, 62779.410156, 97150.648438, 81453.460938, 94435.539063, 107979.507813, 0.000, 0.000, 0.000,5.4117477E-6,7.16862E-6,8.811653E-6,2.772119E-5,3.520048E-5, 14:43:39.065
45651.847656, 39744.953125, 122315.046875, 62110.488281, 97232.140625, 81202.921875, 94427.937500, 108016.835938, 0.000, 0.000, 0.000,5.4117477E-6,7.16862E-6,8.811653E-6,2.772119E-5,3.520048E-5, 14:43:39.065
45612.355469, 39704.074219, 122332.031250, 61861.199219, 97205.679688, 81257.867188, 94419.664063, 108021.726563, 0.000, 0.000, 0.000,5.4117477E-6,7.16862E-6,8.811653E-6,2.772119E-5,3.520048E-5, 14:43:39.065
45525.292969, 39606.507813, 122368.687500, 62474.578125, 97126.953125, 81501.632813, 94420.289063, 107979.125000, 0.000, 0.000, 0.000,0.0,0.0,0.0,0.0,0.0, 14:43:39.493
45532.847656, 39619.335938, 122346.273438, 62804.062500, 97132.945313, 81476.929688, 94416.804688, 107955.617188, 0.236, 0.196, 0.936,0.0,0.0,0.0,0.0,0.0, 14:43:39.494
45625.003906, 39719.093750, 122301.453125, 62225.175781, 97211.914063, 81220.875000, 94412.851563, 107990.351563, 0.000, 0.000, 0.000,0.0,0.0,0.0,0.0,0.0, 14:43:39.495
45625.699219, 39720.972656, 122332.031250, 61822.933594, 97213.812500, 81217.476563, 94423.554688, 108022.914063, 0.000, 0.000, 0.000,0.0,0.0,0.0,0.0,0.0, 14:43:39.495
45524.289063, 39622.867188, 122380.757813, 62371.355469, 97136.523438, 81477.960938, 94426.882813, 107992.023438, 0.000, 0.000, 0.000,0.0,0.0,0.0,0.0,0.0, 14:43:39.496
45503.433594, 39599.464844, 122353.757813, 62826.929688, 97111.195313, 81508.851563, 94416.406250, 107956.281250, 0.000, 0.000, 0.000,0.0,0.0,0.0,0.0,0.0, 14:43:39.496
45597.757813, 39700.628906, 122298.835938, 62343.574219, 97182.343750, 81259.007813, 94410.679688, 107982.929688, 0.000, 0.000, 0.000,0.0,0.0,0.0,0.0,0.0, 14:43:39.497
45620.824219, 39722.132813, 122317.929688, 61809.097656, 97217.992188, 81186.296875, 94416.695313, 108017.953125, 0.000, 0.000, 0.000,0.0,0.0,0.0,0.0,0.0, 14:43:39.497
45537.921875, 39632.925781, 122371.593750, 62216.324219, 97149.218750, 81427.539063, 94415.687500, 107992.023438, 0.000, 0.000, 0.000,0.0,0.0,0.0,0.0,0.0, 14:43:39.498
45499.074219, 39602.238281, 122364.421875, 62780.058594, 97111.867188, 81530.820313, 94415.757813, 107957.625000, 0.000, 0.000, 0.000,0.0,0.0,0.0,0.0,0.0, 14:43:39.498
45559.246094, 39671.417969, 122301.835938, 62471.089844, 97174.695313, 81306.789063, 94404.960938, 107966.546875, 0.000, 0.000, 0.000,0.0,0.0,0.0,0.0,0.0, 14:43:39.499
45617.988281, 39727.140625, 122295.289063, 61834.445313, 97210.617188, 81163.742188, 94401.406250, 108008.585938, 0.238, 0.194, 0.936,0.0,0.0,0.0,0.0,0.0, 14:43:39.499
45557.277344, 39648.796875, 122366.835938, 62074.546875, 97170.117188, 81380.171875, 94416.578125, 108002.242188, 0.000, 0.000, 0.000,0.0,0.0,0.0,0.0,0.0, 14:43:39.499
45482.757813, 39584.984375, 122368.757813, 62731.890625, 97114.460938, 81540.726563, 94419.015625, 107960.351563, 0.000, 0.000, 0.000,0.0,0.0,0.0,0.0,0.0, 14:43:39.500
45545.699219, 39657.558594, 122311.359375, 62572.007813, 97153.554688, 81355.609375, 94412.914063, 107967.507813, 0.000, 0.000, 0.000,0.0,0.0,0.0,0.0,0.0, 14:43:39.500
45609.828125, 39720.902344, 122302.882813, 61904.742188, 97215.351563, 81165.304688, 94409.429688, 108006.304688, 0.000, 0.000, 0.000,0.0,0.0,0.0,0.0,0.0, 14:43:39.501
45544.738281, 39652.753906, 122357.179688, 61996.250000, 97162.429688, 81330.398438, 94410.343750, 107997.570313, 0.000, 0.000, 0.000,0.0,0.0,0.0,0.0,0.0, 14:43:39.501
45490.695313, 39588.714844, 122387.734375, 62688.750000, 97109.406250, 81534.554688, 94408.445313, 107957.601563, 0.000, 0.000, 0.000,0.0,0.0,0.0,0.0,0.0, 14:43:39.502
45569.640625, 39657.671875, 122359.523438, 62700.707031, 97162.406250, 81410.570313, 94417.406250, 107972.507813, 0.000, 0.000, 0.000,0.0,0.0,0.0,0.0,0.0, 14:43:39.503
45612.265625, 39731.007813, 122308.851563, 61990.035156, 97226.867188, 81171.343750, 94417.273438, 108013.546875, 0.000, 0.000, 0.000,0.0,0.0,0.0,0.0,0.0, 14:43:39.503
45563.695313, 39684.136719, 122339.117188, 61874.566406, 97177.132813, 81279.257813, 94415.421875, 108014.710938, 0.246, 0.198, 0.938,0.0,0.0,0.0,0.0,0.0, 14:43:39.503
45493.218750, 39597.835938, 122384.242188, 62547.085938, 97115.796875, 81521.484375, 94416.515625, 107970.882813, 0.000, 0.000, 0.000,0.0,0.0,0.0,0.0,0.0, 14:43:39.503
45541.433594, 39632.570313, 122360.578125, 62766.019531, 97163.812500, 81450.578125, 94415.617188, 107956.375000, 0.000, 0.000, 0.000,0.0,0.0,0.0,0.0,0.0, 14:43:39.503
45619.437500, 39727.585938, 122317.007813, 62109.058594, 97223.625000, 81194.406250, 94421.898438, 108000.203125, 0.000, 0.000, 0.000,0.0,0.0,0.0,0.0,0.0, 14:43:39.504
45575.183594, 39693.992188, 122327.429688, 61808.964844, 97205.968750, 81238.281250, 94424.046875, 108017.304688, 0.000, 0.000, 0.000,0.0,0.0,0.0,0.0,0.0, 14:43:39.504
45490.046875, 39599.691406, 122381.851563, 62416.574219, 97148.750000, 81490.750000, 94417.429688, 107974.296875, 0.000, 0.000, 0.000,0.0,0.0,0.0,0.0,0.0, 14:43:39.504
45513.203125, 39620.523438, 122354.875000, 62768.277344, 97105.742188, 81482.945313, 94403.570313, 107949.085938, 0.000, 0.000, 0.000,0.0,0.0,0.0,0.0,0.0, 14:43:39.504
45609.671875, 39713.617188, 122322.578125, 62218.515625, 97191.882813, 81231.375000, 94400.015625, 107981.500000, 0.000, 0.000, 0.000,0.0,0.0,0.0,0.0,0.0, 14:43:39.505
45574.578125, 39705.167969, 122328.546875, 61772.128906, 97207.445313, 81206.093750, 94412.468750, 108015.250000, 0.000, 0.000, 0.000,0.0,0.0,0.0,0.0,0.0, 14:43:39.505
45474.375000, 39598.125000, 122349.914063, 62257.855469, 97132.382813, 81451.632813, 94409.203125, 107981.515625, 0.000, 0.000, 0.000,0.0,0.0,0.0,0.0,0.0, 14:43:39.505
45464.207031, 39573.515625, 122337.265625, 62764.187500, 97134.617188, 81506.687500, 94399.101563, 107942.070313, 0.244, 0.208, 0.938,0.0,0.0,0.0,0.0,0.0, 14:43:39.506
45574.914063, 39689.253906, 122299.156250, 62340.175781, 97160.835938, 81271.812500, 94392.601563, 107972.242188, 0.000, 0.000, 0.000,0.0,0.0,0.0,0.0,0.0, 14:43:39.506
45609.000000, 39720.835938, 122327.898438, 61768.753906, 97198.632813, 81182.289063, 94400.398438, 108014.328125, 0.000, 0.000, 0.000,0.0,0.0,0.0,0.0,0.0, 14:43:39.506
45496.460938, 39611.402344, 122347.343750, 62125.753906, 97102.078125, 81408.093750, 94390.742188, 107981.453125, 0.000, 0.000, 0.000,0.0,0.0,0.0,0.0,0.0, 14:43:39.507
45446.101563, 39572.777344, 122337.890625, 62720.066406, 97073.734375, 81532.117188, 94392.062500, 107948.171875, 0.000, 0.000, 0.000,0.0,0.0,0.0,0.0,0.0, 14:43:39.507
45540.871094, 39661.402344, 122303.531250, 62458.281250, 97135.109375, 81327.398438, 94391.234375, 107963.031250, 0.000, 0.000, 0.000,0.0,0.0,0.0,0.0,0.0, 14:43:39.507
45636.246094, 39747.347656, 122342.625000, 61821.527344, 97215.156250, 81187.726563, 94412.070313, 108024.523438, 0.000, 0.000, 0.000,0.0,0.0,0.0,0.0,0.0, 14:43:39.507
45537.207031, 39660.308594, 122368.062500, 62003.402344, 97165.015625, 81377.937500, 94411.218750, 108010.218750, 0.000, 0.000, 0.000,0.0,0.0,0.0,0.0,0.0, 14:43:39.508
45466.621094, 39588.468750, 122368.796875, 62667.093750, 97104.375000, 81548.796875, 94404.132813, 107961.578125, 0.000, 0.000, 0.000,0.0,0.0,0.0,0.0,0.0, 14:43:39.508
45521.335938, 39647.613281, 122318.664063, 62567.425781, 97160.820313, 81374.742188, 94393.445313, 107957.601563, 0.248, 0.210, 0.940,0.0,0.0,0.0,0.0,0.0, 14:43:39.508
45581.261719, 39723.003906, 122301.234375, 61875.238281, 97199.773438, 81165.796875, 94395.414063, 108002.664063, 0.000, 0.000, 0.000,0.0,0.0,0.0,0.0,0.0, 14:43:39.508
45521.136719, 39652.105469, 122332.390625, 61897.746094, 97149.640625, 81316.289063, 94395.976563, 108001.617188, 0.000, 0.000, 0.000,0.0,0.0,0.0,0.0,0.0, 14:43:39.509
45460.226563, 39586.660156, 122373.695313, 62601.800781, 97082.875000, 81534.375000, 94402.210938, 107959.054688, 0.000, 0.000, 0.000,0.0,0.0,0.0,0.0,0.0, 14:43:39.509
45489.128906, 39633.039063, 122322.867188, 62661.035156, 97097.382813, 81417.140625, 94391.101563, 107953.984375, 0.000, 0.000, 0.000,0.0,0.0,0.0,0.0,0.0, 14:43:39.510
45584.750000, 39722.109375, 122288.867188, 61962.656250, 97180.601563, 81175.367188, 94388.664063, 107992.851563, 0.000, 0.000, 0.000,0.0,0.0,0.0,0.0,0.0, 14:43:39.510
45557.234375, 39681.632813, 122340.210938, 61822.976563, 97170.562500, 81272.148438, 94399.328125, 108000.789063, 0.000, 0.000, 0.000,0.0,0.0,0.0,0.0,0.0, 14:43:39.510
45470.332031, 39596.648438, 122376.156250, 62488.121094, 97095.726563, 81519.937500, 94406.882813, 107965.984375, 0.000, 0.000, 0.000,0.0,0.0,0.0,0.0,0.0, 14:43:39.510
45498.472656, 39630.468750, 122345.976563, 62724.625000, 97110.859375, 81468.484375, 94404.023438, 107954.453125, 0.000, 0.000, 0.000,0.0,0.0,0.0,0.0,0.0, 14:43:39.510
45571.339844, 39704.519531, 122299.796875, 62111.917969, 97171.101563, 81209.515625, 94390.164063, 107981.585938, 0.000, 0.000, 0.000,0.0,0.0,0.0,0.0,0.0, 14:43:39.511
45558.730469, 39685.789063, 122326.531250, 61787.238281, 97179.210938, 81234.531250, 94400.625000, 108008.210938, 0.244, 0.206, 0.932,0.0,0.0,0.0,0.0,0.0, 14:43:39.511
45452.964844, 39585.230469, 122360.578125, 62373.613281, 97087.593750, 81483.546875, 94393.023438, 107965.781250, 0.000, 0.000, 0.000,0.0,0.0,0.0,0.0,0.0, 14:43:39.511
45469.570313, 39603.421875, 122342.250000, 62773.957031, 97086.140625, 81498.570313, 94396.468750, 107950.898438, 0.000, 0.000, 0.000,0.0,0.0,0.0,0.0,0.0, 14:43:39.512
45575.316406, 39710.109375, 122304.203125, 62238.140625, 97182.742188, 81254.578125, 94402.343750, 107991.601563, 0.000, 0.000, 0.000,0.0,0.0,0.0,0.0,0.0, 14:43:39.512
45575.093750, 39709.324219, 122322.914063, 61763.949219, 97189.765625, 81210.906250, 94402.296875, 108015.898438, 0.000, 0.000, 0.000,0.0,0.0,0.0,0.0,0.0, 14:43:39.512
45485.597656, 39617.707031, 122376.734375, 62241.937500, 97125.945313, 81464.171875, 94414.210938, 107992.875000, 0.000, 0.000, 0.000,0.0,0.0,0.0,0.0,0.0, 14:43:39.513
45457.679688, 39588.781250, 122363.164063, 62778.023438, 97094.656250, 81542.203125, 94414.007813, 107962.343750, 0.000, 0.000, 0.000,0.0,0.0,0.0,0.0,0.0, 14:43:39.513
45544.941406, 39677.742188, 122307.156250, 62400.882813, 97152.500000, 81305.789063, 94405.960938, 107981.812500, 0.000, 0.000, 0.000,0.0,0.0,0.0,0.0,0.0, 14:43:39.513
45597.535156, 39731.722656, 122327.000000, 61791.820313, 97209.562500, 81196.304688, 94413.718750, 108029.148438, 0.000, 0.000, 0.000,0.0,0.0,0.0,0.0,0.0, 14:43:39.514
45492.101563, 39632.816406, 122374.078125, 62124.125000, 97129.632813, 81420.671875, 94411.101563, 108000.695313, 0.000, 0.000, 0.000,0.0,0.0,0.0,0.0,0.0, 14:43:39.514
45452.070313, 39593.945313, 122367.328125, 62755.246094, 97091.210938, 81559.765625, 94415.601563, 107965.937500, 0.244, 0.206, 0.934,0.0,0.0,0.0,0.0,0.0, 14:43:39.515
45529.652344, 39679.730469, 122320.250000, 62516.152344, 97148.859375, 81363.210938, 94416.023438, 107984.984375, 0.000, 0.000, 0.000,0.0,0.0,0.0,0.0,0.0, 14:43:39.517
45581.531250, 39728.816406, 122309.945313, 61839.183594, 97194.882813, 81182.000000, 94402.632813, 108016.234375, 0.000, 0.000, 0.000,0.0,0.0,0.0,0.0,0.0, 14:43:39.518
45518.968750, 39647.457031, 122358.609375, 62001.769531, 97138.351563, 81366.359375, 94407.976563, 108003.695313, 0.000, 0.000, 0.000,0.0,0.0,0.0,0.0,0.0, 14:43:39.518
45436.042969, 39575.660156, 122365.359375, 62684.437500, 97086.429688, 81550.312500, 94409.515625, 107960.289063, 0.000, 0.000, 0.000,0.0,0.0,0.0,0.0,0.0, 14:43:39.519
45517.894531, 39657.828125, 122324.703125, 62631.753906, 97124.453125, 81398.500000, 94405.671875, 107967.367188, 0.000, 0.000, 0.000,0.0,0.0,0.0,0.0,0.0, 14:43:39.519
45606.765625, 39755.281250, 122312.296875, 61916.140625, 97215.398438, 81187.523438, 94419.062500, 108025.617188, 0.000, 0.000, 0.000,0.0,0.0,0.0,0.0,0.0, 14:43:39.519
45555.023438, 39691.332031, 122366.093750, 61885.832031, 97175.257813, 81328.765625, 94424.046875, 108025.617188, 0.000, 0.000, 0.000,0.0,0.0,0.0,0.0,0.0, 14:43:39.520
45463.937500, 39598.839844, 122386.796875, 62571.179688, 97095.367188, 81547.898438, 94414.257813, 107973.765625, 0.000, 0.000, 0.000,0.0,0.0,0.0,0.0,0.0, 14:43:39.520
45529.718750, 39657.222656, 122355.187500, 62703.347656, 97126.687500, 81455.718750, 94413.320313, 107972.757813, 0.248, 0.214, 0.938,0.0,0.0,0.0,0.0,0.0, 14:43:39.520
45615.082031, 39748.597656, 122319.578125, 62016.746094, 97215.265625, 81213.406250, 94420.718750, 108023.179688, 0.000, 0.000, 0.000,0.0,0.0,0.0,0.0,0.0, 14:43:39.520
45560.230469, 39693.500000, 122344.882813, 61811.824219, 97177.382813, 81281.531250, 94417.343750, 108027.250000, 0.000, 0.000, 0.000,0.0,0.0,0.0,0.0,0.0, 14:43:39.520
45488.503906, 39612.968750, 122387.953125, 62472.652344, 97123.242188, 81530.351563, 94427.421875, 107988.406250, 0.000, 0.000, 0.000,0.0,0.0,0.0,0.0,0.0, 14:43:39.521
45514.675781, 39642.113281, 122369.921875, 62767.695313, 97124.960938, 81500.875000, 94433.007813, 107976.179688, 0.000, 0.000, 0.000,0.0,0.0,0.0,0.0,0.0, 14:43:39.521
45597.019531, 39735.031250, 122327.140625, 62179.937500, 97214.328125, 81242.796875, 94420.156250, 108005.437500, 0.000, 0.000, 0.000,0.0,0.0,0.0,0.0,0.0, 14:43:39.521
45586.089844, 39724.347656, 122344.664063, 61810.750000, 97190.273438, 81243.671875, 94415.617188, 108027.679688, 0.000, 0.000, 0.000,0.0,0.0,0.0,0.0,0.0, 14:43:39.521
45489.644531, 39608.988281, 122377.335938, 62355.820313, 97107.796875, 81488.218750, 94413.429688, 107989.882813, 0.000, 0.000, 0.000,0.0,0.0,0.0,0.0,0.0, 14:43:39.522
45485.484375, 39608.675781, 122360.664063, 62808.199219, 97104.445313, 81524.164063, 94414.656250, 107962.968750, 0.000, 0.000, 0.000,0.0,0.0,0.0,0.0,0.0, 14:43:39.522
45593.355469, 39714.445313, 122315.492188, 62326.652344, 97177.085938, 81279.343750, 94414.187500, 107993.789063, 0.000, 0.000, 0.000,0.0,0.0,0.0,0.0,0.0, 14:43:39.523
45620.871094, 39741.175781, 122335.093750, 61805.050781, 97216.539063, 81214.703125, 94424.156250, 108033.578125, 0.258, 0.210, 0.930,0.0,0.0,0.0,0.0,0.0, 14:43:39.523
45531.484375, 39646.539063, 122382.414063, 62235.343750, 97153.039063, 81453.867188, 94431.179688, 108005.617188, 0.000, 0.000, 0.000,0.0,0.0,0.0,0.0,0.0, 14:43:39.524
45499.187500, 39608.742188, 122372.195313, 62803.570313, 97108.695313, 81548.906250, 94428.000000, 107968.554688, 0.000, 0.000, 0.000,0.0,0.0,0.0,0.0,0.0, 14:43:39.525
45576.011719, 39700.070313, 122315.289063, 62453.410156, 97183.523438, 81323.312500, 94427.156250, 107989.765625, 0.000, 0.000, 0.000,0.0,0.0,0.0,0.0,0.0, 14:43:39.525
45624.402344, 39744.417969, 122318.867188, 61830.757813, 97222.218750, 81196.484375, 94428.875000, 108032.171875, 0.000, 0.000, 0.000,0.0,0.0,0.0,0.0,0.0, 14:43:39.525
45547.800781, 39660.417969, 122379.171875, 62130.472656, 97175.007813, 81419.492188, 94445.484375, 108021.328125, 0.000, 0.000, 0.000,0.0,0.0,0.0,0.0,0.0, 14:43:39.526
45488.523438, 39594.593750, 122373.828125, 62782.718750, 97109.140625, 81565.203125, 94428.203125, 107969.609375, 0.000, 0.000, 0.000,0.0,0.0,0.0,0.0,0.0, 14:43:39.526
45573.507813, 39679.730469, 122336.164063, 62616.152344, 97162.601563, 81378.812500, 94419.937500, 107980.515625, 0.000, 0.000, 0.000,0.0,0.0,0.0,0.0,0.0, 14:43:39.526
45634.437500, 39749.023438, 122327.070313, 61943.476563, 97227.250000, 81190.179688, 94422.859375, 108022.312500, 0.000, 0.000, 0.000,0.0,0.0,0.0,0.0,0.0, 14:43:39.527
45566.847656, 39674.679688, 122363.007813, 62019.292969, 97182.765625, 81358.085938, 94435.601563, 108021.304688, 0.262, 0.212, 0.926,0.0,0.0,0.0,0.0,0.0, 14:43:39.527
45487.093750, 39587.597656, 122377.875000, 62704.398438, 97098.117188, 81557.937500, 94426.929688, 107974.765625, 0.000, 0.000, 0.000,0.0,0.0,0.0,0.0,0.0, 14:43:39.528
45547.535156, 39648.460938, 122332.078125, 62701.089844, 97139.046875, 81416.585938, 94418.031250, 107969.625000, 0.000, 0.000, 0.000,0.0,0.0,0.0,0.0,0.0, 14:43:39.528
45610.835938, 39721.417969, 122300.625000, 62006.375000, 97220.476563, 81180.726563, 94411.820313, 108006.015625, 0.000, 0.000, 0.000,0.0,0.0,0.0,0.0,0.0, 14:43:39.528
45589.957031, 39689.343750, 122355.656250, 61930.402344, 97208.226563, 81308.289063, 94436.500000, 108025.734375, 0.000, 0.000, 0.000,0.0,0.0,0.0,0.0,0.0, 14:43:39.529
45511.414063, 39605.992188, 122388.179688, 62603.792969, 97140.765625, 81548.304688, 94445.640625, 107992.875000, 0.000, 0.000, 0.000,0.0,0.0,0.0,0.0,0.0, 14:43:39.529
45534.121094, 39632.480469, 122330.351563, 62760.925781, 97143.070313, 81462.273438, 94431.828125, 107976.695313, 0.000, 0.000, 0.000,0.0,0.0,0.0,0.0,0.0, 14:43:39.529
45626.121094, 39734.515625, 122301.453125, 62113.261719, 97202.281250, 81217.562500, 94423.328125, 108015.742188, 0.000, 0.000, 0.000,0.0,0.0,0.0,0.0,0.0, 14:43:39.532
45615.976563, 39717.820313, 122356.687500, 61867.593750, 97217.656250, 81281.687500, 94443.984375, 108045.492188, 0.000, 0.000, 0.000,0.0,0.0,0.0,0.0,0.0, 14:43:39.533
45511.437500, 39608.207031, 122384.890625, 62483.585938, 97124.117188, 81525.328125, 94434.593750, 107996.000000, 0.000, 0.000, 0.000,0.0,0.0,0.0,0.0,0.0, 14:43:39.533
45525.113281, 39609.390625, 122351.007813, 62816.402344, 97128.226563, 81500.093750, 94421.609375, 107964.484375, 0.262, 0.216, 0.930,0.0,0.0,0.0,0.0,0.0, 14:43:39.534
45603.925781, 39709.437500, 122303.601563, 62247.570313, 97181.875000, 81240.406250, 94414.414063, 107997.281250, 0.000, 0.000, 0.000,0.0,0.0,0.0,0.0,0.0, 14:43:39.534
45603.660156, 39716.097656, 122339.226563, 61835.027344, 97220.320313, 81231.914063, 94430.507813, 108033.843750, 0.000, 0.000, 0.000,0.0,0.0,0.0,0.0,0.0, 14:43:39.534
45526.433594, 39625.328125, 122377.609375, 62359.867188, 97137.523438, 81484.156250, 94430.437500, 108002.687500, 0.000, 0.000, 0.000,0.0,0.0,0.0,0.0,0.0, 14:43:39.535
45502.515625, 39601.054688, 122356.085938, 62847.761719, 97106.812500, 81532.609375, 94419.289063, 107967.906250, 0.000, 0.000, 0.000,0.0,0.0,0.0,0.0,0.0, 14:43:39.535
45585.531250, 39682.816406, 122297.250000, 62404.234375, 97154.578125, 81278.429688, 94403.976563, 107979.015625, 0.000, 0.000, 0.000,0.0,0.0,0.0,0.0,0.0, 14:43:39.535
45630.101563, 39718.378906, 122321.507813, 61862.855469, 97206.328125, 81201.023438, 94419.468750, 108026.468750, 0.000, 0.000, 0.000,0.0,0.0,0.0,0.0,0.0, 14:43:39.536
45546.484375, 39633.152344, 122364.890625, 62241.515625, 97153.773438, 81436.945313, 94422.148438, 108002.265625, 0.000, 0.000, 0.000,0.0,0.0,0.0,0.0,0.0, 14:43:39.536
45506.003906, 39593.187500, 122353.828125, 62824.023438, 97098.187500, 81549.304688, 94413.851563, 107964.148438, 0.000, 0.000, 0.000,0.0,0.0,0.0,0.0,0.0, 14:43:39.537
45584.191406, 39686.570313, 122308.539063, 62525.359375, 97163.562500, 81339.804688, 94421.343750, 107991.445313, 0.252, 0.216, 0.938,0.0,0.0,0.0,0.0,0.0, 14:43:39.537
45633.343750, 39726.246094, 122318.664063, 61874.433594, 97220.453125, 81190.007813, 94429.765625, 108031.859375, 0.000, 0.000, 0.000,0.0,0.0,0.0,0.0,0.0, 14:43:39.538
45552.964844, 39640.707031, 122370.078125, 62131.410156, 97152.656250, 81392.132813, 94420.156250, 108006.015625, 0.000, 0.000, 0.000,0.0,0.0,0.0,0.0,0.0, 14:43:39.538
45513.937500, 39595.578125, 122371.750000, 62802.273438, 97087.882813, 81556.062500, 94411.578125, 107964.148438, 0.000, 0.000, 0.000,0.0,0.0,0.0,0.0,0.0, 14:43:39.538
45570.511719, 39658.230469, 122319.937500, 62677.867188, 97139.914063, 81381.781250, 94411.953125, 107974.437500, 0.000, 0.000, 0.000,0.0,0.0,0.0,0.0,0.0, 14:43:39.539
45626.457031, 39728.414063, 122302.882813, 61976.156250, 97201.343750, 81177.664063, 94410.390625, 108016.390625, 0.000, 0.000, 0.000,0.0,0.0,0.0,0.0,0.0, 14:43:39.539
45564.230469, 39652.753906, 122347.234375, 62025.910156, 97162.382813, 81332.671875, 94416.085938, 108009.820313, 0.000, 0.000, 0.000,0.0,0.0,0.0,0.0,0.0, 14:43:39.540
45491.855469, 39583.238281, 122360.976563, 62714.902344, 97101.585938, 81546.445313, 94414.460938, 107969.335938, 0.000, 0.000, 0.000,0.0,0.0,0.0,0.0,0.0, 14:43:39.540
45538.234375, 39636.101563, 122313.656250, 62765.507813, 97122.148438, 81425.078125, 94403.640625, 107962.921875, 0.000, 0.000, 0.000,0.0,0.0,0.0,0.0,0.0, 14:43:39.541
45634.125000, 39730.312500, 122306.484375, 62096.003906, 97198.187500, 81194.875000, 94411.687500, 108011.023438, 0.000, 0.000, 0.000,0.0,0.0,0.0,0.0,0.0, 14:43:39.542
45613.828125, 39692.250000, 122354.335938, 61967.550781, 97173.179688, 81293.898438, 94422.078125, 108022.531250, 0.246, 0.212, 0.930,0.0,0.0,0.0,0.0,0.0, 14:43:39.542
45509.691406, 39585.003906, 122375.773438, 62619.394531, 97106.078125, 81527.335938, 94415.687500, 107976.156250, 0.000, 0.000, 0.000,0.0,0.0,0.0,0.0,0.0, 14:43:39.543
45542.929688, 39622.332031, 122345.664063, 62857.863281, 97123.265625, 81464.906250, 94414.570313, 107962.656250, 0.000, 0.000, 0.000,0.0,0.0,0.0,0.0,0.0, 14:43:39.543
45641.523438, 39726.156250, 122310.890625, 62216.101563, 97214.687500, 81218.390625, 94422.906250, 108013.210938, 0.000, 0.000, 0.000,0.0,0.0,0.0,0.0,0.0, 14:43:39.543
45599.570313, 39680.960938, 122333.257813, 61916.945313, 97191.414063, 81243.132813, 94412.734375, 108014.062500, 0.000, 0.000, 0.000,0.0,0.0,0.0,0.0,0.0, 14:43:39.973
45511.210938, 39596.984375, 122375.234375, 62518.093750, 97122.546875, 81495.039063, 94419.554688, 107980.828125, 0.000, 0.000, 0.000,0.0,0.0,0.0,0.0,0.0, 14:43:39.974
45525.027344, 39613.683594, 122337.460938, 62882.292969, 97117.859375, 81497.695313, 94415.421875, 107961.421875, 0.000, 0.000, 0.000,0.0,0.0,0.0,0.0,0.0, 14:43:39.974
45620.734375, 39703.515625, 122299.601563, 62345.875000, 97178.656250, 81247.984375, 94410.968750, 107991.171875, 0.000, 0.000, 0.000,0.0,0.0,0.0,0.0,0.0, 14:43:39.975
45636.695313, 39721.441406, 122336.546875, 61903.222656, 97202.523438, 81219.578125, 94426.015625, 108029.460938, 0.000, 0.000, 0.000,0.0,0.0,0.0,0.0,0.0, 14:43:39.975
45529.988281, 39613.996094, 122370.742188, 62377.726563, 97133.703125, 81461.062500, 94425.679688, 107994.617188, 0.000, 0.000, 0.000,0.0,0.0,0.0,0.0,0.0, 14:43:39.975
45515.660156, 39599.445313, 122349.062500, 62892.195313, 97106.164063, 81524.875000, 94421.031250, 107956.437500, 0.260, 0.210, 0.936,0.0,0.0,0.0,0.0,0.0, 14:43:39.976
45625.027344, 39709.636719, 122307.109375, 62484.277344, 97169.625000, 81295.953125, 94419.375000, 107989.078125, 0.000, 0.000, 0.000,0.0,0.0,0.0,0.0,0.0, 14:43:39.976
45663.269531, 39747.589844, 122331.671875, 61905.097656, 97218.617188, 81197.984375, 94432.632813, 108032.593750, 0.000, 0.000, 0.000,0.0,0.0,0.0,0.0,0.0, 14:43:39.976
45551.648438, 39636.144531, 122369.445313, 62254.480469, 97148.859375, 81418.710938, 94424.515625, 107999.312500, 0.000, 0.000, 0.000,0.0,0.0,0.0,0.0,0.0, 14:43:39.977
45528.535156, 39598.257813, 122362.765625, 62869.285156, 97100.132813, 81547.968750, 94417.875000, 107961.648438, 0.000, 0.000, 0.000,0.0,0.0,0.0,0.0,0.0, 14:43:39.977
45588.593750, 39675.953125, 122307.289063, 62601.691406, 97160.304688, 81343.492188, 94413.320313, 107979.304688, 0.000, 0.000, 0.000,0.0,0.0,0.0,0.0,0.0, 14:43:39.978
45649.210938, 39738.070313, 122314.460938, 61955.210938, 97210.210938, 81178.226563, 94414.726563, 108018.179688, 0.000, 0.000, 0.000,0.0,0.0,0.0,0.0,0.0, 14:43:39.978
45577.730469, 39659.371094, 122364.484375, 62136.148438, 97169.960938, 81371.945313, 94427.421875, 108012.859375, 0.000, 0.000, 0.000,0.0,0.0,0.0,0.0,0.0, 14:43:39.979
45512.062500, 39588.179688, 122370.234375, 62817.386719, 97108.289063, 81553.757813, 94426.976563, 107970.992188, 0.000, 0.000, 0.000,0.0,0.0,0.0,0.0,0.0, 14:43:39.979
45579.472656, 39659.949219, 122316.945313, 62737.835938, 97134.617188, 81394.296875, 94417.789063, 107977.585938, 0.262, 0.208, 0.936,0.0,0.0,0.0,0.0,0.0, 14:43:39.980
45666.222656, 39748.484375, 122315.539063, 62036.011719, 97222.242188, 81186.648438, 94430.218750, 108026.492188, 0.000, 0.000, 0.000,0.0,0.0,0.0,0.0,0.0, 14:43:39.980
45602.183594, 39680.179688, 122364.328125, 62032.035156, 97193.632813, 81333.773438, 94434.750000, 108030.601563, 0.000, 0.000, 0.000,0.0,0.0,0.0,0.0,0.0, 14:43:39.980
45513.000000, 39577.917969, 122380.335938, 62744.382813, 97105.562500, 81554.562500, 94422.195313, 107977.898438, 0.000, 0.000, 0.000,0.0,0.0,0.0,0.0,0.0, 14:43:39.981
45570.222656, 39636.750000, 122340.750000, 62842.777344, 97133.390625, 81445.906250, 94422.015625, 107975.304688, 0.000, 0.000, 0.000,0.0,0.0,0.0,0.0,0.0, 14:43:39.981
45646.261719, 39726.871094, 122305.078125, 62155.171875, 97210.679688, 81198.765625, 94417.812500, 108013.460938, 0.000, 0.000, 0.000,0.0,0.0,0.0,0.0,0.0, 14:43:39.982
45622.097656, 39702.597656, 122351.164063, 61976.488281, 97202.007813, 81289.984375, 94438.015625, 108039.585938, 0.000, 0.000, 0.000,0.0,0.0,0.0,0.0,0.0, 14:43:39.982
45518.746094, 39597.769531, 122379.617188, 62615.101563, 97141.171875, 81531.093750, 94440.500000, 107993.968750, 0.000, 0.000, 0.000,0.0,0.0,0.0,0.0,0.0, 14:43:39.983
45549.210938, 39622.242188, 122348.953125, 62888.062500, 97118.460938, 81478.382813, 94421.406250, 107958.031250, 0.000, 0.000, 0.000,0.0,0.0,0.0,0.0,0.0, 14:43:39.983
45639.890625, 39721.417969, 122304.875000, 62274.593750, 97194.859375, 81225.234375, 94418.437500, 107998.570313, 0.000, 0.000, 0.000,0.0,0.0,0.0,0.0,0.0, 14:43:39.983
45625.609375, 39715.179688, 122333.710938, 61918.777344, 97207.531250, 81240.835938, 94429.593750, 108027.562500, 0.258, 0.206, 0.938,0.0,0.0,0.0,0.0,0.0, 14:43:39.984
45539.128906, 39615.761719, 122381.562500, 62508.507813, 97144.742188, 81493.609375, 94430.148438, 107992.046875, 0.000, 0.000, 0.000,0.0,0.0,0.0,0.0,0.0, 14:43:39.984
45542.394531, 39608.765625, 122345.976563, 62926.351563, 97112.492188, 81509.007813, 94418.679688, 107963.101563, 0.000, 0.000, 0.000,0.0,0.0,0.0,0.0,0.0, 14:43:39.984
45634.503906, 39716.164063, 122315.242188, 62435.593750, 97203.015625, 81270.312500, 94424.984375, 108000.179688, 0.000, 0.000, 0.000,0.0,0.0,0.0,0.0,0.0, 14:43:39.985
45649.949219, 39726.761719, 122340.906250, 61942.492188, 97225.476563, 81213.250000, 94433.078125, 108031.789063, 0.000, 0.000, 0.000,0.0,0.0,0.0,0.0,0.0, 14:43:39.985
45554.441406, 39632.636719, 122386.164063, 62378.554688, 97146.804688, 81452.125000, 94432.406250, 108004.359375, 0.000, 0.000, 0.000,0.0,0.0,0.0,0.0,0.0, 14:43:39.985
45534.121094, 39608.921875, 122378.835938, 62957.105469, 97115.062500, 81542.671875, 94423.328125, 107966.500000, 0.000, 0.000, 0.000,0.0,0.0,0.0,0.0,0.0, 14:43:39.986
45628.828125, 39703.781250, 122316.992188, 62584.457031, 97176.820313, 81312.203125, 94423.085938, 107990.523438, 0.000, 0.000, 0.000,0.0,0.0,0.0,0.0,0.0, 14:43:39.986
45662.734375, 39744.394531, 122333.640625, 61958.207031, 97226.531250, 81190.968750, 94438.375000, 108036.906250, 0.000, 0.000, 0.000,0.0,0.0,0.0,0.0,0.0, 14:43:39.986
45572.277344, 39650.339844, 122369.273438, 62265.476563, 97167.546875, 81409.718750, 94443.203125, 108014.687500, 0.254, 0.208, 0.934,0.0,0.0,0.0,0.0,0.0, 14:43:39.987
45522.296875, 39590.726563, 122361.132813, 62907.394531, 97108.601563, 81552.367188, 94433.164063, 107970.296875, 0.000, 0.000, 0.000,0.0,0.0,0.0,0.0,0.0, 14:43:39.987
45590.382813, 39661.539063, 122313.281250, 62724.894531, 97155.921875, 81363.609375, 94423.351563, 107981.093750, 0.000, 0.000, 0.000,0.0,0.0,0.0,0.0,0.0, 14:43:39.987
45628.714844, 39716.097656, 122299.109375, 62030.312500, 97213.765625, 81176.929688, 94423.171875, 108022.671875, 0.000, 0.000, 0.000,0.0,0.0,0.0,0.0,0.0, 14:43:39.987
45572.007813, 39652.507813, 122349.062500, 62162.480469, 97168.390625, 81356.054688, 94429.117188, 108013.257813, 0.000, 0.000, 0.000,0.0,0.0,0.0,0.0,0.0, 14:43:39.988
45514.027344, 39588.871094, 122368.890625, 62845.281250, 97133.343750, 81550.492188, 94437.546875, 107974.007813, 0.000, 0.000, 0.000,0.0,0.0,0.0,0.0,0.0, 14:43:39.988
45562.261719, 39645.511719, 122318.242188, 62820.671875, 97142.531250, 81408.781250, 94427.242188, 107976.710938, 0.000, 0.000, 0.000,0.0,0.0,0.0,0.0,0.0, 14:43:39.988
45645.613281, 39725.441406, 122303.421875, 62130.472656, 97201.226563, 81185.265625, 94425.093750, 108018.804688, 0.000, 0.000, 0.000,0.0,0.0,0.0,0.0,0.0, 14:43:39.989
45600.621094, 39671.261719, 122350.804688, 62069.832031, 97180.421875, 81308.023438, 94434.976563, 108023.828125, 0.000, 0.000, 0.000,0.0,0.0,0.0,0.0,0.0, 14:43:39.990
45518.921875, 39591.687500, 122380.671875, 62757.816406, 97109.250000, 81539.875000, 94430.195313, 107978.679688, 0.000, 0.000, 0.000,0.0,0.0,0.0,0.0,0.0, 14:43:39.990
45542.839844, 39613.636719, 122336.031250, 62924.496094, 97116.851563, 81453.976563, 94418.148438, 107962.859375, 0.256, 0.198, 0.940,0.0,0.0,0.0,0.0,0.0, 14:43:39.990
45639.980469, 39723.316406, 122305.546875, 62258.816406, 97207.062500, 81205.468750, 94426.953125, 108011.718750, 0.000, 0.000, 0.000,0.0,0.0,0.0,0.0,0.0, 14:43:39.991
45615.906250, 39696.695313, 122344.882813, 62011.449219, 97200.515625, 81274.382813, 94437.187500, 108041.867188, 0.000, 0.000, 0.000,0.0,0.0,0.0,0.0,0.0, 14:43:39.991
45511.996094, 39579.125000, 122375.820313, 62657.636719, 97113.070313, 81518.750000, 94426.101563, 107987.554688, 0.000, 0.000, 0.000,0.0,0.0,0.0,0.0,0.0, 14:43:39.991
45517.714844, 39593.343750, 122333.039063, 62982.406250, 97103.171875, 81492.757813, 94411.328125, 107964.781250, 0.000, 0.000, 0.000,0.0,0.0,0.0,0.0,0.0, 14:43:39.991
45630.234375, 39702.484375, 122300.671875, 62398.582031, 97192.195313, 81245.726563, 94413.992188, 108006.328125, 0.000, 0.000, 0.000,0.0,0.0,0.0,0.0,0.0, 14:43:39.992
45621.136719, 39700.316406, 122327.781250, 61988.582031, 97215.687500, 81242.265625, 94429.343750, 108040.640625, 0.000, 0.000, 0.000,0.0,0.0,0.0,0.0,0.0, 14:43:39.992
45531.753906, 39600.628906, 122378.679688, 62517.515625, 97137.015625, 81495.664063, 94432.898438, 108010.867188, 0.000, 0.000, 0.000,0.0,0.0,0.0,0.0,0.0, 14:43:39.992
45527.753906, 39590.570313, 122360.328125, 62985.468750, 97098.031250, 81539.359375, 94422.351563, 107977.828125, 0.000, 0.000, 0.000,0.0,0.0,0.0,0.0,0.0, 14:43:39.992
45608.195313, 39682.125000, 122315.601563, 62536.421875, 97177.648438, 81292.171875, 94417.523438, 107994.726563, 0.252, 0.198, 0.940,0.0,0.0,0.0,0.0,0.0, 14:43:39.993
45644.273438, 39714.511719, 122338.335938, 62003.937500, 97224.476563, 81216.539063, 94432.539063, 108037.156250, 0.000, 0.000, 0.000,0.0,0.0,0.0,0.0,0.0, 14:43:39.993
45563.605469, 39623.988281, 122390.054688, 62397.777344, 97152.968750, 81452.101563, 94433.054688, 108011.203125, 0.000, 0.000, 0.000,0.0,0.0,0.0,0.0,0.0, 14:43:39.993
45496.214844, 39570.140625, 122367.906250, 63001.945313, 97085.070313, 81553.937500, 94414.343750, 107961.226563, 0.000, 0.000, 0.000,0.0,0.0,0.0,0.0,0.0, 14:43:39.994
45563.851563, 39646.136719, 122302.125000, 62696.953125, 97140.742188, 81330.437500, 94403.281250, 107974.812500, 0.000, 0.000, 0.000,0.0,0.0,0.0,0.0,0.0, 14:43:39.994
45629.296875, 39708.675781, 122309.390625, 62040.191406, 97207.843750, 81186.179688, 94414.476563, 108021.257813, 0.000, 0.000, 0.000,0.0,0.0,0.0,0.0,0.0, 14:43:39.994
45561.617188, 39638.714844, 122368.398438, 62289.750000, 97151.273438, 81396.492188, 94423.687500, 108010.640625, 0.000, 0.000, 0.000,0.0,0.0,0.0,0.0,0.0, 14:43:39.994
45513.828125, 39581.585938, 122393.234375, 62964.214844, 97103.953125, 81561.757813, 94429.992188, 107967.328125, 0.000, 0.000, 0.000,0.0,0.0,0.0,0.0,0.0, 14:43:39.995
45589.824219, 39664.511719, 122335.226563, 62811.617188, 97160.148438, 81381.085938, 94420.585938, 107974.945313, 0.000, 0.000, 0.000,0.0,0.0,0.0,0.0,0.0, 14:43:39.995
45646.910156, 39724.589844, 122313.679688, 62098.105469, 97215.648438, 81178.984375, 94418.976563, 108019.179688, 0.000, 0.000, 0.000,0.0,0.0,0.0,0.0,0.0, 14:43:39.996
45570.152344, 39645.152344, 122358.453125, 62162.589844, 97187.484375, 81343.312500, 94436.359375, 108020.367188, 0.248, 0.192, 0.942,0.0,0.0,0.0,0.0,0.0, 14:43:39.996
45499.054688, 39565.917969, 122373.132813, 62859.117188, 97105.585938, 81553.375000, 94427.804688, 107972.375000, 0.000, 0.000, 0.000,0.0,0.0,0.0,0.0,0.0, 14:43:39.996
45550.640625, 39621.437500, 122325.257813, 62900.199219, 97130.578125, 81423.539063, 94415.062500, 107967.195313, 0.000, 0.000, 0.000,0.0,0.0,0.0,0.0,0.0, 14:43:39.997
45634.750000, 39714.355469, 122300.781250, 62194.531250, 97192.710938, 81188.039063, 94413.695313, 108009.726563, 0.000, 0.000, 0.000,0.0,0.0,0.0,0.0,0.0, 14:43:39.997
45606.296875, 39679.417969, 122357.265625, 62095.757813, 97184.351563, 81301.898438, 94428.898438, 108019.875000, 0.000, 0.000, 0.000,0.0,0.0,0.0,0.0,0.0, 14:43:39.997
45527.753906, 39598.773438, 122388.070313, 62765.171875, 97124.609375, 81541.750000, 94433.320313, 107980.851563, 0.000, 0.000, 0.000,0.0,0.0,0.0,0.0,0.0, 14:43:39.998
45536.917969, 39612.585938, 122333.484375, 62954.625000, 97111.109375, 81466.429688, 94411.890625, 107959.703125, 0.000, 0.000, 0.000,0.0,0.0,0.0,0.0,0.0, 14:43:39.999
45616.824219, 39695.042969, 122292.890625, 62309.574219, 97188.960938, 81212.203125, 94407.484375, 107995.890625, 0.000, 0.000, 0.000,0.0,0.0,0.0,0.0,0.0, 14:43:40.000
45607.214844, 39682.503906, 122327.000000, 62023.785156, 97181.984375, 81256.390625, 94413.835938, 108020.031250, 0.000, 0.000, 0.000,0.0,0.0,0.0,0.0,0.0, 14:43:40.001
45518.363281, 39593.363281, 122368.468750, 62609.671875, 97107.437500, 81505.117188, 94415.820313, 107981.695313, 0.000, 0.000, 0.000,0.0,0.0,0.0,0.0,0.0, 14:43:40.001
45506.808594, 39593.433594, 122342.421875, 62985.695313, 97109.968750, 81500.914063, 94412.492188, 107954.585938, 0.250, 0.202, 0.938,0.0,0.0,0.0,0.0,0.0, 14:43:40.001
45617.628906, 39702.417969, 122301.859375, 62437.449219, 97189.289063, 81251.960938, 94412.890625, 107996.492188, 0.000, 0.000, 0.000,0.0,0.0,0.0,0.0,0.0, 14:43:40.002
45628.937500, 39707.492188, 122327.781250, 61983.730469, 97211.687500, 81224.914063, 94428.539063, 108035.250000, 0.000, 0.000, 0.000,0.0,0.0,0.0,0.0,0.0, 14:43:40.002
45535.441406, 39613.859375, 122372.914063, 62476.789063, 97139.648438, 81477.492188, 94435.156250, 108005.500000, 0.000, 0.000, 0.000,0.0,0.0,0.0,0.0,0.0, 14:43:40.003
45510.207031, 39587.753906, 122351.968750, 62992.734375, 97103.570313, 81534.937500, 94421.343750, 107962.031250, 0.000, 0.000, 0.000,0.0,0.0,0.0,0.0,0.0, 14:43:40.003
45598.695313, 39678.835938, 122304.046875, 62566.375000, 97172.773438, 81292.601563, 94416.492188, 107984.445313, 0.000, 0.000, 0.000,0.0,0.0,0.0,0.0,0.0, 14:43:40.003
45619.035156, 39711.695313, 122319.851563, 61987.152344, 97209.632813, 81196.554688, 94421.703125, 108023.789063, 0.000, 0.000, 0.000,0.0,0.0,0.0,0.0,0.0, 14:43:40.004
45538.636719, 39623.917969, 122360.171875, 62340.152344, 97142.132813, 81426.953125, 94425.585938, 108002.242188, 0.000, 0.000, 0.000,0.0,0.0,0.0,0.0,0.0, 14:43:40.004
45513.714844, 39585.519531, 122358.875000, 62948.187500, 97105.515625, 81556.460938, 94425.210938, 107967.546875, 0.000, 0.000, 0.000,0.0,0.0,0.0,0.0,0.0, 14:43:40.004
45575.406250, 39662.589844, 122309.703125, 62684.707031, 97160.796875, 81349.570313, 94416.671875, 107981.718750, 0.250, 0.208, 0.940,0.0,0.0,0.0,0.0,0.0, 14:43:40.005
45624.738281, 39708.878906, 122309.281250, 62031.722656, 97210.726563, 81185.843750, 94417.789063, 108020.656250, 0.000, 0.000, 0.000,0.0,0.0,0.0,0.0,0.0, 14:43:40.005
45544.003906, 39617.773438, 122355.726563, 62229.242188, 97154.468750, 81377.914063, 94424.625000, 108009.640625, 0.000, 0.000, 0.000,0.0,0.0,0.0,0.0,0.0, 14:43:40.009
45496.953125, 39570.878906, 122367.171875, 62910.523438, 97090.812500, 81557.398438, 94420.000000, 107967.414063, 0.000, 0.000, 0.000,0.0,0.0,0.0,0.0,0.0, 14:43:40.010
45579.832031, 39659.125000, 122334.554688, 62834.261719, 97147.093750, 81399.039063, 94422.281250, 107978.187500, 0.000, 0.000, 0.000,0.0,0.0,0.0,0.0,0.0, 14:43:40.010
45623.886719, 39708.632813, 122300.156250, 62117.707031, 97204.851563, 81179.093750, 94416.156250, 108013.078125, 0.000, 0.000, 0.000,0.0,0.0,0.0,0.0,0.0, 14:43:40.011
45553.167969, 39638.539063, 122341.171875, 62132.906250, 97166.179688, 81321.945313, 94419.375000, 108007.671875, 0.000, 0.000, 0.000,0.0,0.0,0.0,0.0,0.0, 14:43:40.011
45484.433594, 39556.820313, 122365.875000, 62814.636719, 97099.976563, 81541.398438, 94414.992188, 107965.179688, 0.000, 0.000, 0.000,0.0,0.0,0.0,0.0,0.0, 14:43:40.012
45537.183594, 39612.878906, 122329.570313, 62901.136719, 97125.281250, 81436.726563, 94411.843750, 107962.093750, 0.000, 0.000, 0.000,0.0,0.0,0.0,0.0,0.0, 14:43:40.012
45633.453125, 39714.644531, 122312.898438, 62241.937500, 97205.742188, 81202.875000, 94419.507813, 108008.562500, 0.000, 0.000, 0.000,0.0,0.0,0.0,0.0,0.0, 14:43:40.013
45597.445313, 39666.992188, 122351.343750, 62069.585938, 97193.250000, 81284.554688, 94429.054688, 108022.710938, 0.260, 0.210, 0.934,0.0,0.0,0.0,0.0,0.0, 14:43:40.013
45497.710938, 39577.250000, 122379.570313, 62706.789063, 97109.117188, 81521.101563, 94420.468750, 107977.164063, 0.000, 0.000, 0.000,0.0,0.0,0.0,0.0,0.0, 14:43:40.014
45533.496094, 39615.761719, 122340.812500, 62950.757813, 97114.593750, 81471.125000, 94418.664063, 107963.992188, 0.000, 0.000, 0.000,0.0,0.0,0.0,0.0,0.0, 14:43:40.014
45620.511719, 39703.714844, 122303.843750, 62329.937500, 97192.335938, 81218.773438, 94415.015625, 107998.617188, 0.000, 0.000, 0.000,0.0,0.0,0.0,0.0,0.0, 14:43:40.015
45594.226563, 39679.843750, 122325.257813, 62000.316406, 97190.742188, 81235.335938, 94420.718750, 108017.531250, 0.000, 0.000, 0.000,0.0,0.0,0.0,0.0,0.0, 14:43:40.016
45513.179688, 39587.398438, 122372.960938, 62581.664063, 97120.468750, 81494.726563, 94428.046875, 107986.906250, 0.000, 0.000, 0.000,0.0,0.0,0.0,0.0,0.0, 14:43:40.016
45505.312500, 39583.640625, 122351.257813, 63020.785156, 97103.257813, 81509.101563, 94414.726563, 107951.414063, 0.000, 0.000, 0.000,0.0,0.0,0.0,0.0,0.0, 14:43:40.017
45602.898438, 39687.957031, 122304.648438, 62512.597656, 97176.101563, 81254.156250, 94409.875000, 107983.375000, 0.000, 0.000, 0.000,0.0,0.0,0.0,0.0,0.0, 14:43:40.017
45613.582031, 39694.953125, 122330.625000, 62021.820313, 97211.625000, 81202.234375, 94419.085938, 108016.898438, 0.000, 0.000, 0.000,0.0,0.0,0.0,0.0,0.0, 14:43:40.018
45523.437500, 39602.707031, 122364.640625, 62447.777344, 97138.796875, 81443.765625, 94427.867188, 107992.515625, 0.252, 0.204, 0.938,0.0,0.0,0.0,0.0,0.0, 14:43:40.018
45497.777344, 39579.597656, 122344.210938, 62973.066406, 97103.843750, 81524.523438, 94422.328125, 107955.546875, 0.000, 0.000, 0.000,0.0,0.0,0.0,0.0,0.0, 14:43:40.019
45589.644531, 39672.960938, 122302.796875, 62607.257813, 97167.968750, 81298.679688, 94417.585938, 107977.382813, 0.000, 0.000, 0.000,0.0,0.0,0.0,0.0,0.0, 14:43:40.019
45619.683594, 39704.542969, 122315.023438, 62018.175781, 97209.250000, 81179.718750, 94422.906250, 108016.031250, 0.000, 0.000, 0.000,0.0,0.0,0.0,0.0,0.0, 14:43:40.020
45544.515625, 39629.015625, 122360.304688, 62313.843750, 97149.867188, 81400.445313, 94427.710938, 108001.773438, 0.000, 0.000, 0.000,0.0,0.0,0.0,0.0,0.0, 14:43:40.020
45487.898438, 39575.976563, 122358.406250, 62939.179688, 97094.632813, 81544.304688, 94419.781250, 107960.289063, 0.000, 0.000, 0.000,0.0,0.0,0.0,0.0,0.0, 14:43:40.021
45577.375000, 39661.382813, 122312.968750, 62740.429688, 97142.960938, 81353.257813, 94412.203125, 107969.585938, 0.000, 0.000, 0.000,0.0,0.0,0.0,0.0,0.0, 14:43:40.021
45628.179688, 39727.675781, 122305.812500, 62089.277344, 97204.757813, 81177.375000, 94415.148438, 108011.312500, 0.000, 0.000, 0.000,0.0,0.0,0.0,0.0,0.0, 14:43:40.022
45569.257813, 39660.578125, 122353.312500, 62207.496094, 97162.046875, 81362.382813, 94425.742188, 108014.398438, 0.000, 0.000, 0.000,0.0,0.0,0.0,0.0,0.0, 14:43:40.022
45484.882813, 39573.070313, 122359.882813, 62882.027344, 97090.250000, 81550.539063, 94416.132813, 107966.765625, 0.000, 0.000, 0.000,0.0,0.0,0.0,0.0,0.0, 14:43:40.023
45544.449219, 39633.753906, 122313.101563, 62848.273438, 97126.062500, 81400.046875, 94404.648438, 107967.906250, 0.244, 0.200, 0.934,0.0,0.0,0.0,0.0,0.0, 14:43:40.023
45635.062500, 39735.523438, 122298.882813, 62146.632813, 97200.671875, 81181.015625, 94409.765625, 108015.984375, 0.000, 0.000, 0.000,0.0,0.0,0.0,0.0,0.0, 14:43:40.023
45582.894531, 39674.949219, 122351.742188, 62104.789063, 97175.703125, 81312.562500, 94417.968750, 108018.335938, 0.000, 0.000, 0.000,0.0,0.0,0.0,0.0,0.0, 14:43:40.024
45479.406250, 39567.570313, 122367.953125, 62797.605469, 97093.203125, 81536.945313, 94410.164063, 107968.937500, 0.000, 0.000, 0.000,0.0,0.0,0.0,0.0,0.0, 14:43:40.025
45521.808594, 39605.949219, 122326.843750, 62942.621094, 97116.671875, 81448.726563, 94407.531250, 107965.000000, 0.000, 0.000, 0.000,0.0,0.0,0.0,0.0,0.0, 14:43:40.025
45614.277344, 39706.015625, 122296.984375, 62279.246094, 97201.140625, 81205.406250, 94412.492188, 108010.937500, 0.000, 0.000, 0.000,0.0,0.0,0.0,0.0,0.0, 14:43:40.025
45584.906250, 39672.132813, 122337.304688, 62057.558594, 97195.710938, 81276.843750, 94426.929688, 108032.171875, 0.000, 0.000, 0.000,0.0,0.0,0.0,0.0,0.0, 14:43:40.026
45500.394531, 39580.871094, 122377.804688, 62691.031250, 97118.039063, 81526.507813, 94423.484375, 107992.468750, 0.000, 0.000, 0.000,0.0,0.0,0.0,0.0,0.0, 14:43:40.026
45511.636719, 39601.546875, 122340.460938, 62984.171875, 97119.039063, 81491.484375, 94414.968750, 107968.109375, 0.000, 0.000, 0.000,0.0,0.0,0.0,0.0,0.0, 14:43:40.027
45616.398438, 39709.953125, 122309.906250, 62397.171875, 97190.210938, 81240.320313, 94415.351563, 108004.453125, 0.240, 0.196, 0.940,0.0,0.0,0.0,0.0,0.0, 14:43:40.453
45606.074219, 39695.625000, 122340.007813, 62031.945313, 97204.515625, 81237.632813, 94426.351563, 108027.742188, 0.000, 0.000, 0.000,0.0,0.0,0.0,0.0,0.0, 14:43:40.453
45504.417969, 39593.765625, 122368.421875, 62556.652344, 97122.078125, 81480.531250, 94422.484375, 107990.664063, 0.000, 0.000, 0.000,0.0,0.0,0.0,0.0,0.0, 14:43:40.453
45514.117188, 39603.402344, 122356.242188, 63017.523438, 97106.617188, 81524.093750, 94420.109375, 107964.601563, 0.000, 0.000, 0.000,0.0,0.0,0.0,0.0,0.0, 14:43:40.454
45599.992188, 39705.613281, 122317.546875, 62555.312500, 97183.031250, 81279.921875, 94417.382813, 107992.046875, 0.000, 0.000, 0.000,0.0,0.0,0.0,0.0,0.0, 14:43:40.454
45619.574219, 39718.578125, 122329.101563, 62032.527344, 97207.109375, 81205.156250, 94417.500000, 108022.937500, 0.000, 0.000, 0.000,0.0,0.0,0.0,0.0,0.0, 14:43:40.454
45538.058594, 39627.339844, 122379.554688, 62462.417969, 97138.796875, 81444.750000, 94420.898438, 107994.820313, 0.000, 0.000, 0.000,0.0,0.0,0.0,0.0,0.0, 14:43:40.455
45517.402344, 39598.191406, 122373.781250, 63029.414063, 97107.796875, 81548.820313, 94426.078125, 107966.703125, 0.000, 0.000, 0.000,0.0,0.0,0.0,0.0,0.0, 14:43:40.455
45600.507813, 39675.820313, 122324.992188, 62703.324219, 97163.500000, 81325.750000, 94418.570313, 107979.734375, 0.000, 0.000, 0.000,0.0,0.0,0.0,0.0,0.0, 14:43:40.455
45625.472656, 39705.570313, 122315.265625, 62068.980469, 97208.445313, 81176.187500, 94414.007813, 108010.914063, 0.000, 0.000, 0.000,0.0,0.0,0.0,0.0,0.0, 14:43:40.456
45538.792969, 39619.941406, 122358.226563, 62336.667969, 97150.289063, 81388.218750, 94418.328125, 107993.031250, 0.238, 0.192, 0.938,0.0,0.0,0.0,0.0,0.0, 14:43:40.456
45496.394531, 39578.949219, 122359.078125, 62979.324219, 97087.703125, 81545.578125, 94415.195313, 107953.914063, 0.000, 0.000, 0.000,0.0,0.0,0.0,0.0,0.0, 14:43:40.456
45577.886719, 39666.320313, 122324.703125, 62827.085938, 97153.195313, 81367.570313, 94417.812500, 107968.625000, 0.000, 0.000, 0.000,0.0,0.0,0.0,0.0,0.0, 14:43:40.456
45638.281250, 39730.468750, 122302.617188, 62120.457031, 97216.804688, 81170.109375, 94417.992188, 108011.695313, 0.000, 0.000, 0.000,0.0,0.0,0.0,0.0,0.0, 14:43:40.457
45569.976563, 39652.707031, 122347.812500, 62193.167969, 97171.835938, 81339.757813, 94426.328125, 108008.343750, 0.000, 0.000, 0.000,0.0,0.0,0.0,0.0,0.0, 14:43:40.457
45505.890625, 39581.875000, 122379.796875, 62902.812500, 97095.531250, 81551.296875, 94422.906250, 107966.429688, 0.000, 0.000, 0.000,0.0,0.0,0.0,0.0,0.0, 14:43:40.457
45553.546875, 39637.062500, 122332.414063, 62920.761719, 97144.054688, 81414.195313, 94417.992188, 107964.914063, 0.000, 0.000, 0.000,0.0,0.0,0.0,0.0,0.0, 14:43:40.458
45634.636719, 39714.464844, 122299.976563, 62215.765625, 97207.445313, 81178.781250, 94414.640625, 108005.078125, 0.000, 0.000, 0.000,0.0,0.0,0.0,0.0,0.0, 14:43:40.458
45594.093750, 39669.406250, 122350.921875, 62130.562500, 97178.585938, 81300.820313, 94427.375000, 108016.273438, 0.000, 0.000, 0.000,0.0,0.0,0.0,0.0,0.0, 14:43:40.458
45512.328125, 39581.003906, 122395.578125, 62839.781250, 97116.898438, 81538.781250, 94430.554688, 107973.609375, 0.000, 0.000, 0.000,0.0,0.0,0.0,0.0,0.0, 14:43:40.459
45549.566406, 39615.628906, 122342.109375, 63020.675781, 97127.671875, 81456.953125, 94424.429688, 107962.070313, 0.236, 0.182, 0.934,0.0,0.0,0.0,0.0,0.0, 14:43:40.460
45634.460938, 39713.304688, 122313.929688, 62374.910156, 97207.085938, 81213.203125, 94428.742188, 108008.523438, 0.000, 0.000, 0.000,0.0,0.0,0.0,0.0,0.0, 14:43:40.460
45633.765625, 39700.675781, 122365.937500, 62120.277344, 97208.273438, 81273.195313, 94446.085938, 108038.984375, 0.000, 0.000, 0.000,0.0,0.0,0.0,0.0,0.0, 14:43:40.460
45528.332031, 39599.625000, 122394.703125, 62710.343750, 97112.539063, 81513.210938, 94430.687500, 107989.343750, 0.000, 0.000, 0.000,0.0,0.0,0.0,0.0,0.0, 14:43:40.461
45515.972656, 39602.417969, 122350.492188, 63070.718750, 97115.687500, 81497.898438, 94420.937500, 107957.781250, 0.000, 0.000, 0.000,0.0,0.0,0.0,0.0,0.0, 14:43:40.461
45618.925781, 39700.070313, 122300.070313, 62501.554688, 97199.687500, 81240.164063, 94422.171875, 107994.414063, 0.000, 0.000, 0.000,0.0,0.0,0.0,0.0,0.0, 14:43:40.461
45634.660156, 39706.644531, 122331.046875, 62066.253906, 97212.226563, 81220.289063, 94432.742188, 108031.210938, 0.000, 0.000, 0.000,0.0,0.0,0.0,0.0,0.0, 14:43:40.461
45546.238281, 39613.078125, 122380.132813, 62570.218750, 97146.531250, 81472.125000, 94440.859375, 108002.640625, 0.000, 0.000, 0.000,0.0,0.0,0.0,0.0,0.0, 14:43:40.462
45546.996094, 39606.375000, 122378.632813, 63075.035156, 97131.312500, 81534.710938, 94441.234375, 107974.031250, 0.000, 0.000, 0.000,0.0,0.0,0.0,0.0,0.0, 14:43:40.462
45621.675781, 39690.730469, 122324.882813, 62654.082031, 97184.664063, 81291.726563, 94430.593750, 107992.382813, 0.236, 0.188, 0.936,0.0,0.0,0.0,0.0,0.0, 14:43:40.462
45652.250000, 39732.570313, 122328.742188, 62078.773438, 97219.671875, 81193.781250, 94434.171875, 108027.359375, 0.000, 0.000, 0.000,0.0,0.0,0.0,0.0,0.0, 14:43:40.463
45585.621094, 39646.988281, 122395.937500, 62459.757813, 97161.398438, 81434.843750, 94444.367188, 108010.976563, 0.000, 0.000, 0.000,0.0,0.0,0.0,0.0,0.0, 14:43:40.463
45535.820313, 39585.855469, 122376.375000, 63066.628906, 97108.046875, 81547.742188, 94425.656250, 107963.101563, 0.000, 0.000, 0.000,0.0,0.0,0.0,0.0,0.0, 14:43:40.464
45586.894531, 39659.882813, 122304.070313, 62775.074219, 97166.250000, 81329.750000, 94418.015625, 107976.937500, 0.000, 0.000, 0.000,0.0,0.0,0.0,0.0,0.0, 14:43:40.464
45650.753906, 39721.953125, 122304.023438, 62119.898438, 97210.664063, 81173.062500, 94417.859375, 108018.578125, 0.000, 0.000, 0.000,0.0,0.0,0.0,0.0,0.0, 14:43:40.464
45594.250000, 39654.855469, 122360.398438, 62338.835938, 97162.601563, 81379.953125, 94431.515625, 108012.367188, 0.000, 0.000, 0.000,0.0,0.0,0.0,0.0,0.0, 14:43:40.464
45529.027344, 39585.070313, 122375.484375, 63020.339844, 97107.734375, 81557.804688, 94429.078125, 107968.351563, 0.000, 0.000, 0.000,0.0,0.0,0.0,0.0,0.0, 14:43:40.465
45588.503906, 39653.132813, 122322.914063, 62902.144531, 97156.414063, 81385.515625, 94423.867188, 107973.046875, 0.000, 0.000, 0.000,0.0,0.0,0.0,0.0,0.0, 14:43:40.465
45673.308594, 39735.121094, 122310.976563, 62208.007813, 97220.812500, 81180.617188, 94428.984375, 108018.335938, 0.000, 0.000, 0.000,0.0,0.0,0.0,0.0,0.0, 14:43:40.465
45594.406250, 39652.863281, 122351.789063, 62249.808594, 97172.507813, 81330.242188, 94429.992188, 108010.664063, 0.244, 0.194, 0.940,0.0,0.0,0.0,0.0,0.0, 14:43:40.466
45507.589844, 39574.140625, 122366.476563, 62922.750000, 97112.539063, 81539.898438, 94428.515625, 107967.664063, 0.000, 0.000, 0.000,0.0,0.0,0.0,0.0,0.0, 14:43:40.466
45582.132813, 39641.531250, 122337.328125, 62988.511719, 97147.179688, 81428.921875, 94427.960938, 107966.992188, 0.000, 0.000, 0.000,0.0,0.0,0.0,0.0,0.0, 14:43:40.466
45653.859375, 39713.058594, 122300.093750, 62310.781250, 97204.492188, 81186.335938, 94419.507813, 108000.968750, 0.000, 0.000, 0.000,0.0,0.0,0.0,0.0,0.0, 14:43:40.467
45610.945313, 39668.132813, 122335.164063, 62162.007813, 97195.484375, 81285.179688, 94435.265625, 108019.671875, 0.000, 0.000, 0.000,0.0,0.0,0.0,0.0,0.0, 14:43:40.467
45535.398438, 39585.855469, 122372.351563, 62808.109375, 97124.984375, 81527.804688, 94439.265625, 107982.773438, 0.000, 0.000, 0.000,0.0,0.0,0.0,0.0,0.0, 14:43:40.467
45573.730469, 39621.863281, 122348.234375, 63049.128906, 97131.625000, 81472.375000, 94431.687500, 107968.289063, 0.000, 0.000, 0.000,0.0,0.0,0.0,0.0,0.0, 14:43:40.467
45652.007813, 39706.175781, 122301.679688, 62421.738281, 97206.328125, 81213.695313, 94422.367188, 108001.703125, 0.000, 0.000, 0.000,0.0,0.0,0.0,0.0,0.0, 14:43:40.468
45642.058594, 39700.472656, 122336.546875, 62094.843750, 97211.625000, 81240.812500, 94435.132813, 108030.851563, 0.000, 0.000, 0.000,0.0,0.0,0.0,0.0,0.0, 14:43:40.468
45552.941406, 39603.890625, 122384.539063, 62668.121094, 97137.976563, 81496.828125, 94441.820313, 107997.164063, 0.246, 0.200, 0.934,0.0,0.0,0.0,0.0,0.0, 14:43:40.468
45553.054688, 39606.820313, 122363.367188, 63090.835938, 97119.976563, 81505.234375, 94430.304688, 107961.625000, 0.000, 0.000, 0.000,0.0,0.0,0.0,0.0,0.0, 14:43:40.469
45660.164063, 39714.109375, 122318.484375, 62568.542969, 97185.406250, 81250.171875, 94421.453125, 107990.906250, 0.000, 0.000, 0.000,0.0,0.0,0.0,0.0,0.0, 14:43:40.469
45672.660156, 39727.632813, 122342.312500, 62094.195313, 97209.835938, 81208.828125, 94429.679688, 108025.773438, 0.000, 0.000, 0.000,0.0,0.0,0.0,0.0,0.0, 14:43:40.469
45566.199219, 39624.187500, 122368.687500, 62547.308594, 97148.882813, 81447.851563, 94432.453125, 107995.242188, 0.000, 0.000, 0.000,0.0,0.0,0.0,0.0,0.0, 14:43:40.470
45543.062500, 39600.183594, 122360.109375, 63077.937500, 97113.250000, 81528.632813, 94425.476563, 107957.070313, 0.000, 0.000, 0.000,0.0,0.0,0.0,0.0,0.0, 14:43:40.470
45629.273438, 39681.363281, 122311.851563, 62693.132813, 97174.632813, 81291.656250, 94416.335938, 107973.226563, 0.000, 0.000, 0.000,0.0,0.0,0.0,0.0,0.0, 14:43:40.470
45673.867188, 39718.289063, 122323.648438, 62116.882813, 97217.726563, 81180.257813, 94421.234375, 108013.125000, 0.000, 0.000, 0.000,0.0,0.0,0.0,0.0,0.0, 14:43:40.470
45587.343750, 39636.144531, 122375.148438, 62445.207031, 97159.429688, 81413.367188, 94431.062500, 108001.343750, 0.000, 0.000, 0.000,0.0,0.0,0.0,0.0,0.0, 14:43:40.470
45521.292969, 39579.195313, 122363.031250, 63085.003906, 97102.390625, 81547.031250, 94421.070313, 107957.046875, 0.000, 0.000, 0.000,0.0,0.0,0.0,0.0,0.0, 14:43:40.470
45595.613281, 39648.839844, 122304.765625, 62851.089844, 97155.656250, 81343.625000, 94411.953125, 107972.445313, 0.248, 0.196, 0.938,0.0,0.0,0.0,0.0,0.0, 14:43:40.471
45666.960938, 39723.117188, 122300.742188, 62164.042969, 97226.171875, 81178.781250, 94422.367188, 108028.054688, 0.000, 0.000, 0.000,0.0,0.0,0.0,0.0,0.0, 14:43:40.471
45593.625000, 39649.109375, 122354.273438, 62309.933594, 97180.039063, 81373.554688, 94433.945313, 108025.843750, 0.000, 0.000, 0.000,0.0,0.0,0.0,0.0,0.0, 14:43:40.471
45529.988281, 39584.691406, 122374.273438, 62996.398438, 97115.171875, 81563.679688, 94429.210938, 107980.312500, 0.000, 0.000, 0.000,0.0,0.0,0.0,0.0,0.0, 14:43:40.472
45599.300781, 39651.343750, 122323.359375, 62925.679688, 97155.031250, 81408.289063, 94424.289063, 107984.718750, 0.000, 0.000, 0.000,0.0,0.0,0.0,0.0,0.0, 14:43:40.472
45670.535156, 39727.878906, 122303.265625, 62211.718750, 97228.742188, 81189.375000, 94427.578125, 108028.640625, 0.000, 0.000, 0.000,0.0,0.0,0.0,0.0,0.0, 14:43:40.472
45612.039063, 39660.417969, 122346.445313, 62193.300781, 97190.343750, 81322.195313, 94430.882813, 108021.750000, 0.000, 0.000, 0.000,0.0,0.0,0.0,0.0,0.0, 14:43:40.473
45541.500000, 39585.027344, 122375.570313, 62887.726563, 97122.257813, 81550.250000, 94435.203125, 107977.164063, 0.000, 0.000, 0.000,0.0,0.0,0.0,0.0,0.0, 14:43:40.473
45574.332031, 39620.433594, 122329.796875, 63001.003906, 97137.820313, 81443.648438, 94425.609375, 107962.007813, 0.000, 0.000, 0.000,0.0,0.0,0.0,0.0,0.0, 14:43:40.473
45654.507813, 39710.019531, 122294.570313, 62316.257813, 97210.507813, 81191.460938, 94419.375000, 107999.531250, 0.248, 0.190, 0.948,0.0,0.0,0.0,0.0,0.0, 14:43:40.473
45632.785156, 39680.312500, 122342.250000, 62132.617188, 97200.625000, 81268.703125, 94429.437500, 108016.656250, 0.000, 0.000, 0.000,0.0,0.0,0.0,0.0,0.0, 14:43:40.474
45541.273438, 39589.722656, 122372.085938, 62773.531250, 97124.406250, 81515.984375, 94430.882813, 107978.726563, 0.000, 0.000, 0.000,0.0,0.0,0.0,0.0,0.0, 14:43:40.474
45557.636719, 39603.937500, 122328.164063, 63050.847656, 97114.015625, 81476.195313, 94418.640625, 107957.046875, 0.000, 0.000, 0.000,0.0,0.0,0.0,0.0,0.0, 14:43:40.474
45652.675781, 39707.023438, 122291.890625, 62456.492188, 97193.453125, 81222.460938, 94415.773438, 107989.140625, 0.000, 0.000, 0.000,0.0,0.0,0.0,0.0,0.0, 14:43:40.474
45644.964844, 39699.402344, 122316.992188, 62073.183594, 97198.125000, 81223.578125, 94421.296875, 108013.726563, 0.000, 0.000, 0.000,0.0,0.0,0.0,0.0,0.0, 14:43:40.475
45547.398438, 39592.269531, 122358.968750, 62625.921875, 97121.726563, 81474.406250, 94422.414063, 107976.625000, 0.000, 0.000, 0.000,0.0,0.0,0.0,0.0,0.0, 14:43:40.475
45548.988281, 39588.714844, 122343.070313, 63086.074219, 97099.664063, 81509.078125, 94414.304688, 107946.984375, 0.000, 0.000, 0.000,0.0,0.0,0.0,0.0,0.0, 14:43:40.475
45653.570313, 39699.804688, 122302.171875, 62611.949219, 97183.015625, 81269.757813, 94417.320313, 107985.679688, 0.000, 0.000, 0.000,0.0,0.0,0.0,0.0,0.0, 14:43:40.479
45666.085938, 39715.382813, 122313.632813, 62079.015625, 97216.539063, 81203.929688, 94425.523438, 108022.531250, 0.000, 0.000, 0.000,0.0,0.0,0.0,0.0,0.0, 14:43:40.479
45575.160156, 39617.324219, 122365.289063, 62519.191406, 97153.929688, 81448.320313, 94431.062500, 107995.625000, 0.244, 0.184, 0.944,0.0,0.0,0.0,0.0,0.0, 14:43:40.480
45547.914063, 39584.402344, 122353.515625, 63088.152344, 97111.445313, 81540.078125, 94424.132813, 107959.953125, 0.000, 0.000, 0.000,0.0,0.0,0.0,0.0,0.0, 14:43:40.480
45642.976563, 39676.847656, 122307.265625, 62740.449219, 97179.078125, 81315.578125, 94423.351563, 107983.640625, 0.000, 0.000, 0.000,0.0,0.0,0.0,0.0,0.0, 14:43:40.480
45683.207031, 39729.464844, 122315.875000, 62124.816406, 97228.007813, 81188.617188, 94430.953125, 108027.140625, 0.000, 0.000, 0.000,0.0,0.0,0.0,0.0,0.0, 14:43:40.480
45600.597656, 39640.304688, 122362.742188, 62397.863281, 97167.585938, 81405.164063, 94436.453125, 108013.843750, 0.000, 0.000, 0.000,0.0,0.0,0.0,0.0,0.0, 14:43:40.480
45555.781250, 39589.632813, 122367.679688, 63042.625000, 97113.992188, 81559.882813, 94434.820313, 107975.101563, 0.000, 0.000, 0.000,0.0,0.0,0.0,0.0,0.0, 14:43:40.481
45640.515625, 39680.378906, 122329.015625, 62874.160156, 97167.765625, 81375.906250, 94432.453125, 107989.117188, 0.000, 0.000, 0.000,0.0,0.0,0.0,0.0,0.0, 14:43:40.481
45689.289063, 39723.406250, 122314.820313, 62182.015625, 97228.320313, 81179.945313, 94428.000000, 108027.117188, 0.000, 0.000, 0.000,0.0,0.0,0.0,0.0,0.0, 14:43:40.481
45611.503906, 39649.199219, 122356.554688, 62289.929688, 97171.257813, 81352.882813, 94432.695313, 108018.984375, 0.000, 0.000, 0.000,0.0,0.0,0.0,0.0,0.0, 14:43:40.482
45539.421875, 39577.585938, 122373.023438, 62978.742188, 97109.742188, 81556.148438, 94431.335938, 107975.554688, 0.000, 0.000, 0.000,0.0,0.0,0.0,0.0,0.0, 14:43:40.482
45597.000000, 39638.449219, 122328.390625, 62984.734375, 97148.078125, 81419.062500, 94425.656250, 107971.687500, 0.246, 0.178, 0.938,0.0,0.0,0.0,0.0,0.0, 14:43:40.482
45686.093750, 39731.410156, 122306.820313, 62284.632813, 97225.187500, 81192.687500, 94429.632813, 108019.851563, 0.000, 0.000, 0.000,0.0,0.0,0.0,0.0,0.0, 14:43:40.482
45636.316406, 39678.503906, 122353.468750, 62218.738281, 97198.593750, 81311.617188, 94438.843750, 108028.992188, 0.000, 0.000, 0.000,0.0,0.0,0.0,0.0,0.0, 14:43:40.483
45546.347656, 39584.355469, 122375.773438, 62895.750000, 97118.570313, 81537.148438, 94431.671875, 107981.632813, 0.000, 0.000, 0.000,0.0,0.0,0.0,0.0,0.0, 14:43:40.483
45577.886719, 39618.734375, 122333.773438, 63071.300781, 97133.546875, 81451.296875, 94423.484375, 107968.351563, 0.000, 0.000, 0.000,0.0,0.0,0.0,0.0,0.0, 14:43:40.483
45673.531250, 39713.171875, 122298.015625, 62410.046875, 97212.585938, 81200.507813, 94428.585938, 108013.234375, 0.000, 0.000, 0.000,0.0,0.0,0.0,0.0,0.0, 14:43:40.483
45637.925781, 39675.304688, 122334.445313, 62161.898438, 97205.406250, 81257.531250, 94434.687500, 108030.203125, 0.000, 0.000, 0.000,0.0,0.0,0.0,0.0,0.0, 14:43:40.484
45548.851563, 39585.585938, 122373.132813, 62783.878906, 97132.609375, 81507.554688, 94435.914063, 107989.390625, 0.000, 0.000, 0.000,0.0,0.0,0.87167186,0.0,0.9261419, 14:43:40.484
45564.746094, 39603.156250, 122345.328125, 63122.195313, 97130.867188, 81490.968750, 94433.031250, 107968.578125, 0.000, 0.000, 0.000,0.0,0.0,0.87167186,0.0,0.9261419, 14:43:40.484
45657.371094, 39700.453125, 122295.132813, 62535.058594, 97199.195313, 81232.406250, 94427.914063, 108002.218750, 0.244, 0.192, 0.938,0.0,0.0,0.87167186,0.0,0.9261419, 14:43:40.484
45662.710938, 39703.246094, 122328.320313, 62121.957031, 97213.882813, 81223.015625, 94436.164063, 108032.390625, 0.000, 0.000, 0.000,0.0,0.0,0.87167186,0.0,0.9261419, 14:43:40.485
45577.687500, 39619.851563, 122379.531250, 62642.371094, 97139.625000, 81479.054688, 94436.992188, 108001.570313, 0.000, 0.000, 0.000,0.0,0.0,0.87167186,0.0,0.9261419, 14:43:40.485
45567.089844, 39608.832031, 122364.601563, 63135.160156, 97117.476563, 81528.632813, 94430.953125, 107969.296875, 0.000, 0.000, 0.000,0.0,0.0,0.87167186,0.0,0.9261419, 14:43:40.485
45657.503906, 39698.707031, 122315.468750, 62682.804688, 97191.148438, 81282.429688, 94432.632813, 107995.710938, 0.000, 0.000, 0.000,0.0,0.0,0.87167186,0.0,0.9261419, 14:43:40.485
45677.890625, 39715.160156, 122328.429688, 62130.382813, 97218.882813, 81193.710938, 94430.484375, 108029.867188, 0.000, 0.000, 0.000,0.0,0.0,0.87167186,0.0,0.9261419, 14:43:40.486
45584.457031, 39621.394531, 122372.664063, 62502.828125, 97153.218750, 81427.875000, 94436.453125, 108010.421875, 0.000, 0.000, 0.000,0.0,0.0,0.87167186,0.0,0.9261419, 14:43:40.486
45551.890625, 39590.750000, 122375.750000, 63110.015625, 97118.437500, 81548.703125, 94436.609375, 107975.593750, 0.000, 0.000, 0.000,0.0,0.0,0.87167186,0.0,0.9261419, 14:43:40.486
45645.925781, 39685.675781, 122326.375000, 62802.542969, 97187.039063, 81337.148438, 94436.695313, 107999.179688, 0.000, 0.000, 0.000,0.0,0.0,0.87167186,0.0,0.9261419, 14:43:40.487
45700.375000, 39738.628906, 122331.000000, 62146.566406, 97245.593750, 81190.562500, 94446.664063, 108046.179688, 0.000, 0.000, 0.000,0.0,0.0,0.87167186,0.0,0.9261419, 14:43:40.487
45620.312500, 39658.296875, 122387.242188, 62386.421875, 97189.898438, 81396.687500, 94452.593750, 108027.992188, 0.242, 0.190, 0.934,0.0,0.0,0.87167186,0.0,0.9261419, 14:43:40.487
45545.074219, 39580.824219, 122374.546875, 63031.515625, 97116.335938, 81549.421875, 94433.343750, 107970.859375, 0.000, 0.000, 0.000,0.0,0.0,0.87167186,0.0,0.9261419, 14:43:40.487
45614.902344, 39655.593750, 122321.507813, 62886.296875, 97163.453125, 81375.007813, 94430.773438, 107980.601563, 0.000, 0.000, 0.000,0.0,0.0,0.87167186,0.0,0.9261419, 14:43:40.488
45683.230469, 39730.000000, 122311.085938, 62201.125000, 97227.734375, 81176.367188, 94432.742188, 108024.460938, 0.000, 0.000, 0.000,0.0,0.0,0.87167186,0.0,0.9261419, 14:43:40.488
45627.531250, 39669.851563, 122359.773438, 62255.214844, 97192.289063, 81336.609375, 94443.289063, 108024.812500, 0.000, 0.000, 0.000,0.0,0.0,0.87167186,0.0,0.9261419, 14:43:40.488
45555.289063, 39593.230469, 122389.789063, 62959.074219, 97125.789063, 81551.210938, 94443.312500, 107985.164063, 0.000, 0.000, 0.000,0.0,0.0,0.87167186,0.0,0.9261419, 14:43:40.488
45604.062500, 39645.781250, 122347.765625, 63029.636719, 97150.203125, 81430.617188, 94430.375000, 107976.890625, 0.000, 0.000, 0.000,0.0,0.0,0.87167186,0.0,0.9261419, 14:43:40.489
45694.628906, 39737.644531, 122318.890625, 62338.878906, 97233.773438, 81195.234375, 94439.937500, 108029.039063, 0.000, 0.000, 0.000,0.0,0.0,0.87167186,0.0,0.9261419, 14:43:40.489
45651.378906, 39689.902344, 122357.781250, 62200.253906, 97214.929688, 81296.960938, 94449.414063, 108043.945313, 0.000, 0.000, 0.000,0.0,0.0,0.87167186,0.0,0.9261419, 14:43:40.489
45564.050781, 39601.500000, 122376.781250, 62837.167969, 97136.406250, 81533.390625, 94443.539063, 108001.632813, 0.244, 0.194, 0.940,0.0,0.0,0.87167186,0.0,0.9261419, 14:43:40.490
45601.937500, 39633.753906, 122346.921875, 63058.023438, 97149.867188, 81473.914063, 94440.070313, 107985.945313, 0.000, 0.000, 0.000,0.0,0.0,0.87167186,0.0,0.9261419, 14:43:40.490
45704.667969, 39737.554688, 122319.406250, 62430.812500, 97232.789063, 81222.210938, 94442.351563, 108027.562500, 0.000, 0.000, 0.000,0.0,0.0,0.87167186,0.0,0.9261419, 14:43:40.491
45680.011719, 39710.218750, 122355.367188, 62129.441406, 97231.914063, 81254.218750, 94449.234375, 108044.664063, 0.000, 0.000, 0.000,0.0,0.0,0.87167186,0.0,0.9261419, 14:43:40.491
45580.660156, 39606.328125, 122390.773438, 62731.039063, 97150.023438, 81505.679688, 94449.218750, 108001.257813, 0.000, 0.000, 0.000,0.0,0.0,0.87167186,0.0,0.9261419, 14:43:40.491
45583.339844, 39608.429688, 122361.648438, 63122.554688, 97139.601563, 81510.531250, 94439.109375, 107976.109375, 0.000, 0.000, 0.000,0.026227854,0.05416458,0.028477823,0.07839541,0.07028099, 14:43:40.933
45683.031250, 39712.277344, 122317.992188, 62572.367188, 97224.320313, 81261.421875, 94443.468750, 108019.273438, 0.000, 0.000, 0.000,0.026227854,0.05416458,0.028477823,0.07839541,0.07028099, 14:43:40.933
45684.976563, 39722.378906, 122346.781250, 62114.691406, 97245.171875, 81228.804688, 94455.226563, 108055.171875, 0.000, 0.000, 0.000,0.026227854,0.05416458,0.028477823,0.07839541,0.07028099, 14:43:40.933
45580.324219, 39616.699219, 122386.257813, 62598.425781, 97171.765625, 81477.289063, 94459.429688, 108026.625000, 0.000, 0.000, 0.000,0.026227854,0.05416458,0.028477823,0.07839541,0.07028099, 14:43:40.934
45560.496094, 39597.050781, 122373.585938, 63123.984375, 97147.156250, 81551.765625, 94459.164063, 107995.492188, 0.000, 0.000, 0.000,0.026227854,0.05416458,0.028477823,0.07839541,0.07028099, 14:43:40.934
45659.003906, 39696.539063, 122327.585938, 62722.234375, 97218.484375, 81317.031250, 94458.109375, 108022.179688, 0.244, 0.196, 0.940,0.026227854,0.05416458,0.028477823,0.07839541,0.07028099, 14:43:40.934
45694.140625, 39735.789063, 122348.171875, 62152.867188, 97259.210938, 81212.757813, 94465.062500, 108057.406250, 0.000, 0.000, 0.000,0.026227854,0.05416458,0.028477823,0.07839541,0.07028099, 14:43:40.935
45598.941406, 39635.722656, 122386.546875, 62494.535156, 97181.406250, 81430.171875, 94453.304688, 108022.289063, 0.000, 0.000, 0.000,0.026227854,0.05416458,0.028477823,0.07839541,0.07028099, 14:43:40.935
45558.820313, 39591.351563, 122374.679688, 63103.980469, 97125.054688, 81552.210938, 94438.375000, 107974.476563, 0.000, 0.000, 0.000,0.026227854,0.05416458,0.028477823,0.07839541,0.07028099, 14:43:40.935
45649.101563, 39687.062500, 122328.789063, 62845.750000, 97190.789063, 81346.757813, 94440.296875, 107993.546875, 0.000, 0.000, 0.000,0.026227854,0.05416458,0.028477823,0.07839541,0.07028099, 14:43:40.936
45703.972656, 39740.820313, 122334.867188, 62197.035156, 97250.179688, 81181.781250, 94448.093750, 108037.890625, 0.000, 0.000, 0.000,0.026227854,0.05416458,0.028477823,0.07839541,0.07028099, 14:43:40.936
45624.691406, 39651.457031, 122368.421875, 62360.960938, 97197.585938, 81369.843750, 94452.031250, 108028.640625, 0.000, 0.000, 0.000,0.026227854,0.05416458,0.028477823,0.07839541,0.07028099, 14:43:40.937
45566.355469, 39589.945313, 122379.554688, 63022.484375, 97139.984375, 81559.296875, 94448.992188, 107990.125000, 0.000, 0.000, 0.000,0.026227854,0.05416458,0.028477823,0.07839541,0.07028099, 14:43:40.937
45633.699219, 39662.765625, 122338.000000, 62944.902344, 97188.578125, 81404.312500, 94449.484375, 108001.570313, 0.000, 0.000, 0.000,0.026227854,0.05416458,0.028477823,0.07839541,0.07028099, 14:43:40.938
45709.023438, 39747.546875, 122330.023438, 62258.414063, 97260.234375, 81194.992188, 94452.414063, 108047.296875, 0.242, 0.196, 0.942,0.026227854,0.05416458,0.028477823,0.07839541,0.07028099, 14:43:40.938
45643.511719, 39676.222656, 122372.648438, 62264.425781, 97223.804688, 81338.289063, 94460.078125, 108046.945313, 0.000, 0.000, 0.000,0.026227854,0.05416458,0.028477823,0.07839541,0.07028099, 14:43:40.938
45565.640625, 39595.218750, 122392.492188, 62946.289063, 97154.421875, 81559.187500, 94461.445313, 108004.046875, 0.000, 0.000, 0.000,0.026227854,0.05416458,0.028477823,0.07839541,0.07028099, 14:43:40.939
45603.570313, 39637.464844, 122347.054688, 63053.195313, 97170.632813, 81450.875000, 94442.781250, 107990.570313, 0.000, 0.000, 0.000,0.026227854,0.05416458,0.028477823,0.07839541,0.07028099, 14:43:40.939
45695.882813, 39728.035156, 122318.062500, 62382.621094, 97249.890625, 81207.773438, 94445.328125, 108034.070313, 0.000, 0.000, 0.000,0.026227854,0.05416458,0.028477823,0.07839541,0.07028099, 14:43:40.939
45667.046875, 39691.824219, 122355.679688, 62190.597656, 97239.765625, 81292.640625, 94459.343750, 108056.468750, 0.000, 0.000, 0.000,0.026227854,0.05416458,0.028477823,0.07839541,0.07028099, 14:43:40.940
45582.378906, 39603.468750, 122389.453125, 62824.984375, 97167.210938, 81541.796875, 94461.351563, 108018.828125, 0.000, 0.000, 0.000,0.026227854,0.05416458,0.028477823,0.07839541,0.07028099, 14:43:40.940
45603.593750, 39631.519531, 122362.695313, 63111.398438, 97171.570313, 81500.960938, 94458.515625, 107997.210938, 0.000, 0.000, 0.000,0.026227854,0.05416458,0.028477823,0.07839541,0.07028099, 14:43:40.941
45690.273438, 39721.574219, 122327.960938, 62530.433594, 97242.625000, 81243.562500, 94454.531250, 108027.296875, 0.000, 0.000, 0.000,0.026227854,0.05416458,0.028477823,0.07839541,0.07028099, 14:43:40.941
45684.683594, 39715.406250, 122350.335938, 62180.785156, 97253.531250, 81253.171875, 94465.062500, 108054.742188, 0.000, 0.000, 0.000,0.026227854,0.05416458,0.028477823,0.07839541,0.07028099, 14:43:40.941
45593.937500, 39626.242188, 122390.210938, 62722.949219, 97184.687500, 81507.468750, 94468.351563, 108022.804688, 0.244, 0.188, 0.948,0.026227854,0.05416458,0.028477823,0.07839541,0.07028099, 14:43:40.942
45581.867188, 39612.027344, 122362.031250, 63149.621094, 97161.148438, 81524.656250, 94455.609375, 107986.570313, 0.000, 0.000, 0.000,0.026227854,0.05416458,0.028477823,0.07839541,0.07028099, 14:43:40.942
45670.558594, 39706.242188, 122312.921875, 62643.734375, 97225.859375, 81270.179688, 94444.765625, 108010.914063, 0.000, 0.000, 0.000,0.026227854,0.05416458,0.028477823,0.07839541,0.07028099, 14:43:40.942
45695.726563, 39729.890625, 122344.570313, 62156.332031, 97257.937500, 81218.460938, 94457.554688, 108052.351563, 0.000, 0.000, 0.000,0.026227854,0.05416458,0.028477823,0.07839541,0.07028099, 14:43:40.943
45602.050781, 39622.535156, 122381.695313, 62586.402344, 97186.898438, 81460.507813, 94460.812500, 108027.359375, 0.000, 0.000, 0.000,0.026227854,0.05416458,0.028477823,0.07839541,0.07028099, 14:43:40.943
45575.027344, 39603.960938, 122373.250000, 63139.988281, 97154.023438, 81552.171875, 94460.187500, 107989.812500, 0.000, 0.000, 0.000,0.026227854,0.05416458,0.028477823,0.07839541,0.07028099, 14:43:40.943
45657.707031, 39695.511719, 122324.882813, 62790.609375, 97209.476563, 81319.976563, 94445.882813, 108005.726563, 0.000, 0.000, 0.000,0.026227854,0.05416458,0.028477823,0.07839541,0.07028099, 14:43:40.944
45700.507813, 39732.257813, 122327.875000, 62167.730469, 97257.507813, 81193.960938, 94451.117188, 108049.937500, 0.000, 0.000, 0.000,0.026227854,0.05416458,0.028477823,0.07839541,0.07028099, 14:43:40.944
45624.222656, 39644.816406, 122374.726563, 62442.324219, 97200.492188, 81414.484375, 94459.117188, 108038.851563, 0.000, 0.000, 0.000,0.026227854,0.05416458,0.028477823,0.07839541,0.07028099, 14:43:40.944
45581.554688, 39607.089844, 122387.062500, 63084.375000, 97154.109375, 81568.218750, 94462.265625, 108005.773438, 0.000, 0.000, 0.000,0.026227854,0.05416458,0.028477823,0.07839541,0.07028099, 14:43:40.945
45647.000000, 39681.968750, 122336.500000, 62883.414063, 97203.484375, 81372.664063, 94455.789063, 108013.234375, 0.250, 0.194, 0.946,0.026227854,0.05416458,0.028477823,0.07839541,0.07028099, 14:43:40.945
45716.402344, 39763.058594, 122341.953125, 62225.644531, 97271.859375, 81196.507813, 94467.367188, 108061.359375, 0.000, 0.000, 0.000,0.026227854,0.05416458,0.028477823,0.07839541,0.07028099, 14:43:40.946
45637.945313, 39664.957031, 122384.601563, 62344.535156, 97224.515625, 81370.539063, 94473.507813, 108053.960938, 0.000, 0.000, 0.000,0.026227854,0.05416458,0.028477823,0.07839541,0.07028099, 14:43:40.946
45557.769531, 39579.441406, 122387.125000, 63028.562500, 97148.859375, 81559.921875, 94458.062500, 107996.851563, 0.000, 0.000, 0.000,0.026227854,0.05416458,0.028477823,0.07839541,0.07028099, 14:43:40.946
45626.523438, 39656.218750, 122347.296875, 63013.925781, 97196.132813, 81424.812500, 94458.601563, 108006.304688, 0.000, 0.000, 0.000,0.026227854,0.05416458,0.028477823,0.07839541,0.07028099, 14:43:40.947
45695.613281, 39719.652344, 122321.679688, 62316.906250, 97260.726563, 81190.718750, 94454.625000, 108041.984375, 0.000, 0.000, 0.000,0.026227854,0.05416458,0.028477823,0.07839541,0.07028099, 14:43:40.948
45646.417969, 39675.441406, 122362.476563, 62256.265625, 97233.039063, 81316.406250, 94462.671875, 108048.953125, 0.000, 0.000, 0.000,0.026227854,0.05416458,0.028477823,0.07839541,0.07028099, 14:43:40.948
45563.246094, 39588.761719, 122391.445313, 62940.296875, 97161.421875, 81554.515625, 94464.101563, 108008.695313, 0.000, 0.000, 0.000,0.026227854,0.05416458,0.028477823,0.07839541,0.07028099, 14:43:40.949
45613.382813, 39653.179688, 122361.312500, 63106.570313, 97187.687500, 81474.343750, 94466.937500, 108003.734375, 0.000, 0.000, 0.000,0.026227854,0.05416458,0.028477823,0.07839541,0.07028099, 14:43:40.949
45690.160156, 39728.527344, 122317.054688, 62426.363281, 97253.601563, 81220.625000, 94453.039063, 108037.843750, 0.248, 0.200, 0.940,0.026227854,0.05416458,0.028477823,0.07839541,0.07028099, 14:43:40.949
45660.812500, 39687.109375, 122344.101563, 62164.914063, 97239.515625, 81271.835938, 94452.343750, 108048.843750, 0.000, 0.000, 0.000,0.026227854,0.05416458,0.028477823,0.07839541,0.07028099, 14:43:40.949
45582.535156, 39601.343750, 122390.750000, 62793.289063, 97168.304688, 81522.796875, 94457.664063, 108011.312500, 0.000, 0.000, 0.000,0.026227854,0.05416458,0.028477823,0.07839541,0.07028099, 14:43:40.950
45600.285156, 39632.480469, 122365.000000, 63116.988281, 97164.281250, 81502.773438, 94456.703125, 107991.578125, 0.000, 0.000, 0.000,0.026227854,0.05416458,0.028477823,0.07839541,0.07028099, 14:43:40.950
45696.441406, 39730.246094, 122325.882813, 62532.781250, 97242.531250, 81251.765625, 94457.617188, 108030.757813, 0.000, 0.000, 0.000,0.026227854,0.05416458,0.028477823,0.07839541,0.07028099, 14:43:40.950
45701.695313, 39736.414063, 122360.351563, 62136.417969, 97261.445313, 81250.625000, 94470.515625, 108061.468750, 0.000, 0.000, 0.000,0.026227854,0.05416458,0.028477823,0.07839541,0.07028099, 14:43:40.951
45609.335938, 39651.746094, 122406.015625, 62664.921875, 97187.570313, 81505.812500, 94472.570313, 108031.875000, 0.000, 0.000, 0.000,0.026227854,0.05416458,0.028477823,0.07839541,0.07028099, 14:43:40.952
45567.113281, 39602.125000, 122363.835938, 63117.433594, 97142.156250, 81531.312500, 94444.921875, 107981.031250, 0.000, 0.000, 0.000,0.026227854,0.05416458,0.028477823,0.07839541,0.07028099, 14:43:40.952
45660.007813, 39701.257813, 122319.359375, 62658.687500, 97215.937500, 81287.632813, 94445.726563, 108014.445313, 0.000, 0.000, 0.000,0.026227854,0.05416458,0.028477823,0.07839541,0.07028099, 14:43:40.953
45687.656250, 39727.566406, 122348.570313, 62140.796875, 97249.125000, 81213.226563, 94453.843750, 108051.703125, 0.000, 0.000, 0.000,0.026227854,0.05416458,0.028477823,0.07839541,0.07028099, 14:43:40.953
45587.519531, 39619.785156, 122386.773438, 62544.113281, 97178.203125, 81444.210938, 94455.320313, 108020.859375, 0.238, 0.200, 0.944,0.026227854,0.05416458,0.028477823,0.07839541,0.07028099, 14:43:40.953
45560.140625, 39596.492188, 122373.117188, 63106.773438, 97139.585938, 81545.554688, 94449.906250, 107983.554688, 0.000, 0.000, 0.000,0.026227854,0.05416458,0.028477823,0.07839541,0.07028099, 14:43:40.954
45663.070313, 39711.269531, 122341.351563, 62801.269531, 97204.914063, 81339.023438, 94447.406250, 108011.851563, 0.000, 0.000, 0.000,0.026227854,0.05416458,0.028477823,0.07839541,0.07028099, 14:43:40.955
45723.507813, 39766.949219, 122354.539063, 62174.480469, 97264.750000, 81208.625000, 94462.445313, 108059.796875, 0.000, 0.000, 0.000,0.026227854,0.05416458,0.028477823,0.07839541,0.07028099, 14:43:40.955
45620.601563, 39646.382813, 122392.312500, 62406.449219, 97195.593750, 81398.414063, 94459.406250, 108030.382813, 0.000, 0.000, 0.000,0.026227854,0.05416458,0.028477823,0.07839541,0.07028099, 14:43:40.955
45553.949219, 39580.625000, 122397.140625, 63069.355469, 97137.367188, 81556.281250, 94445.484375, 107981.945313, 0.000, 0.000, 0.000,0.026227854,0.05416458,0.028477823,0.07839541,0.07028099, 14:43:40.955
45616.625000, 39640.503906, 122335.656250, 62916.179688, 97175.367188, 81371.296875, 94431.601563, 107984.875000, 0.000, 0.000, 0.000,0.026227854,0.05416458,0.028477823,0.07839541,0.07028099, 14:43:40.956
45689.421875, 39725.015625, 122322.531250, 62216.636719, 97243.515625, 81176.523438, 94435.492188, 108029.773438, 0.000, 0.000, 0.000,0.026227854,0.05416458,0.028477823,0.07839541,0.07028099, 14:43:40.956
45620.222656, 39653.582031, 122376.179688, 62298.132813, 97204.804688, 81349.593750, 94448.789063, 108032.257813, 0.000, 0.000, 0.000,0.026227854,0.05416458,0.028477823,0.07839541,0.07028099, 14:43:40.956
45556.699219, 39582.343750, 122397.273438, 62982.519531, 97144.054688, 81559.367188, 94452.593750, 107992.804688, 0.244, 0.200, 0.944,0.026227854,0.05416458,0.028477823,0.07839541,0.07028099, 14:43:40.956
45605.042969, 39637.308594, 122347.453125, 63019.289063, 97175.476563, 81420.960938, 94441.640625, 107981.476563, 0.000, 0.000, 0.000,0.026227854,0.05416458,0.028477823,0.07839541,0.07028099, 14:43:40.957
45691.277344, 39741.890625, 122315.718750, 62310.046875, 97249.890625, 81179.273438, 94444.406250, 108024.210938, 0.000, 0.000, 0.000,0.026227854,0.05416458,0.028477823,0.07839541,0.07028099, 14:43:40.957
45653.773438, 39687.109375, 122361.960938, 62192.562500, 97231.000000, 81294.585938, 94457.257813, 108039.210938, 0.000, 0.000, 0.000,0.026227854,0.05416458,0.028477823,0.07839541,0.07028099, 14:43:40.957
45583.609375, 39612.812500, 122400.046875, 62854.914063, 97159.210938, 81536.523438, 94461.195313, 108000.359375, 0.000, 0.000, 0.000,0.026227854,0.05416458,0.028477823,0.07839541,0.07028099, 14:43:40.958
45601.468750, 39634.042969, 122359.500000, 63063.367188, 97154.312500, 81468.242188, 94437.773438, 107977.742188, 0.000, 0.000, 0.000,0.026227854,0.05416458,0.028477823,0.07839541,0.07028099, 14:43:40.958
45681.621094, 39709.863281, 122310.148438, 62395.832031, 97225.679688, 81208.828125, 94430.101563, 108012.835938, 0.000, 0.000, 0.000,0.026227854,0.05416458,0.028477823,0.07839541,0.07028099, 14:43:40.959
45657.324219, 39687.867188, 122338.109375, 62102.375000, 97218.929688, 81243.601563, 94433.523438, 108027.476563, 0.000, 0.000, 0.000,0.02069767,0.045294687,0.02623621,0.06820744,0.06243032, 14:43:40.959
45566.867188, 39591.285156, 122372.351563, 62704.398438, 97144.632813, 81492.421875, 94435.492188, 107988.046875, 0.000, 0.000, 0.000,0.02069767,0.045294687,0.02623621,0.06820744,0.06243032, 14:43:40.959
45574.847656, 39614.039063, 122346.562500, 63081.402344, 97144.031250, 81498.257813, 94434.906250, 107968.421875, 0.000, 0.000, 0.000,0.02069767,0.045294687,0.02623621,0.06820744,0.06243032, 14:43:40.960
45674.781250, 39723.273438, 122307.195313, 62529.808594, 97224.851563, 81243.578125, 94428.273438, 107999.984375, 0.248, 0.188, 0.938,0.02069767,0.045294687,0.02623621,0.06820744,0.06243032, 14:43:40.960
45670.804688, 39709.035156, 122331.046875, 62076.960938, 97230.757813, 81213.984375, 94431.671875, 108029.531250, 0.000, 0.000, 0.000,0.02069767,0.045294687,0.02623621,0.06820744,0.06243032, 14:43:40.960
45589.062500, 39626.535156, 122382.367188, 62576.074219, 97165.960938, 81465.890625, 94440.968750, 108003.890625, 0.000, 0.000, 0.000,0.02069767,0.045294687,0.02623621,0.06820744,0.06243032, 14:43:40.961
45573.910156, 39606.304688, 122366.765625, 63074.519531, 97134.148438, 81530.890625, 94433.257813, 107973.093750, 0.000, 0.000, 0.000,0.02069767,0.045294687,0.02623621,0.06820744,0.06243032, 14:43:40.961
45659.671875, 39696.226563, 122317.101563, 62651.937500, 97202.078125, 81286.343750, 94428.789063, 107996.585938, 0.000, 0.000, 0.000,0.02069767,0.045294687,0.02623621,0.06820744,0.06243032, 14:43:40.961
45692.953125, 39731.812500, 122331.742188, 62075.464844, 97246.085938, 81189.335938, 94437.054688, 108037.531250, 0.000, 0.000, 0.000,0.02069767,0.045294687,0.02623621,0.06820744,0.06243032, 14:43:40.962
45603.167969, 39631.003906, 122383.351563, 62451.375000, 97176.578125, 81423.421875, 94440.476563, 108010.398438, 0.000, 0.000, 0.000,0.02069767,0.045294687,0.02623621,0.06820744,0.06243032, 14:43:40.962
45574.804688, 39607.089844, 122379.640625, 63067.812500, 97132.992188, 81546.406250, 94438.796875, 107974.390625, 0.000, 0.000, 0.000,0.02069767,0.045294687,0.02623621,0.06820744,0.06243032, 14:43:40.962
45659.941406, 39694.371094, 122330.828125, 62798.898438, 97196.023438, 81341.210938, 94436.875000, 107994.507813, 0.000, 0.000, 0.000,0.02069767,0.045294687,0.02623621,0.06820744,0.06243032, 14:43:40.962
45710.902344, 39744.507813, 122329.664063, 62140.058594, 97252.234375, 81178.648438, 94439.562500, 108033.890625, 0.252, 0.188, 0.936,0.02069767,0.045294687,0.02623621,0.06820744,0.06243032, 14:43:40.963
45633.632813, 39662.609375, 122373.984375, 62334.519531, 97200.960938, 81375.390625, 94444.679688, 108019.742188, 0.000, 0.000, 0.000,0.02069767,0.045294687,0.02623621,0.06820744,0.06243032, 14:43:40.963
45570.152344, 39601.234375, 122373.093750, 62994.230469, 97135.406250, 81550.023438, 94435.289063, 107971.906250, 0.000, 0.000, 0.000,0.02069767,0.045294687,0.02623621,0.06820744,0.06243032, 14:43:40.963
45638.148438, 39679.574219, 122329.796875, 62886.273438, 97183.992188, 81386.765625, 94432.742188, 107979.015625, 0.000, 0.000, 0.000,0.02069767,0.045294687,0.02623621,0.06820744,0.06243032, 14:43:40.963
45710.230469, 39748.328125, 122319.625000, 62199.472656, 97245.039063, 81177.710938, 94435.289063, 108022.109375, 0.000, 0.000, 0.000,0.02069767,0.045294687,0.02623621,0.06820744,0.06243032, 14:43:40.964
45651.535156, 39687.824219, 122366.453125, 62217.488281, 97209.812500, 81327.265625, 94444.898438, 108026.781250, 0.000, 0.000, 0.000,0.02069767,0.045294687,0.02623621,0.06820744,0.06243032, 14:43:40.964
45569.660156, 39607.335938, 122385.046875, 62896.175781, 97136.031250, 81543.835938, 94440.250000, 107979.843750, 0.000, 0.000, 0.000,0.02069767,0.045294687,0.02623621,0.06820744,0.06243032, 14:43:40.964
45612.710938, 39653.984375, 122344.507813, 62982.386719, 97162.601563, 81432.476563, 94429.906250, 107970.476563, 0.000, 0.000, 0.000,0.02069767,0.045294687,0.02623621,0.06820744,0.06243032, 14:43:40.964
45701.335938, 39741.871094, 122316.070313, 62312.125000, 97235.203125, 81187.679688, 94427.960938, 108008.835938, 0.000, 0.000, 0.000,0.02069767,0.045294687,0.02623621,0.06820744,0.06243032, 14:43:40.964
45668.992188, 39703.648438, 122357.203125, 62140.796875, 97223.382813, 81278.335938, 94438.710938, 108026.851563, 0.000, 0.000, 0.000,0.02069767,0.045294687,0.02623621,0.06820744,0.06243032, 14:43:40.965
45581.507813, 39613.929688, 122393.210938, 62791.636719, 97153.578125, 81528.140625, 94444.812500, 107991.468750, 0.254, 0.194, 0.936,0.02069767,0.045294687,0.02623621,0.06820744,0.06243032, 14:43:40.965
45605.917969, 39640.636719, 122362.296875, 63054.000000, 97161.171875, 81479.078125, 94441.015625, 107972.312500, 0.000, 0.000, 0.000,0.02069767,0.045294687,0.02623621,0.06820744,0.06243032, 14:43:40.965
45696.285156, 39735.433594, 122322.085938, 62435.976563, 97225.523438, 81220.335938, 94429.437500, 108005.679688, 0.000, 0.000, 0.000,0.02069767,0.045294687,0.02623621,0.06820744,0.06243032, 14:43:40.966
45684.953125, 39719.136719, 122355.812500, 62105.078125, 97228.679688, 81240.296875, 94436.812500, 108030.359375, 0.000, 0.000, 0.000,0.02069767,0.045294687,0.02623621,0.06820744,0.06243032, 14:43:40.966
45587.878906, 39616.632813, 122382.656250, 62667.496094, 97154.335938, 81494.414063, 94439.226563, 107995.492188, 0.000, 0.000, 0.000,0.02069767,0.045294687,0.02623621,0.06820744,0.06243032, 14:43:40.966
45584.078125, 39619.449219, 122360.929688, 63086.812500, 97142.156250, 81517.859375, 94436.921875, 107971.570313, 0.000, 0.000, 0.000,0.02069767,0.045294687,0.02623621,0.06820744,0.06243032, 14:43:40.966
45677.441406, 39721.082031, 122320.835938, 62601.554688, 97213.367188, 81268.015625, 94432.562500, 107999.359375, 0.000, 0.000, 0.000,0.02069767,0.045294687,0.02623621,0.06820744,0.06243032, 14:43:40.967
45697.402344, 39738.785156, 122335.320313, 62110.378906, 97240.968750, 81214.703125, 94439.625000, 108034.742188, 0.000, 0.000, 0.000,0.02069767,0.045294687,0.02623621,0.06820744,0.06243032, 14:43:40.967
45603.882813, 39640.234375, 122375.796875, 62549.140625, 97173.062500, 81458.515625, 94442.757813, 108006.843750, 0.000, 0.000, 0.000,0.02069767,0.045294687,0.02623621,0.06820744,0.06243032, 14:43:40.967
45583.117188, 39615.828125, 122372.421875, 63097.273438, 97135.578125, 81540.750000, 94432.023438, 107966.250000, 0.000, 0.000, 0.000,0.02069767,0.045294687,0.02623621,0.06820744,0.06243032, 14:43:40.968
45680.304688, 39718.800781, 122335.273438, 62735.332031, 97203.375000, 81313.968750, 94431.781250, 107991.351563, 0.254, 0.196, 0.938,0.02069767,0.045294687,0.02623621,0.06820744,0.06243032, 14:43:40.968
45729.722656, 39762.007813, 122340.304688, 62110.378906, 97245.734375, 81192.906250, 94437.054688, 108032.367188, 0.000, 0.000, 0.000,0.02069767,0.045294687,0.02623621,0.06820744,0.06243032, 14:43:40.968
45625.183594, 39661.246094, 122391.937500, 62412.191406, 97196.156250, 81415.351563, 94445.460938, 108013.929688, 0.000, 0.000, 0.000,0.02069767,0.045294687,0.02623621,0.06820744,0.06243032, 14:43:40.968
45574.355469, 39609.546875, 122379.570313, 63055.074219, 97144.679688, 81558.382813, 94441.773438, 107971.351563, 0.000, 0.000, 0.000,0.02069767,0.045294687,0.02623621,0.06820744,0.06243032, 14:43:40.969
45671.945313, 39703.871094, 122337.820313, 62831.042969, 97185.875000, 81364.523438, 94434.125000, 107987.148438, 0.000, 0.000, 0.000,0.02069767,0.045294687,0.02623621,0.06820744,0.06243032, 14:43:40.969
45724.714844, 39758.074219, 122339.117188, 62157.425781, 97244.390625, 81184.546875, 94435.867188, 108026.132813, 0.000, 0.000, 0.000,0.02069767,0.045294687,0.02623621,0.06820744,0.06243032, 14:43:40.969
45651.113281, 39682.792969, 122380.515625, 62300.812500, 97199.281250, 81367.882813, 94442.132813, 108020.726563, 0.000, 0.000, 0.000,0.02069767,0.045294687,0.02623621,0.06820744,0.06243032, 14:43:40.969
45588.304688, 39617.593750, 122400.117188, 62974.898438, 97145.710938, 81565.023438, 94443.406250, 107981.921875, 0.000, 0.000, 0.000,0.02069767,0.045294687,0.02623621,0.06820744,0.06243032, 14:43:40.969
45653.191406, 39682.703125, 122352.687500, 62925.210938, 97187.257813, 81410.570313, 94436.140625, 107980.554688, 0.000, 0.000, 0.000,0.02069767,0.045294687,0.02623621,0.06820744,0.06243032, 14:43:40.970
45745.054688, 39771.621094, 122343.476563, 62216.503906, 97254.585938, 81192.421875, 94438.953125, 108028.304688, 0.252, 0.196, 0.938,0.02069767,0.045294687,0.02623621,0.06820744,0.06243032, 14:43:40.970
45675.496094, 39699.109375, 122387.062500, 62177.296875, 97210.773438, 81324.539063, 94442.218750, 108030.203125, 0.000, 0.000, 0.000,0.02069767,0.045294687,0.02623621,0.06820744,0.06243032, 14:43:40.970
45581.820313, 39612.476563, 122400.023438, 62856.968750, 97132.250000, 81552.125000, 94440.273438, 107987.937500, 0.000, 0.000, 0.000,0.02069767,0.045294687,0.02623621,0.06820744,0.06243032, 14:43:40.970
45610.765625, 39653.019531, 122356.398438, 63006.480469, 97162.960938, 81460.101563, 94440.140625, 107978.632813, 0.000, 0.000, 0.000,0.02069767,0.045294687,0.02623621,0.06820744,0.06243032, 14:43:40.970
45708.398438, 39743.097656, 122334.203125, 62355.464844, 97253.796875, 81214.414063, 94437.953125, 108018.687500, 0.000, 0.000, 0.000,0.02069767,0.045294687,0.02623621,0.06820744,0.06243032, 14:43:40.971
45686.562500, 39710.375000, 122380.648438, 62150.183594, 97222.062500, 81280.664063, 94439.718750, 108032.664063, 0.000, 0.000, 0.000,0.02069767,0.045294687,0.02623621,0.06820744,0.06243032, 14:43:40.971
45601.156250, 39616.722656, 122411.203125, 62772.234375, 97149.531250, 81524.523438, 94443.132813, 107992.781250, 0.000, 0.000, 0.000,0.02069767,0.045294687,0.02623621,0.06820744,0.06243032, 14:43:40.971
45603.925781, 39629.976563, 122365.226563, 63078.519531, 97159.093750, 81496.671875, 94437.679688, 107971.234375, 0.000, 0.000, 0.000,0.02069767,0.045294687,0.02623621,0.06820744,0.06243032, 14:43:40.971
45704.687500, 39733.488281, 122327.875000, 62489.128906, 97232.320313, 81241.679688, 94437.437500, 108010.015625, 0.000, 0.000, 0.000,0.02069767,0.045294687,0.02623621,0.06820744,0.06243032, 14:43:40.972
45680.839844, 39721.082031, 122351.007813, 62091.242188, 97233.593750, 81238.867188, 94441.929688, 108037.625000, 0.000, 0.000, 0.000,0.02069767,0.045294687,0.02623621,0.06820744,0.06243032, 14:43:40.972
45600.796875, 39619.226563, 122395.687500, 62640.917969, 97168.218750, 81486.992188, 94440.679688, 107999.023438, 0.244, 0.196, 0.942,0.02069767,0.045294687,0.02623621,0.06820744,0.06243032, 14:43:40.972
45577.933594, 39609.390625, 122387.460938, 63102.371094, 97166.156250, 81524.226563, 94437.703125, 107971.125000, 0.000, 0.000, 0.000,0.0055873017,0.015962698,0.017748037,0.033080183,0.024000058, 14:43:41.412
45666.734375, 39706.062500, 122332.078125, 62617.203125, 97228.250000, 81279.656250, 94439.468750, 108003.265625, 0.000, 0.000, 0.000,0.0055873017,0.015962698,0.017748037,0.033080183,0.024000058, 14:43:41.412
45681.511719, 39723.429688, 122340.414063, 62077.812500, 97235.156250, 81208.734375, 94447.093750, 108039.882813, 0.000, 0.000, 0.000,0.0055873017,0.015962698,0.017748037,0.033080183,0.024000058, 14:43:41.413
45609.894531, 39647.457031, 122392.492188, 62499.343750, 97182.117188, 81458.742188, 94458.046875, 108020.101563, 0.000, 0.000, 0.000,0.0055873017,0.015962698,0.017748037,0.033080183,0.024000058, 14:43:41.413
45581.441406, 39611.960938, 122390.664063, 63066.136719, 97137.859375, 81561.359375, 94449.953125, 107984.046875, 0.000, 0.000, 0.000,0.0055873017,0.015962698,0.017748037,0.033080183,0.024000058, 14:43:41.413
45642.281250, 39687.464844, 122325.703125, 62745.300781, 97165.710938, 81331.382813, 94424.742188, 107988.742188, 0.000, 0.000, 0.000,0.0055873017,0.015962698,0.017748037,0.033080183,0.024000058, 14:43:41.414
45694.183594, 39739.589844, 122313.460938, 62105.593750, 97221.164063, 81186.945313, 94421.500000, 108028.460938, 0.000, 0.000, 0.000,0.0055873017,0.015962698,0.017748037,0.033080183,0.024000058, 14:43:41.414
45622.414063, 39660.488281, 122384.000000, 62371.109375, 97194.343750, 81403.843750, 94433.617188, 108014.507813, 0.000, 0.000, 0.000,0.0055873017,0.015962698,0.017748037,0.033080183,0.024000058, 14:43:41.414
45582.156250, 39618.488281, 122405.054688, 63035.382813, 97125.679688, 81568.062500, 94434.375000, 107974.789063, 0.246, 0.192, 0.940,0.0055873017,0.015962698,0.017748037,0.033080183,0.024000058, 14:43:41.414
45651.558594, 39689.855469, 122342.093750, 62868.570313, 97168.953125, 81381.960938, 94428.921875, 107982.234375, 0.000, 0.000, 0.000,0.0055873017,0.015962698,0.017748037,0.033080183,0.024000058, 14:43:41.415
45711.507813, 39749.425781, 122330.218750, 62174.683594, 97224.406250, 81185.671875, 94423.914063, 108020.593750, 0.000, 0.000, 0.000,0.0055873017,0.015962698,0.017748037,0.033080183,0.024000058, 14:43:41.415
45633.320313, 39676.289063, 122378.390625, 62273.589844, 97175.390625, 81360.257813, 94435.312500, 108021.398438, 0.000, 0.000, 0.000,0.0055873017,0.015962698,0.017748037,0.033080183,0.024000058, 14:43:41.415
45530.324219, 39584.222656, 122361.359375, 62960.257813, 97108.757813, 81554.296875, 94422.953125, 107967.281250, 0.000, 0.000, 0.000,0.0055873017,0.015962698,0.017748037,0.033080183,0.024000058, 14:43:41.416
45603.011719, 39650.226563, 122318.796875, 62989.269531, 97141.210938, 81425.304688, 94419.937500, 107970.234375, 0.000, 0.000, 0.000,0.0055873017,0.015962698,0.017748037,0.033080183,0.024000058, 14:43:41.416
45707.058594, 39754.410156, 122306.507813, 62286.195313, 97220.875000, 81198.007813, 94427.109375, 108023.945313, 0.000, 0.000, 0.000,0.0055873017,0.015962698,0.017748037,0.033080183,0.024000058, 14:43:41.416
45636.808594, 39694.148438, 122337.507813, 62165.652344, 97182.406250, 81307.398438, 94433.460938, 108028.773438, 0.000, 0.000, 0.000,0.0055873017,0.015962698,0.017748037,0.033080183,0.024000058, 14:43:41.417
45566.265625, 39610.664063, 122374.054688, 62836.921875, 97109.453125, 81543.992188, 94433.281250, 107983.085938, 0.000, 0.000, 0.000,0.0055873017,0.015962698,0.017748037,0.033080183,0.024000058, 14:43:41.417
45604.730469, 39643.589844, 122352.460938, 63042.132813, 97136.476563, 81470.476563, 94428.515625, 107969.093750, 0.000, 0.000, 0.000,0.0055873017,0.015962698,0.017748037,0.033080183,0.024000058, 14:43:41.418
45709.406250, 39738.851563, 122328.500000, 62410.382813, 97212.765625, 81216.421875, 94421.562500, 108006.820313, 0.252, 0.194, 0.936,0.0055873017,0.015962698,0.017748037,0.033080183,0.024000058, 14:43:41.418
45656.117188, 39697.746094, 122345.640625, 62140.777344, 97198.773438, 81262.492188, 94429.906250, 108027.476563, 0.000, 0.000, 0.000,0.0055873017,0.015962698,0.017748037,0.033080183,0.024000058, 14:43:41.418
45559.246094, 39608.429688, 122364.148438, 62742.394531, 97118.195313, 81511.492188, 94431.781250, 107989.765625, 0.000, 0.000, 0.000,0.0055873017,0.015962698,0.017748037,0.033080183,0.024000058, 14:43:41.418
45560.699219, 39610.933594, 122334.828125, 63092.937500, 97111.289063, 81492.085938, 94416.359375, 107956.039063, 0.000, 0.000, 0.000,0.0055873017,0.015962698,0.017748037,0.033080183,0.024000058, 14:43:41.418
45661.730469, 39713.550781, 122298.281250, 62537.519531, 97203.421875, 81240.851563, 94426.750000, 107996.898438, 0.000, 0.000, 0.000,0.0055873017,0.015962698,0.017748037,0.033080183,0.024000058, 14:43:41.419
45677.710938, 39720.636719, 122333.484375, 62118.648438, 97215.867188, 81224.804688, 94437.164063, 108031.500000, 0.000, 0.000, 0.000,0.0055873017,0.015962698,0.017748037,0.033080183,0.024000058, 14:43:41.419
45571.605469, 39622.355469, 122374.320313, 62618.566406, 97147.960938, 81480.015625, 94444.164063, 108005.726563, 0.000, 0.000, 0.000,0.0055873017,0.015962698,0.017748037,0.033080183,0.024000058, 14:43:41.419
45564.722656, 39609.703125, 122365.359375, 63124.339844, 97125.007813, 81542.242188, 94441.078125, 107976.109375, 0.000, 0.000, 0.000,0.0055873017,0.015962698,0.017748037,0.033080183,0.024000058, 14:43:41.419
45665.820313, 39710.488281, 122312.828125, 62674.042969, 97189.468750, 81293.468750, 94429.117188, 107995.734375, 0.000, 0.000, 0.000,0.0055873017,0.015962698,0.017748037,0.033080183,0.024000058, 14:43:41.420
45696.843750, 39742.785156, 122329.773438, 62109.660156, 97232.070313, 81203.351563, 94437.054688, 108036.507813, 0.250, 0.194, 0.940,0.0055873017,0.015962698,0.017748037,0.033080183,0.024000058, 14:43:41.420
45610.187500, 39643.699219, 122366.367188, 62472.609375, 97157.796875, 81432.117188, 94435.382813, 108010.195313, 0.000, 0.000, 0.000,0.0055873017,0.015962698,0.017748037,0.033080183,0.024000058, 14:43:41.420
45566.757813, 39601.589844, 122364.664063, 63074.921875, 97117.703125, 81549.085938, 94430.820313, 107968.085938, 0.000, 0.000, 0.000,0.0055873017,0.015962698,0.017748037,0.033080183,0.024000058, 14:43:41.420
45639.289063, 39680.871094, 122310.484375, 62788.863281, 97149.257813, 81333.570313, 94419.781250, 107980.312500, 0.000, 0.000, 0.000,0.0055873017,0.015962698,0.017748037,0.033080183,0.024000058, 14:43:41.421
45693.937500, 39735.968750, 122317.484375, 62141.179688, 97225.414063, 81181.218750, 94432.898438, 108029.757813, 0.000, 0.000, 0.000,0.0055873017,0.015962698,0.017748037,0.033080183,0.024000058, 14:43:41.421
45631.351563, 39669.023438, 122372.039063, 62350.679688, 97182.945313, 81386.250000, 94448.234375, 108025.820313, 0.000, 0.000, 0.000,0.0055873017,0.015962698,0.017748037,0.033080183,0.024000058, 14:43:41.421
45565.460938, 39597.140625, 122379.554688, 63008.781250, 97117.898438, 81557.867188, 94440.859375, 107981.296875, 0.000, 0.000, 0.000,0.0055873017,0.015962698,0.017748037,0.033080183,0.024000058, 14:43:41.421
45637.878906, 39670.210938, 122334.132813, 62892.261719, 97163.718750, 81388.867188, 94431.000000, 107985.382813, 0.000, 0.000, 0.000,0.0055873017,0.015962698,0.017748037,0.033080183,0.024000058, 14:43:41.422
45700.128906, 39740.281250, 122314.796875, 62195.871094, 97232.476563, 81181.468750, 94429.968750, 108024.789063, 0.000, 0.000, 0.000,0.0055873017,0.015962698,0.017748037,0.033080183,0.024000058, 14:43:41.422
45637.613281, 39680.312500, 122362.031250, 62247.304688, 97200.515625, 81341.281250, 94446.000000, 108030.492188, 0.000, 0.000, 0.000,0.0055873017,0.015962698,0.017748037,0.033080183,0.024000058, 14:43:41.422
45564.632813, 39597.476563, 122376.109375, 62932.652344, 97113.812500, 81554.765625, 94436.453125, 107981.812500, 0.252, 0.194, 0.938,0.0055873017,0.015962698,0.017748037,0.033080183,0.024000058, 14:43:41.422
45626.546875, 39651.367188, 122341.242188, 62998.968750, 97137.460938, 81434.062500, 94423.804688, 107975.062500, 0.000, 0.000, 0.000,0.0055873017,0.015962698,0.017748037,0.033080183,0.024000058, 14:43:41.422
45692.976563, 39741.085938, 122311.648438, 62316.347656, 97224.140625, 81200.375000, 94432.476563, 108023.562500, 0.000, 0.000, 0.000,0.0055873017,0.015962698,0.017748037,0.033080183,0.024000058, 14:43:41.423
45660.523438, 39704.476563, 122350.718750, 62162.097656, 97206.210938, 81298.921875, 94448.789063, 108044.953125, 0.000, 0.000, 0.000,0.0055873017,0.015962698,0.017748037,0.033080183,0.024000058, 14:43:41.423
45566.578125, 39607.312500, 122381.203125, 62804.554688, 97129.101563, 81537.531250, 94445.484375, 108003.984375, 0.000, 0.000, 0.000,0.0055873017,0.015962698,0.017748037,0.033080183,0.024000058, 14:43:41.423
45594.472656, 39629.394531, 122349.578125, 63050.601563, 97139.046875, 81483.078125, 94441.703125, 107986.796875, 0.000, 0.000, 0.000,0.0055873017,0.015962698,0.017748037,0.033080183,0.024000058, 14:43:41.423
45699.703125, 39745.667969, 122324.585938, 62429.917969, 97226.265625, 81232.382813, 94447.804688, 108031.343750, 0.000, 0.000, 0.000,0.0055873017,0.015962698,0.017748037,0.033080183,0.024000058, 14:43:41.424
45683.097656, 39718.980469, 122354.828125, 62110.062500, 97221.929688, 81259.695313, 94448.945313, 108047.078125, 0.000, 0.000, 0.000,0.0055873017,0.015962698,0.017748037,0.033080183,0.024000058, 14:43:41.424
45587.117188, 39617.996094, 122391.710938, 62700.640625, 97126.867188, 81508.156250, 94442.953125, 108002.929688, 0.000, 0.000, 0.000,0.0055873017,0.015962698,0.017748037,0.033080183,0.024000058, 14:43:41.424
45595.187500, 39637.597656, 122376.804688, 63097.496094, 97126.062500, 81521.031250, 94447.718750, 107987.757813, 0.000, 0.000, 0.000,0.0055873017,0.015962698,0.017748037,0.033080183,0.024000058, 14:43:41.425
45693.222656, 39744.574219, 122338.382813, 62581.687500, 97216.695313, 81271.789063, 94454.242188, 108026.445313, 0.246, 0.194, 0.940,0.0055873017,0.015962698,0.017748037,0.033080183,0.024000058, 14:43:41.425
45690.718750, 39723.765625, 122340.234375, 62089.320313, 97237.484375, 81219.460938, 94454.914063, 108049.867188, 0.000, 0.000, 0.000,0.0055873017,0.015962698,0.017748037,0.033080183,0.024000058, 14:43:41.425
45584.101563, 39619.046875, 122367.617188, 62543.039063, 97156.187500, 81461.421875, 94449.687500, 108014.484375, 0.000, 0.000, 0.000,0.0055873017,0.015962698,0.017748037,0.033080183,0.024000058, 14:43:41.425
45584.839844, 39606.707031, 122369.960938, 63089.675781, 97113.703125, 81544.234375, 94439.695313, 107978.281250, 0.000, 0.000, 0.000,0.0055873017,0.015962698,0.017748037,0.033080183,0.024000058, 14:43:41.426
45691.277344, 39712.812500, 122328.835938, 62697.667969, 97189.000000, 81313.406250, 94440.609375, 108007.781250, 0.000, 0.000, 0.000,0.0055873017,0.015962698,0.017748037,0.033080183,0.024000058, 14:43:41.426
45710.074219, 39748.464844, 122339.031250, 62101.437500, 97238.734375, 81205.000000, 94450.867188, 108050.500000, 0.000, 0.000, 0.000,0.0055873017,0.015962698,0.017748037,0.033080183,0.024000058, 14:43:41.426
45620.644531, 39656.574219, 122386.546875, 62433.113281, 97194.437500, 81435.562500, 94461.578125, 108033.937500, 0.000, 0.000, 0.000,0.0055873017,0.015962698,0.017748037,0.033080183,0.024000058, 14:43:41.426
45560.207031, 39589.320313, 122381.250000, 63071.906250, 97135.070313, 81571.281250, 94447.046875, 107986.773438, 0.000, 0.000, 0.000,0.0055873017,0.015962698,0.017748037,0.033080183,0.024000058, 14:43:41.427
45651.847656, 39675.976563, 122337.640625, 62852.523438, 97188.664063, 81368.210938, 94435.421875, 107997.906250, 0.000, 0.000, 0.000,0.0055873017,0.015962698,0.017748037,0.033080183,0.024000058, 14:43:41.427
45714.726563, 39740.304688, 122330.554688, 62175.128906, 97241.531250, 81192.796875, 94444.250000, 108047.390625, 0.250, 0.202, 0.938,0.0055873017,0.015962698,0.017748037,0.033080183,0.024000058, 14:43:41.427
45645.703125, 39668.332031, 122390.125000, 62326.003906, 97200.671875, 81384.578125, 94459.453125, 108044.687500, 0.000, 0.000, 0.000,0.0055873017,0.015962698,0.017748037,0.033080183,0.024000058, 14:43:41.427
45577.640625, 39606.218750, 122399.023438, 63026.308594, 97135.406250, 81575.125000, 94454.468750, 107995.867188, 0.000, 0.000, 0.000,0.0055873017,0.015962698,0.017748037,0.033080183,0.024000058, 14:43:41.427
