%OpenBCI Raw EEG Data
%
%Sample Rate = 250.0 Hz
%First Column = SampleIndex
%5 Columns before Timestamp are Frequency Power factors DELTA THETA ALPHA BETA GAMMA
%Last Column = Timestamp 
%Other Columns = EEG data in microvolts followed by Accel Data (in G) interleaved with Aux Data
0.000000, 0.000000, 0.000000, 0.000000, 0.000000, 0.000000, 0.000000, 0.000000, 0.162, 0.182, 0.960,0.0,0.0,0.0,0.0,0.0, 14:37:41.564
79137.445313, 82613.093750, 152068.953125, 124058.750000, 144555.765625, 96579.625000, 122579.398438, 142802.093750, 0.000, 0.000, 0.000,0.0,0.0,0.0,0.0,0.0, 14:37:42.042
79158.742188, 82632.453125, 152101.250000, 124096.414063, 144594.812500, 96667.914063, 122634.492188, 142864.125000, 0.000, 0.000, 0.000,0.0,0.0,0.0,0.0,0.0, 14:37:42.043
79045.648438, 82518.992188, 151991.906250, 124196.164063, 144494.796875, 96843.843750, 122615.875000, 142836.812500, 0.000, 0.000, 0.000,0.0,0.0,0.0,0.0,0.0, 14:37:42.044
78993.320313, 82464.679688, 151930.031250, 124168.273438, 144426.656250, 96777.664063, 122548.531250, 142760.406250, 0.000, 0.000, 0.000,0.0,0.0,0.0,0.0,0.0, 14:37:42.045
79113.195313, 82585.398438, 152038.812500, 124063.867188, 144522.781250, 96588.390625, 122561.070313, 142781.515625, 0.000, 0.000, 0.000,0.0,0.0,0.0,0.0,0.0, 14:37:42.046
79195.226563, 82670.453125, 152131.718750, 124087.179688, 144619.000000, 96641.695313, 122647.187500, 142873.031250, 0.000, 0.000, 0.000,0.0,0.0,0.0,0.0,0.0, 14:37:42.047
79081.609375, 82556.078125, 152029.390625, 124191.984375, 144525.375000, 96832.468750, 122637.914063, 142852.781250, 0.174, 0.174, 0.958,0.0,0.0,0.0,0.0,0.0, 14:37:42.047
78992.289063, 82468.367188, 151936.250000, 124187.945313, 144426.265625, 96807.101563, 122555.859375, 142765.656250, 0.000, 0.000, 0.000,0.0,0.0,0.0,0.0,0.0, 14:37:42.048
79091.015625, 82569.937500, 152021.234375, 124083.601563, 144501.500000, 96613.335938, 122549.406250, 142766.171875, 0.000, 0.000, 0.000,0.0,0.0,0.0,0.0,0.0, 14:37:42.049
79195.445313, 82672.640625, 152130.578125, 124075.335938, 144611.421875, 96608.687500, 122629.062500, 142854.859375, 0.000, 0.000, 0.000,0.0,0.0,0.0,0.0,0.0, 14:37:42.049
79089.320313, 82572.546875, 152040.453125, 124170.687500, 144534.828125, 96800.640625, 122634.562500, 142855.812500, 0.000, 0.000, 0.000,0.0,0.0,0.0,0.0,0.0, 14:37:42.050
78997.117188, 82474.984375, 151932.156250, 124192.320313, 144430.734375, 96830.320313, 122567.773438, 142778.562500, 0.000, 0.000, 0.000,0.0,0.0,0.0,0.0,0.0, 14:37:42.051
79074.367188, 82550.578125, 151994.578125, 124096.593750, 144483.859375, 96654.257813, 122549.625000, 142765.890625, 0.000, 0.000, 0.000,0.0,0.0,0.0,0.0,0.0, 14:37:42.052
79186.281250, 82662.851563, 152110.968750, 124051.507813, 144596.718750, 96586.937500, 122611.875000, 142838.484375, 0.000, 0.000, 0.000,0.0,0.0,0.0,0.0,0.0, 14:37:42.053
79129.085938, 82607.101563, 152067.562500, 124147.085938, 144563.843750, 96775.539063, 122645.601563, 142871.046875, 0.000, 0.000, 0.000,0.0,0.0,0.0,0.0,0.0, 14:37:42.053
79018.601563, 82495.929688, 151956.921875, 124204.078125, 144458.671875, 96862.109375, 122593.101563, 142809.218750, 0.000, 0.000, 0.000,0.0,0.0,0.0,0.0,0.0, 14:37:42.054
79052.398438, 82520.085938, 151974.046875, 124116.859375, 144465.437500, 96692.929688, 122544.617188, 142761.078125, 0.184, 0.174, 0.958,0.0,0.0,0.0,0.0,0.0, 14:37:42.054
79179.734375, 82651.789063, 152098.968750, 124050.570313, 144582.671875, 96576.453125, 122598.351563, 142820.843750, 0.000, 0.000, 0.000,0.0,0.0,0.0,0.0,0.0, 14:37:42.055
79142.000000, 82617.789063, 152075.765625, 124128.328125, 144571.640625, 96736.312500, 122640.593750, 142861.375000, 0.000, 0.000, 0.000,0.0,0.0,0.0,0.0,0.0, 14:37:42.055
79019.023438, 82490.718750, 151957.406250, 124200.500000, 144454.203125, 96854.195313, 122592.250000, 142803.031250, 0.000, 0.000, 0.000,0.0,0.0,0.0,0.0,0.0, 14:37:42.056
79046.984375, 82517.992188, 151972.406250, 124140.734375, 144459.078125, 96727.664063, 122554.187500, 142765.453125, 0.000, 0.000, 0.000,0.0,0.0,0.0,0.0,0.0, 14:37:42.056
79155.593750, 82628.742188, 152078.718750, 124049.226563, 144556.234375, 96572.406250, 122576.382813, 142800.031250, 0.000, 0.000, 0.000,0.0,0.0,0.0,0.0,0.0, 14:37:42.056
79162.453125, 82636.921875, 152099.328125, 124110.492188, 144589.828125, 96701.156250, 122641.578125, 142868.343750, 0.000, 0.000, 0.000,0.0,0.0,0.0,0.0,0.0, 14:37:42.057
79024.945313, 82503.281250, 151969.859375, 124197.734375, 144471.125000, 96856.187500, 122604.250000, 142818.296875, 0.000, 0.000, 0.000,0.0,0.0,0.0,0.0,0.0, 14:37:42.057
78996.804688, 82470.226563, 151924.156250, 124142.523438, 144423.125000, 96748.093750, 122534.406250, 142743.796875, 0.000, 0.000, 0.000,0.0,0.0,0.0,0.0,0.0, 14:37:42.057
79123.406250, 82595.367188, 152043.406250, 124040.578125, 144533.484375, 96568.718750, 122558.945313, 142775.718750, 0.180, 0.172, 0.964,0.0,0.0,0.0,0.0,0.0, 14:37:42.059
79164.734375, 82635.203125, 152099.796875, 124078.265625, 144595.156250, 96649.210938, 122631.210938, 142849.593750, 0.000, 0.000, 0.000,0.0,0.0,0.0,0.0,0.0, 14:37:42.060
79048.640625, 82521.945313, 151992.140625, 124178.531250, 144494.843750, 96828.359375, 122613.710938, 142824.000000, 0.000, 0.000, 0.000,0.0,0.0,0.0,0.0,0.0, 14:37:42.060
79009.078125, 82481.937500, 151941.390625, 124164.296875, 144439.515625, 96785.664063, 122557.156250, 142766.203125, 0.000, 0.000, 0.000,0.0,0.0,0.0,0.0,0.0, 14:37:42.061
79110.445313, 82586.742188, 152038.328125, 124060.132813, 144525.687500, 96601.062500, 122561.226563, 142782.562500, 0.000, 0.000, 0.000,0.0,0.0,0.0,0.0,0.0, 14:37:42.061
79165.093750, 82644.882813, 152103.140625, 124060.265625, 144592.250000, 96621.109375, 122618.960938, 142847.531250, 0.000, 0.000, 0.000,0.0,0.0,0.0,0.0,0.0, 14:37:42.061
79055.234375, 82536.023438, 152004.640625, 124158.101563, 144504.812500, 96806.765625, 122614.421875, 142834.953125, 0.000, 0.000, 0.000,0.0,0.0,0.0,0.0,0.0, 14:37:42.062
78992.070313, 82472.476563, 151931.625000, 124177.484375, 144429.171875, 96809.468750, 122559.218750, 142769.328125, 0.000, 0.000, 0.000,0.0,0.0,0.0,0.0,0.0, 14:37:42.062
79081.968750, 82558.398438, 152009.531250, 124079.265625, 144491.937500, 96618.718750, 122543.296875, 142761.281250, 0.000, 0.000, 0.000,0.0,0.0,0.0,0.0,0.0, 14:37:42.063
79177.007813, 82653.328125, 152108.625000, 124055.265625, 144589.421875, 96584.812500, 122607.226563, 142831.531250, 0.000, 0.000, 0.000,0.0,0.0,0.0,0.0,0.0, 14:37:42.063
79106.687500, 82584.375000, 152047.625000, 124157.273438, 144541.000000, 96785.062500, 122630.789063, 142855.046875, 0.176, 0.164, 0.966,0.0,0.0,0.0,0.0,0.0, 14:37:42.064
78994.031250, 82471.789063, 151933.296875, 124189.554688, 144429.250000, 96835.218750, 122563.664063, 142779.828125, 0.000, 0.000, 0.000,0.0,0.0,0.0,0.0,0.0, 14:37:42.064
79060.640625, 82534.929688, 151988.421875, 124095.671875, 144473.312500, 96652.335938, 122539.968750, 142755.796875, 0.000, 0.000, 0.000,0.0,0.0,0.0,0.0,0.0, 14:37:42.065
79182.015625, 82657.773438, 152115.062500, 124048.937500, 144594.640625, 96574.218750, 122602.601563, 142830.531250, 0.000, 0.000, 0.000,0.0,0.0,0.0,0.0,0.0, 14:37:42.065
79118.781250, 82590.968750, 152059.515625, 124137.289063, 144550.359375, 96751.132813, 122626.562500, 142851.875000, 0.000, 0.000, 0.000,0.0,0.0,0.0,0.0,0.0, 14:37:42.066
78999.734375, 82468.773438, 151938.187500, 124190.648438, 144433.406250, 96837.898438, 122569.226563, 142783.359375, 0.000, 0.000, 0.000,0.0,0.0,0.0,0.0,0.0, 14:37:42.067
79048.976563, 82517.515625, 151977.234375, 124116.039063, 144465.281250, 96688.929688, 122543.546875, 142756.609375, 0.000, 0.000, 0.000,0.0,0.0,0.0,0.0,0.0, 14:37:42.067
79169.632813, 82638.664063, 152094.359375, 124045.828125, 144576.359375, 96564.562500, 122585.859375, 142809.062500, 0.000, 0.000, 0.000,0.0,0.0,0.0,0.0,0.0, 14:37:42.068
79143.765625, 82616.937500, 152081.234375, 124117.937500, 144574.140625, 96716.710938, 122631.546875, 142857.437500, 0.000, 0.000, 0.000,0.0,0.0,0.0,0.0,0.0, 14:37:42.069
79034.757813, 82506.609375, 151973.031250, 124199.500000, 144471.609375, 96852.585938, 122593.656250, 142812.359375, 0.000, 0.000, 0.000,0.0,0.0,0.0,0.0,0.0, 14:37:42.070
79038.070313, 82503.148438, 151965.734375, 124138.273438, 144459.906250, 96727.882813, 122545.960938, 142761.390625, 0.178, 0.166, 0.964,0.0,0.0,0.0,0.0,0.0, 14:37:42.071
79163.867188, 82630.281250, 152087.515625, 124050.656250, 144572.390625, 96572.609375, 122584.585938, 142807.484375, 0.000, 0.000, 0.000,0.0,0.0,0.0,0.0,0.0, 14:37:42.072
79176.562500, 82644.093750, 152108.625000, 124105.265625, 144600.843750, 96688.210938, 122643.054688, 142868.406250, 0.000, 0.000, 0.000,0.0,0.0,0.0,0.0,0.0, 14:37:42.082
79053.804688, 82520.179688, 151990.781250, 124197.757813, 144487.343750, 96850.796875, 122611.250000, 142826.906250, 0.000, 0.000, 0.000,0.0,0.0,0.0,0.0,0.0, 14:37:42.083
79005.812500, 82476.304688, 151940.265625, 124155.085938, 144429.593750, 96764.320313, 122540.976563, 142751.796875, 0.000, 0.000, 0.000,0.0,0.0,0.0,0.0,0.0, 14:37:42.083
79130.046875, 82604.195313, 152057.843750, 124057.343750, 144535.781250, 96583.828125, 122563.148438, 142781.859375, 0.000, 0.000, 0.000,0.0,0.0,0.0,0.0,0.0, 14:37:42.084
79180.492188, 82652.320313, 152115.593750, 124084.656250, 144600.625000, 96652.515625, 122631.882813, 142857.531250, 0.000, 0.000, 0.000,0.0,0.0,0.0,0.0,0.0, 14:37:42.084
79063.234375, 82533.789063, 152003.593750, 124184.968750, 144496.953125, 96834.500000, 122611.335938, 142834.500000, 0.000, 0.000, 0.000,0.0,0.0,0.0,0.0,0.0, 14:37:42.085
78998.437500, 82467.382813, 151932.484375, 124171.914063, 144417.765625, 96789.578125, 122540.664063, 142758.062500, 0.000, 0.000, 0.000,0.0,0.0,0.0,0.0,0.0, 14:37:42.085
79119.226563, 82590.898438, 152043.718750, 124076.742188, 144522.500000, 96608.546875, 122557.671875, 142781.390625, 0.178, 0.170, 0.968,0.0,0.0,0.0,0.0,0.0, 14:37:42.085
79183.820313, 82653.484375, 152116.265625, 124073.234375, 144600.656250, 96621.937500, 122618.875000, 142849.531250, 0.000, 0.000, 0.000,5.866807E-6,7.771386E-6,9.5525065E-6,3.0051553E-5,3.8170947E-5, 14:37:42.086
79083.242188, 82554.664063, 152025.359375, 124173.343750, 144522.390625, 96811.414063, 122618.734375, 142844.828125, 0.000, 0.000, 0.000,5.866807E-6,7.771386E-6,9.5525065E-6,3.0051553E-5,3.8170947E-5, 14:37:42.086
79012.453125, 82483.765625, 151948.031250, 124198.289063, 144446.359375, 96830.968750, 122569.273438, 142783.625000, 0.000, 0.000, 0.000,5.866807E-6,7.771386E-6,9.5525065E-6,3.0051553E-5,3.8170947E-5, 14:37:42.086
79089.007813, 82559.945313, 152014.078125, 124095.453125, 144505.828125, 96642.968750, 122555.414063, 142772.046875, 0.000, 0.000, 0.000,5.866807E-6,7.771386E-6,9.5525065E-6,3.0051553E-5,3.8170947E-5, 14:37:42.087
79177.343750, 82648.117188, 152103.578125, 124059.085938, 144592.406250, 96595.343750, 122602.687500, 142829.234375, 0.000, 0.000, 0.000,5.866807E-6,7.771386E-6,9.5525065E-6,3.0051553E-5,3.8170947E-5, 14:37:42.087
79109.773438, 82579.117188, 152044.250000, 124155.460938, 144544.234375, 96782.757813, 122624.437500, 142846.000000, 0.000, 0.000, 0.000,5.866807E-6,7.771386E-6,9.5525065E-6,3.0051553E-5,3.8170947E-5, 14:37:42.088
79001.609375, 82468.679688, 151934.500000, 124192.257813, 144437.921875, 96836.671875, 122564.421875, 142773.796875, 0.000, 0.000, 0.000,5.866807E-6,7.771386E-6,9.5525065E-6,3.0051553E-5,3.8170947E-5, 14:37:42.089
79055.523438, 82523.757813, 151977.500000, 124101.218750, 144472.015625, 96660.226563, 122535.031250, 142745.640625, 0.000, 0.000, 0.000,5.866807E-6,7.771386E-6,9.5525065E-6,3.0051553E-5,3.8170947E-5, 14:37:42.091
79182.859375, 82651.585938, 152103.578125, 124047.078125, 144589.265625, 96569.390625, 122591.914063, 142815.703125, 0.000, 0.000, 0.000,5.866807E-6,7.771386E-6,9.5525065E-6,3.0051553E-5,3.8170947E-5, 14:37:42.091
79130.625000, 82603.726563, 152068.125000, 124132.132813, 144561.437500, 96744.289063, 122626.960938, 142848.734375, 0.178, 0.164, 0.966,5.866807E-6,7.771386E-6,9.5525065E-6,3.0051553E-5,3.8170947E-5, 14:37:42.092
79008.695313, 82483.140625, 151949.765625, 124197.304688, 144450.640625, 96852.031250, 122582.039063, 142790.062500, 0.000, 0.000, 0.000,5.866807E-6,7.771386E-6,9.5525065E-6,3.0051553E-5,3.8170947E-5, 14:37:42.092
79032.812500, 82505.515625, 151961.390625, 124116.703125, 144452.640625, 96701.492188, 122537.039063, 142745.359375, 0.000, 0.000, 0.000,5.866807E-6,7.771386E-6,9.5525065E-6,3.0051553E-5,3.8170947E-5, 14:37:42.093
79168.468750, 82641.054688, 152094.312500, 124045.515625, 144573.843750, 96574.757813, 122583.156250, 142806.031250, 0.000, 0.000, 0.000,5.866807E-6,7.771386E-6,9.5525065E-6,3.0051553E-5,3.8170947E-5, 14:37:42.093
79152.148438, 82619.578125, 152084.343750, 124112.843750, 144574.359375, 96713.937500, 122627.859375, 142851.218750, 0.000, 0.000, 0.000,5.866807E-6,7.771386E-6,9.5525065E-6,3.0051553E-5,3.8170947E-5, 14:37:42.094
79025.234375, 82496.664063, 151961.484375, 124193.664063, 144455.468750, 96850.015625, 122584.250000, 142800.390625, 0.000, 0.000, 0.000,5.866807E-6,7.771386E-6,9.5525065E-6,3.0051553E-5,3.8170947E-5, 14:37:42.094
79024.054688, 82498.031250, 151950.531250, 124141.179688, 144435.421875, 96737.500000, 122535.429688, 142751.000000, 0.000, 0.000, 0.000,5.866807E-6,7.771386E-6,9.5525065E-6,3.0051553E-5,3.8170947E-5, 14:37:42.094
79144.039063, 82613.718750, 152064.328125, 124049.070313, 144543.156250, 96573.546875, 122564.984375, 142785.640625, 0.000, 0.000, 0.000,5.866807E-6,7.771386E-6,9.5525065E-6,3.0051553E-5,3.8170947E-5, 14:37:42.095
79165.609375, 82631.062500, 152094.296875, 124091.273438, 144586.250000, 96671.382813, 122625.265625, 142850.671875, 0.000, 0.000, 0.000,5.866807E-6,7.771386E-6,9.5525065E-6,3.0051553E-5,3.8170947E-5, 14:37:42.095
79039.765625, 82506.968750, 151982.296875, 124185.546875, 144482.750000, 96840.851563, 122601.031250, 142821.203125, 0.182, 0.164, 0.960,5.866807E-6,7.771386E-6,9.5525065E-6,3.0051553E-5,3.8170947E-5, 14:37:42.096
79003.671875, 82465.976563, 151934.390625, 124154.820313, 144427.218750, 96764.968750, 122534.562500, 142749.234375, 0.000, 0.000, 0.000,5.866807E-6,7.771386E-6,9.5525065E-6,3.0051553E-5,3.8170947E-5, 14:37:42.096
79131.632813, 82595.257813, 152052.937500, 124056.179688, 144535.859375, 96583.875000, 122556.734375, 142776.875000, 0.000, 0.000, 0.000,5.866807E-6,7.771386E-6,9.5525065E-6,3.0051553E-5,3.8170947E-5, 14:37:42.098
79177.343750, 82646.218750, 152111.078125, 124073.007813, 144592.468750, 96632.375000, 122617.929688, 142843.281250, 0.000, 0.000, 0.000,5.866807E-6,7.771386E-6,9.5525065E-6,3.0051553E-5,3.8170947E-5, 14:37:42.099
79069.296875, 82541.546875, 152011.328125, 124178.039063, 144500.312500, 96821.023438, 122607.382813, 142824.093750, 0.000, 0.000, 0.000,5.866807E-6,7.771386E-6,9.5525065E-6,3.0051553E-5,3.8170947E-5, 14:37:42.099
79005.164063, 82476.976563, 151941.546875, 124178.242188, 144430.390625, 96798.179688, 122548.437500, 142758.484375, 0.000, 0.000, 0.000,5.866807E-6,7.771386E-6,9.5525065E-6,3.0051553E-5,3.8170947E-5, 14:37:42.100
79093.570313, 82569.265625, 152025.625000, 124078.460938, 144508.062500, 96610.359375, 122548.953125, 142762.515625, 0.000, 0.000, 0.000,5.866807E-6,7.771386E-6,9.5525065E-6,3.0051553E-5,3.8170947E-5, 14:37:42.100
79184.046875, 82654.203125, 152117.078125, 124071.710938, 144600.093750, 96604.953125, 122618.445313, 142836.578125, 0.000, 0.000, 0.000,5.866807E-6,7.771386E-6,9.5525065E-6,3.0051553E-5,3.8170947E-5, 14:37:42.100
79103.984375, 82570.781250, 152044.468750, 124179.960938, 144535.984375, 96803.929688, 122629.000000, 142850.343750, 0.000, 0.000, 0.000,5.866807E-6,7.771386E-6,9.5525065E-6,3.0051553E-5,3.8170947E-5, 14:37:42.100
79006.976563, 82475.093750, 151947.468750, 124204.328125, 144440.000000, 96831.531250, 122564.109375, 142780.718750, 0.000, 0.000, 0.000,5.866807E-6,7.771386E-6,9.5525065E-6,3.0051553E-5,3.8170947E-5, 14:37:42.100
79080.335938, 82547.492188, 152006.078125, 124099.718750, 144488.281250, 96643.507813, 122540.554688, 142759.875000, 0.186, 0.168, 0.968,5.866807E-6,7.771386E-6,9.5525065E-6,3.0051553E-5,3.8170947E-5, 14:37:42.101
79195.109375, 82661.531250, 152125.000000, 124066.414063, 144605.750000, 96589.484375, 122610.265625, 142835.156250, 0.000, 0.000, 0.000,5.866807E-6,7.771386E-6,9.5525065E-6,3.0051553E-5,3.8170947E-5, 14:37:42.101
79123.296875, 82593.539063, 152069.218750, 124163.867188, 144561.125000, 96775.492188, 122635.210938, 142857.765625, 0.000, 0.000, 0.000,5.866807E-6,7.771386E-6,9.5525065E-6,3.0051553E-5,3.8170947E-5, 14:37:42.101
78999.734375, 82468.773438, 151943.234375, 124202.539063, 144435.890625, 96837.945313, 122567.039063, 142779.109375, 0.000, 0.000, 0.000,5.866807E-6,7.771386E-6,9.5525065E-6,3.0051553E-5,3.8170947E-5, 14:37:42.102
79064.781250, 82527.218750, 151990.500000, 124116.593750, 144472.781250, 96669.234375, 122543.750000, 142753.765625, 0.000, 0.000, 0.000,5.866807E-6,7.771386E-6,9.5525065E-6,3.0051553E-5,3.8170947E-5, 14:37:42.102
79190.460938, 82652.765625, 152115.734375, 124056.000000, 144596.359375, 96569.281250, 122605.015625, 142820.484375, 0.000, 0.000, 0.000,5.866807E-6,7.771386E-6,9.5525065E-6,3.0051553E-5,3.8170947E-5, 14:37:42.102
79146.335938, 82615.148438, 152088.796875, 124139.796875, 144574.546875, 96735.734375, 122638.140625, 142857.281250, 0.000, 0.000, 0.000,5.866807E-6,7.771386E-6,9.5525065E-6,3.0051553E-5,3.8170947E-5, 14:37:42.102
79019.718750, 82488.664063, 151959.328125, 124208.593750, 144448.906250, 96847.601563, 122579.000000, 142791.234375, 0.000, 0.000, 0.000,5.866807E-6,7.771386E-6,9.5525065E-6,3.0051553E-5,3.8170947E-5, 14:37:42.103
79033.398438, 82503.507813, 151961.437500, 124134.765625, 144447.937500, 96706.875000, 122530.429688, 142742.750000, 0.000, 0.000, 0.000,5.866807E-6,7.771386E-6,9.5525065E-6,3.0051553E-5,3.8170947E-5, 14:37:42.103
79159.234375, 82636.765625, 152091.500000, 124052.648438, 144569.000000, 96561.812500, 122572.851563, 142796.281250, 0.190, 0.164, 0.970,5.866807E-6,7.771386E-6,9.5525065E-6,3.0051553E-5,3.8170947E-5, 14:37:42.104
79163.039063, 82643.562500, 152105.843750, 124120.843750, 144587.890625, 96697.867188, 122630.789063, 142854.546875, 0.000, 0.000, 0.000,5.866807E-6,7.771386E-6,9.5525065E-6,3.0051553E-5,3.8170947E-5, 14:37:42.105
79043.031250, 82518.148438, 151987.250000, 124209.351563, 144474.500000, 96850.710938, 122593.476563, 142810.453125, 0.000, 0.000, 0.000,5.866807E-6,7.771386E-6,9.5525065E-6,3.0051553E-5,3.8170947E-5, 14:37:42.106
79026.421875, 82499.820313, 151960.562500, 124158.976563, 144443.062500, 96744.046875, 122534.921875, 142745.484375, 0.000, 0.000, 0.000,5.866807E-6,7.771386E-6,9.5525065E-6,3.0051553E-5,3.8170947E-5, 14:37:42.107
79152.531250, 82629.054688, 152080.640625, 124064.179688, 144553.062500, 96571.867188, 122563.078125, 142780.406250, 0.000, 0.000, 0.000,5.866807E-6,7.771386E-6,9.5525065E-6,3.0051553E-5,3.8170947E-5, 14:37:42.107
79180.289063, 82657.148438, 152123.531250, 124105.843750, 144601.906250, 96664.851563, 122631.546875, 142854.328125, 0.000, 0.000, 0.000,5.866807E-6,7.771386E-6,9.5525065E-6,3.0051553E-5,3.8170947E-5, 14:37:42.108
79051.187500, 82528.117188, 152003.343750, 124196.703125, 144494.406250, 96836.179688, 122607.023438, 142825.343750, 0.000, 0.000, 0.000,5.866807E-6,7.771386E-6,9.5525065E-6,3.0051553E-5,3.8170947E-5, 14:37:42.109
79010.531250, 82486.585938, 151949.718750, 124172.562500, 144437.265625, 96778.734375, 122548.757813, 142762.468750, 0.000, 0.000, 0.000,5.866807E-6,7.771386E-6,9.5525065E-6,3.0051553E-5,3.8170947E-5, 14:37:42.109
79128.414063, 82599.351563, 152054.015625, 124070.546875, 144529.375000, 96597.085938, 122560.062500, 142784.218750, 0.000, 0.000, 0.000,5.866807E-6,7.771386E-6,9.5525065E-6,3.0051553E-5,3.8170947E-5, 14:37:42.111
79189.210938, 82663.117188, 152123.843750, 124081.523438, 144603.109375, 96634.992188, 122623.562500, 142858.281250, 0.000, 0.000, 0.000,5.866807E-6,7.771386E-6,9.5525065E-6,3.0051553E-5,3.8170947E-5, 14:37:42.117
79081.632813, 82560.726563, 152025.312500, 124187.851563, 144520.656250, 96828.695313, 122619.812500, 142852.031250, 0.192, 0.166, 0.972,5.866807E-6,7.771386E-6,9.5525065E-6,3.0051553E-5,3.8170947E-5, 14:37:42.117
78998.703125, 82475.632813, 151931.281250, 124184.500000, 144432.437500, 96808.460938, 122548.734375, 142770.000000, 0.000, 0.000, 0.000,5.866807E-6,7.771386E-6,9.5525065E-6,3.0051553E-5,3.8170947E-5, 14:37:42.117
79095.757813, 82569.039063, 152012.046875, 124077.414063, 144502.484375, 96614.898438, 122543.523438, 142763.828125, 0.000, 0.000, 0.000,5.866807E-6,7.771386E-6,9.5525065E-6,3.0051553E-5,3.8170947E-5, 14:37:42.118
79185.210938, 82658.625000, 152108.515625, 124059.242188, 144598.093750, 96597.328125, 122610.687500, 142838.343750, 0.000, 0.000, 0.000,5.866807E-6,7.771386E-6,9.5525065E-6,3.0051553E-5,3.8170947E-5, 14:37:42.118
79092.851563, 82568.976563, 152027.859375, 124154.835938, 144528.937500, 96783.992188, 122617.484375, 142842.781250, 0.000, 0.000, 0.000,5.866807E-6,7.771386E-6,9.5525065E-6,3.0051553E-5,3.8170947E-5, 14:37:42.119
79001.164063, 82478.382813, 151929.468750, 124182.843750, 144431.250000, 96819.304688, 122557.765625, 142773.312500, 0.000, 0.000, 0.000,5.866807E-6,7.771386E-6,9.5525065E-6,3.0051553E-5,3.8170947E-5, 14:37:42.119
79089.234375, 82566.203125, 152008.703125, 124096.140625, 144499.031250, 96649.250000, 122550.250000, 142771.218750, 0.000, 0.000, 0.000,5.866807E-6,7.771386E-6,9.5525065E-6,3.0051553E-5,3.8170947E-5, 14:37:42.119
79199.960938, 82669.937500, 152122.765625, 124057.140625, 144606.578125, 96587.585938, 122608.078125, 142837.546875, 0.000, 0.000, 0.000,5.866807E-6,7.771386E-6,9.5525065E-6,3.0051553E-5,3.8170947E-5, 14:37:42.119
79130.578125, 82592.734375, 152062.328125, 124144.578125, 144554.562500, 96757.187500, 122625.625000, 142848.609375, 0.000, 0.000, 0.000,5.866807E-6,7.771386E-6,9.5525065E-6,3.0051553E-5,3.8170947E-5, 14:37:42.120
79004.671875, 82466.781250, 151940.265625, 124190.515625, 144437.125000, 96829.164063, 122563.750000, 142774.687500, 0.000, 0.000, 0.000,5.866807E-6,7.771386E-6,9.5525065E-6,3.0051553E-5,3.8170947E-5, 14:37:42.120
79052.531250, 82514.007813, 151973.593750, 124107.273438, 144462.812500, 96669.210938, 122530.429688, 142743.156250, 0.192, 0.168, 0.962,5.866807E-6,7.771386E-6,9.5525065E-6,3.0051553E-5,3.8170947E-5, 14:37:42.120
79176.109375, 82642.890625, 152096.000000, 124041.828125, 144578.359375, 96555.976563, 122581.968750, 142801.734375, 0.000, 0.000, 0.000,5.866807E-6,7.771386E-6,9.5525065E-6,3.0051553E-5,3.8170947E-5, 14:37:42.120
79136.171875, 82609.179688, 152077.109375, 124120.953125, 144569.109375, 96712.015625, 122626.898438, 142845.718750, 0.000, 0.000, 0.000,5.866807E-6,7.771386E-6,9.5525065E-6,3.0051553E-5,3.8170947E-5, 14:37:42.121
79010.328125, 82482.742188, 151957.234375, 124195.765625, 144453.781250, 96840.179688, 122580.000000, 142791.765625, 0.000, 0.000, 0.000,5.866807E-6,7.771386E-6,9.5525065E-6,3.0051553E-5,3.8170947E-5, 14:37:42.121
79030.156250, 82506.007813, 151955.875000, 124135.820313, 144445.265625, 96710.007813, 122533.171875, 142744.515625, 0.000, 0.000, 0.000,5.866807E-6,7.771386E-6,9.5525065E-6,3.0051553E-5,3.8170947E-5, 14:37:42.122
79156.554688, 82633.750000, 152074.375000, 124050.632813, 144556.703125, 96556.828125, 122568.671875, 142789.421875, 0.000, 0.000, 0.000,5.866807E-6,7.771386E-6,9.5525065E-6,3.0051553E-5,3.8170947E-5, 14:37:42.124
79148.101563, 82632.851563, 152088.328125, 124103.296875, 144576.375000, 96674.796875, 122622.203125, 142844.546875, 0.000, 0.000, 0.000,5.866807E-6,7.771386E-6,9.5525065E-6,3.0051553E-5,3.8170947E-5, 14:37:42.124
79008.695313, 82495.390625, 151960.765625, 124186.601563, 144453.687500, 96830.007813, 122579.843750, 142793.421875, 0.000, 0.000, 0.000,5.866807E-6,7.771386E-6,9.5525065E-6,3.0051553E-5,3.8170947E-5, 14:37:42.124
78992.109375, 82473.601563, 151935.359375, 124149.453125, 144426.375000, 96736.359375, 122530.781250, 142736.609375, 0.000, 0.000, 0.000,0.0,0.0,0.0,0.0,0.0, 14:37:42.523
79118.289063, 82602.140625, 152054.046875, 124055.242188, 144531.515625, 96565.906250, 122552.171875, 142768.703125, 0.178, 0.170, 0.960,0.0,0.0,0.0,0.0,0.0, 14:37:42.524
79151.148438, 82641.703125, 152098.046875, 124088.742188, 144576.593750, 96645.835938, 122609.531250, 142836.156250, 0.000, 0.000, 0.000,0.0,0.0,0.0,0.0,0.0, 14:37:42.524
79040.210938, 82527.265625, 151996.750000, 124187.156250, 144482.765625, 96830.234375, 122592.632813, 142815.734375, 0.000, 0.000, 0.000,0.0,0.0,0.0,0.0,0.0, 14:37:42.525
78988.070313, 82470.468750, 151938.609375, 124173.148438, 144421.640625, 96788.820313, 122536.039063, 142748.093750, 0.000, 0.000, 0.000,0.0,0.0,0.0,0.0,0.0, 14:37:42.525
79091.820313, 82579.164063, 152035.640625, 124070.437500, 144510.687500, 96600.125000, 122542.921875, 142763.515625, 0.000, 0.000, 0.000,0.0,0.0,0.0,0.0,0.0, 14:37:42.526
79150.117188, 82642.242188, 152107.265625, 124073.117188, 144585.187500, 96620.914063, 122606.820313, 142832.406250, 0.000, 0.000, 0.000,0.0,0.0,0.0,0.0,0.0, 14:37:42.527
79041.265625, 82537.437500, 152009.156250, 124171.335938, 144498.640625, 96805.554688, 122603.023438, 142822.484375, 0.000, 0.000, 0.000,0.0,0.0,0.0,0.0,0.0, 14:37:42.527
78974.234375, 82465.171875, 151928.000000, 124185.304688, 144415.937500, 96806.117188, 122542.335938, 142755.875000, 0.000, 0.000, 0.000,0.0,0.0,0.0,0.0,0.0, 14:37:42.528
79063.507813, 82553.195313, 152006.703125, 124090.484375, 144485.937500, 96623.812500, 122534.156250, 142751.000000, 0.000, 0.000, 0.000,0.0,0.0,0.0,0.0,0.0, 14:37:42.528
79146.335938, 82636.140625, 152102.390625, 124061.765625, 144584.937500, 96590.804688, 122598.953125, 142823.781250, 0.000, 0.000, 0.000,0.0,0.0,0.0,0.0,0.0, 14:37:42.528
79064.312500, 82554.132813, 152031.734375, 124158.390625, 144526.234375, 96780.007813, 122614.382813, 142836.140625, 0.180, 0.172, 0.960,0.0,0.0,0.0,0.0,0.0, 14:37:42.529
78956.507813, 82447.984375, 151925.656250, 124194.890625, 144425.765625, 96833.070313, 122556.265625, 142768.453125, 0.000, 0.000, 0.000,0.0,0.0,0.0,0.0,0.0, 14:37:42.530
79016.523438, 82510.117188, 151978.359375, 124097.726563, 144466.515625, 96650.125000, 122527.898438, 142742.921875, 0.000, 0.000, 0.000,0.0,0.0,0.0,0.0,0.0, 14:37:42.530
79141.421875, 82634.664063, 152105.625000, 124053.875000, 144588.406250, 96572.140625, 122590.734375, 142815.687500, 0.000, 0.000, 0.000,0.0,0.0,0.0,0.0,0.0, 14:37:42.531
79078.726563, 82563.343750, 152048.765625, 124135.148438, 144543.515625, 96745.921875, 122612.367188, 142835.640625, 0.000, 0.000, 0.000,0.0,0.0,0.0,0.0,0.0, 14:37:42.531
78970.226563, 82449.640625, 151932.734375, 124185.976563, 144432.718750, 96840.250000, 122560.601563, 142776.171875, 0.000, 0.000, 0.000,0.0,0.0,0.0,0.0,0.0, 14:37:42.532
78993.429688, 82472.164063, 151942.734375, 124100.476563, 144440.078125, 96686.515625, 122517.929688, 142730.281250, 0.000, 0.000, 0.000,0.0,0.0,0.0,0.0,0.0, 14:37:42.533
79122.984375, 82603.257813, 152066.781250, 124025.867188, 144555.968750, 96557.703125, 122562.187500, 142786.500000, 0.000, 0.000, 0.000,0.0,0.0,0.0,0.0,0.0, 14:37:42.533
79097.593750, 82578.312500, 152058.937500, 124100.437500, 144557.906250, 96711.101563, 122610.625000, 142838.906250, 0.000, 0.000, 0.000,0.0,0.0,0.0,0.0,0.0, 14:37:42.534
78979.039063, 82459.781250, 151943.046875, 124182.062500, 144444.187500, 96844.453125, 122569.718750, 142788.734375, 0.192, 0.172, 0.970,0.0,0.0,0.0,0.0,0.0, 14:37:42.534
78981.046875, 82463.140625, 151935.468750, 124125.867188, 144425.031250, 96723.039063, 122520.343750, 142736.531250, 0.000, 0.000, 0.000,0.0,0.0,0.0,0.0,0.0, 14:37:42.535
79106.843750, 82589.804688, 152056.031250, 124039.640625, 144531.343750, 96560.960938, 122546.812500, 142773.890625, 0.000, 0.000, 0.000,0.0,0.0,0.0,0.0,0.0, 14:37:42.535
79126.109375, 82605.203125, 152086.093750, 124093.234375, 144569.359375, 96675.117188, 122607.515625, 142838.343750, 0.000, 0.000, 0.000,0.0,0.0,0.0,0.0,0.0, 14:37:42.536
78995.578125, 82476.125000, 151966.390625, 124186.398438, 144454.359375, 96833.164063, 122576.203125, 142795.703125, 0.000, 0.000, 0.000,0.0,0.0,0.0,0.0,0.0, 14:37:42.536
78965.781250, 82441.859375, 151927.578125, 124151.281250, 144407.265625, 96746.703125, 122514.335938, 142728.421875, 0.000, 0.000, 0.000,0.0,0.0,0.0,0.0,0.0, 14:37:42.536
79080.515625, 82556.414063, 152036.140625, 124046.609375, 144505.281250, 96567.023438, 122530.648438, 142749.406250, 0.000, 0.000, 0.000,0.0,0.0,0.0,0.0,0.0, 14:37:42.537
79136.617188, 82616.000000, 152104.937500, 124077.257813, 144576.687500, 96640.179688, 122607.226563, 142832.718750, 0.000, 0.000, 0.000,0.0,0.0,0.0,0.0,0.0, 14:37:42.538
79018.664063, 82493.867188, 151993.468750, 124171.335938, 144476.843750, 96821.140625, 122590.242188, 142810.781250, 0.000, 0.000, 0.000,0.0,0.0,0.0,0.0,0.0, 14:37:42.539
78963.882813, 82440.562500, 151935.171875, 124165.656250, 144415.375000, 96789.085938, 122533.820313, 142750.171875, 0.000, 0.000, 0.000,0.0,0.0,0.0,0.0,0.0, 14:37:42.539
79070.054688, 82546.304688, 152032.453125, 124070.015625, 144505.671875, 96606.601563, 122540.304688, 142762.625000, 0.190, 0.178, 0.958,0.0,0.0,0.0,0.0,0.0, 14:37:42.540
79144.867188, 82621.789063, 152111.187500, 124067.625000, 144591.109375, 96615.789063, 122605.125000, 142834.906250, 0.000, 0.000, 0.000,0.0,0.0,0.0,0.0,0.0, 14:37:42.541
79047.789063, 82523.953125, 152021.296875, 124167.359375, 144511.750000, 96805.781250, 122606.601563, 142831.218750, 0.000, 0.000, 0.000,0.0,0.0,0.0,0.0,0.0, 14:37:42.542
78958.921875, 82434.507813, 151927.328125, 124183.468750, 144417.953125, 96819.687500, 122542.562500, 142757.703125, 0.000, 0.000, 0.000,0.0,0.0,0.0,0.0,0.0, 14:37:42.543
79046.023438, 82522.617188, 152000.625000, 124083.781250, 144483.968750, 96634.031250, 122532.460938, 142751.406250, 0.000, 0.000, 0.000,0.0,0.0,0.0,0.0,0.0, 14:37:42.543
79144.328125, 82620.117188, 152108.625000, 124055.015625, 144590.046875, 96592.296875, 122594.664063, 142823.890625, 0.000, 0.000, 0.000,0.0,0.0,0.0,0.0,0.0, 14:37:42.544
79072.218750, 82544.921875, 152048.921875, 124151.015625, 144536.812500, 96775.609375, 122613.218750, 142837.718750, 0.000, 0.000, 0.000,0.0,0.0,0.0,0.0,0.0, 14:37:42.545
78979.867188, 82451.265625, 151950.859375, 124196.460938, 144437.171875, 96843.335938, 122561.179688, 142777.796875, 0.000, 0.000, 0.000,0.0,0.0,0.0,0.0,0.0, 14:37:42.545
79036.929688, 82507.796875, 151993.953125, 124107.273438, 144467.906250, 96673.640625, 122530.468750, 142748.937500, 0.000, 0.000, 0.000,0.0,0.0,0.0,0.0,0.0, 14:37:42.545
79152.976563, 82624.468750, 152108.828125, 124049.609375, 144578.203125, 96578.937500, 122578.125000, 142810.812500, 0.000, 0.000, 0.000,0.0,0.0,0.0,0.0,0.0, 14:37:42.546
79094.039063, 82569.890625, 152067.656250, 124131.726563, 144549.281250, 96746.414063, 122606.664063, 142840.578125, 0.190, 0.176, 0.966,0.0,0.0,0.0,0.0,0.0, 14:37:42.546
78966.992188, 82444.921875, 151941.156250, 124194.265625, 144425.437500, 96845.945313, 122550.632813, 142775.156250, 0.000, 0.000, 0.000,0.0,0.0,0.0,0.0,0.0, 14:37:42.547
78991.445313, 82467.585938, 151953.609375, 124116.906250, 144431.062500, 96694.960938, 122512.078125, 142735.234375, 0.000, 0.000, 0.000,0.0,0.0,0.0,0.0,0.0, 14:37:42.547
79122.023438, 82597.250000, 152081.078125, 124040.867188, 144556.265625, 96562.929688, 122561.335938, 142791.656250, 0.000, 0.000, 0.000,0.0,0.0,0.0,0.0,0.0, 14:37:42.548
79104.273438, 82579.523438, 152072.140625, 124106.359375, 144560.843750, 96702.117188, 122611.406250, 142839.093750, 0.000, 0.000, 0.000,0.0,0.0,0.0,0.0,0.0, 14:37:42.548
78989.851563, 82464.164063, 151959.718750, 124193.148438, 144457.203125, 96849.125000, 122580.609375, 142800.781250, 0.000, 0.000, 0.000,0.0,0.0,0.0,0.0,0.0, 14:37:42.549
78984.781250, 82458.156250, 151945.656250, 124143.414063, 144434.156250, 96742.015625, 122528.257813, 142748.500000, 0.000, 0.000, 0.000,0.0,0.0,0.0,0.0,0.0, 14:37:42.549
79114.820313, 82587.789063, 152067.562500, 124054.945313, 144549.703125, 96583.382813, 122560.132813, 142789.953125, 0.000, 0.000, 0.000,0.0,0.0,0.0,0.0,0.0, 14:37:42.550
79135.187500, 82603.640625, 152097.421875, 124099.539063, 144585.109375, 96684.632813, 122618.515625, 142856.390625, 0.000, 0.000, 0.000,0.0,0.0,0.0,0.0,0.0, 14:37:42.551
79002.148438, 82473.062500, 151969.109375, 124185.750000, 144461.203125, 96845.546875, 122581.164063, 142812.437500, 0.184, 0.184, 0.962,0.0,0.0,0.0,0.0,0.0, 14:37:42.552
78958.789063, 82433.210938, 151916.328125, 124153.453125, 144406.234375, 96769.640625, 122518.671875, 142739.468750, 0.000, 0.000, 0.000,0.0,0.0,0.0,0.0,0.0, 14:37:42.553
79079.710938, 82551.000000, 152029.093750, 124052.937500, 144512.359375, 96584.367188, 122538.453125, 142759.625000, 0.000, 0.000, 0.000,0.0,0.0,0.0,0.0,0.0, 14:37:42.553
79145.960938, 82611.242188, 152100.062500, 124074.171875, 144585.625000, 96636.671875, 122606.734375, 142837.281250, 0.000, 0.000, 0.000,0.0,0.0,0.0,0.0,0.0, 14:37:42.554
79033.242188, 82499.953125, 151995.640625, 124173.234375, 144489.625000, 96818.343750, 122593.367188, 142815.218750, 0.000, 0.000, 0.000,0.0,0.0,0.0,0.0,0.0, 14:37:42.555
78963.281250, 82430.796875, 151919.500000, 124169.546875, 144409.031250, 96791.523438, 122527.031250, 142739.750000, 0.000, 0.000, 0.000,0.0,0.0,0.0,0.0,0.0, 14:37:42.558
79061.898438, 82529.250000, 152012.484375, 124066.414063, 144491.890625, 96603.500000, 122530.515625, 142747.625000, 0.000, 0.000, 0.000,0.0,0.0,0.0,0.0,0.0, 14:37:42.558
79140.281250, 82610.593750, 152101.468750, 124054.750000, 144584.671875, 96597.687500, 122597.078125, 142820.953125, 0.000, 0.000, 0.000,0.0,0.0,0.0,0.0,0.0, 14:37:42.559
79047.296875, 82521.429688, 152018.250000, 124156.914063, 144512.265625, 96789.843750, 122605.773438, 142826.234375, 0.000, 0.000, 0.000,0.0,0.0,0.0,0.0,0.0, 14:37:42.560
78949.195313, 82423.507813, 151916.890625, 124174.820313, 144409.281250, 96811.859375, 122534.382813, 142751.625000, 0.000, 0.000, 0.000,0.0,0.0,0.0,0.0,0.0, 14:37:42.560
79023.382813, 82497.382813, 151980.140625, 124082.484375, 144465.687500, 96633.000000, 122519.984375, 142738.171875, 0.190, 0.172, 0.960,0.0,0.0,0.0,0.0,0.0, 14:37:42.561
79131.367188, 82603.687500, 152090.000000, 124045.492188, 144574.515625, 96574.304688, 122582.820313, 142810.562500, 0.000, 0.000, 0.000,0.0,0.0,0.0,0.0,0.0, 14:37:42.561
79058.539063, 82531.507813, 152028.781250, 124137.156250, 144523.203125, 96761.164063, 122599.335938, 142832.375000, 0.000, 0.000, 0.000,0.0,0.0,0.0,0.0,0.0, 14:37:42.561
78952.210938, 82425.585938, 151919.078125, 124186.421875, 144419.359375, 96838.054688, 122546.500000, 142769.328125, 0.000, 0.000, 0.000,0.0,0.0,0.0,0.0,0.0, 14:37:42.563
78995.601563, 82474.359375, 151952.421875, 124101.421875, 144439.515625, 96664.671875, 122510.507813, 142732.687500, 0.000, 0.000, 0.000,0.0,0.0,0.0,0.0,0.0, 14:37:42.564
79115.359375, 82597.156250, 152071.468750, 124038.343750, 144549.359375, 96551.914063, 122557.000000, 142786.218750, 0.000, 0.000, 0.000,0.0,0.0,0.0,0.0,0.0, 14:37:42.564
79092.742188, 82572.015625, 152057.234375, 124123.101563, 144545.578125, 96720.312500, 122602.171875, 142830.750000, 0.000, 0.000, 0.000,0.0,0.0,0.0,0.0,0.0, 14:37:42.564
78969.742188, 82449.953125, 151939.734375, 124191.562500, 144433.859375, 96834.953125, 122555.460938, 142772.921875, 0.000, 0.000, 0.000,0.0,0.0,0.0,0.0,0.0, 14:37:42.565
78993.382813, 82469.640625, 151951.000000, 124125.734375, 144435.312500, 96694.960938, 122514.421875, 142727.859375, 0.000, 0.000, 0.000,0.0,0.0,0.0,0.0,0.0, 14:37:42.565
79139.859375, 82613.765625, 152090.937500, 124053.539063, 144564.953125, 96558.617188, 122568.515625, 142790.218750, 0.192, 0.176, 0.958,0.0,0.0,0.0,0.0,0.0, 14:37:42.565
79136.507813, 82614.390625, 152101.812500, 124120.375000, 144579.906250, 96693.664063, 122626.273438, 142848.359375, 0.000, 0.000, 0.000,0.0,0.0,0.0,0.0,0.0, 14:37:42.566
79009.726563, 82489.085938, 151970.750000, 124200.640625, 144451.109375, 96837.609375, 122574.593750, 142794.578125, 0.000, 0.000, 0.000,0.0,0.0,0.0,0.0,0.0, 14:37:42.566
78998.437500, 82471.539063, 151938.562500, 124146.929688, 144414.546875, 96733.179688, 122512.726563, 142731.625000, 0.000, 0.000, 0.000,0.0,0.0,0.0,0.0,0.0, 14:37:42.567
79118.828125, 82585.132813, 152044.312500, 124047.687500, 144516.812500, 96558.367188, 122534.406250, 142760.031250, 0.000, 0.000, 0.000,0.0,0.0,0.0,0.0,0.0, 14:37:42.567
79145.710938, 82619.351563, 152076.687500, 124078.578125, 144559.046875, 96640.867188, 122589.750000, 142822.640625, 0.000, 0.000, 0.000,0.0,0.0,0.0,0.0,0.0, 14:37:42.567
79038.109375, 82514.390625, 151970.578125, 124173.992188, 144462.500000, 96817.937500, 122570.414063, 142801.984375, 0.000, 0.000, 0.000,0.0,0.0,0.0,0.0,0.0, 14:37:42.568
78998.171875, 82471.992188, 151911.875000, 124149.968750, 144400.796875, 96759.937500, 122507.445313, 142731.281250, 0.000, 0.000, 0.000,0.0,0.0,0.0,0.0,0.0, 14:37:42.569
79125.531250, 82602.945313, 152024.062500, 124056.046875, 144504.734375, 96586.039063, 122528.125000, 142759.328125, 0.000, 0.000, 0.000,0.0,0.0,0.0,0.0,0.0, 14:37:42.570
79191.421875, 82665.625000, 152096.421875, 124067.531250, 144582.453125, 96624.664063, 122603.804688, 142837.187500, 0.000, 0.000, 0.000,0.0,0.0,0.0,0.0,0.0, 14:37:42.571
79094.750000, 82567.898438, 151997.515625, 124167.062500, 144491.218750, 96809.046875, 122593.460938, 142822.171875, 0.194, 0.178, 0.956,0.0,0.0,0.0,0.0,0.0, 14:37:42.571
79028.593750, 82504.445313, 151913.843750, 124172.140625, 144402.015625, 96799.078125, 122520.617188, 142745.546875, 0.000, 0.000, 0.000,0.0,0.0,0.0,0.0,0.0, 14:37:42.572
79130.109375, 82609.070313, 151994.781250, 124068.585938, 144469.687500, 96608.039063, 122510.843750, 142741.750000, 0.000, 0.000, 0.000,0.0,0.0,0.0,0.0,0.0, 14:37:42.573
79247.617188, 82728.742188, 152108.890625, 124058.476563, 144584.796875, 96597.328125, 122591.578125, 142826.546875, 0.000, 0.000, 0.000,0.0,0.0,0.0,0.0,0.0, 14:37:42.574
79177.210938, 82655.046875, 152037.921875, 124166.726563, 144522.187500, 96792.640625, 122605.843750, 142835.671875, 0.000, 0.000, 0.000,0.0,0.0,0.0,0.0,0.0, 14:37:42.574
79087.687500, 82570.023438, 151941.500000, 124200.101563, 144424.656250, 96828.984375, 122545.468750, 142766.578125, 0.000, 0.000, 0.000,0.0,0.0,0.0,0.0,0.0, 14:37:42.575
79163.281250, 82652.546875, 152006.203125, 124111.703125, 144476.375000, 96652.562500, 122527.656250, 142751.109375, 0.000, 0.000, 0.000,0.0,0.0,0.0,0.0,0.0, 14:37:42.575
79281.429688, 82767.703125, 152120.015625, 124070.843750, 144584.421875, 96581.976563, 122587.109375, 142817.734375, 0.000, 0.000, 0.000,0.0,0.0,0.0,0.0,0.0, 14:37:42.576
79221.843750, 82704.875000, 152064.125000, 124160.492188, 144537.859375, 96754.375000, 122607.226563, 142833.359375, 0.000, 0.000, 0.000,0.0,0.0,0.0,0.0,0.0, 14:37:42.576
79121.906250, 82607.148438, 151961.890625, 124224.328125, 144439.093750, 96841.093750, 122560.445313, 142776.921875, 0.196, 0.184, 0.958,0.0,0.0,0.0,0.0,0.0, 14:37:42.577
79157.289063, 82635.960938, 151987.984375, 124144.085938, 144456.609375, 96684.414063, 122523.343750, 142740.687500, 0.000, 0.000, 0.000,0.0,0.0,0.0,0.0,0.0, 14:37:42.577
79268.515625, 82752.484375, 152104.421875, 124073.320313, 144566.578125, 96564.023438, 122568.710938, 142793.718750, 0.000, 0.000, 0.000,0.0,0.0,0.0,0.0,0.0, 14:37:42.577
79222.718750, 82712.250000, 152081.484375, 124145.695313, 144554.671875, 96716.328125, 122610.757813, 142834.921875, 0.000, 0.000, 0.000,0.0,0.0,0.0,0.0,0.0, 14:37:42.578
79102.328125, 82583.367188, 151966.312500, 124221.023438, 144450.250000, 96849.679688, 122575.890625, 142791.453125, 0.000, 0.000, 0.000,0.0,0.0,0.0,0.0,0.0, 14:37:42.578
79107.109375, 82586.656250, 151960.656250, 124154.187500, 144438.750000, 96720.601563, 122527.140625, 142742.015625, 0.000, 0.000, 0.000,0.0,0.0,0.0,0.0,0.0, 14:37:42.579
79224.234375, 82711.484375, 152082.984375, 124067.015625, 144553.515625, 96573.414063, 122565.093750, 142791.359375, 0.000, 0.000, 0.000,0.0,0.0,0.0,0.0,0.0, 14:37:42.579
79206.960938, 82687.750000, 152083.875000, 124114.695313, 144565.015625, 96688.726563, 122608.296875, 142841.968750, 0.000, 0.000, 0.000,0.0,0.0,0.0,0.0,0.0, 14:37:42.579
79085.742188, 82565.039063, 151971.140625, 124204.304688, 144457.000000, 96843.195313, 122572.757813, 142803.921875, 0.000, 0.000, 0.000,0.0,0.0,0.0,0.0,0.0, 14:37:42.579
79048.687500, 82528.851563, 151936.968750, 124163.265625, 144416.781250, 96752.585938, 122516.210938, 142741.828125, 0.000, 0.000, 0.000,0.0,0.0,0.0,0.0,0.0, 14:37:42.580
79144.773438, 82629.835938, 152036.656250, 124058.390625, 144509.359375, 96569.882813, 122528.148438, 142759.953125, 0.204, 0.188, 0.954,0.0,0.0,0.0,0.0,0.0, 14:37:42.580
79170.906250, 82653.867188, 152072.343750, 124077.632813, 144550.656250, 96633.648438, 122582.507813, 142818.015625, 0.000, 0.000, 0.000,0.0,0.0,0.0,0.0,0.0, 14:37:42.580
79068.109375, 82547.914063, 151974.937500, 124175.695313, 144462.609375, 96812.148438, 122573.070313, 142802.406250, 0.000, 0.000, 0.000,0.0,0.0,0.0,0.0,0.0, 14:37:42.581
79015.335938, 82489.492188, 151916.843750, 124157.812500, 144404.468750, 96768.562500, 122512.921875, 142733.203125, 0.000, 0.000, 0.000,0.0,0.0,0.0,0.0,0.0, 14:37:42.581
79128.234375, 82601.742188, 152023.437500, 124057.679688, 144502.062500, 96586.781250, 122526.671875, 142750.171875, 0.000, 0.000, 0.000,0.0,0.0,0.0,0.0,0.0, 14:37:42.582
79191.289063, 82670.429688, 152103.281250, 124064.156250, 144581.625000, 96610.960938, 122594.085938, 142825.765625, 0.000, 0.000, 0.000,0.0,0.0,0.0,0.0,0.0, 14:37:42.583
79070.726563, 82551.335938, 151997.640625, 124162.414063, 144485.718750, 96794.453125, 122580.804688, 142806.156250, 0.000, 0.000, 0.000,0.0,0.0,0.0,0.0,0.0, 14:37:42.584
78995.914063, 82471.875000, 151914.937500, 124173.078125, 144400.828125, 96792.460938, 122514.421875, 142733.921875, 0.000, 0.000, 0.000,0.0,0.0,0.0,0.0,0.0, 14:37:42.584
79085.406250, 82563.875000, 152001.062500, 124080.898438, 144474.500000, 96613.984375, 122512.968750, 142733.921875, 0.000, 0.000, 0.000,0.0,0.0,0.0,0.0,0.0, 14:37:42.585
79170.593750, 82653.328125, 152101.562500, 124059.242188, 144571.703125, 96577.835938, 122575.132813, 142804.187500, 0.000, 0.000, 0.000,0.0,0.0,0.0,0.0,0.0, 14:37:42.585
79094.195313, 82571.562500, 152037.812500, 124160.250000, 144516.515625, 96767.718750, 122594.484375, 142820.984375, 0.202, 0.192, 0.952,0.0,0.0,0.0,0.0,0.0, 14:37:42.586
79000.625000, 82475.046875, 151943.046875, 124203.523438, 144425.906250, 96825.093750, 122545.578125, 142765.109375, 0.000, 0.000, 0.000,0.0,0.0,0.0,0.0,0.0, 14:37:42.586
79050.203125, 82528.359375, 151985.468750, 124109.554688, 144462.812500, 96649.476563, 122519.046875, 142739.000000, 0.000, 0.000, 0.000,0.0,0.0,0.0,0.0,0.0, 14:37:42.588
79168.445313, 82643.203125, 152099.843750, 124058.460938, 144574.703125, 96565.656250, 122575.171875, 142804.484375, 0.000, 0.000, 0.000,0.0,0.0,0.0,0.0,0.0, 14:37:42.599
79116.031250, 82589.226563, 152056.765625, 124145.296875, 144542.609375, 96742.484375, 122603.828125, 142838.421875, 0.000, 0.000, 0.000,0.0,0.0,0.0,0.0,0.0, 14:37:42.599
78987.867188, 82465.218750, 151931.312500, 124198.179688, 144420.250000, 96837.250000, 122541.218750, 142771.312500, 0.000, 0.000, 0.000,0.0,0.0,0.0,0.0,0.0, 14:37:42.600
79019.492188, 82492.437500, 151946.703125, 124116.390625, 144427.718750, 96682.625000, 122499.289063, 142725.546875, 0.000, 0.000, 0.000,0.0,0.0,0.0,0.0,0.0, 14:37:42.600
79150.476563, 82620.984375, 152074.609375, 124046.632813, 144548.437500, 96553.875000, 122549.875000, 142783.921875, 0.000, 0.000, 0.000,0.0,0.0,0.0,0.0,0.0, 14:37:42.600
79128.570313, 82598.117188, 152067.390625, 124121.601563, 144552.187500, 96703.007813, 122600.632813, 142831.984375, 0.000, 0.000, 0.000,0.0,0.0,0.0,0.0,0.0, 14:37:42.600
78997.343750, 82465.218750, 151940.468750, 124195.343750, 144432.671875, 96831.664063, 122550.968750, 142770.515625, 0.194, 0.194, 0.954,0.0,0.0,0.0,0.0,0.0, 14:37:42.600
78991.953125, 82459.937500, 151925.140625, 124133.109375, 144411.859375, 96704.867188, 122495.851563, 142709.562500, 0.000, 0.000, 0.000,0.0,0.0,0.0,0.0,0.0, 14:37:42.601
79122.359375, 82592.460938, 152054.015625, 124046.726563, 144536.453125, 96543.820313, 122540.304688, 142760.187500, 0.000, 0.000, 0.000,0.0,0.0,0.0,0.0,0.0, 14:37:42.601
79130.515625, 82597.671875, 152075.406250, 124092.054688, 144564.500000, 96651.781250, 122595.757813, 142816.937500, 0.000, 0.000, 0.000,0.0,0.0,0.0,0.0,0.0, 14:37:42.601
79008.984375, 82476.343750, 151960.703125, 124181.460938, 144455.812500, 96816.781250, 122568.554688, 142783.031250, 0.000, 0.000, 0.000,0.0,0.0,0.0,0.0,0.0, 14:37:43.002
78979.570313, 82444.828125, 151917.937500, 124145.984375, 144411.796875, 96740.960938, 122513.171875, 142721.625000, 0.000, 0.000, 0.000,0.0,0.0,0.0,0.0,0.0, 14:37:43.003
79101.101563, 82563.140625, 152027.984375, 124047.570313, 144517.031250, 96566.375000, 122535.679688, 142750.062500, 0.000, 0.000, 0.000,0.0,0.0,0.0,0.0,0.0, 14:37:43.003
79132.187500, 82597.601563, 152076.546875, 124067.312500, 144573.609375, 96625.109375, 122598.531250, 142820.125000, 0.000, 0.000, 0.000,0.0,0.0,0.0,0.0,0.0, 14:37:43.004
79016.500000, 82487.054688, 151971.312500, 124166.640625, 144476.218750, 96807.500000, 122580.468750, 142801.578125, 0.000, 0.000, 0.000,0.0,0.0,0.0,0.0,0.0, 14:37:43.004
78966.296875, 82430.953125, 151903.281250, 124158.257813, 144404.625000, 96776.031250, 122517.867188, 142732.359375, 0.000, 0.000, 0.000,0.0,0.0,0.0,0.0,0.0, 14:37:43.004
79068.890625, 82533.343750, 151997.109375, 124055.750000, 144488.171875, 96590.578125, 122522.671875, 142741.515625, 0.180, 0.188, 0.962,0.0,0.0,0.0,0.0,0.0, 14:37:43.005
79136.257813, 82603.375000, 152078.406250, 124049.632813, 144568.312500, 96597.687500, 122583.710938, 142811.234375, 0.000, 0.000, 0.000,0.0,0.0,0.0,0.0,0.0, 14:37:43.005
79034.382813, 82507.304688, 151986.312500, 124146.210938, 144486.187500, 96783.898438, 122581.164063, 142807.406250, 0.000, 0.000, 0.000,0.0,0.0,0.0,0.0,0.0, 14:37:43.005
78959.125000, 82424.648438, 151900.078125, 124167.179688, 144405.187500, 96804.195313, 122529.085938, 142744.468750, 0.000, 0.000, 0.000,0.0,0.0,0.0,0.0,0.0, 14:37:43.006
79043.500000, 82506.921875, 151971.875000, 124073.570313, 144466.296875, 96622.453125, 122515.984375, 142737.984375, 0.000, 0.000, 0.000,0.0,0.0,0.0,0.0,0.0, 14:37:43.006
79142.406250, 82611.015625, 152082.156250, 124046.609375, 144575.328125, 96579.648438, 122582.015625, 142816.984375, 0.000, 0.000, 0.000,0.0,0.0,0.0,0.0,0.0, 14:37:43.007
79062.429688, 82531.734375, 152017.218750, 124142.632813, 144518.656250, 96764.187500, 122596.500000, 142830.343750, 0.000, 0.000, 0.000,0.0,0.0,0.0,0.0,0.0, 14:37:43.007
78974.390625, 82439.984375, 151926.718750, 124191.406250, 144427.328125, 96832.781250, 122545.203125, 142773.265625, 0.000, 0.000, 0.000,0.0,0.0,0.0,0.0,0.0, 14:37:43.008
79042.000000, 82510.812500, 151986.531250, 124117.289063, 144475.546875, 96679.140625, 122530.898438, 142757.718750, 0.000, 0.000, 0.000,0.0,0.0,0.0,0.0,0.0, 14:37:43.009
79149.890625, 82625.609375, 152096.000000, 124062.593750, 144571.687500, 96577.773438, 122571.578125, 142808.062500, 0.176, 0.186, 0.954,0.0,0.0,0.0,0.0,0.0, 14:37:43.010
79096.273438, 82569.507813, 152053.906250, 124141.945313, 144539.406250, 96738.593750, 122600.390625, 142837.828125, 0.000, 0.000, 0.000,0.0,0.0,0.0,0.0,0.0, 14:37:43.012
78971.546875, 82438.687500, 151928.375000, 124202.695313, 144418.234375, 96842.953125, 122543.968750, 142771.406250, 0.000, 0.000, 0.000,0.0,0.0,0.0,0.0,0.0, 14:37:43.012
79007.867188, 82473.531250, 151951.156250, 124127.414063, 144434.640625, 96693.351563, 122508.656250, 142729.203125, 0.000, 0.000, 0.000,0.0,0.0,0.0,0.0,0.0, 14:37:43.013
79125.750000, 82602.390625, 152078.718750, 124053.671875, 144553.515625, 96564.539063, 122555.929688, 142787.937500, 0.000, 0.000, 0.000,0.0,0.0,0.0,0.0,0.0, 14:37:43.013
79118.890625, 82589.046875, 152075.656250, 124116.859375, 144556.640625, 96697.820313, 122597.882813, 142839.156250, 0.000, 0.000, 0.000,0.0,0.0,0.0,0.0,0.0, 14:37:43.014
79001.140625, 82461.664063, 151953.562500, 124197.820313, 144445.234375, 96840.226563, 122560.601563, 142793.437500, 0.000, 0.000, 0.000,0.0,0.0,0.0,0.0,0.0, 14:37:43.014
78984.179688, 82444.671875, 151926.359375, 124142.992188, 144414.031250, 96728.351563, 122504.523438, 142730.093750, 0.000, 0.000, 0.000,0.0,0.0,0.0,0.0,0.0, 14:37:43.014
79120.343750, 82583.367188, 152057.843750, 124056.734375, 144535.375000, 96573.031250, 122543.570313, 142780.531250, 0.000, 0.000, 0.000,0.0,0.0,0.0,0.0,0.0, 14:37:43.015
79138.429688, 82602.390625, 152090.968750, 124099.320313, 144577.687500, 96672.585938, 122605.773438, 142847.000000, 0.000, 0.000, 0.000,0.0,0.0,0.0,0.0,0.0, 14:37:43.015
79022.554688, 82483.679688, 151982.062500, 124194.781250, 144477.531250, 96843.000000, 122587.132813, 142819.125000, 0.186, 0.190, 0.958,0.0,0.0,0.0,0.0,0.0, 14:37:43.016
78977.765625, 82437.523438, 151930.437500, 124166.906250, 144418.125000, 96774.804688, 122521.593750, 142747.062500, 0.000, 0.000, 0.000,0.0,0.0,0.0,0.0,0.0, 14:37:43.016
79110.015625, 82570.132813, 152054.468750, 124072.429688, 144529.281250, 96594.515625, 122546.453125, 142778.406250, 0.000, 0.000, 0.000,0.0,0.0,0.0,0.0,0.0, 14:37:43.016
79165.226563, 82626.773438, 152123.703125, 124096.257813, 144602.125000, 96652.312500, 122619.835938, 142856.609375, 0.000, 0.000, 0.000,0.0,0.0,0.0,0.0,0.0, 14:37:43.017
79049.757813, 82513.921875, 152011.171875, 124192.617188, 144495.656250, 96833.164063, 122597.703125, 142833.500000, 0.000, 0.000, 0.000,0.0,0.0,0.0,0.0,0.0, 14:37:43.018
78980.867188, 82442.710938, 151935.578125, 124188.726563, 144418.859375, 96811.664063, 122534.804688, 142761.906250, 0.000, 0.000, 0.000,0.0,0.0,0.0,0.0,0.0, 14:37:43.018
79078.500000, 82537.414063, 152021.656250, 124087.093750, 144492.984375, 96619.437500, 122530.445313, 142758.625000, 0.000, 0.000, 0.000,0.0,0.0,0.0,0.0,0.0, 14:37:43.019
79167.906250, 82627.781250, 152118.750000, 124078.015625, 144588.312500, 96611.476563, 122596.945313, 142836.781250, 0.000, 0.000, 0.000,0.0,0.0,0.0,0.0,0.0, 14:37:43.020
79081.695313, 82542.843750, 152042.109375, 124181.460938, 144524.515625, 96806.406250, 122609.351563, 142845.609375, 0.000, 0.000, 0.000,0.0,0.0,0.0,0.0,0.0, 14:37:43.020
78977.359375, 82435.421875, 151931.734375, 124199.835938, 144415.375000, 96827.242188, 122539.593750, 142762.781250, 0.196, 0.192, 0.958,0.0,0.0,0.0,0.0,0.0, 14:37:43.021
79040.210938, 82497.914063, 151980.140625, 124095.609375, 144454.312500, 96637.429688, 122510.265625, 142734.453125, 0.000, 0.000, 0.000,0.0,0.0,0.0,0.0,0.0, 14:37:43.021
79142.921875, 82604.218750, 152081.203125, 124050.812500, 144553.390625, 96568.046875, 122564.156250, 142796.843750, 0.000, 0.000, 0.000,0.0,0.0,0.0,0.0,0.0, 14:37:43.021
79093.257813, 82555.179688, 152040.265625, 124145.539063, 144525.609375, 96755.578125, 122597.906250, 142834.765625, 0.000, 0.000, 0.000,0.0,0.0,0.0,0.0,0.0, 14:37:43.022
78982.476563, 82445.453125, 151929.734375, 124196.054688, 144418.906250, 96842.906250, 122546.765625, 142775.203125, 0.000, 0.000, 0.000,0.0,0.0,0.0,0.0,0.0, 14:37:43.022
79020.210938, 82486.804688, 151960.093750, 124111.093750, 144438.531250, 96676.968750, 122508.945313, 142736.156250, 0.000, 0.000, 0.000,0.0,0.0,0.0,0.0,0.0, 14:37:43.023
79147.281250, 82614.640625, 152088.640625, 124056.070313, 144558.046875, 96573.632813, 122563.687500, 142800.015625, 0.000, 0.000, 0.000,0.0,0.0,0.0,0.0,0.0, 14:37:43.023
79118.843750, 82581.828125, 152065.812500, 124132.109375, 144544.687500, 96732.851563, 122601.484375, 142840.062500, 0.000, 0.000, 0.000,0.0,0.0,0.0,0.0,0.0, 14:37:43.023
79013.484375, 82474.914063, 151961.078125, 124207.164063, 144443.031250, 96858.195313, 122562.414063, 142793.906250, 0.000, 0.000, 0.000,0.0,0.0,0.0,0.0,0.0, 14:37:43.024
79021.171875, 82479.367188, 151960.625000, 124141.335938, 144434.375000, 96723.546875, 122516.078125, 142741.125000, 0.000, 0.000, 0.000,0.0,0.0,0.0,0.0,0.0, 14:37:43.024
79153.757813, 82612.289063, 152091.125000, 124059.015625, 144557.015625, 96574.976563, 122561.804688, 142795.281250, 0.198, 0.190, 0.954,0.0,0.0,0.0,0.0,0.0, 14:37:43.025
79141.890625, 82601.742188, 152094.812500, 124121.335938, 144568.390625, 96705.531250, 122610.648438, 142844.718750, 0.000, 0.000, 0.000,0.0,0.0,0.0,0.0,0.0, 14:37:43.025
79010.976563, 82474.226563, 151966.234375, 124202.132813, 144444.437500, 96844.429688, 122559.125000, 142787.203125, 0.000, 0.000, 0.000,0.0,0.0,0.0,0.0,0.0, 14:37:43.026
79010.109375, 82472.796875, 151952.828125, 124154.617188, 144427.671875, 96746.171875, 122514.312500, 142738.843750, 0.000, 0.000, 0.000,0.0,0.0,0.0,0.0,0.0, 14:37:43.026
79137.000000, 82597.539063, 152073.078125, 124062.148438, 144536.828125, 96583.562500, 122544.531250, 142777.781250, 0.000, 0.000, 0.000,0.0,0.0,0.0,0.0,0.0, 14:37:43.026
79164.648438, 82625.187500, 152110.640625, 124098.867188, 144577.312500, 96666.039063, 122603.000000, 142843.203125, 0.000, 0.000, 0.000,0.0,0.0,0.0,0.0,0.0, 14:37:43.027
79036.367188, 82497.242188, 151990.453125, 124186.109375, 144467.703125, 96831.242188, 122572.289063, 142804.390625, 0.000, 0.000, 0.000,0.0,0.0,0.0,0.0,0.0, 14:37:43.027
78980.085938, 82438.125000, 151923.421875, 124154.125000, 144402.296875, 96768.500000, 122503.445313, 142725.265625, 0.000, 0.000, 0.000,0.0,0.0,0.0,0.0,0.0, 14:37:43.027
79092.156250, 82549.148438, 152027.593750, 124051.101563, 144496.015625, 96586.421875, 122516.812500, 142745.968750, 0.000, 0.000, 0.000,0.0,0.0,0.0,0.0,0.0, 14:37:43.028
79168.781250, 82628.671875, 152116.265625, 124073.453125, 144589.203125, 96631.281250, 122600.117188, 142834.234375, 0.000, 0.000, 0.000,0.0,0.0,0.0,0.0,0.0, 14:37:43.029
79063.390625, 82526.976563, 152021.390625, 124175.359375, 144505.546875, 96821.226563, 122598.601563, 142827.781250, 0.198, 0.192, 0.954,0.0,0.0,0.0,0.0,0.0, 14:37:43.029
78982.609375, 82444.093750, 151934.812500, 124177.703125, 144419.687500, 96812.578125, 122530.898438, 142754.015625, 0.000, 0.000, 0.000,0.0,0.0,0.0,0.0,0.0, 14:37:43.030
79071.929688, 82532.625000, 152014.093750, 124078.125000, 144488.937500, 96628.062500, 122525.015625, 142752.781250, 0.000, 0.000, 0.000,0.0,0.0,0.0,0.0,0.0, 14:37:43.030
79165.000000, 82626.390625, 152113.093750, 124062.859375, 144583.578125, 96607.898438, 122590.531250, 142830.968750, 0.000, 0.000, 0.000,0.0,0.0,0.0,0.0,0.0, 14:37:43.030
79083.328125, 82547.000000, 152043.156250, 124164.515625, 144526.156250, 96803.570313, 122608.453125, 142848.515625, 0.000, 0.000, 0.000,0.0,0.0,0.0,0.0,0.0, 14:37:43.031
78971.507813, 82433.500000, 151925.265625, 124190.914063, 144407.828125, 96839.171875, 122535.429688, 142760.781250, 0.000, 0.000, 0.000,0.0,0.0,0.0,0.0,0.0, 14:37:43.031
79038.960938, 82500.445313, 151982.515625, 124097.796875, 144455.828125, 96656.429688, 122511.492188, 142736.843750, 0.000, 0.000, 0.000,0.0,0.0,0.0,0.0,0.0, 14:37:43.032
79156.085938, 82619.132813, 152105.109375, 124058.125000, 144574.359375, 96586.000000, 122573.031250, 142809.296875, 0.000, 0.000, 0.000,0.0,0.0,0.0,0.0,0.0, 14:37:43.032
79094.078125, 82553.039063, 152048.875000, 124144.179688, 144525.718750, 96759.109375, 122591.578125, 142826.328125, 0.000, 0.000, 0.000,0.0,0.0,0.0,0.0,0.0, 14:37:43.033
78982.164063, 82444.851563, 151937.906250, 124194.265625, 144414.500000, 96841.812500, 122536.015625, 142762.484375, 0.210, 0.200, 0.956,0.0,0.0,0.0,0.0,0.0, 14:37:43.033
79027.093750, 82491.679688, 151971.609375, 124116.375000, 144441.437500, 96690.070313, 122509.234375, 142732.921875, 0.000, 0.000, 0.000,0.0,0.0,0.0,0.0,0.0, 14:37:43.034
79150.515625, 82615.796875, 152090.515625, 124052.132813, 144553.625000, 96570.750000, 122556.914063, 142788.796875, 0.000, 0.000, 0.000,0.0,0.0,0.0,0.0,0.0, 14:37:43.035
79134.382813, 82601.023438, 152083.453125, 124130.835938, 144560.968750, 96725.765625, 122610.781250, 142842.890625, 0.000, 0.000, 0.000,0.0,0.0,0.0,0.0,0.0, 14:37:43.035
79012.812500, 82480.367188, 151963.968750, 124206.312500, 144447.578125, 96854.328125, 122565.117188, 142793.484375, 0.000, 0.000, 0.000,0.0,0.0,0.0,0.0,0.0, 14:37:43.035
79010.531250, 82478.515625, 151950.078125, 124141.898438, 144429.750000, 96724.734375, 122511.898438, 142738.500000, 0.000, 0.000, 0.000,0.0,0.0,0.0,0.0,0.0, 14:37:43.036
79137.039063, 82613.429688, 152076.390625, 124058.414063, 144547.437500, 96577.367188, 122553.875000, 142787.562500, 0.000, 0.000, 0.000,0.0,0.0,0.0,0.0,0.0, 14:37:43.036
79126.851563, 82602.632813, 152082.562500, 124109.867188, 144556.796875, 96695.296875, 122597.976563, 142835.437500, 0.000, 0.000, 0.000,0.0,0.0,0.0,0.0,0.0, 14:37:43.037
79007.023438, 82482.898438, 151969.031250, 124199.210938, 144443.203125, 96848.046875, 122559.078125, 142792.171875, 0.000, 0.000, 0.000,0.0,0.0,0.0,0.0,0.0, 14:37:43.040
78999.578125, 82476.750000, 151954.578125, 124166.015625, 144425.046875, 96769.703125, 122517.640625, 142746.531250, 0.000, 0.000, 0.000,0.0,0.0,0.0,0.0,0.0, 14:37:43.042
79111.203125, 82587.054688, 152058.234375, 124066.593750, 144519.421875, 96595.765625, 122535.882813, 142769.125000, 0.214, 0.206, 0.950,0.0,0.0,0.0,0.0,0.0, 14:37:43.042
79137.804688, 82616.093750, 152098.187500, 124092.234375, 144564.640625, 96662.773438, 122591.710938, 142829.000000, 0.000, 0.000, 0.000,0.0,0.0,0.0,0.0,0.0, 14:37:43.043
79022.109375, 82502.500000, 151988.296875, 124190.359375, 144464.062500, 96837.406250, 122572.562500, 142802.359375, 0.000, 0.000, 0.000,0.0,0.0,0.0,0.0,0.0, 14:37:43.044
78977.070313, 82452.585938, 151929.828125, 124171.960938, 144401.000000, 96789.578125, 122508.875000, 142734.562500, 0.000, 0.000, 0.000,0.0,0.0,0.0,0.0,0.0, 14:37:43.044
79089.562500, 82559.648438, 152030.687500, 124071.843750, 144486.390625, 96604.125000, 122516.859375, 142746.765625, 0.000, 0.000, 0.000,0.0,0.0,0.0,0.0,0.0, 14:37:43.044
79163.281250, 82630.554688, 152113.359375, 124078.976563, 144569.109375, 96624.601563, 122582.171875, 142821.578125, 0.000, 0.000, 0.000,0.0,0.0,0.0,0.0,0.0, 14:37:43.045
79058.992188, 82529.343750, 152019.218750, 124177.500000, 144485.828125, 96813.875000, 122576.093750, 142814.140625, 0.000, 0.000, 0.000,0.0,0.0,0.0,0.0,0.0, 14:37:43.045
78977.273438, 82449.320313, 151931.156250, 124189.234375, 144395.453125, 96818.968750, 122512.187500, 142741.500000, 0.000, 0.000, 0.000,0.0,0.0,0.0,0.0,0.0, 14:37:43.045
79063.835938, 82534.726563, 152006.000000, 124093.617188, 144466.218750, 96636.335938, 122507.898438, 142735.796875, 0.000, 0.000, 0.000,0.0,0.0,0.0,0.0,0.0, 14:37:43.045
79150.875000, 82624.515625, 152105.468750, 124068.648438, 144565.687500, 96599.093750, 122574.101563, 142805.296875, 0.212, 0.214, 0.954,0.0,0.0,0.0,0.0,0.0, 14:37:43.046
79071.281250, 82547.289063, 152038.843750, 124164.695313, 144507.312500, 96780.007813, 122587.781250, 142819.703125, 0.000, 0.000, 0.000,0.0,0.0,0.0,0.0,0.0, 14:37:43.046
78966.187500, 82438.929688, 151925.859375, 124197.929688, 144398.203125, 96826.703125, 122520.500000, 142745.296875, 0.000, 0.000, 0.000,0.0,0.0,0.0,0.0,0.0, 14:37:43.046
79034.648438, 82502.742188, 151978.250000, 124109.781250, 144445.687500, 96653.742188, 122503.203125, 142728.437500, 0.000, 0.000, 0.000,0.0,0.0,0.0,0.0,0.0, 14:37:43.047
79160.265625, 82629.078125, 152103.640625, 124065.007813, 144567.921875, 96572.875000, 122571.195313, 142805.875000, 0.000, 0.000, 0.000,0.0,0.0,0.0,0.0,0.0, 14:37:43.047
79098.328125, 82566.875000, 152054.546875, 124147.929688, 144525.875000, 96745.429688, 122592.671875, 142828.609375, 0.000, 0.000, 0.000,0.0,0.0,0.0,0.0,0.0, 14:37:43.048
78977.359375, 82445.320313, 151932.921875, 124202.156250, 144406.031250, 96840.453125, 122532.460938, 142760.406250, 0.000, 0.000, 0.000,0.0,0.0,0.0,0.0,0.0, 14:37:43.048
79008.140625, 82472.992188, 151949.656250, 124125.578125, 144415.421875, 96691.359375, 122492.742188, 142716.937500, 0.000, 0.000, 0.000,0.0,0.0,0.0,0.0,0.0, 14:37:43.049
79128.125000, 82594.187500, 152070.890625, 124049.960938, 144530.109375, 96562.703125, 122537.335938, 142770.281250, 0.000, 0.000, 0.000,0.0,0.0,0.0,0.0,0.0, 14:37:43.049
79113.484375, 82587.835938, 152071.406250, 124121.554688, 144537.531250, 96710.164063, 122589.476563, 142825.000000, 0.000, 0.000, 0.000,0.0,0.0,0.0,0.0,0.0, 14:37:43.049
78997.343750, 82473.421875, 151955.734375, 124204.859375, 144425.796875, 96851.757813, 122545.867188, 142779.046875, 0.216, 0.214, 0.958,0.0,0.0,0.0,0.0,0.0, 14:37:43.050
78985.382813, 82459.875000, 151934.140625, 124148.937500, 144400.531250, 96733.453125, 122491.468750, 142720.781250, 0.000, 0.000, 0.000,0.0,0.0,0.0,0.0,0.0, 14:37:43.051
79115.718750, 82585.867188, 152057.843750, 124058.703125, 144515.312500, 96569.101563, 122525.601563, 142763.406250, 0.000, 0.000, 0.000,0.0,0.0,0.0,0.0,0.0, 14:37:43.052
79136.351563, 82603.664063, 152089.125000, 124107.789063, 144554.812500, 96677.750000, 122587.734375, 142831.078125, 0.000, 0.000, 0.000,0.0,0.0,0.0,0.0,0.0, 14:37:43.053
79013.570313, 82480.835938, 151970.000000, 124198.046875, 144442.796875, 96840.273438, 122554.367188, 142792.859375, 0.000, 0.000, 0.000,0.0,0.0,0.0,0.0,0.0, 14:37:43.054
78993.054688, 82460.429688, 151941.031250, 124168.046875, 144406.968750, 96767.742188, 122508.234375, 142737.937500, 0.000, 0.000, 0.000,0.0,0.0,0.0,0.0,0.0, 14:37:43.055
79102.687500, 82574.335938, 152049.093750, 124070.640625, 144508.187500, 96593.304688, 122529.781250, 142762.015625, 0.000, 0.000, 0.000,0.0,0.0,0.0,0.0,0.0, 14:37:43.055
79141.804688, 82609.406250, 152092.218750, 124085.281250, 144558.718750, 96641.984375, 122581.078125, 142816.156250, 0.000, 0.000, 0.000,0.0,0.0,0.0,0.0,0.0, 14:37:43.056
79030.085938, 82489.554688, 151984.953125, 124177.148438, 144461.265625, 96818.679688, 122564.578125, 142792.593750, 0.000, 0.000, 0.000,0.0,0.0,0.0,0.0,0.0, 14:37:43.061
78963.929688, 82426.164063, 151911.078125, 124166.554688, 144381.109375, 96781.531250, 122495.671875, 142716.750000, 0.000, 0.000, 0.000,0.0,0.0,0.0,0.0,0.0, 14:37:43.062
79075.906250, 82542.796875, 152013.921875, 124070.750000, 144472.328125, 96594.382813, 122508.250000, 142732.406250, 0.214, 0.210, 0.958,0.0,0.0,0.0,0.0,0.0, 14:37:43.063
79158.500000, 82627.375000, 152109.031250, 124074.593750, 144568.109375, 96607.054688, 122581.500000, 142810.203125, 0.000, 0.000, 0.000,0.0,0.0,0.0,0.0,0.0, 14:37:43.063
79048.171875, 82518.617188, 152008.984375, 124170.437500, 144474.578125, 96792.125000, 122567.710938, 142794.218750, 0.000, 0.000, 0.000,0.0,0.0,0.0,0.0,0.0, 14:37:43.063
78964.218750, 82429.632813, 151915.281250, 124185.281250, 144381.875000, 96801.851563, 122500.343750, 142719.484375, 0.000, 0.000, 0.000,0.0,0.0,0.0,0.0,0.0, 14:37:43.064
79056.085938, 82519.820313, 151994.515625, 124094.468750, 144453.546875, 96624.890625, 122499.867188, 142719.890625, 0.000, 0.000, 0.000,0.0,0.0,0.0,0.0,0.0, 14:37:43.064
79156.484375, 82625.390625, 152100.437500, 124065.562500, 144557.984375, 96581.953125, 122563.640625, 142792.750000, 0.000, 0.000, 0.000,0.0,0.0,0.0,0.0,0.0, 14:37:43.064
79072.687500, 82542.976563, 152027.312500, 124151.507813, 144495.062500, 96760.609375, 122569.500000, 142800.437500, 0.000, 0.000, 0.000,0.0,0.0,0.0,0.0,0.0, 14:37:43.065
78957.515625, 82425.789063, 151909.515625, 124185.328125, 144379.968750, 96815.843750, 122499.289063, 142724.781250, 0.000, 0.000, 0.000,0.0,0.0,0.0,0.0,0.0, 14:37:43.065
79023.718750, 82489.421875, 151965.171875, 124103.070313, 144423.468750, 96652.718750, 122480.625000, 142706.968750, 0.000, 0.000, 0.000,0.0,0.0,0.0,0.0,0.0, 14:37:43.066
79148.218750, 82610.835938, 152093.921875, 124053.765625, 144543.937500, 96565.320313, 122546.250000, 142779.453125, 0.208, 0.202, 0.950,0.0,0.0,0.0,0.0,0.0, 14:37:43.067
79094.843750, 82559.476563, 152049.750000, 124127.031250, 144507.843750, 96722.117188, 122569.632813, 142804.640625, 0.000, 0.000, 0.000,0.0,0.0,0.0,0.0,0.0, 14:37:43.067
78968.710938, 82435.289063, 151924.875000, 124185.664063, 144391.187500, 96824.335938, 122512.414063, 142740.500000, 0.000, 0.000, 0.000,0.0,0.0,0.0,0.0,0.0, 14:37:43.074
79011.109375, 82478.382813, 151953.953125, 124123.679688, 144413.703125, 96691.093750, 122488.742188, 142712.843750, 0.000, 0.000, 0.000,0.0,0.0,0.0,0.0,0.0, 14:37:43.079
79141.039063, 82608.625000, 152083.031250, 124054.437500, 144535.828125, 96563.820313, 122543.367188, 142776.281250, 0.000, 0.000, 0.000,0.0,0.0,0.0,0.0,0.0, 14:37:43.079
79118.375000, 82587.546875, 152076.031250, 124118.382813, 144538.046875, 96701.000000, 122590.531250, 142826.234375, 0.000, 0.000, 0.000,0.0,0.0,0.0,0.0,0.0, 14:37:43.080
78988.203125, 82458.085938, 151948.515625, 124196.992188, 144422.265625, 96842.546875, 122545.242188, 142775.187500, 0.000, 0.000, 0.000,0.0,0.0,0.0,0.0,0.0, 14:37:43.080
78984.109375, 82448.031250, 151928.062500, 124142.835938, 144396.828125, 96732.156250, 122493.296875, 142715.343750, 0.000, 0.000, 0.000,0.0,0.0,0.0,0.0,0.0, 14:37:43.081
79101.812500, 82561.437500, 152040.296875, 124046.140625, 144497.578125, 96562.796875, 122517.484375, 142744.203125, 0.000, 0.000, 0.000,0.0,0.0,0.0,0.0,0.0, 14:37:43.081
79128.367188, 82583.125000, 152076.500000, 124085.015625, 144534.218750, 96650.882813, 122570.476563, 142803.703125, 0.000, 0.000, 0.000,0.0,0.0,0.0,0.0,0.0, 14:37:43.482
79026.687500, 82481.468750, 151981.109375, 124188.632813, 144446.937500, 96825.453125, 122559.195313, 142785.984375, 0.196, 0.194, 0.950,0.0,0.0,0.0,0.0,0.0, 14:37:43.482
78994.953125, 82451.648438, 151939.593750, 124166.039063, 144401.671875, 96765.234375, 122509.054688, 142729.187500, 0.000, 0.000, 0.000,0.0,0.0,0.0,0.0,0.0, 14:37:43.482
79105.773438, 82564.906250, 152040.937500, 124067.554688, 144494.640625, 96594.046875, 122526.562500, 142751.734375, 0.000, 0.000, 0.000,0.0,0.0,0.0,0.0,0.0, 14:37:43.483
79158.117188, 82616.601563, 152100.734375, 124081.054688, 144559.718750, 96633.875000, 122585.921875, 142814.609375, 0.000, 0.000, 0.000,0.0,0.0,0.0,0.0,0.0, 14:37:43.483
79030.156250, 82492.976563, 151985.234375, 124173.304688, 144452.375000, 96805.757813, 122560.062500, 142783.546875, 0.000, 0.000, 0.000,0.0,0.0,0.0,0.0,0.0, 14:37:43.483
78961.000000, 82422.078125, 151903.078125, 124166.750000, 144369.109375, 96780.460938, 122488.851563, 142710.562500, 0.000, 0.000, 0.000,0.0,0.0,0.0,0.0,0.0, 14:37:43.484
79075.640625, 82532.960938, 152003.562500, 124077.812500, 144464.062500, 96606.382813, 122502.914063, 142727.421875, 0.000, 0.000, 0.000,0.0,0.0,0.0,0.0,0.0, 14:37:43.484
79164.601563, 82622.257813, 152102.343750, 124074.460938, 144563.453125, 96603.546875, 122577.968750, 142805.640625, 0.000, 0.000, 0.000,0.0,0.0,0.0,0.0,0.0, 14:37:43.484
79060.617188, 82524.406250, 152012.484375, 124169.367188, 144481.656250, 96785.976563, 122573.406250, 142799.406250, 0.000, 0.000, 0.000,0.0,0.0,0.0,0.0,0.0, 14:37:43.485
78963.343750, 82433.742188, 151917.812500, 124194.156250, 144383.546875, 96813.960938, 122509.390625, 142732.156250, 0.194, 0.190, 0.954,0.0,0.0,0.0,0.0,0.0, 14:37:43.485
79034.937500, 82506.812500, 151983.078125, 124098.648438, 144440.078125, 96638.703125, 122499.382813, 142724.312500, 0.000, 0.000, 0.000,0.0,0.0,0.0,0.0,0.0, 14:37:43.486
79146.585938, 82615.953125, 152092.109375, 124058.476563, 144548.171875, 96580.007813, 122561.203125, 142796.265625, 0.000, 0.000, 0.000,0.0,0.0,0.0,0.0,0.0, 14:37:43.486
79081.992188, 82547.914063, 152036.921875, 124147.531250, 144503.625000, 96759.695313, 122583.015625, 142820.046875, 0.000, 0.000, 0.000,0.0,0.0,0.0,0.0,0.0, 14:37:43.486
78969.335938, 82436.828125, 151924.484375, 124193.578125, 144394.750000, 96831.195313, 122524.078125, 142750.187500, 0.000, 0.000, 0.000,0.0,0.0,0.0,0.0,0.0, 14:37:43.487
79011.492188, 82477.507813, 151956.671875, 124111.070313, 144420.703125, 96672.453125, 122496.093750, 142716.890625, 0.000, 0.000, 0.000,0.0,0.0,0.0,0.0,0.0, 14:37:43.487
79137.843750, 82599.859375, 152079.906250, 124050.437500, 144535.875000, 96564.945313, 122549.023438, 142777.312500, 0.000, 0.000, 0.000,0.0,0.0,0.0,0.0,0.0, 14:37:43.487
79099.062500, 82560.101563, 152055.156250, 124128.109375, 144523.406250, 96719.593750, 122588.007813, 142814.515625, 0.000, 0.000, 0.000,0.0,0.0,0.0,0.0,0.0, 14:37:43.493
78980.578125, 82440.226563, 151935.796875, 124195.765625, 144409.671875, 96831.757813, 122535.187500, 142755.765625, 0.000, 0.000, 0.000,0.0,0.0,0.0,0.0,0.0, 14:37:43.493
78998.703125, 82458.132813, 151943.265625, 124133.875000, 144407.421875, 96701.554688, 122489.921875, 142705.796875, 0.000, 0.000, 0.000,0.0,0.0,0.0,0.0,0.0, 14:37:43.494
79129.664063, 82594.210938, 152074.937500, 124062.570313, 144526.515625, 96561.296875, 122536.726563, 142757.921875, 0.194, 0.194, 0.954,0.0,0.0,0.0,0.0,0.0, 14:37:43.494
79138.226563, 82604.039063, 152093.156250, 124128.976563, 144549.953125, 96688.679688, 122593.148438, 142822.640625, 0.000, 0.000, 0.000,0.0,0.0,0.0,0.0,0.0, 14:37:43.494
79017.414063, 82484.054688, 151977.343750, 124215.437500, 144440.281250, 96843.757813, 122558.742188, 142783.250000, 0.000, 0.000, 0.000,0.0,0.0,0.0,0.0,0.0, 14:37:43.495
79005.570313, 82468.859375, 151956.921875, 124172.226563, 144417.046875, 96753.320313, 122512.835938, 142732.046875, 0.000, 0.000, 0.000,0.0,0.0,0.0,0.0,0.0, 14:37:43.495
79109.773438, 82575.078125, 152060.296875, 124074.507813, 144514.968750, 96583.406250, 122532.906250, 142753.546875, 0.000, 0.000, 0.000,0.0,0.0,0.0,0.0,0.0, 14:37:43.495
79141.265625, 82602.703125, 152099.062500, 124104.460938, 144557.046875, 96655.781250, 122590.640625, 142817.468750, 0.000, 0.000, 0.000,0.0,0.0,0.0,0.0,0.0, 14:37:43.496
79033.710938, 82495.257813, 151994.968750, 124202.492188, 144461.625000, 96829.789063, 122572.406250, 142794.156250, 0.000, 0.000, 0.000,0.0,0.0,0.0,0.0,0.0, 14:37:43.497
78975.976563, 82435.781250, 151927.109375, 124180.070313, 144395.265625, 96774.265625, 122504.406250, 142720.625000, 0.000, 0.000, 0.000,0.0,0.0,0.0,0.0,0.0, 14:37:43.497
79080.718750, 82544.007813, 152023.390625, 124075.687500, 144481.921875, 96589.531250, 122510.421875, 142735.890625, 0.000, 0.000, 0.000,0.0,0.0,0.0,0.0,0.0, 14:37:43.497
79149.335938, 82614.882813, 152101.812500, 124085.390625, 144563.609375, 96620.281250, 122579.445313, 142809.843750, 0.182, 0.202, 0.958,0.0,0.0,0.0,0.0,0.0, 14:37:43.498
79040.953125, 82507.640625, 152001.406250, 124183.406250, 144476.078125, 96807.320313, 122576.539063, 142797.265625, 0.000, 0.000, 0.000,0.0,0.0,0.0,0.0,0.0, 14:37:43.498
78964.039063, 82430.523438, 151915.062500, 124182.804688, 144395.187500, 96794.695313, 122512.570313, 142724.281250, 0.000, 0.000, 0.000,0.0,0.0,0.0,0.0,0.0, 14:37:43.498
79068.468750, 82534.976563, 152005.093750, 124085.679688, 144470.781250, 96611.703125, 122507.960938, 142729.765625, 0.000, 0.000, 0.000,0.0,0.0,0.0,0.0,0.0, 14:37:43.498
79144.414063, 82613.851563, 152091.078125, 124064.132813, 144553.171875, 96585.843750, 122566.789063, 142791.140625, 0.000, 0.000, 0.000,0.0,0.0,0.0,0.0,0.0, 14:37:43.498
79063.773438, 82537.632813, 152027.890625, 124160.312500, 144499.187500, 96773.460938, 122581.140625, 142803.640625, 0.000, 0.000, 0.000,0.0,0.0,0.0,0.0,0.0, 14:37:43.499
78959.414063, 82430.726563, 151921.875000, 124189.882813, 144390.875000, 96813.984375, 122511.960938, 142728.890625, 0.000, 0.000, 0.000,0.0,0.0,0.0,0.0,0.0, 14:37:43.499
79030.781250, 82498.031250, 151978.531250, 124101.734375, 144438.421875, 96640.312500, 122494.195313, 142710.421875, 0.000, 0.000, 0.000,0.0,0.0,0.0,0.0,0.0, 14:37:43.499
79141.578125, 82611.304688, 152092.484375, 124061.695313, 144548.531250, 96570.734375, 122553.335938, 142778.531250, 0.000, 0.000, 0.000,0.0,0.0,0.0,0.0,0.0, 14:37:43.499
79087.843750, 82558.828125, 152043.578125, 124150.187500, 144509.296875, 96742.054688, 122575.640625, 142802.406250, 0.000, 0.000, 0.000,0.0,0.0,0.0,0.0,0.0, 14:37:43.499
78974.453125, 82446.101563, 151931.937500, 124203.007813, 144399.703125, 96828.242188, 122522.398438, 142741.984375, 0.178, 0.202, 0.968,0.0,0.0,0.0,0.0,0.0, 14:37:43.500
79016.523438, 82491.007813, 151964.500000, 124126.007813, 144424.546875, 96673.773438, 122493.343750, 142710.906250, 0.000, 0.000, 0.000,0.0,0.0,0.0,0.0,0.0, 14:37:43.500
79147.500000, 82621.835938, 152092.484375, 124064.562500, 144543.703125, 96558.304688, 122547.593750, 142771.890625, 0.000, 0.000, 0.000,0.0,0.0,0.0,0.0,0.0, 14:37:43.500
79113.234375, 82588.484375, 152070.453125, 124134.632813, 144531.453125, 96709.468750, 122586.101563, 142812.078125, 0.000, 0.000, 0.000,0.0,0.0,0.0,0.0,0.0, 14:37:43.500
78993.632813, 82469.171875, 151951.218750, 124205.710938, 144419.781250, 96834.015625, 122540.015625, 142761.609375, 0.000, 0.000, 0.000,0.0,0.0,0.0,0.0,0.0, 14:37:43.500
78991.484375, 82466.062500, 151938.281250, 124142.343750, 144404.093750, 96711.835938, 122492.140625, 142706.765625, 0.000, 0.000, 0.000,0.0,0.0,0.0,0.0,0.0, 14:37:43.501
79118.710938, 82584.867188, 152055.531250, 124052.648438, 144516.812500, 96558.054688, 122533.867188, 142751.171875, 0.000, 0.000, 0.000,0.0,0.0,0.0,0.0,0.0, 14:37:43.501
79122.218750, 82592.062500, 152072.375000, 124103.117188, 144542.171875, 96670.976563, 122588.609375, 142808.859375, 0.000, 0.000, 0.000,0.0,0.0,0.0,0.0,0.0, 14:37:43.501
78997.296875, 82472.187500, 151950.187500, 124188.679688, 144429.953125, 96826.101563, 122549.578125, 142767.000000, 0.000, 0.000, 0.000,0.0,0.0,0.0,0.0,0.0, 14:37:43.501
78994.570313, 82468.437500, 151933.000000, 124158.507813, 144411.578125, 96748.226563, 122507.984375, 142721.609375, 0.000, 0.000, 0.000,0.0,0.0,0.0,0.0,0.0, 14:37:43.501
79111.960938, 82585.757813, 152048.234375, 124070.218750, 144516.296875, 96584.273438, 122534.921875, 142750.234375, 0.176, 0.204, 0.964,0.0,0.0,0.0,0.0,0.0, 14:37:43.501
79148.687500, 82625.726563, 152096.156250, 124100.593750, 144564.906250, 96649.117188, 122592.812500, 142814.046875, 0.000, 0.000, 0.000,0.0,0.0,0.0,0.0,0.0, 14:37:43.502
79022.664063, 82496.171875, 151976.906250, 124187.984375, 144453.781250, 96815.820313, 122562.882813, 142781.390625, 0.000, 0.000, 0.000,0.0,0.0,0.0,0.0,0.0, 14:37:43.502
78967.210938, 82438.078125, 151912.031250, 124165.812500, 144386.468750, 96771.718750, 122498.906250, 142713.796875, 0.000, 0.000, 0.000,0.0,0.0,0.0,0.0,0.0, 14:37:43.502
79075.085938, 82545.976563, 152014.515625, 124067.757813, 144477.375000, 96595.023438, 122511.625000, 142731.796875, 0.000, 0.000, 0.000,0.0,0.0,0.0,0.0,0.0, 14:37:43.502
79139.140625, 82607.796875, 152087.140625, 124066.679688, 144548.375000, 96606.937500, 122571.421875, 142796.703125, 0.000, 0.000, 0.000,0.0,0.0,0.0,0.0,0.0, 14:37:43.502
79039.921875, 82505.132813, 151993.218750, 124162.617188, 144467.281250, 96789.109375, 122565.812500, 142789.156250, 0.000, 0.000, 0.000,0.0,0.0,0.0,0.0,0.0, 14:37:43.503
78961.156250, 82423.750000, 151906.781250, 124176.765625, 144385.578125, 96794.250000, 122506.289063, 142720.421875, 0.000, 0.000, 0.000,0.0,0.0,0.0,0.0,0.0, 14:37:43.503
79055.812500, 82519.171875, 151988.218750, 124084.898438, 144457.937500, 96617.445313, 122499.335938, 142719.546875, 0.000, 0.000, 0.000,0.0,0.0,0.0,0.0,0.0, 14:37:43.503
79154.429688, 82620.289063, 152095.031250, 124063.484375, 144561.515625, 96583.765625, 122566.812500, 142792.906250, 0.180, 0.198, 0.972,0.0,0.0,0.0,0.0,0.0, 14:37:43.504
79073.671875, 82544.343750, 152026.531250, 124160.117188, 144500.093750, 96766.976563, 122579.171875, 142801.375000, 0.000, 0.000, 0.000,0.0,0.0,0.0,0.0,0.0, 14:37:43.504
78968.953125, 82440.671875, 151915.765625, 124193.195313, 144389.718750, 96818.742188, 122512.296875, 142729.265625, 0.000, 0.000, 0.000,0.0,0.0,0.0,0.0,0.0, 14:37:43.504
79029.617188, 82501.718750, 151963.359375, 124103.562500, 144427.781250, 96647.890625, 122487.710938, 142704.234375, 0.000, 0.000, 0.000,0.0,0.0,0.0,0.0,0.0, 14:37:43.504
79156.664063, 82626.218750, 152088.234375, 124056.914063, 144548.906250, 96561.703125, 122553.445313, 142774.203125, 0.000, 0.000, 0.000,0.0,0.0,0.0,0.0,0.0, 14:37:43.504
79107.960938, 82574.742188, 152051.375000, 124143.726563, 144522.593750, 96735.578125, 122589.453125, 142809.625000, 0.000, 0.000, 0.000,0.0,0.0,0.0,0.0,0.0, 14:37:43.504
78980.468750, 82444.898438, 151921.609375, 124194.046875, 144397.500000, 96820.757813, 122523.609375, 142736.015625, 0.000, 0.000, 0.000,0.0,0.0,0.0,0.0,0.0, 14:37:43.505
79013.679688, 82478.851563, 151943.468750, 124115.117188, 144412.562500, 96671.000000, 122486.640625, 142699.125000, 0.000, 0.000, 0.000,0.0,0.0,0.0,0.0,0.0, 14:37:43.505
79138.562500, 82600.914063, 152066.984375, 124041.695313, 144531.296875, 96551.304688, 122540.507813, 142756.937500, 0.000, 0.000, 0.000,0.0,0.0,0.0,0.0,0.0, 14:37:43.505
79132.570313, 82594.296875, 152069.906250, 124118.273438, 144542.046875, 96700.484375, 122593.437500, 142813.968750, 0.000, 0.000, 0.000,0.0,0.0,0.0,0.0,0.0, 14:37:43.505
79018.554688, 82481.531250, 151962.015625, 124203.703125, 144439.921875, 96845.500000, 122560.109375, 142774.640625, 0.182, 0.196, 0.974,0.0,0.0,0.0,0.0,0.0, 14:37:43.505
79006.375000, 82465.218750, 151942.953125, 124146.773438, 144415.234375, 96732.289063, 122508.140625, 142720.046875, 0.000, 0.000, 0.000,0.0,0.0,0.0,0.0,0.0, 14:37:43.506
79125.531250, 82587.031250, 152062.421875, 124062.500000, 144524.906250, 96573.234375, 122538.984375, 142758.640625, 0.000, 0.000, 0.000,0.0,0.0,0.0,0.0,0.0, 14:37:43.506
79133.578125, 82597.539063, 152085.218750, 124110.023438, 144551.625000, 96671.539063, 122589.570313, 142814.703125, 0.000, 0.000, 0.000,0.0,0.0,0.0,0.0,0.0, 14:37:43.506
79011.312500, 82470.468750, 151964.453125, 124195.046875, 144437.812500, 96826.007813, 122554.250000, 142774.156250, 0.000, 0.000, 0.000,0.0,0.0,0.0,0.0,0.0, 14:37:43.506
78983.242188, 82441.054688, 151920.828125, 124158.679688, 144390.625000, 96750.281250, 122495.554688, 142708.703125, 0.000, 0.000, 0.000,0.0,0.0,0.0,0.0,0.0, 14:37:43.506
79110.687500, 82573.710938, 152039.328125, 124064.742188, 144499.640625, 96577.773438, 122523.742188, 142738.250000, 0.000, 0.000, 0.000,0.0,0.0,0.0,0.0,0.0, 14:37:43.507
79149.710938, 82611.914063, 152087.562500, 124083.179688, 144552.015625, 96626.187500, 122577.054688, 142796.953125, 0.000, 0.000, 0.000,0.0,0.0,0.0,0.0,0.0, 14:37:43.507
79038.601563, 82502.992188, 151984.609375, 124178.062500, 144459.203125, 96803.414063, 122560.000000, 142778.296875, 0.000, 0.000, 0.000,0.0,0.0,0.0,0.0,0.0, 14:37:43.507
78967.835938, 82430.234375, 151903.046875, 124166.125000, 144377.437500, 96768.078125, 122490.882813, 142700.015625, 0.190, 0.190, 0.966,0.0,0.0,0.0,0.0,0.0, 14:37:43.508
79083.109375, 82546.421875, 152009.109375, 124074.773438, 144470.671875, 96587.382813, 122506.109375, 142717.156250, 0.000, 0.000, 0.000,0.0,0.0,0.0,0.0,0.0, 14:37:43.508
79156.937500, 82624.359375, 152098.140625, 124073.500000, 144557.156250, 96593.734375, 122573.695313, 142793.093750, 0.000, 0.000, 0.000,0.0,0.0,0.0,0.0,0.0, 14:37:43.509
79043.945313, 82512.687500, 151996.187500, 124164.117188, 144467.671875, 96775.156250, 122562.453125, 142780.390625, 0.000, 0.000, 0.000,0.0,0.0,0.0,0.0,0.0, 14:37:43.510
78953.015625, 82422.296875, 151900.140625, 124176.875000, 144374.031250, 96791.054688, 122498.796875, 142708.640625, 0.000, 0.000, 0.000,0.0,0.0,0.0,0.0,0.0, 14:37:43.510
79048.281250, 82511.078125, 151980.906250, 124088.367188, 144449.640625, 96619.164063, 122500.718750, 142709.671875, 0.000, 0.000, 0.000,0.0,0.0,0.0,0.0,0.0, 14:37:43.510
79137.601563, 82599.882813, 152073.078125, 124051.617188, 144538.937500, 96565.609375, 122550.851563, 142766.875000, 0.000, 0.000, 0.000,0.0,0.0,0.0,0.0,0.0, 14:37:43.512
79064.171875, 82528.828125, 152011.765625, 124138.585938, 144486.453125, 96745.390625, 122565.828125, 142781.468750, 0.000, 0.000, 0.000,0.0,0.0,0.0,0.0,0.0, 14:37:43.513
78972.781250, 82439.062500, 151916.078125, 124185.039063, 144393.031250, 96813.046875, 122516.117188, 142725.984375, 0.000, 0.000, 0.000,0.0,0.0,0.0,0.0,0.0, 14:37:43.514
79025.328125, 82490.765625, 151959.250000, 124102.398438, 144430.593750, 96650.304688, 122497.679688, 142703.140625, 0.000, 0.000, 0.000,0.0,0.0,0.0,0.0,0.0, 14:37:43.515
79138.781250, 82601.742188, 152070.734375, 124042.882813, 144536.390625, 96548.984375, 122546.992188, 142757.281250, 0.178, 0.192, 0.956,0.0,0.0,0.0,0.0,0.0, 14:37:43.515
79097.859375, 82560.101563, 152040.765625, 124119.031250, 144510.187500, 96708.085938, 122573.968750, 142786.921875, 0.000, 0.000, 0.000,0.0,0.0,0.0,0.0,0.0, 14:37:43.516
78978.414063, 82436.742188, 151926.640625, 124185.796875, 144396.312500, 96817.625000, 122521.125000, 142729.765625, 0.000, 0.000, 0.000,0.0,0.0,0.0,0.0,0.0, 14:37:43.516
79011.875000, 82465.015625, 151945.515625, 124126.742188, 144406.546875, 96687.429688, 122491.179688, 142696.593750, 0.000, 0.000, 0.000,0.0,0.0,0.0,0.0,0.0, 14:37:43.517
79134.828125, 82588.953125, 152068.078125, 124052.492188, 144519.890625, 96550.304688, 122534.648438, 142749.093750, 0.000, 0.000, 0.000,0.0,0.0,0.0,0.0,0.0, 14:37:43.517
79122.648438, 82578.898438, 152071.671875, 124119.273438, 144533.578125, 96682.843750, 122587.398438, 142803.875000, 0.000, 0.000, 0.000,0.0,0.0,0.0,0.0,0.0, 14:37:43.517
79003.039063, 82462.445313, 151953.296875, 124199.695313, 144423.937500, 96824.000000, 122551.437500, 142756.343750, 0.000, 0.000, 0.000,0.0,0.0,0.0,0.0,0.0, 14:37:43.517
78980.265625, 82441.476563, 151925.734375, 124143.726563, 144391.031250, 96717.734375, 122497.656250, 142695.031250, 0.000, 0.000, 0.000,0.0,0.0,0.0,0.0,0.0, 14:37:43.519
79103.734375, 82570.132813, 152042.171875, 124051.484375, 144492.875000, 96552.804688, 122518.851563, 142726.484375, 0.000, 0.000, 0.000,0.0,0.0,0.0,0.0,0.0, 14:37:43.519
79131.835938, 82595.078125, 152070.687500, 124090.109375, 144531.406250, 96642.632813, 122575.710938, 142788.015625, 0.178, 0.194, 0.950,0.0,0.0,0.0,0.0,0.0, 14:37:43.519
79017.640625, 82479.140625, 151956.656250, 124178.171875, 144428.609375, 96809.562500, 122546.476563, 142760.406250, 0.000, 0.000, 0.000,0.0,0.0,0.0,0.0,0.0, 14:37:43.519
78968.015625, 82432.109375, 151899.187500, 124152.312500, 144369.734375, 96747.507813, 122483.914063, 142690.484375, 0.000, 0.000, 0.000,0.0,0.0,0.0,0.0,0.0, 14:37:43.520
79077.515625, 82540.539063, 152000.578125, 124050.414063, 144466.515625, 96565.703125, 122497.257813, 142712.281250, 0.000, 0.000, 0.000,0.0,0.0,0.0,0.0,0.0, 14:37:43.520
79141.960938, 82604.984375, 152076.140625, 124067.960938, 144544.015625, 96613.757813, 122568.000000, 142792.906250, 0.000, 0.000, 0.000,0.0,0.0,0.0,0.0,0.0, 14:37:43.520
79027.406250, 82490.226563, 151972.968750, 124164.023438, 144445.281250, 96792.367188, 122549.132813, 142772.343750, 0.000, 0.000, 0.000,0.0,0.0,0.0,0.0,0.0, 14:37:43.520
78966.070313, 82427.195313, 151905.093750, 124165.523438, 144376.390625, 96778.398438, 122493.234375, 142708.437500, 0.000, 0.000, 0.000,0.0,0.0,0.0,0.0,0.0, 14:37:43.521
79063.953125, 82525.562500, 151996.625000, 124071.867188, 144456.687500, 96602.757813, 122497.882813, 142718.437500, 0.000, 0.000, 0.000,0.0,0.0,0.0,0.0,0.0, 14:37:43.521
79142.250000, 82608.734375, 152085.468750, 124059.195313, 144546.296875, 96590.601563, 122565.359375, 142790.359375, 0.000, 0.000, 0.000,0.0,0.0,0.0,0.0,0.0, 14:37:43.522
79048.531250, 82518.148438, 152003.375000, 124152.203125, 144468.796875, 96772.570313, 122559.773438, 142786.984375, 0.000, 0.000, 0.000,0.0,0.0,0.0,0.0,0.0, 14:37:43.522
78959.750000, 82423.820313, 151909.468750, 124176.429688, 144373.171875, 96802.656250, 122493.164063, 142713.984375, 0.188, 0.198, 0.956,0.0,0.0,0.0,0.0,0.0, 14:37:43.522
79028.476563, 82491.593750, 151970.593750, 124084.789063, 144425.406250, 96627.351563, 122477.187500, 142698.828125, 0.000, 0.000, 0.000,0.0,0.0,0.0,0.0,0.0, 14:37:43.523
79139.390625, 82604.265625, 152084.062500, 124049.453125, 144537.937500, 96566.507813, 122543.101563, 142770.015625, 0.000, 0.000, 0.000,0.0,0.0,0.0,0.0,0.0, 14:37:43.523
79082.281250, 82544.656250, 152030.953125, 124140.312500, 144495.578125, 96745.187500, 122567.437500, 142794.187500, 0.000, 0.000, 0.000,0.0,0.0,0.0,0.0,0.0, 14:37:43.524
78983.039063, 82446.125000, 151924.171875, 124195.656250, 144389.828125, 96825.656250, 122514.914063, 142738.765625, 0.000, 0.000, 0.000,0.0,0.0,0.0,0.0,0.0, 14:37:43.524
79015.914063, 82482.539063, 151950.890625, 124117.421875, 144412.250000, 96669.125000, 122484.093750, 142702.515625, 0.000, 0.000, 0.000,0.0,0.0,0.0,0.0,0.0, 14:37:43.525
79139.078125, 82604.085938, 152072.796875, 124054.617188, 144527.890625, 96558.664063, 122535.765625, 142760.046875, 0.000, 0.000, 0.000,0.0,0.0,0.0,0.0,0.0, 14:37:43.525
79102.578125, 82569.304688, 152050.515625, 124129.695313, 144513.875000, 96720.796875, 122570.523438, 142804.390625, 0.000, 0.000, 0.000,0.0,0.0,0.0,0.0,0.0, 14:37:43.525
78976.687500, 82447.359375, 151929.921875, 124193.796875, 144399.265625, 96829.898438, 122521.617188, 142741.453125, 0.000, 0.000, 0.000,0.0,0.0,0.0,0.0,0.0, 14:37:43.532
78978.703125, 82445.906250, 151922.968750, 124122.945313, 144388.984375, 96689.617188, 122471.976563, 142687.156250, 0.000, 0.000, 0.000,0.0,0.0,0.0,0.0,0.0, 14:37:43.534
79109.929688, 82579.117188, 152048.562500, 124045.070313, 144508.312500, 96542.859375, 122515.093750, 142736.796875, 0.192, 0.198, 0.954,0.0,0.0,0.0,0.0,0.0, 14:37:43.535
79100.140625, 82568.953125, 152047.156250, 124097.171875, 144514.125000, 96660.609375, 122559.054688, 142783.750000, 0.000, 0.000, 0.000,0.0,0.0,0.0,0.0,0.0, 14:37:43.535
78979.750000, 82449.656250, 151931.750000, 124178.617188, 144402.531250, 96811.015625, 122518.625000, 142744.187500, 0.000, 0.000, 0.000,0.0,0.0,0.0,0.0,0.0, 14:37:43.535
78974.320313, 82439.804688, 151912.421875, 124135.257813, 144373.687500, 96723.234375, 122464.398438, 142690.312500, 0.000, 0.000, 0.000,0.0,0.0,0.0,0.0,0.0, 14:37:43.535
79096.406250, 82554.085938, 152026.796875, 124042.921875, 144487.140625, 96557.875000, 122499.156250, 142726.718750, 0.000, 0.000, 0.000,0.05694483,0.07744557,0.089095935,0.11567777,0.06532648, 14:37:43.962
79135.585938, 82589.718750, 152073.468750, 124079.265625, 144535.937500, 96638.437500, 122562.031250, 142794.562500, 0.000, 0.000, 0.000,0.05694483,0.07744557,0.089095935,0.11567777,0.06532648, 14:37:43.963
79015.875000, 82478.429688, 151962.078125, 124175.023438, 144427.781250, 96808.734375, 122529.937500, 142763.140625, 0.000, 0.000, 0.000,0.05694483,0.07744557,0.089095935,0.11567777,0.06532648, 14:37:43.963
78972.531250, 82437.742188, 151914.093750, 124162.054688, 144376.640625, 96761.390625, 122478.031250, 142702.250000, 0.000, 0.000, 0.000,0.05694483,0.07744557,0.089095935,0.11567777,0.06532648, 14:37:43.963
79090.351563, 82547.875000, 152016.468750, 124071.648438, 144469.093750, 96583.203125, 122495.085938, 142722.328125, 0.000, 0.000, 0.000,0.05694483,0.07744557,0.089095935,0.11567777,0.06532648, 14:37:43.964
79144.929688, 82607.304688, 152083.312500, 124078.531250, 144539.390625, 96609.335938, 122555.234375, 142789.953125, 0.192, 0.206, 0.952,0.05694483,0.07744557,0.089095935,0.11567777,0.06532648, 14:37:43.964
79037.421875, 82501.289063, 151985.125000, 124172.359375, 144451.875000, 96793.601563, 122546.117188, 142775.421875, 0.000, 0.000, 0.000,0.05694483,0.07744557,0.089095935,0.11567777,0.06532648, 14:37:43.965
78962.359375, 82424.695313, 151904.703125, 124176.718750, 144368.703125, 96791.093750, 122483.734375, 142704.390625, 0.000, 0.000, 0.000,0.05694483,0.07744557,0.089095935,0.11567777,0.06532648, 14:37:43.965
79052.664063, 82515.687500, 151987.187500, 124081.546875, 144443.515625, 96611.031250, 122485.476563, 142707.875000, 0.000, 0.000, 0.000,0.05694483,0.07744557,0.089095935,0.11567777,0.06532648, 14:37:43.965
79144.085938, 82607.773438, 152082.843750, 124059.375000, 144536.500000, 96582.687500, 122543.570313, 142779.937500, 0.000, 0.000, 0.000,0.05694483,0.07744557,0.089095935,0.11567777,0.06532648, 14:37:43.966
79057.226563, 82522.015625, 152003.921875, 124153.695313, 144472.218750, 96768.882813, 122552.062500, 142787.390625, 0.000, 0.000, 0.000,0.05694483,0.07744557,0.089095935,0.11567777,0.06532648, 14:37:43.966
78946.468750, 82411.351563, 151889.640625, 124177.820313, 144367.921875, 96807.304688, 122489.500000, 142712.796875, 0.000, 0.000, 0.000,0.05694483,0.07744557,0.089095935,0.11567777,0.06532648, 14:37:43.966
79014.421875, 82475.968750, 151942.859375, 124085.523438, 144408.718750, 96634.140625, 122463.078125, 142693.171875, 0.000, 0.000, 0.000,0.05694483,0.07744557,0.089095935,0.11567777,0.06532648, 14:37:43.967
79124.437500, 82585.648438, 152057.234375, 124040.531250, 144520.109375, 96559.640625, 122521.328125, 142759.000000, 0.000, 0.000, 0.000,0.05694483,0.07744557,0.089095935,0.11567777,0.06532648, 14:37:43.967
79069.851563, 82530.281250, 152013.453125, 124127.281250, 144489.109375, 96731.617188, 122551.906250, 142790.531250, 0.000, 0.000, 0.000,0.05694483,0.07744557,0.089095935,0.11567777,0.06532648, 14:37:43.967
78958.632813, 82419.062500, 151901.265625, 124186.109375, 144378.828125, 96823.617188, 122500.992188, 142733.234375, 0.198, 0.212, 0.952,0.05694483,0.07744557,0.089095935,0.11567777,0.06532648, 14:37:43.968
78995.914063, 82459.335938, 151931.000000, 124113.265625, 144398.093750, 96671.960938, 122467.640625, 142697.937500, 0.000, 0.000, 0.000,0.05694483,0.07744557,0.089095935,0.11567777,0.06532648, 14:37:43.968
79119.492188, 82583.906250, 152057.609375, 124050.523438, 144516.250000, 96549.500000, 122519.898438, 142752.562500, 0.000, 0.000, 0.000,0.05694483,0.07744557,0.089095935,0.11567777,0.06532648, 14:37:43.969
79097.992188, 82560.789063, 152049.531250, 124124.734375, 144513.640625, 96701.265625, 122562.453125, 142797.218750, 0.000, 0.000, 0.000,0.05694483,0.07744557,0.089095935,0.11567777,0.06532648, 14:37:43.969
78970.632813, 82431.265625, 151924.000000, 124194.109375, 144387.281250, 96825.562500, 122506.351563, 142737.500000, 0.000, 0.000, 0.000,0.05694483,0.07744557,0.089095935,0.11567777,0.06532648, 14:37:43.969
78980.578125, 82439.468750, 151921.515625, 124132.937500, 144382.468750, 96702.382813, 122464.578125, 142692.546875, 0.000, 0.000, 0.000,0.05694483,0.07744557,0.089095935,0.11567777,0.06532648, 14:37:43.970
79110.843750, 82571.070313, 152049.296875, 124052.156250, 144504.531250, 96551.328125, 122512.367188, 142743.078125, 0.000, 0.000, 0.000,0.05694483,0.07744557,0.089095935,0.11567777,0.06532648, 14:37:43.970
79118.960938, 82581.734375, 152069.421875, 124109.351563, 144532.828125, 96671.070313, 122568.710938, 142808.125000, 0.000, 0.000, 0.000,0.05694483,0.07744557,0.089095935,0.11567777,0.06532648, 14:37:43.971
79004.632813, 82466.843750, 151956.296875, 124203.187500, 144428.765625, 96836.000000, 122537.601563, 142772.953125, 0.000, 0.000, 0.000,0.05694483,0.07744557,0.089095935,0.11567777,0.06532648, 14:37:43.973
78982.476563, 82447.289063, 151923.750000, 124165.546875, 144389.171875, 96750.953125, 122482.679688, 142710.156250, 0.208, 0.204, 0.952,0.05694483,0.07744557,0.089095935,0.11567777,0.06532648, 14:37:43.973
79099.335938, 82563.671875, 152032.921875, 124070.906250, 144488.078125, 96573.414063, 122504.031250, 142733.109375, 0.000, 0.000, 0.000,0.05694483,0.07744557,0.089095935,0.11567777,0.06532648, 14:37:43.974
79126.203125, 82590.562500, 152075.250000, 124094.914063, 144535.671875, 96638.125000, 122563.257813, 142792.906250, 0.000, 0.000, 0.000,0.05694483,0.07744557,0.089095935,0.11567777,0.06532648, 14:37:43.974
79006.507813, 82472.031250, 151962.015625, 124182.398438, 144431.921875, 96808.867188, 122537.984375, 142763.171875, 0.000, 0.000, 0.000,0.05694483,0.07744557,0.089095935,0.11567777,0.06532648, 14:37:43.974
78956.328125, 82421.742188, 151903.328125, 124168.203125, 144372.531250, 96768.656250, 122482.679688, 142699.000000, 0.000, 0.000, 0.000,0.05694483,0.07744557,0.089095935,0.11567777,0.06532648, 14:37:43.974
79061.226563, 82525.875000, 152001.625000, 124070.976563, 144460.484375, 96588.726563, 122492.023438, 142712.578125, 0.000, 0.000, 0.000,0.05694483,0.07744557,0.089095935,0.11567777,0.06532648, 14:37:43.975
79151.484375, 82615.640625, 152097.828125, 124081.437500, 144555.796875, 96611.882813, 122566.078125, 142798.031250, 0.000, 0.000, 0.000,0.05694483,0.07744557,0.089095935,0.11567777,0.06532648, 14:37:43.975
79046.359375, 82513.609375, 152005.828125, 124178.617188, 144471.515625, 96798.070313, 122561.492188, 142793.359375, 0.000, 0.000, 0.000,0.05694483,0.07744557,0.089095935,0.11567777,0.06532648, 14:37:43.975
78949.757813, 82415.773438, 151906.859375, 124185.437500, 144373.125000, 96797.445313, 122489.429688, 142714.000000, 0.000, 0.000, 0.000,0.05694483,0.07744557,0.089095935,0.11567777,0.06532648, 14:37:43.976
79047.140625, 82503.054688, 151984.796875, 124092.429688, 144442.421875, 96614.562500, 122485.164063, 142708.906250, 0.000, 0.000, 0.000,0.05694483,0.07744557,0.089095935,0.11567777,0.06532648, 14:37:43.976
79140.617188, 82596.664063, 152081.906250, 124063.375000, 144535.203125, 96576.453125, 122542.296875, 142775.812500, 0.204, 0.206, 0.954,0.05694483,0.07744557,0.089095935,0.11567777,0.06532648, 14:37:43.976
79070.570313, 82526.507813, 152021.984375, 124160.000000, 144488.671875, 96766.687500, 122565.921875, 142794.921875, 0.000, 0.000, 0.000,0.05694483,0.07744557,0.089095935,0.11567777,0.06532648, 14:37:43.976
78971.101563, 82428.914063, 151920.281250, 124194.867188, 144387.171875, 96821.898438, 122507.046875, 142728.000000, 0.000, 0.000, 0.000,0.05694483,0.07744557,0.089095935,0.11567777,0.06532648, 14:37:43.977
79026.843750, 82483.429688, 151966.531250, 124104.570313, 144424.609375, 96651.820313, 122482.234375, 142703.234375, 0.000, 0.000, 0.000,0.05694483,0.07744557,0.089095935,0.11567777,0.06532648, 14:37:43.977
79129.890625, 82583.210938, 152071.734375, 124052.046875, 144524.906250, 96559.734375, 122531.632813, 142757.093750, 0.000, 0.000, 0.000,0.05694483,0.07744557,0.089095935,0.11567777,0.06532648, 14:37:43.977
79070.453125, 82527.195313, 152028.046875, 124128.281250, 144490.281250, 96717.421875, 122557.984375, 142785.546875, 0.000, 0.000, 0.000,0.05694483,0.07744557,0.089095935,0.11567777,0.06532648, 14:37:43.977
78961.578125, 82426.281250, 151923.968750, 124193.484375, 144385.468750, 96819.414063, 122509.703125, 142731.656250, 0.000, 0.000, 0.000,0.05694483,0.07744557,0.089095935,0.11567777,0.06532648, 14:37:43.978
78999.687500, 82459.492188, 151944.453125, 124124.101563, 144398.859375, 96674.578125, 122472.914063, 142691.359375, 0.000, 0.000, 0.000,0.05694483,0.07744557,0.089095935,0.11567777,0.06532648, 14:37:43.978
79134.359375, 82592.039063, 152074.765625, 124056.960938, 144526.578125, 96550.125000, 122529.820313, 142752.250000, 0.000, 0.000, 0.000,0.05694483,0.07744557,0.089095935,0.11567777,0.06532648, 14:37:43.979
79122.890625, 82578.156250, 152069.656250, 124124.867188, 144533.703125, 96693.109375, 122579.554688, 142804.421875, 0.000, 0.000, 0.000,0.05694483,0.07744557,0.089095935,0.11567777,0.06532648, 14:37:43.979
79001.812500, 82460.429688, 151952.000000, 124205.421875, 144423.640625, 96835.531250, 122541.671875, 142762.859375, 0.192, 0.210, 0.956,0.05694483,0.07744557,0.089095935,0.11567777,0.06532648, 14:37:43.979
78987.281250, 82446.843750, 151929.718750, 124145.968750, 144398.031250, 96722.726563, 122490.375000, 142706.000000, 0.000, 0.000, 0.000,0.05694483,0.07744557,0.089095935,0.11567777,0.06532648, 14:37:43.979
79101.414063, 82558.914063, 152038.843750, 124050.054688, 144501.765625, 96557.390625, 122518.109375, 142740.015625, 0.000, 0.000, 0.000,0.05694483,0.07744557,0.089095935,0.11567777,0.06532648, 14:37:43.980
79116.257813, 82573.398438, 152071.359375, 124094.507813, 144541.437500, 96660.140625, 122579.375000, 142803.437500, 0.000, 0.000, 0.000,0.05694483,0.07744557,0.089095935,0.11567777,0.06532648, 14:37:43.980
78991.601563, 82448.656250, 151950.187500, 124182.265625, 144425.140625, 96822.968750, 122543.968750, 142761.843750, 0.000, 0.000, 0.000,0.05694483,0.07744557,0.089095935,0.11567777,0.06532648, 14:37:43.980
78955.726563, 82414.031250, 151902.390625, 124145.632813, 144373.125000, 96744.359375, 122480.132813, 142694.406250, 0.000, 0.000, 0.000,0.05694483,0.07744557,0.089095935,0.11567777,0.06532648, 14:37:43.980
79082.281250, 82534.195313, 152016.640625, 124049.296875, 144483.281250, 96567.914063, 122507.718750, 142726.015625, 0.000, 0.000, 0.000,0.05694483,0.07744557,0.089095935,0.11567777,0.06532648, 14:37:43.980
79128.234375, 82581.085938, 152072.250000, 124070.882813, 144538.984375, 96622.921875, 122567.437500, 142792.890625, 0.000, 0.000, 0.000,0.05694483,0.07744557,0.089095935,0.11567777,0.06532648, 14:37:43.980
79011.085938, 82473.375000, 151969.656250, 124169.281250, 144440.812500, 96803.164063, 122548.460938, 142771.859375, 0.000, 0.000, 0.000,0.05694483,0.07744557,0.089095935,0.11567777,0.06532648, 14:37:43.980
78965.046875, 82425.203125, 151915.031250, 124171.601563, 144385.109375, 96784.882813, 122500.898438, 142715.484375, 0.186, 0.212, 0.950,0.05694483,0.07744557,0.089095935,0.11567777,0.06532648, 14:37:43.981
79071.218750, 82523.617188, 152010.468750, 124076.382813, 144467.562500, 96602.203125, 122503.085938, 142723.812500, 0.000, 0.000, 0.000,0.05694483,0.07744557,0.089095935,0.11567777,0.06532648, 14:37:43.981
79150.718750, 82605.585938, 152098.875000, 124074.078125, 144555.906250, 96606.429688, 122570.726563, 142803.546875, 0.000, 0.000, 0.000,0.05694483,0.07744557,0.089095935,0.11567777,0.06532648, 14:37:43.981
79050.609375, 82509.539063, 152008.484375, 124173.632813, 144473.984375, 96792.687500, 122568.554688, 142800.890625, 0.000, 0.000, 0.000,0.05694483,0.07744557,0.089095935,0.11567777,0.06532648, 14:37:43.981
78957.960938, 82416.445313, 151910.968750, 124191.273438, 144379.484375, 96810.523438, 122505.304688, 142727.265625, 0.000, 0.000, 0.000,0.05694483,0.07744557,0.089095935,0.11567777,0.06532648, 14:37:43.981
79040.367188, 82496.531250, 151980.140625, 124098.828125, 144442.906250, 96632.109375, 122493.726563, 142721.421875, 0.000, 0.000, 0.000,0.05694483,0.07744557,0.089095935,0.11567777,0.06532648, 14:37:43.981
79142.406250, 82596.507813, 152083.765625, 124068.828125, 144544.609375, 96583.695313, 122554.296875, 142792.968750, 0.000, 0.000, 0.000,0.05694483,0.07744557,0.089095935,0.11567777,0.06532648, 14:37:43.982
79074.437500, 82537.054688, 152025.765625, 124160.742188, 144497.250000, 96763.289063, 122574.976563, 142811.484375, 0.000, 0.000, 0.000,0.05694483,0.07744557,0.089095935,0.11567777,0.06532648, 14:37:43.982
78967.726563, 82426.546875, 151916.531250, 124204.773438, 144389.968750, 96831.640625, 122514.242188, 142742.578125, 0.000, 0.000, 0.000,0.05694483,0.07744557,0.089095935,0.11567777,0.06532648, 14:37:43.982
79011.000000, 82464.703125, 151948.890625, 124114.804688, 144414.375000, 96664.789063, 122482.617188, 142710.453125, 0.000, 0.000, 0.000,0.05694483,0.07744557,0.089095935,0.11567777,0.06532648, 14:37:43.982
79130.718750, 82586.382813, 152071.421875, 124056.109375, 144529.796875, 96562.351563, 122539.656250, 142771.734375, 0.186, 0.214, 0.952,0.05694483,0.07744557,0.089095935,0.11567777,0.06532648, 14:37:43.982
79091.804688, 82548.429688, 152044.359375, 124136.687500, 144511.109375, 96723.015625, 122570.750000, 142807.437500, 0.000, 0.000, 0.000,0.05694483,0.07744557,0.089095935,0.11567777,0.06532648, 14:37:43.983
78984.804688, 82439.578125, 151935.843750, 124206.132813, 144410.968750, 96838.953125, 122532.523438, 142758.593750, 0.000, 0.000, 0.000,0.05694483,0.07744557,0.089095935,0.11567777,0.06532648, 14:37:43.983
79003.554688, 82454.218750, 151938.234375, 124132.265625, 144407.937500, 96697.734375, 122490.328125, 142710.718750, 0.000, 0.000, 0.000,0.05694483,0.07744557,0.089095935,0.11567777,0.06532648, 14:37:43.983
79134.468750, 82586.632813, 152066.578125, 124058.007813, 144525.078125, 96562.078125, 122534.585938, 142763.515625, 0.000, 0.000, 0.000,0.05694483,0.07744557,0.089095935,0.11567777,0.06532648, 14:37:43.983
79125.554688, 82580.414063, 152071.625000, 124123.859375, 144534.750000, 96695.859375, 122581.414063, 142814.437500, 0.000, 0.000, 0.000,0.05694483,0.07744557,0.089095935,0.11567777,0.06532648, 14:37:43.983
78996.585938, 82450.687500, 151942.656250, 124200.390625, 144411.312500, 96829.718750, 122530.828125, 142757.281250, 0.000, 0.000, 0.000,0.05694483,0.07744557,0.089095935,0.11567777,0.06532648, 14:37:43.983
78998.726563, 82452.367188, 151934.546875, 124160.250000, 144397.890625, 96728.468750, 122493.546875, 142712.796875, 0.000, 0.000, 0.000,0.05694483,0.07744557,0.089095935,0.11567777,0.06532648, 14:37:43.983
79119.515625, 82577.179688, 152055.765625, 124078.101563, 144508.062500, 96569.007813, 122525.820313, 142753.046875, 0.000, 0.000, 0.000,0.05694483,0.07744557,0.089095935,0.11567777,0.06532648, 14:37:43.984
79137.109375, 82598.007813, 152087.437500, 124114.000000, 144537.968750, 96656.804688, 122573.562500, 142809.000000, 0.190, 0.214, 0.956,0.05694483,0.07744557,0.089095935,0.11567777,0.06532648, 14:37:43.984
79015.335938, 82474.179688, 151971.031250, 124202.226563, 144432.750000, 96823.867188, 122547.390625, 142774.468750, 0.000, 0.000, 0.000,0.05694483,0.07744557,0.089095935,0.11567777,0.06532648, 14:37:43.984
78969.937500, 82430.976563, 151921.375000, 124175.226563, 144381.484375, 96756.695313, 122488.718750, 142711.218750, 0.000, 0.000, 0.000,0.05694483,0.07744557,0.089095935,0.11567777,0.06532648, 14:37:43.984
79098.257813, 82558.601563, 152038.593750, 124079.539063, 144491.500000, 96584.500000, 122515.382813, 142744.515625, 0.000, 0.000, 0.000,0.05694483,0.07744557,0.089095935,0.11567777,0.06532648, 14:37:43.984
79156.953125, 82612.695313, 152101.312500, 124096.140625, 144557.312500, 96632.976563, 122577.453125, 142816.062500, 0.000, 0.000, 0.000,0.05694483,0.07744557,0.089095935,0.11567777,0.06532648, 14:37:43.984
79050.226563, 82506.367188, 152001.796875, 124195.742188, 144468.343750, 96816.132813, 122568.156250, 142801.843750, 0.000, 0.000, 0.000,0.05694483,0.07744557,0.089095935,0.11567777,0.06532648, 14:37:43.985
78978.031250, 82435.156250, 151926.500000, 124196.187500, 144392.984375, 96798.742188, 122508.718750, 142733.156250, 0.000, 0.000, 0.000,0.05694483,0.07744557,0.089095935,0.11567777,0.06532648, 14:37:43.985
79060.398438, 82517.812500, 152000.500000, 124093.101563, 144461.687500, 96608.210938, 122505.015625, 142729.609375, 0.000, 0.000, 0.000,0.05694483,0.07744557,0.089095935,0.11567777,0.06532648, 14:37:43.985
79152.085938, 82606.257813, 152100.171875, 124083.468750, 144561.843750, 96597.664063, 122580.585938, 142806.765625, 0.000, 0.000, 0.000,0.05694483,0.07744557,0.089095935,0.11567777,0.06532648, 14:37:43.985
79076.156250, 82530.375000, 152031.906250, 124188.453125, 144492.890625, 96789.953125, 122581.921875, 142812.468750, 0.000, 0.000, 0.000,0.05694483,0.07744557,0.089095935,0.11567777,0.06532648, 14:37:43.985
78977.179688, 82436.046875, 151933.187500, 124214.789063, 144393.109375, 96821.476563, 122516.101563, 142740.515625, 0.198, 0.214, 0.956,0.05694483,0.07744557,0.089095935,0.11567777,0.06532648, 14:37:43.986
79031.984375, 82491.882813, 151981.953125, 124116.796875, 144430.343750, 96639.242188, 122490.328125, 142713.171875, 0.000, 0.000, 0.000,0.05694483,0.07744557,0.089095935,0.11567777,0.06532648, 14:37:43.986
79150.679688, 82604.445313, 152099.750000, 124078.242188, 144545.578125, 96573.953125, 122554.093750, 142784.328125, 0.000, 0.000, 0.000,0.05694483,0.07744557,0.089095935,0.11567777,0.06532648, 14:37:43.986
79086.664063, 82543.625000, 152051.000000, 124168.515625, 144509.968750, 96759.445313, 122581.742188, 142814.750000, 0.000, 0.000, 0.000,0.05694483,0.07744557,0.089095935,0.11567777,0.06532648, 14:37:43.986
78973.117188, 82432.312500, 151931.218750, 124210.648438, 144393.609375, 96834.906250, 122522.085938, 142747.515625, 0.000, 0.000, 0.000,0.05694483,0.07744557,0.089095935,0.11567777,0.06532648, 14:37:43.986
79022.171875, 82480.796875, 151963.718750, 124126.765625, 144415.015625, 96674.820313, 122488.093750, 142712.109375, 0.000, 0.000, 0.000,0.05694483,0.07744557,0.089095935,0.11567777,0.06532648, 14:37:43.986
79130.625000, 82594.898438, 152082.093750, 124064.406250, 144526.750000, 96563.062500, 122538.203125, 142767.671875, 0.000, 0.000, 0.000,0.05694483,0.07744557,0.089095935,0.11567777,0.06532648, 14:37:43.986
79103.539063, 82572.703125, 152066.671875, 124144.781250, 144522.375000, 96719.593750, 122580.359375, 142814.546875, 0.000, 0.000, 0.000,0.05694483,0.07744557,0.089095935,0.11567777,0.06532648, 14:37:43.987
78991.867188, 82458.531250, 151946.640625, 124213.757813, 144414.218750, 96841.523438, 122535.476563, 142761.531250, 0.000, 0.000, 0.000,0.05694483,0.07744557,0.089095935,0.11567777,0.06532648, 14:37:43.987
78990.882813, 82457.171875, 151934.656250, 124139.390625, 144400.093750, 96702.453125, 122482.796875, 142703.984375, 0.202, 0.222, 0.954,0.05694483,0.07744557,0.089095935,0.11567777,0.06532648, 14:37:43.987
79121.796875, 82582.921875, 152058.906250, 124061.656250, 144517.203125, 96564.695313, 122530.179688, 142756.390625, 0.000, 0.000, 0.000,0.05694483,0.07744557,0.089095935,0.11567777,0.06532648, 14:37:43.987
79109.171875, 82571.968750, 152057.890625, 124116.328125, 144524.625000, 96685.148438, 122574.679688, 142804.828125, 0.000, 0.000, 0.000,0.05694483,0.07744557,0.089095935,0.11567777,0.06532648, 14:37:43.987
78993.453125, 82453.640625, 151945.296875, 124194.515625, 144418.656250, 96830.570313, 122539.273438, 142764.875000, 0.000, 0.000, 0.000,0.05694483,0.07744557,0.089095935,0.11567777,0.06532648, 14:37:43.987
78978.500000, 82435.062500, 151924.171875, 124156.539063, 144392.843750, 96745.093750, 122493.007813, 142710.265625, 0.000, 0.000, 0.000,0.05694483,0.07744557,0.089095935,0.11567777,0.06532648, 14:37:43.988
79094.171875, 82546.398438, 152029.234375, 124062.171875, 144488.437500, 96569.320313, 122511.828125, 142728.671875, 0.000, 0.000, 0.000,0.05694483,0.07744557,0.089095935,0.11567777,0.06532648, 14:37:43.988
79127.500000, 82583.367188, 152071.968750, 124092.992188, 144536.078125, 96640.578125, 122571.304688, 142796.578125, 0.000, 0.000, 0.000,0.05694483,0.07744557,0.089095935,0.11567777,0.06532648, 14:37:43.988
79016.679688, 82472.992188, 151968.750000, 124188.656250, 144441.125000, 96818.632813, 122552.781250, 142777.890625, 0.000, 0.000, 0.000,0.05694483,0.07744557,0.089095935,0.11567777,0.06532648, 14:37:43.988
78972.531250, 82425.609375, 151913.375000, 124165.789063, 144381.140625, 96770.289063, 122492.945313, 142711.875000, 0.000, 0.000, 0.000,0.05694483,0.07744557,0.089095935,0.11567777,0.06532648, 14:37:43.988
79084.515625, 82536.851563, 152016.734375, 124069.921875, 144469.203125, 96591.968750, 122502.242188, 142727.281250, 0.000, 0.000, 0.000,0.05694483,0.07744557,0.089095935,0.11567777,0.06532648, 14:37:43.988
79149.000000, 82599.820313, 152089.562500, 124081.187500, 144544.296875, 96617.289063, 122567.710938, 142797.515625, 0.200, 0.220, 0.956,0.05694483,0.07744557,0.089095935,0.11567777,0.06532648, 14:37:43.989
79031.656250, 82489.000000, 151990.578125, 124176.835938, 144460.125000, 96801.984375, 122561.804688, 142786.453125, 0.000, 0.000, 0.000,0.05694483,0.07744557,0.089095935,0.11567777,0.06532648, 14:37:43.989
78961.382813, 82417.718750, 151914.562500, 124186.710938, 144382.343750, 96801.671875, 122505.210938, 142723.937500, 0.000, 0.000, 0.000,0.05694483,0.07744557,0.089095935,0.11567777,0.06532648, 14:37:43.989
79071.773438, 82525.031250, 152004.687500, 124099.179688, 144462.578125, 96625.226563, 122513.195313, 142731.125000, 0.000, 0.000, 0.000,0.05694483,0.07744557,0.089095935,0.11567777,0.06532648, 14:37:43.989
79150.515625, 82609.898438, 152092.703125, 124077.656250, 144550.171875, 96594.984375, 122569.656250, 142795.875000, 0.000, 0.000, 0.000,0.05694483,0.07744557,0.089095935,0.11567777,0.06532648, 14:37:43.990
79062.523438, 82515.507813, 152009.093750, 124167.554688, 144481.406250, 96774.937500, 122571.148438, 142796.546875, 0.000, 0.000, 0.000,0.05694483,0.07744557,0.089095935,0.11567777,0.06532648, 14:37:43.990
78956.882813, 82415.039063, 151899.671875, 124191.117188, 144373.531250, 96808.398438, 122501.320313, 142715.250000, 0.000, 0.000, 0.000,0.05694483,0.07744557,0.089095935,0.11567777,0.06532648, 14:37:43.990
79030.671875, 82490.359375, 151963.843750, 124102.960938, 144427.484375, 96636.445313, 122489.835938, 142701.890625, 0.000, 0.000, 0.000,0.05694483,0.07744557,0.089095935,0.11567777,0.06532648, 14:37:43.990
79153.914063, 82604.359375, 152084.062500, 124060.875000, 144540.406250, 96562.531250, 122549.781250, 142770.328125, 0.000, 0.000, 0.000,0.05694483,0.07744557,0.089095935,0.11567777,0.06532648, 14:37:43.991
79086.507813, 82529.789063, 152027.531250, 124138.093750, 144491.484375, 96730.234375, 122561.585938, 142785.437500, 0.000, 0.000, 0.000,0.03842156,0.054984882,0.07068698,0.09567497,0.057348795, 14:37:43.991
78974.570313, 82423.218750, 151917.406250, 124190.515625, 144383.171875, 96815.773438, 122509.171875, 142724.906250, 0.198, 0.222, 0.956,0.03842156,0.054984882,0.07068698,0.09567497,0.057348795, 14:37:43.992
79007.710938, 82457.437500, 151940.765625, 124112.570313, 144399.796875, 96665.007813, 122472.218750, 142685.234375, 0.000, 0.000, 0.000,0.03842156,0.054984882,0.07068698,0.09567497,0.057348795, 14:37:43.992
79130.960938, 82581.804688, 152062.625000, 124048.242188, 144516.812500, 96544.710938, 122521.304688, 142744.140625, 0.000, 0.000, 0.000,0.03842156,0.054984882,0.07068698,0.09567497,0.057348795, 14:37:43.993
79106.460938, 82564.187500, 152057.281250, 124128.601563, 144521.484375, 96700.664063, 122573.031250, 142799.359375, 0.000, 0.000, 0.000,0.03842156,0.054984882,0.07068698,0.09567497,0.057348795, 14:37:43.993
78983.507813, 82442.664063, 151940.656250, 124204.171875, 144410.406250, 96830.164063, 122533.640625, 142748.734375, 0.000, 0.000, 0.000,0.03842156,0.054984882,0.07068698,0.09567497,0.057348795, 14:37:43.993
78994.835938, 82447.132813, 151937.031250, 124148.710938, 144403.343750, 96712.218750, 122491.914063, 142704.234375, 0.000, 0.000, 0.000,0.03842156,0.054984882,0.07068698,0.09567497,0.057348795, 14:37:43.993
79122.960938, 82575.406250, 152057.656250, 124068.742188, 144514.375000, 96562.195313, 122526.046875, 142751.312500, 0.000, 0.000, 0.000,0.03842156,0.054984882,0.07068698,0.09567497,0.057348795, 14:37:43.994
79137.015625, 82592.460938, 152082.765625, 124123.164063, 144548.562500, 96681.617188, 122587.375000, 142817.703125, 0.000, 0.000, 0.000,0.03842156,0.054984882,0.07068698,0.09567497,0.057348795, 14:37:43.994
79002.531250, 82460.609375, 151955.468750, 124206.851563, 144425.093750, 96837.234375, 122544.062500, 142767.203125, 0.000, 0.000, 0.000,0.03842156,0.054984882,0.07068698,0.09567497,0.057348795, 14:37:43.995
78974.835938, 82431.085938, 151917.625000, 124165.726563, 144381.062500, 96750.101563, 122481.945313, 142701.937500, 0.196, 0.222, 0.952,0.03842156,0.054984882,0.07068698,0.09567497,0.057348795, 14:37:43.995
79107.984375, 82558.648438, 152040.062500, 124079.156250, 144492.828125, 96581.148438, 122512.812500, 142737.343750, 0.000, 0.000, 0.000,0.003247986,0.009062627,0.022223629,0.036450934,0.019053113, 14:37:44.443
79148.125000, 82600.468750, 152089.890625, 124106.851563, 144550.609375, 96646.679688, 122577.546875, 142806.937500, 0.000, 0.000, 0.000,0.003247986,0.009062627,0.022223629,0.036450934,0.019053113, 14:37:44.443
79025.906250, 82482.226563, 151974.984375, 124197.773438, 144446.281250, 96817.625000, 122553.515625, 142775.515625, 0.000, 0.000, 0.000,0.003247986,0.009062627,0.022223629,0.036450934,0.019053113, 14:37:44.443
78967.367188, 82422.031250, 151907.531250, 124180.859375, 144376.859375, 96775.273438, 122490.546875, 142701.484375, 0.000, 0.000, 0.000,0.003247986,0.009062627,0.022223629,0.036450934,0.019053113, 14:37:44.444
79078.125000, 82534.484375, 152004.125000, 124080.875000, 144465.375000, 96592.164063, 122501.593750, 142713.984375, 0.000, 0.000, 0.000,0.003247986,0.009062627,0.022223629,0.036450934,0.019053113, 14:37:44.444
79138.406250, 82599.687500, 152070.406250, 124079.539063, 144535.359375, 96604.148438, 122557.781250, 142778.046875, 0.000, 0.000, 0.000,0.003247986,0.009062627,0.022223629,0.036450934,0.019053113, 14:37:44.444
79036.703125, 82498.250000, 151975.187500, 124171.085938, 144447.406250, 96784.164063, 122544.906250, 142768.000000, 0.000, 0.000, 0.000,0.003247986,0.009062627,0.022223629,0.036450934,0.019053113, 14:37:44.445
78958.609375, 82417.117188, 151891.937500, 124178.796875, 144360.296875, 96790.000000, 122484.132813, 142696.265625, 0.000, 0.000, 0.000,0.003247986,0.009062627,0.022223629,0.036450934,0.019053113, 14:37:44.445
79051.257813, 82505.335938, 151975.968750, 124083.718750, 144434.484375, 96611.453125, 122487.062500, 142698.843750, 0.000, 0.000, 0.000,0.003247986,0.009062627,0.022223629,0.036450934,0.019053113, 14:37:44.446
79143.031250, 82596.015625, 152073.531250, 124059.171875, 144532.500000, 96575.539063, 122549.203125, 142765.609375, 0.182, 0.220, 0.952,0.003247986,0.009062627,0.022223629,0.036450934,0.019053113, 14:37:44.446
79067.593750, 82522.929688, 152008.781250, 124150.320313, 144476.281250, 96757.835938, 122562.546875, 142780.140625, 0.000, 0.000, 0.000,0.003247986,0.009062627,0.022223629,0.036450934,0.019053113, 14:37:44.446
78963.703125, 82417.828125, 151904.546875, 124188.101563, 144372.812500, 96817.984375, 122504.585938, 142715.734375, 0.000, 0.000, 0.000,0.003247986,0.009062627,0.022223629,0.036450934,0.019053113, 14:37:44.447
79022.171875, 82468.679688, 151949.328125, 124101.421875, 144411.515625, 96651.914063, 122482.328125, 142691.000000, 0.000, 0.000, 0.000,0.003247986,0.009062627,0.022223629,0.036450934,0.019053113, 14:37:44.447
79138.898438, 82585.851563, 152070.171875, 124055.890625, 144524.500000, 96565.273438, 122538.000000, 142754.859375, 0.000, 0.000, 0.000,0.003247986,0.009062627,0.022223629,0.036450934,0.019053113, 14:37:44.447
79089.609375, 82542.710938, 152039.109375, 124140.179688, 144504.515625, 96737.187500, 122575.976563, 142793.437500, 0.000, 0.000, 0.000,0.003247986,0.009062627,0.022223629,0.036450934,0.019053113, 14:37:44.447
78981.539063, 82433.835938, 151927.078125, 124201.289063, 144393.734375, 96836.828125, 122523.382813, 142736.843750, 0.000, 0.000, 0.000,0.003247986,0.009062627,0.022223629,0.036450934,0.019053113, 14:37:44.448
79011.226563, 82458.578125, 151944.140625, 124126.476563, 144396.890625, 96689.640625, 122478.750000, 142692.859375, 0.000, 0.000, 0.000,0.003247986,0.009062627,0.022223629,0.036450934,0.019053113, 14:37:44.448
79128.437500, 82580.554688, 152060.718750, 124052.218750, 144506.765625, 96557.656250, 122524.031250, 142742.281250, 0.000, 0.000, 0.000,0.003247986,0.009062627,0.022223629,0.036450934,0.019053113, 14:37:44.448
79112.406250, 82570.851563, 152059.406250, 124119.921875, 144514.234375, 96693.375000, 122571.617188, 142791.250000, 0.178, 0.214, 0.950,0.003247986,0.009062627,0.022223629,0.036450934,0.019053113, 14:37:44.449
78991.687500, 82455.000000, 151946.750000, 124200.570313, 144408.000000, 96833.320313, 122533.375000, 142747.125000, 0.000, 0.000, 0.000,0.003247986,0.009062627,0.022223629,0.036450934,0.019053113, 14:37:44.449
78994.125000, 82451.875000, 151936.406250, 124150.617188, 144390.625000, 96726.273438, 122486.679688, 142698.687500, 0.000, 0.000, 0.000,0.003247986,0.009062627,0.022223629,0.036450934,0.019053113, 14:37:44.449
79112.367188, 82569.843750, 152054.859375, 124063.578125, 144499.906250, 96571.242188, 122520.187500, 142738.406250, 0.000, 0.000, 0.000,0.003247986,0.009062627,0.022223629,0.036450934,0.019053113, 14:37:44.450
79122.242188, 82581.960938, 152083.828125, 124108.992188, 144537.625000, 96672.765625, 122578.460938, 142802.812500, 0.000, 0.000, 0.000,0.003247986,0.009062627,0.022223629,0.036450934,0.019053113, 14:37:44.450
79003.398438, 82460.921875, 151965.109375, 124194.468750, 144429.703125, 96829.187500, 122547.031250, 142761.812500, 0.000, 0.000, 0.000,0.003247986,0.009062627,0.022223629,0.036450934,0.019053113, 14:37:44.450
78970.500000, 82419.726563, 151917.718750, 124157.117188, 144378.468750, 96753.632813, 122484.515625, 142691.250000, 0.000, 0.000, 0.000,0.003247986,0.009062627,0.022223629,0.036450934,0.019053113, 14:37:44.450
79076.265625, 82523.445313, 152017.921875, 124058.101563, 144473.515625, 96577.460938, 122495.046875, 142712.625000, 0.000, 0.000, 0.000,0.003247986,0.009062627,0.022223629,0.036450934,0.019053113, 14:37:44.451
79122.179688, 82572.617188, 152071.828125, 124076.539063, 144534.750000, 96628.976563, 122558.609375, 142781.593750, 0.000, 0.000, 0.000,0.003247986,0.009062627,0.022223629,0.036450934,0.019053113, 14:37:44.451
79013.570313, 82466.218750, 151971.156250, 124175.046875, 144441.078125, 96812.757813, 122547.031250, 142765.812500, 0.000, 0.000, 0.000,0.003247986,0.009062627,0.022223629,0.036450934,0.019053113, 14:37:44.452
78948.390625, 82401.914063, 151898.515625, 124169.320313, 144367.828125, 96784.593750, 122486.750000, 142696.109375, 0.186, 0.214, 0.954,0.003247986,0.009062627,0.022223629,0.036450934,0.019053113, 14:37:44.452
79055.617188, 82510.031250, 151995.187500, 124074.929688, 144453.578125, 96602.601563, 122490.929688, 142708.000000, 0.000, 0.000, 0.000,0.003247986,0.009062627,0.022223629,0.036450934,0.019053113, 14:37:44.452
79128.906250, 82582.117188, 152074.781250, 124068.898438, 144534.281250, 96600.460938, 122548.914063, 142774.062500, 0.000, 0.000, 0.000,0.003247986,0.009062627,0.022223629,0.036450934,0.019053113, 14:37:44.453
79033.890625, 82484.054688, 151987.250000, 124168.562500, 144459.343750, 96785.929688, 122548.843750, 142770.953125, 0.000, 0.000, 0.000,0.003247986,0.009062627,0.022223629,0.036450934,0.019053113, 14:37:44.453
78942.937500, 82394.585938, 151892.187500, 124184.007813, 144356.640625, 96800.593750, 122478.125000, 142697.875000, 0.000, 0.000, 0.000,0.003247986,0.009062627,0.022223629,0.036450934,0.019053113, 14:37:44.453
79035.093750, 82485.914063, 151973.937500, 124091.453125, 144426.265625, 96627.859375, 122477.671875, 142697.796875, 0.000, 0.000, 0.000,0.003247986,0.009062627,0.022223629,0.036450934,0.019053113, 14:37:44.454
79138.960938, 82584.796875, 152077.359375, 124061.992188, 144528.812500, 96578.601563, 122543.367188, 142764.812500, 0.000, 0.000, 0.000,0.003247986,0.009062627,0.022223629,0.036450934,0.019053113, 14:37:44.454
79067.484375, 82511.281250, 152015.484375, 124152.671875, 144478.203125, 96754.976563, 122562.343750, 142782.921875, 0.000, 0.000, 0.000,0.003247986,0.009062627,0.022223629,0.036450934,0.019053113, 14:37:44.454
78960.351563, 82400.953125, 151907.843750, 124196.703125, 144376.421875, 96825.226563, 122505.210938, 142724.250000, 0.000, 0.000, 0.000,0.003247986,0.009062627,0.022223629,0.036450934,0.019053113, 14:37:44.454
79009.593750, 82453.992188, 151947.515625, 124113.375000, 144412.171875, 96661.125000, 122482.570313, 142697.203125, 0.000, 0.000, 0.000,0.003247986,0.009062627,0.022223629,0.036450934,0.019053113, 14:37:44.455
79126.890625, 82576.328125, 152063.875000, 124054.343750, 144524.656250, 96558.210938, 122536.039063, 142756.093750, 0.192, 0.222, 0.944,0.003247986,0.009062627,0.022223629,0.036450934,0.019053113, 14:37:44.455
79088.156250, 82536.562500, 152037.187500, 124132.843750, 144508.984375, 96719.617188, 122573.070313, 142794.359375, 0.000, 0.000, 0.000,0.003247986,0.009062627,0.022223629,0.036450934,0.019053113, 14:37:44.455
78973.335938, 82418.679688, 151921.718750, 124195.164063, 144396.312500, 96830.210938, 122524.812500, 142737.156250, 0.000, 0.000, 0.000,0.003247986,0.009062627,0.022223629,0.036450934,0.019053113, 14:37:44.455
78989.296875, 82429.945313, 151925.359375, 124121.289063, 144394.656250, 96687.343750, 122483.242188, 142687.781250, 0.000, 0.000, 0.000,0.003247986,0.009062627,0.022223629,0.036450934,0.019053113, 14:37:44.455
79120.882813, 82560.367188, 152051.609375, 124044.960938, 144513.828125, 96553.093750, 122531.859375, 142744.875000, 0.000, 0.000, 0.000,0.003247986,0.009062627,0.022223629,0.036450934,0.019053113, 14:37:44.456
79108.992188, 82551.562500, 152054.671875, 124109.398438, 144517.859375, 96689.750000, 122574.859375, 142798.921875, 0.000, 0.000, 0.000,0.003247986,0.009062627,0.022223629,0.036450934,0.019053113, 14:37:44.456
78984.023438, 82427.328125, 151937.093750, 124193.039063, 144406.546875, 96833.382813, 122534.851563, 142754.812500, 0.000, 0.000, 0.000,0.003247986,0.009062627,0.022223629,0.036450934,0.019053113, 14:37:44.456
