%OpenBCI Raw EEG Data
%
%Sample Rate = 250.0 Hz
%First Column = SampleIndex
%5 Columns before Timestamp are Frequency Power factors DELTA THETA ALPHA BETA GAMMA
%Last Column = Timestamp 
%Other Columns = EEG data in microvolts followed by Accel Data (in G) interleaved with Aux Data
0.000000, 0.000000, 0.000000, 0.000000, 0.000000, 0.000000, 0.000000, 0.000000, 0.242, 0.194, 0.944,0.0,0.0,0.0,0.0,0.0, 14:29:32.310
32560.142578, 17069.669922, 95206.562500, 59816.531250, 75147.703125, 58938.753906, 65023.769531, 88166.296875, 0.000, 0.000, 0.000,0.0,0.0,0.0,0.0,0.0, 14:29:32.786
32593.000000, 17101.207031, 95173.546875, 59924.308594, 75158.007813, 58888.597656, 65018.183594, 88154.406250, 0.000, 0.000, 0.000,0.0,0.0,0.0,0.0,0.0, 14:29:32.787
32677.400391, 17188.960938, 95138.789063, 59521.664063, 75227.187500, 58631.507813, 64971.132813, 88193.140625, 0.000, 0.000, 0.000,0.0,0.0,0.0,0.0,0.0, 14:29:32.788
32653.841797, 17166.630859, 95167.265625, 59367.707031, 75230.359375, 58656.207031, 64975.335938, 88214.328125, 0.000, 0.000, 0.000,0.0,0.0,0.0,0.0,0.0, 14:29:32.789
32562.578125, 17070.876953, 95194.445313, 59742.722656, 75160.625000, 58909.429688, 65019.882813, 88175.390625, 0.000, 0.000, 0.000,0.0,0.0,0.0,0.0,0.0, 14:29:32.790
32570.939453, 17079.570313, 95166.773438, 59941.699219, 75150.539063, 58921.632813, 65018.851563, 88152.234375, 0.000, 0.000, 0.000,0.0,0.0,0.0,0.0,0.0, 14:29:32.791
32659.517578, 17169.804688, 95136.953125, 59600.187500, 75220.593750, 58673.105469, 64978.015625, 88190.500000, 0.246, 0.204, 0.938,0.0,0.0,0.0,0.0,0.0, 14:29:32.792
32662.871094, 17176.242188, 95157.226563, 59350.742188, 75237.664063, 58621.113281, 64968.003906, 88216.679688, 0.000, 0.000, 0.000,0.0,0.0,0.0,0.0,0.0, 14:29:32.793
32568.435547, 17082.677734, 95192.742188, 59676.851563, 75163.976563, 58867.183594, 65006.492188, 88173.742188, 0.000, 0.000, 0.000,0.0,0.0,0.0,0.0,0.0, 14:29:32.794
32548.876953, 17065.601563, 95171.601563, 59975.269531, 75128.929688, 58942.578125, 65017.535156, 88136.234375, 0.000, 0.000, 0.000,0.0,0.0,0.0,0.0,0.0, 14:29:32.795
32642.263672, 17165.201172, 95129.335938, 59691.335938, 75194.015625, 58704.531250, 64974.730469, 88170.070313, 0.000, 0.000, 0.000,0.0,0.0,0.0,0.0,0.0, 14:29:32.796
32678.292969, 17198.548828, 95150.656250, 59354.472656, 75240.398438, 58593.085938, 64960.378906, 88216.835938, 0.000, 0.000, 0.000,0.0,0.0,0.0,0.0,0.0, 14:29:32.797
32593.648438, 17109.343750, 95194.890625, 59593.996094, 75185.812500, 58818.433594, 65003.093750, 88190.460938, 0.000, 0.000, 0.000,0.0,0.0,0.0,0.0,0.0, 14:29:32.798
32551.537109, 17067.054688, 95186.937500, 59947.285156, 75142.984375, 58953.082031, 65029.089844, 88148.148438, 0.000, 0.000, 0.000,0.0,0.0,0.0,0.0,0.0, 14:29:32.799
32627.220703, 17148.236328, 95144.890625, 59760.316406, 75187.843750, 58752.027344, 64988.835938, 88163.437500, 0.000, 0.000, 0.000,0.0,0.0,0.0,0.0,0.0, 14:29:32.799
32685.603516, 17199.935547, 95145.898438, 59372.890625, 75239.234375, 58577.796875, 64958.390625, 88204.718750, 0.000, 0.000, 0.000,0.0,0.0,0.0,0.0,0.0, 14:29:32.801
32611.998047, 17121.615234, 95186.953125, 59516.500000, 75195.531250, 58768.097656, 64993.191406, 88190.835938, 0.258, 0.208, 0.932,0.0,0.0,0.0,0.0,0.0, 14:29:32.802
32558.488281, 17066.517578, 95192.570313, 59923.929688, 75142.117188, 58960.121094, 65028.398438, 88151.882813, 0.000, 0.000, 0.000,0.0,0.0,0.0,0.0,0.0, 14:29:32.803
32622.726563, 17135.785156, 95142.546875, 59830.500000, 75177.945313, 58801.582031, 64996.613281, 88158.070313, 0.000, 0.000, 0.000,0.0,0.0,0.0,0.0,0.0, 14:29:32.804
32680.865234, 17197.542969, 95133.851563, 59411.292969, 75236.976563, 58581.839844, 64955.015625, 88198.507813, 0.000, 0.000, 0.000,0.0,0.0,0.0,0.0,0.0, 14:29:32.804
32612.132813, 17127.492188, 95175.109375, 59461.203125, 75199.132813, 58715.839844, 64977.277344, 88192.289063, 0.000, 0.000, 0.000,0.0,0.0,0.0,0.0,0.0, 14:29:32.805
32555.449219, 17064.505859, 95186.843750, 59873.750000, 75139.703125, 58943.335938, 65020.843750, 88154.898438, 0.000, 0.000, 0.000,0.0,0.0,0.0,0.0,0.0, 14:29:32.806
32604.533203, 17114.619141, 95152.398438, 59899.945313, 75162.117188, 58849.035156, 65006.402344, 88153.000000, 0.000, 0.000, 0.000,0.0,0.0,0.0,0.0,0.0, 14:29:32.806
32681.087891, 17195.755859, 95136.773438, 59490.527344, 75227.609375, 58604.281250, 64963.242188, 88195.265625, 0.000, 0.000, 0.000,0.0,0.0,0.0,0.0,0.0, 14:29:32.807
32647.984375, 17161.490234, 95172.804688, 59413.550781, 75218.109375, 58674.242188, 64980.230469, 88209.257813, 0.000, 0.000, 0.000,0.0,0.0,0.0,0.0,0.0, 14:29:32.807
32556.298828, 17066.718750, 95193.281250, 59821.199219, 75144.328125, 58921.632813, 65020.730469, 88160.953125, 0.256, 0.212, 0.928,0.0,0.0,0.0,0.0,0.0, 14:29:32.808
32582.001953, 17097.050781, 95153.093750, 59939.082031, 75151.750000, 58886.183594, 65016.191406, 88147.070313, 0.000, 0.000, 0.000,0.0,0.0,0.0,0.0,0.0, 14:29:32.810
32668.392578, 17187.015625, 95123.117188, 59551.214844, 75219.851563, 58632.824219, 64970.015625, 88187.148438, 0.000, 0.000, 0.000,0.0,0.0,0.0,0.0,0.0, 14:29:32.810
32651.851563, 17167.525391, 95153.093750, 59365.941406, 75227.164063, 58635.105469, 64970.191406, 88210.375000, 0.000, 0.000, 0.000,0.0,0.0,0.0,0.0,0.0, 14:29:32.811
32556.142578, 17069.982422, 95183.179688, 59734.968750, 75153.468750, 58888.484375, 65011.363281, 88166.875000, 0.000, 0.000, 0.000,0.0,0.0,0.0,0.0,0.0, 14:29:32.811
32568.123047, 17083.080078, 95155.929688, 59962.507813, 75142.781250, 58920.671875, 65018.585938, 88144.414063, 0.000, 0.000, 0.000,0.0,0.0,0.0,0.0,0.0, 14:29:32.812
32658.511719, 17178.029297, 95123.679688, 59620.281250, 75215.093750, 58675.027344, 64975.914063, 88182.257813, 0.000, 0.000, 0.000,0.0,0.0,0.0,0.0,0.0, 14:29:32.812
32666.916016, 17186.501953, 95149.609375, 59349.175781, 75236.906250, 58610.093750, 64961.988281, 88213.523438, 0.000, 0.000, 0.000,0.0,0.0,0.0,0.0,0.0, 14:29:32.812
32574.089844, 17088.980469, 95186.734375, 59652.914063, 75170.390625, 58854.601563, 65002.937500, 88182.390625, 0.000, 0.000, 0.000,0.0,0.0,0.0,0.0,0.0, 14:29:32.812
32557.080078, 17072.753906, 95166.726563, 59957.031250, 75140.953125, 58951.875000, 65024.910156, 88153.132813, 0.000, 0.000, 0.000,0.0,0.0,0.0,0.0,0.0, 14:29:32.813
32640.943359, 17161.826172, 95126.320313, 59698.332031, 75198.664063, 58730.859375, 64988.656250, 88182.187500, 0.256, 0.210, 0.934,0.0,0.0,0.0,0.0,0.0, 14:29:32.813
32668.392578, 17190.636719, 95137.109375, 59348.437500, 75233.781250, 58596.304688, 64959.441406, 88220.007813, 0.000, 0.000, 0.000,0.0,0.0,0.0,0.0,0.0, 14:29:32.814
32594.296875, 17108.740234, 95177.234375, 59557.898438, 75178.593750, 58809.582031, 64996.234375, 88198.882813, 0.000, 0.000, 0.000,0.0,0.0,0.0,0.0,0.0, 14:29:32.814
32550.912109, 17064.572266, 95174.531250, 59930.187500, 75130.398438, 58965.285156, 65024.687500, 88155.835938, 0.000, 0.000, 0.000,0.0,0.0,0.0,0.0,0.0, 14:29:32.814
32617.453125, 17137.171875, 95131.437500, 59789.105469, 75172.265625, 58779.410156, 64989.191406, 88160.734375, 0.000, 0.000, 0.000,0.0,0.0,0.0,0.0,0.0, 14:29:32.814
32674.806641, 17192.894531, 95131.007813, 59394.550781, 75224.570313, 58587.519531, 64950.078125, 88200.695313, 0.000, 0.000, 0.000,0.0,0.0,0.0,0.0,0.0, 14:29:32.815
32613.697266, 17132.187500, 95177.007813, 59509.148438, 75188.023438, 58758.019531, 64981.703125, 88192.671875, 0.000, 0.000, 0.000,0.0,0.0,0.0,0.0,0.0, 14:29:32.815
32550.240234, 17071.994141, 95183.757813, 59915.078125, 75134.226563, 58959.363281, 65020.796875, 88151.007813, 0.000, 0.000, 0.000,0.0,0.0,0.0,0.0,0.0, 14:29:32.818
32612.021484, 17124.251953, 95142.742188, 59862.328125, 75162.992188, 58820.667969, 64994.980469, 88148.351563, 0.000, 0.000, 0.000,0.0,0.0,0.0,0.0,0.0, 14:29:32.818
32689.714844, 17206.998047, 95131.500000, 59438.179688, 75235.546875, 58592.281250, 64960.738281, 88197.898438, 0.000, 0.000, 0.000,0.0,0.0,0.0,0.0,0.0, 14:29:32.819
32640.183594, 17155.007813, 95172.453125, 59438.898438, 75214.375000, 58707.972656, 64986.285156, 88203.984375, 0.256, 0.208, 0.934,0.0,0.0,0.0,0.0,0.0, 14:29:32.819
32566.871094, 17077.603516, 95187.539063, 59847.039063, 75149.710938, 58943.089844, 65029.023438, 88161.851563, 0.000, 0.000, 0.000,0.0,0.0,0.0,0.0,0.0, 14:29:32.820
32595.078125, 17110.349609, 95149.851563, 59907.367188, 75155.500000, 58865.261719, 65010.316406, 88147.210938, 0.000, 0.000, 0.000,0.0,0.0,0.0,0.0,0.0, 14:29:32.820
32675.433594, 17192.111328, 95120.882813, 59494.148438, 75219.296875, 58611.011719, 64962.816406, 88188.046875, 0.000, 0.000, 0.000,0.0,0.0,0.0,0.0,0.0, 14:29:32.821
32644.431641, 17157.332031, 95157.585938, 59391.914063, 75211.406250, 58663.246094, 64972.183594, 88203.085938, 0.000, 0.000, 0.000,0.0,0.0,0.0,0.0,0.0, 14:29:32.828
32561.103516, 17069.736328, 95181.187500, 59782.824219, 75138.273438, 58908.558594, 65009.285156, 88156.570313, 0.000, 0.000, 0.000,0.0,0.0,0.0,0.0,0.0, 14:29:32.828
32578.203125, 17088.376953, 95155.820313, 59946.906250, 75136.773438, 58894.250000, 65006.558594, 88135.179688, 0.000, 0.000, 0.000,0.0,0.0,0.0,0.0,0.0, 14:29:32.828
32665.777344, 17182.455078, 95130.875000, 59587.109375, 75207.335938, 58641.074219, 64964.425781, 88173.070313, 0.000, 0.000, 0.000,0.0,0.0,0.0,0.0,0.0, 14:29:32.829
32670.738281, 17189.183594, 95158.125000, 59366.542969, 75230.093750, 58624.042969, 64964.070313, 88211.468750, 0.000, 0.000, 0.000,0.0,0.0,0.0,0.0,0.0, 14:29:32.829
32586.451172, 17098.078125, 95192.273438, 59702.265625, 75166.500000, 58876.167969, 65010.046875, 88178.859375, 0.254, 0.214, 0.936,0.0,0.0,0.0,0.0,0.0, 14:29:32.829
32580.505859, 17095.462891, 95174.062500, 59959.535156, 75147.210938, 58935.691406, 65021.691406, 88149.601563, 0.000, 0.000, 0.000,0.0,0.0,0.0,0.0,0.0, 14:29:32.830
32654.623047, 17177.539063, 95131.617188, 59653.316406, 75204.968750, 58694.316406, 64976.562500, 88175.039063, 0.000, 0.000, 0.000,5.0807134E-6,6.7301153E-6,8.272638E-6,2.6025898E-5,3.305714E-5, 14:29:32.831
32673.332031, 17193.564453, 95147.062500, 59356.976563, 75235.117188, 58605.757813, 64961.878906, 88208.742188, 0.000, 0.000, 0.000,5.0807134E-6,6.7301153E-6,8.272638E-6,2.6025898E-5,3.305714E-5, 14:29:32.832
32585.892578, 17100.111328, 95181.812500, 59629.000000, 75174.187500, 58837.476563, 65002.000000, 88179.570313, 0.000, 0.000, 0.000,5.0807134E-6,6.7301153E-6,8.272638E-6,2.6025898E-5,3.305714E-5, 14:29:32.832
32551.603516, 17067.947266, 95168.960938, 59967.984375, 75133.976563, 58952.632813, 65021.089844, 88139.562500, 0.000, 0.000, 0.000,5.0807134E-6,6.7301153E-6,8.272638E-6,2.6025898E-5,3.305714E-5, 14:29:32.833
32633.300781, 17157.466797, 95128.328125, 59745.742188, 75191.289063, 58741.320313, 64986.421875, 88165.718750, 0.000, 0.000, 0.000,5.0807134E-6,6.7301153E-6,8.272638E-6,2.6025898E-5,3.305714E-5, 14:29:32.834
32681.601563, 17204.628906, 95137.601563, 59362.968750, 75238.515625, 58590.042969, 64957.496094, 88208.765625, 0.000, 0.000, 0.000,5.0807134E-6,6.7301153E-6,8.272638E-6,2.6025898E-5,3.305714E-5, 14:29:32.834
32603.527344, 17118.664063, 95177.140625, 59540.843750, 75189.234375, 58788.796875, 64994.644531, 88188.937500, 0.000, 0.000, 0.000,5.0807134E-6,6.7301153E-6,8.272638E-6,2.6025898E-5,3.305714E-5, 14:29:32.834
32550.375000, 17067.880859, 95173.523438, 59925.070313, 75130.937500, 58957.128906, 65018.718750, 88146.671875, 0.000, 0.000, 0.000,5.0807134E-6,6.7301153E-6,8.272638E-6,2.6025898E-5,3.305714E-5, 14:29:32.835
32615.552734, 17136.232422, 95137.671875, 59814.070313, 75172.179688, 58789.800781, 64991.515625, 88155.656250, 0.258, 0.220, 0.940,5.0807134E-6,6.7301153E-6,8.272638E-6,2.6025898E-5,3.305714E-5, 14:29:32.836
32676.908203, 17208.853516, 95131.570313, 59402.417969, 75237.398438, 58587.183594, 64957.230469, 88206.328125, 0.000, 0.000, 0.000,5.0807134E-6,6.7301153E-6,8.272638E-6,2.6025898E-5,3.305714E-5, 14:29:32.836
32614.769531, 17134.914063, 95172.476563, 59488.003906, 75194.460938, 58743.734375, 64981.347656, 88196.226563, 0.000, 0.000, 0.000,5.0807134E-6,6.7301153E-6,8.272638E-6,2.6025898E-5,3.305714E-5, 14:29:32.836
32558.533203, 17069.222656, 95175.375000, 59893.218750, 75135.875000, 58950.511719, 65021.691406, 88154.070313, 0.000, 0.000, 0.000,5.0807134E-6,6.7301153E-6,8.272638E-6,2.6025898E-5,3.305714E-5, 14:29:32.837
32616.021484, 17128.119141, 95142.210938, 59864.472656, 75169.804688, 58830.480469, 65007.585938, 88159.101563, 0.000, 0.000, 0.000,5.0807134E-6,6.7301153E-6,8.272638E-6,2.6025898E-5,3.305714E-5, 14:29:32.837
32685.691406, 17204.226563, 95137.671875, 59449.425781, 75237.421875, 58599.925781, 64969.859375, 88203.914063, 0.000, 0.000, 0.000,5.0807134E-6,6.7301153E-6,8.272638E-6,2.6025898E-5,3.305714E-5, 14:29:32.838
32642.441406, 17160.417969, 95182.445313, 59433.914063, 75219.609375, 58706.898438, 64992.968750, 88212.320313, 0.000, 0.000, 0.000,5.0807134E-6,6.7301153E-6,8.272638E-6,2.6025898E-5,3.305714E-5, 14:29:32.838
32564.187500, 17079.302734, 95194.757813, 59836.578125, 75149.335938, 58941.906250, 65030.050781, 88166.382813, 0.000, 0.000, 0.000,5.0807134E-6,6.7301153E-6,8.272638E-6,2.6025898E-5,3.305714E-5, 14:29:32.839
32596.531250, 17112.181641, 95151.750000, 59924.332031, 75152.578125, 58878.335938, 65014.160156, 88147.500000, 0.000, 0.000, 0.000,5.0807134E-6,6.7301153E-6,8.272638E-6,2.6025898E-5,3.305714E-5, 14:29:32.839
32680.908203, 17198.013672, 95125.648438, 59521.621094, 75226.492188, 58626.925781, 64972.585938, 88191.460938, 0.248, 0.220, 0.930,5.0807134E-6,6.7301153E-6,8.272638E-6,2.6025898E-5,3.305714E-5, 14:29:32.840
32652.142578, 17169.201172, 95164.046875, 59387.890625, 75227.835938, 58662.531250, 64982.597656, 88211.468750, 0.000, 0.000, 0.000,5.0807134E-6,6.7301153E-6,8.272638E-6,2.6025898E-5,3.305714E-5, 14:29:32.840
32569.642578, 17081.291016, 95192.273438, 59761.878906, 75166.789063, 58914.191406, 65033.335938, 88176.132813, 0.000, 0.000, 0.000,5.0807134E-6,6.7301153E-6,8.272638E-6,2.6025898E-5,3.305714E-5, 14:29:32.841
32579.812500, 17093.763672, 95166.546875, 59946.414063, 75155.953125, 58920.449219, 65029.269531, 88154.023438, 0.000, 0.000, 0.000,5.0807134E-6,6.7301153E-6,8.272638E-6,2.6025898E-5,3.305714E-5, 14:29:32.841
32656.791016, 17180.085938, 95137.648438, 59604.367188, 75216.945313, 58671.023438, 64980.789063, 88185.453125, 0.000, 0.000, 0.000,5.0807134E-6,6.7301153E-6,8.272638E-6,2.6025898E-5,3.305714E-5, 14:29:32.841
32653.728516, 17177.941406, 95156.984375, 59363.839844, 75232.414063, 58626.789063, 64969.859375, 88211.445313, 0.000, 0.000, 0.000,5.0807134E-6,6.7301153E-6,8.272638E-6,2.6025898E-5,3.305714E-5, 14:29:32.842
32570.134766, 17092.757813, 95192.296875, 59686.753906, 75166.453125, 58872.281250, 65012.101563, 88176.218750, 0.000, 0.000, 0.000,5.0807134E-6,6.7301153E-6,8.272638E-6,2.6025898E-5,3.305714E-5, 14:29:32.842
32559.494141, 17082.007813, 95176.273438, 59979.496094, 75139.054688, 58946.195313, 65024.574219, 88143.523438, 0.000, 0.000, 0.000,5.0807134E-6,6.7301153E-6,8.272638E-6,2.6025898E-5,3.305714E-5, 14:29:32.843
32651.359375, 17177.671875, 95130.695313, 59682.867188, 75201.523438, 58705.757813, 64980.519531, 88174.210938, 0.000, 0.000, 0.000,5.0807134E-6,6.7301153E-6,8.272638E-6,2.6025898E-5,3.305714E-5, 14:29:32.843
32670.046875, 17193.789063, 95144.171875, 59353.714844, 75232.367188, 58593.152344, 64957.074219, 88205.390625, 0.000, 0.000, 0.000,5.0807134E-6,6.7301153E-6,8.272638E-6,2.6025898E-5,3.305714E-5, 14:29:32.843
32592.507813, 17113.589844, 95182.375000, 59602.175781, 75175.437500, 58819.171875, 65000.703125, 88181.609375, 0.252, 0.214, 0.932,5.0807134E-6,6.7301153E-6,8.272638E-6,2.6025898E-5,3.305714E-5, 14:29:32.844
32558.935547, 17077.828125, 95176.250000, 59956.742188, 75134.648438, 58952.320313, 65027.300781, 88143.695313, 0.000, 0.000, 0.000,5.0807134E-6,6.7301153E-6,8.272638E-6,2.6025898E-5,3.305714E-5, 14:29:32.844
32633.703125, 17158.070313, 95132.421875, 59758.792969, 75184.625000, 58747.000000, 64990.710938, 88163.125000, 0.000, 0.000, 0.000,5.0807134E-6,6.7301153E-6,8.272638E-6,2.6025898E-5,3.305714E-5, 14:29:32.845
32680.796875, 17212.093750, 95139.906250, 59373.785156, 75236.531250, 58583.921875, 64964.515625, 88209.078125, 0.000, 0.000, 0.000,5.0807134E-6,6.7301153E-6,8.272638E-6,2.6025898E-5,3.305714E-5, 14:29:32.845
32609.785156, 17137.550781, 95182.710938, 59521.261719, 75192.453125, 58778.359375, 64999.945313, 88198.570313, 0.000, 0.000, 0.000,5.0807134E-6,6.7301153E-6,8.272638E-6,2.6025898E-5,3.305714E-5, 14:29:32.846
32551.023438, 17077.269531, 95187.781250, 59922.835938, 75137.601563, 58962.917969, 65035.125000, 88152.640625, 0.000, 0.000, 0.000,5.0807134E-6,6.7301153E-6,8.272638E-6,2.6025898E-5,3.305714E-5, 14:29:32.846
32606.925781, 17139.562500, 95146.500000, 59838.367188, 75172.914063, 58804.039063, 65007.343750, 88158.828125, 0.000, 0.000, 0.000,5.0807134E-6,6.7301153E-6,8.272638E-6,2.6025898E-5,3.305714E-5, 14:29:32.847
32672.662109, 17212.808594, 95138.835938, 59423.140625, 75237.398438, 58592.125000, 64968.941406, 88204.945313, 0.000, 0.000, 0.000,5.0807134E-6,6.7301153E-6,8.272638E-6,2.6025898E-5,3.305714E-5, 14:29:32.847
32621.140625, 17160.751953, 95174.304688, 59460.308594, 75210.757813, 58734.257813, 64993.394531, 88207.554688, 0.000, 0.000, 0.000,5.0807134E-6,6.7301153E-6,8.272638E-6,2.6025898E-5,3.305714E-5, 14:29:32.848
32549.078125, 17083.191406, 95189.664063, 59871.695313, 75148.726563, 58961.531250, 65033.089844, 88163.929688, 0.266, 0.214, 0.936,5.0807134E-6,6.7301153E-6,8.272638E-6,2.6025898E-5,3.305714E-5, 14:29:32.848
32587.679688, 17123.648438, 95148.843750, 59888.503906, 75168.109375, 58858.308594, 65015.097656, 88156.437500, 0.000, 0.000, 0.000,5.0807134E-6,6.7301153E-6,8.272638E-6,2.6025898E-5,3.305714E-5, 14:29:32.848
32670.292969, 17214.597656, 95134.921875, 59472.269531, 75240.328125, 58615.726563, 64973.343750, 88203.242188, 0.000, 0.000, 0.000,5.0807134E-6,6.7301153E-6,8.272638E-6,2.6025898E-5,3.305714E-5, 14:29:32.849
32643.357422, 17178.992188, 95179.757813, 59410.019531, 75229.421875, 58696.750000, 64987.046875, 88217.078125, 0.000, 0.000, 0.000,5.0807134E-6,6.7301153E-6,8.272638E-6,2.6025898E-5,3.305714E-5, 14:29:32.849
32559.919922, 17087.884766, 95198.671875, 59815.367188, 75154.695313, 58940.855469, 65024.308594, 88169.718750, 0.000, 0.000, 0.000,5.0807134E-6,6.7301153E-6,8.272638E-6,2.6025898E-5,3.305714E-5, 14:29:32.850
32590.160156, 17117.792969, 95158.929688, 59919.011719, 75165.695313, 58898.789063, 65021.914063, 88160.375000, 0.000, 0.000, 0.000,5.0807134E-6,6.7301153E-6,8.272638E-6,2.6025898E-5,3.305714E-5, 14:29:32.850
32673.376953, 17203.443359, 95137.828125, 59530.941406, 75234.515625, 58648.160156, 64980.855469, 88200.140625, 0.000, 0.000, 0.000,5.0807134E-6,6.7301153E-6,8.272638E-6,2.6025898E-5,3.305714E-5, 14:29:32.850
32655.427734, 17181.539063, 95170.906250, 59370.144531, 75236.640625, 58658.105469, 64981.683594, 88216.945313, 0.000, 0.000, 0.000,5.0807134E-6,6.7301153E-6,8.272638E-6,2.6025898E-5,3.305714E-5, 14:29:32.851
32575.810547, 17098.033203, 95198.625000, 59739.171875, 75168.468750, 58908.156250, 65027.234375, 88182.476563, 0.000, 0.000, 0.000,5.0807134E-6,6.7301153E-6,8.272638E-6,2.6025898E-5,3.305714E-5, 14:29:32.851
32572.546875, 17096.781250, 95169.632813, 59956.652344, 75147.835938, 58929.835938, 65028.152344, 88155.546875, 0.000, 0.000, 0.000,5.0807134E-6,6.7301153E-6,8.272638E-6,2.6025898E-5,3.305714E-5, 14:29:32.852
32656.367188, 17186.904297, 95134.992188, 59629.511719, 75208.945313, 58683.988281, 64983.468750, 88187.734375, 0.268, 0.212, 0.928,5.0807134E-6,6.7301153E-6,8.272638E-6,2.6025898E-5,3.305714E-5, 14:29:32.852
32669.017578, 17203.220703, 95160.046875, 59364.824219, 75237.445313, 58624.265625, 64978.554688, 88222.195313, 0.000, 0.000, 0.000,5.0807134E-6,6.7301153E-6,8.272638E-6,2.6025898E-5,3.305714E-5, 14:29:32.853
32584.998047, 17117.144531, 95200.007813, 59672.382813, 75180.914063, 58867.699219, 65030.183594, 88194.640625, 0.000, 0.000, 0.000,5.0807134E-6,6.7301153E-6,8.272638E-6,2.6025898E-5,3.305714E-5, 14:29:32.853
32566.958984, 17101.632813, 95185.171875, 59976.074219, 75144.218750, 58955.675781, 65036.332031, 88156.414063, 0.000, 0.000, 0.000,5.0807134E-6,6.7301153E-6,8.272638E-6,2.6025898E-5,3.305714E-5, 14:29:32.854
32645.056641, 17183.841797, 95143.460938, 59726.562500, 75196.718750, 58726.523438, 64990.152344, 88173.132813, 0.000, 0.000, 0.000,5.0807134E-6,6.7301153E-6,8.272638E-6,2.6025898E-5,3.305714E-5, 14:29:32.854
32688.351563, 17231.003906, 95157.382813, 59383.062500, 75245.781250, 58601.332031, 64971.398438, 88220.500000, 0.000, 0.000, 0.000,5.0807134E-6,6.7301153E-6,8.272638E-6,2.6025898E-5,3.305714E-5, 14:29:32.854
32604.085938, 17140.769531, 95194.195313, 59592.117188, 75190.460938, 58816.644531, 65007.542969, 88198.546875, 0.000, 0.000, 0.000,5.0807134E-6,6.7301153E-6,8.272638E-6,2.6025898E-5,3.305714E-5, 14:29:32.855
32554.666016, 17091.015625, 95185.234375, 59958.910156, 75141.578125, 58966.335938, 65033.179688, 88152.593750, 0.000, 0.000, 0.000,5.0807134E-6,6.7301153E-6,8.272638E-6,2.6025898E-5,3.305714E-5, 14:29:32.855
32621.275391, 17167.501953, 95140.171875, 59791.382813, 75189.570313, 58776.816406, 64999.628906, 88168.601563, 0.000, 0.000, 0.000,5.0807134E-6,6.7301153E-6,8.272638E-6,2.6025898E-5,3.305714E-5, 14:29:32.855
32674.740234, 17217.458984, 95140.015625, 59393.320313, 75239.257813, 58596.035156, 64964.917969, 88210.710938, 0.000, 0.000, 0.000,5.0807134E-6,6.7301153E-6,8.272638E-6,2.6025898E-5,3.305714E-5, 14:29:32.856
32608.712891, 17144.949219, 95181.593750, 59516.011719, 75197.343750, 58775.050781, 64998.066406, 88202.234375, 0.256, 0.212, 0.926,5.0807134E-6,6.7301153E-6,8.272638E-6,2.6025898E-5,3.305714E-5, 14:29:32.856
32551.671875, 17084.755859, 95189.906250, 59918.027344, 75140.593750, 58973.218750, 65033.539063, 88159.500000, 0.000, 0.000, 0.000,5.0807134E-6,6.7301153E-6,8.272638E-6,2.6025898E-5,3.305714E-5, 14:29:32.857
32607.886719, 17142.177734, 95151.398438, 59868.476563, 75171.687500, 58830.167969, 65008.972656, 88157.554688, 0.000, 0.000, 0.000,5.0807134E-6,6.7301153E-6,8.272638E-6,2.6025898E-5,3.305714E-5, 14:29:32.858
32684.150391, 17220.164063, 95142.117188, 59448.867188, 75238.492188, 58604.996094, 64967.890625, 88208.007813, 0.000, 0.000, 0.000,5.0807134E-6,6.7301153E-6,8.272638E-6,2.6025898E-5,3.305714E-5, 14:29:32.859
32629.455078, 17160.820313, 95184.992188, 59466.523438, 75211.625000, 58728.937500, 64988.656250, 88209.500000, 0.000, 0.000, 0.000,5.0807134E-6,6.7301153E-6,8.272638E-6,2.6025898E-5,3.305714E-5, 14:29:32.859
32563.964844, 17090.054688, 95203.968750, 59886.578125, 75150.671875, 58960.234375, 65034.320313, 88168.617188, 0.000, 0.000, 0.000,5.0807134E-6,6.7301153E-6,8.272638E-6,2.6025898E-5,3.305714E-5, 14:29:32.860
32603.437500, 17135.785156, 95165.718750, 59929.988281, 75170.367188, 58872.839844, 65024.351563, 88162.671875, 0.000, 0.000, 0.000,5.0807134E-6,6.7301153E-6,8.272638E-6,2.6025898E-5,3.305714E-5, 14:29:32.860
32686.251953, 17223.605469, 95148.867188, 59523.363281, 75243.617188, 58629.539063, 64983.449219, 88207.914063, 0.000, 0.000, 0.000,5.0807134E-6,6.7301153E-6,8.272638E-6,2.6025898E-5,3.305714E-5, 14:29:32.860
32648.386719, 17189.228516, 95187.898438, 59434.515625, 75232.570313, 58690.359375, 64991.671875, 88220.343750, 0.000, 0.000, 0.000,0.0,0.0,0.0,0.0,0.0, 14:29:33.265
32561.169922, 17091.908203, 95204.953125, 59824.488281, 75159.570313, 58931.175781, 65031.882813, 88175.820313, 0.256, 0.218, 0.936,0.0,0.0,0.0,0.0,0.0, 14:29:33.266
32585.824219, 17114.015625, 95172.070313, 59976.457031, 75157.492188, 58906.230469, 65026.117188, 88152.257813, 0.000, 0.000, 0.000,0.0,0.0,0.0,0.0,0.0, 14:29:33.266
32680.841797, 17215.783203, 95142.390625, 59590.015625, 75232.210938, 58651.242188, 64980.855469, 88194.484375, 0.000, 0.000, 0.000,0.0,0.0,0.0,0.0,0.0, 14:29:33.267
32677.064453, 17210.955078, 95172.851563, 59374.859375, 75249.445313, 58643.152344, 64985.390625, 88225.257813, 0.000, 0.000, 0.000,0.0,0.0,0.0,0.0,0.0, 14:29:33.267
32582.560547, 17111.578125, 95206.382813, 59725.199219, 75177.500000, 58895.390625, 65026.074219, 88183.507813, 0.000, 0.000, 0.000,0.0,0.0,0.0,0.0,0.0, 14:29:33.268
32572.257813, 17102.882813, 95185.210938, 59977.417969, 75154.406250, 58938.105469, 65030.273438, 88151.453125, 0.000, 0.000, 0.000,0.0,0.0,0.0,0.0,0.0, 14:29:33.268
32658.712891, 17194.636719, 95149.203125, 59672.449219, 75220.703125, 58695.386719, 64993.730469, 88184.984375, 0.000, 0.000, 0.000,0.0,0.0,0.0,0.0,0.0, 14:29:33.269
32680.751953, 17218.800781, 95172.312500, 59375.417969, 75257.335938, 58614.542969, 64986.242188, 88226.132813, 0.000, 0.000, 0.000,0.0,0.0,0.0,0.0,0.0, 14:29:33.269
32586.898438, 17121.792969, 95212.906250, 59667.777344, 75186.078125, 58851.335938, 65021.824219, 88189.695313, 0.000, 0.000, 0.000,0.0,0.0,0.0,0.0,0.0, 14:29:33.270
32563.451172, 17095.730469, 95198.132813, 59992.414063, 75150.828125, 58958.312500, 65039.750000, 88153.601563, 0.000, 0.000, 0.000,0.0,0.0,0.0,0.0,0.0, 14:29:33.271
32654.400391, 17192.603516, 95156.109375, 59752.179688, 75210.015625, 58740.515625, 65003.429688, 88179.078125, 0.250, 0.218, 0.932,0.0,0.0,0.0,0.0,0.0, 14:29:33.271
32695.169922, 17230.802734, 95169.898438, 59394.015625, 75257.023438, 58600.058594, 64987.382813, 88225.039063, 0.000, 0.000, 0.000,0.0,0.0,0.0,0.0,0.0, 14:29:33.271
32624.134766, 17158.046875, 95208.679688, 59588.609375, 75194.750000, 58804.128906, 65010.335938, 88202.460938, 0.000, 0.000, 0.000,0.0,0.0,0.0,0.0,0.0, 14:29:33.272
32581.578125, 17114.193359, 95205.734375, 59967.941406, 75142.000000, 58967.343750, 65034.609375, 88158.804688, 0.000, 0.000, 0.000,0.0,0.0,0.0,0.0,0.0, 14:29:33.272
32649.146484, 17186.679688, 95162.304688, 59834.542969, 75191.421875, 58790.046875, 65014.785156, 88173.203125, 0.000, 0.000, 0.000,0.0,0.0,0.0,0.0,0.0, 14:29:33.272
32723.466797, 17260.619141, 95163.132813, 59429.351563, 75259.703125, 58596.234375, 64992.367188, 88224.546875, 0.000, 0.000, 0.000,0.0,0.0,0.0,0.0,0.0, 14:29:33.273
32669.242188, 17199.017578, 95207.898438, 59528.707031, 75208.562500, 58759.917969, 65005.867188, 88212.851563, 0.000, 0.000, 0.000,0.0,0.0,0.0,0.0,0.0, 14:29:33.273
32608.824219, 17134.310547, 95210.585938, 59937.562500, 75137.148438, 58962.960938, 65031.324219, 88161.062500, 0.000, 0.000, 0.000,0.0,0.0,0.0,0.0,0.0, 14:29:33.274
32677.980469, 17205.769531, 95170.414063, 59894.046875, 75179.687500, 58836.183594, 65020.238281, 88169.203125, 0.000, 0.000, 0.000,0.0,0.0,0.0,0.0,0.0, 14:29:33.274
32765.666016, 17296.830078, 95163.640625, 59477.453125, 75245.554688, 58608.214844, 64979.335938, 88213.726563, 0.256, 0.222, 0.930,0.0,0.0,0.0,0.0,0.0, 14:29:33.275
32725.791016, 17251.970703, 95213.867188, 59478.144531, 75223.140625, 58720.757813, 64996.054688, 88217.304688, 0.000, 0.000, 0.000,0.0,0.0,0.0,0.0,0.0, 14:29:33.275
32663.697266, 17185.183594, 95229.578125, 59894.714844, 75158.789063, 58955.406250, 65037.898438, 88175.328125, 0.000, 0.000, 0.000,0.0,0.0,0.0,0.0,0.0, 14:29:33.275
32709.585938, 17235.898438, 95189.726563, 59962.398438, 75171.148438, 58884.683594, 65024.328125, 88162.898438, 0.000, 0.000, 0.000,0.0,0.0,0.0,0.0,0.0, 14:29:33.276
32806.144531, 17338.896484, 95169.742188, 59569.207031, 75236.507813, 58636.378906, 64981.859375, 88203.757813, 0.000, 0.000, 0.000,0.0,0.0,0.0,0.0,0.0, 14:29:33.276
32797.339844, 17328.726563, 95207.187500, 59448.867188, 75235.656250, 58681.910156, 64988.925781, 88227.648438, 0.000, 0.000, 0.000,0.0,0.0,0.0,0.0,0.0, 14:29:33.278
32716.783203, 17245.755859, 95235.257813, 59838.925781, 75171.062500, 58933.367188, 65037.761719, 88189.968750, 0.000, 0.000, 0.000,0.0,0.0,0.0,0.0,0.0, 14:29:33.279
32744.320313, 17274.902344, 95207.382813, 60017.718750, 75172.062500, 58932.695313, 65045.183594, 88172.398438, 0.000, 0.000, 0.000,0.0,0.0,0.0,0.0,0.0, 14:29:33.279
32838.132813, 17376.603516, 95175.671875, 59662.078125, 75233.000000, 58682.468750, 64992.054688, 88205.367188, 0.000, 0.000, 0.000,0.0,0.0,0.0,0.0,0.0, 14:29:33.279
32844.410156, 17384.091797, 95202.539063, 59426.871094, 75257.406250, 58652.117188, 64994.175781, 88240.171875, 0.000, 0.000, 0.000,0.0,0.0,0.0,0.0,0.0, 14:29:33.280
32755.876953, 17289.654297, 95236.445313, 59751.062500, 75197.570313, 58900.285156, 65047.464844, 88208.656250, 0.260, 0.224, 0.934,0.0,0.0,0.0,0.0,0.0, 14:29:33.280
32740.455078, 17277.652344, 95220.554688, 60030.769531, 75169.742188, 58965.332031, 65055.933594, 88170.117188, 0.000, 0.000, 0.000,0.0,0.0,0.0,0.0,0.0, 14:29:33.281
32818.371094, 17368.064453, 95185.882813, 59742.546875, 75219.335938, 58724.488281, 64997.550781, 88192.578125, 0.000, 0.000, 0.000,0.0,0.0,0.0,0.0,0.0, 14:29:33.282
32849.218750, 17392.382813, 95200.187500, 59424.187500, 75257.781250, 58623.281250, 64984.183594, 88234.382813, 0.000, 0.000, 0.000,0.0,0.0,0.0,0.0,0.0, 14:29:33.283
32763.968750, 17302.931641, 95233.539063, 59668.738281, 75201.640625, 58849.503906, 65023.523438, 88208.250000, 0.000, 0.000, 0.000,0.0,0.0,0.0,0.0,0.0, 14:29:33.283
32720.136719, 17250.718750, 95225.695313, 60021.671875, 75160.218750, 58974.964844, 65049.027344, 88162.812500, 0.000, 0.000, 0.000,0.0,0.0,0.0,0.0,0.0, 14:29:33.283
32799.015625, 17331.585938, 95178.796875, 59803.855469, 75217.171875, 58762.644531, 65015.121094, 88188.492188, 0.000, 0.000, 0.000,0.0,0.0,0.0,0.0,0.0, 14:29:33.284
32838.554688, 17376.826172, 95186.484375, 59412.433594, 75270.101563, 58604.796875, 64986.710938, 88235.945313, 0.000, 0.000, 0.000,0.0,0.0,0.0,0.0,0.0, 14:29:33.284
32744.902344, 17281.363281, 95227.703125, 59592.296875, 75212.429688, 58802.339844, 65014.582031, 88211.289063, 0.000, 0.000, 0.000,0.0,0.0,0.0,0.0,0.0, 14:29:33.284
32679.388672, 17211.222656, 95219.703125, 59987.765625, 75152.484375, 58975.164063, 65042.031250, 88162.921875, 0.000, 0.000, 0.000,0.0,0.0,0.0,0.0,0.0, 14:29:33.285
32737.123047, 17270.208984, 95175.218750, 59882.175781, 75195.445313, 58809.761719, 65017.398438, 88173.156250, 0.256, 0.222, 0.926,0.0,0.0,0.0,0.0,0.0, 14:29:33.285
32799.687500, 17347.142578, 95173.320313, 59460.152344, 75262.906250, 58605.445313, 64986.375000, 88225.617188, 0.000, 0.000, 0.000,0.0,0.0,0.0,0.0,0.0, 14:29:33.286
32720.986328, 17267.482422, 95213.484375, 59523.632813, 75223.031250, 58755.582031, 65011.433594, 88219.226563, 0.000, 0.000, 0.000,0.0,0.0,0.0,0.0,0.0, 14:29:33.286
32634.148438, 17174.789063, 95217.960938, 59939.957031, 75153.851563, 58967.855469, 65045.160156, 88168.445313, 0.000, 0.000, 0.000,0.0,0.0,0.0,0.0,0.0, 14:29:33.286
32677.734375, 17222.621094, 95172.406250, 59942.683594, 75177.835938, 58854.242188, 65026.117188, 88161.851563, 0.000, 0.000, 0.000,0.0,0.0,0.0,0.0,0.0, 14:29:33.287
32756.345703, 17302.955078, 95152.757813, 59515.695313, 75250.093750, 58616.800781, 64987.804688, 88210.867188, 0.000, 0.000, 0.000,0.0,0.0,0.0,0.0,0.0, 14:29:33.287
32714.927734, 17258.048828, 95196.078125, 59468.222656, 75235.726563, 58708.152344, 65005.910156, 88224.390625, 0.000, 0.000, 0.000,0.0,0.0,0.0,0.0,0.0, 14:29:33.287
32625.320313, 17161.712891, 95212.414063, 59880.523438, 75160.468750, 58949.503906, 65041.761719, 88178.429688, 0.000, 0.000, 0.000,0.0,0.0,0.0,0.0,0.0, 14:29:33.288
32647.224609, 17178.521484, 95176.828125, 59989.867188, 75164.156250, 58902.074219, 65033.203125, 88164.664063, 0.000, 0.000, 0.000,0.0,0.0,0.0,0.0,0.0, 14:29:33.288
32736.855469, 17273.605469, 95151.640625, 59587.714844, 75240.507813, 58651.871094, 64993.105469, 88214.773438, 0.256, 0.214, 0.926,0.0,0.0,0.0,0.0,0.0, 14:29:33.288
32720.896484, 17256.574219, 95190.734375, 59421.773438, 75250.523438, 58676.589844, 65002.738281, 88243.921875, 0.000, 0.000, 0.000,0.0,0.0,0.0,0.0,0.0, 14:29:33.289
32621.095703, 17152.458984, 95226.070313, 59811.253906, 75173.296875, 58928.515625, 65038.812500, 88195.960938, 0.000, 0.000, 0.000,0.0,0.0,0.0,0.0,0.0, 14:29:33.289
32624.761719, 17156.527344, 95192.453125, 60014.273438, 75164.351563, 58940.250000, 65042.277344, 88172.398438, 0.000, 0.000, 0.000,0.0,0.0,0.0,0.0,0.0, 14:29:33.290
32712.312500, 17249.220703, 95158.437500, 59666.324219, 75235.296875, 58692.281250, 65003.160156, 88205.882813, 0.000, 0.000, 0.000,0.0,0.0,0.0,0.0,0.0, 14:29:33.290
32724.181641, 17260.732422, 95188.273438, 59398.128906, 75266.859375, 58638.414063, 65001.621094, 88243.273438, 0.000, 0.000, 0.000,0.0,0.0,0.0,0.0,0.0, 14:29:33.290
32634.193359, 17170.587891, 95225.828125, 59714.425781, 75199.085938, 58879.187500, 65043.371094, 88205.164063, 0.000, 0.000, 0.000,0.0,0.0,0.0,0.0,0.0, 14:29:33.291
32601.494141, 17135.292969, 95206.046875, 60026.769531, 75158.789063, 58958.667969, 65048.960938, 88157.671875, 0.000, 0.000, 0.000,0.0,0.0,0.0,0.0,0.0, 14:29:33.291
32687.501953, 17221.392578, 95158.882813, 59758.304688, 75219.117188, 58728.671875, 65008.371094, 88184.218750, 0.000, 0.000, 0.000,0.0,0.0,0.0,0.0,0.0, 14:29:33.291
32726.439453, 17259.814453, 95171.312500, 59405.054688, 75264.828125, 58610.765625, 64993.527344, 88231.453125, 0.000, 0.000, 0.000,0.0,0.0,0.0,0.0,0.0, 14:29:33.292
32638.462891, 17166.228516, 95214.132813, 59650.703125, 75200.898438, 58833.632813, 65029.222656, 88201.656250, 0.264, 0.214, 0.930,0.0,0.0,0.0,0.0,0.0, 14:29:33.292
32596.666016, 17124.029297, 95202.335938, 60012.800781, 75154.070313, 58970.785156, 65051.105469, 88162.187500, 0.000, 0.000, 0.000,0.0,0.0,0.0,0.0,0.0, 14:29:33.293
32668.525391, 17202.728516, 95159.554688, 59834.945313, 75204.585938, 58778.312500, 65019.636719, 88183.953125, 0.000, 0.000, 0.000,0.0,0.0,0.0,0.0,0.0, 14:29:33.293
32725.121094, 17259.994141, 95164.429688, 59439.300781, 75263.328125, 58608.328125, 64994.757813, 88237.039063, 0.000, 0.000, 0.000,0.0,0.0,0.0,0.0,0.0, 14:29:33.293
32653.685547, 17180.935547, 95213.890625, 59587.937500, 75214.312500, 58796.195313, 65027.570313, 88223.273438, 0.000, 0.000, 0.000,0.0,0.0,0.0,0.0,0.0, 14:29:33.293
32596.375000, 17116.697266, 95215.992188, 59994.250000, 75154.609375, 58982.453125, 65057.968750, 88177.382813, 0.000, 0.000, 0.000,0.0,0.0,0.0,0.0,0.0, 14:29:33.294
32659.832031, 17187.462891, 95177.882813, 59908.351563, 75198.265625, 58831.218750, 65036.914063, 88188.445313, 0.000, 0.000, 0.000,0.0,0.0,0.0,0.0,0.0, 14:29:33.294
32727.333984, 17259.078125, 95174.039063, 59482.238281, 75263.148438, 58612.171875, 64997.687500, 88232.031250, 0.000, 0.000, 0.000,0.0,0.0,0.0,0.0,0.0, 14:29:33.294
32674.181641, 17200.695313, 95220.750000, 59517.039063, 75233.890625, 58743.601563, 65021.246094, 88230.109375, 0.000, 0.000, 0.000,0.0,0.0,0.0,0.0,0.0, 14:29:33.295
32593.447266, 17116.697266, 95228.617188, 59931.441406, 75162.921875, 58963.429688, 65050.390625, 88178.343750, 0.268, 0.218, 0.934,0.0,0.0,0.0,0.0,0.0, 14:29:33.295
32633.343750, 17163.880859, 95188.273438, 59966.242188, 75180.718750, 58872.882813, 65034.343750, 88172.085938, 0.000, 0.000, 0.000,0.0,0.0,0.0,0.0,0.0, 14:29:33.296
32715.197266, 17249.980469, 95171.335938, 59550.164063, 75254.875000, 58633.382813, 64997.910156, 88223.609375, 0.000, 0.000, 0.000,0.0,0.0,0.0,0.0,0.0, 14:29:33.296
32671.923828, 17204.406250, 95203.093750, 59476.671875, 75239.437500, 58698.742188, 65009.242188, 88232.476563, 0.000, 0.000, 0.000,0.0,0.0,0.0,0.0,0.0, 14:29:33.296
32581.533203, 17115.042969, 95215.414063, 59874.128906, 75162.054688, 58936.363281, 65041.964844, 88179.101563, 0.000, 0.000, 0.000,0.0,0.0,0.0,0.0,0.0, 14:29:33.297
32604.466797, 17139.451172, 95178.460938, 60000.328125, 75167.882813, 58900.914063, 65035.660156, 88159.140625, 0.000, 0.000, 0.000,0.0,0.0,0.0,0.0,0.0, 14:29:33.297
32693.693359, 17226.466797, 95150.835938, 59617.710938, 75237.960938, 58646.437500, 64996.613281, 88197.234375, 0.000, 0.000, 0.000,0.0,0.0,0.0,0.0,0.0, 14:29:33.297
32685.871094, 17213.123047, 95179.914063, 59427.878906, 75251.414063, 58644.472656, 65001.957031, 88224.390625, 0.000, 0.000, 0.000,0.0,0.0,0.0,0.0,0.0, 14:29:33.298
32603.013672, 17123.380859, 95211.429688, 59772.050781, 75189.898438, 58895.257813, 65047.464844, 88192.804688, 0.000, 0.000, 0.000,0.0,0.0,0.0,0.0,0.0, 14:29:33.298
32590.652344, 17112.181641, 95189.976563, 60028.648438, 75162.523438, 58936.875000, 65051.128906, 88157.265625, 0.000, 0.000, 0.000,0.0,0.0,0.0,0.0,0.0, 14:29:33.298
32683.033203, 17208.607422, 95151.101563, 59711.699219, 75230.960938, 58696.996094, 65014.269531, 88198.078125, 0.264, 0.216, 0.932,0.0,0.0,0.0,0.0,0.0, 14:29:33.299
32697.427734, 17225.728516, 95171.218750, 59417.328125, 75259.750000, 58622.925781, 65001.574219, 88236.078125, 0.000, 0.000, 0.000,0.0,0.0,0.0,0.0,0.0, 14:29:33.299
32615.708984, 17142.937500, 95209.132813, 59703.898438, 75196.632813, 58860.949219, 65038.386719, 88207.375000, 0.000, 0.000, 0.000,0.0,0.0,0.0,0.0,0.0, 14:29:33.299
32587.367188, 17118.775391, 95198.734375, 60031.171875, 75163.015625, 58966.984375, 65057.722656, 88172.351563, 0.000, 0.000, 0.000,0.0,0.0,0.0,0.0,0.0, 14:29:33.300
32673.107422, 17207.646484, 95160.671875, 59789.527344, 75224.570313, 58750.640625, 65024.621094, 88201.078125, 0.000, 0.000, 0.000,0.0,0.0,0.0,0.0,0.0, 14:29:33.300
32710.837891, 17240.882813, 95171.648438, 59426.714844, 75269.070313, 58613.781250, 65001.710938, 88242.875000, 0.000, 0.000, 0.000,0.0,0.0,0.0,0.0,0.0, 14:29:33.301
32630.326172, 17156.572266, 95219.234375, 59634.250000, 75214.781250, 58826.390625, 65038.121094, 88223.273438, 0.000, 0.000, 0.000,0.0,0.0,0.0,0.0,0.0, 14:29:33.301
32577.533203, 17103.845703, 95216.664063, 60025.316406, 75159.570313, 58984.394531, 65062.058594, 88175.929688, 0.000, 0.000, 0.000,0.0,0.0,0.0,0.0,0.0, 14:29:33.301
32658.310547, 17188.312500, 95167.289063, 59864.964844, 75209.281250, 58798.921875, 65033.695313, 88195.375000, 0.000, 0.000, 0.000,0.0,0.0,0.0,0.0,0.0, 14:29:33.302
32716.158203, 17247.365234, 95174.039063, 59458.253906, 75268.132813, 58610.609375, 65005.933594, 88238.289063, 0.264, 0.220, 0.930,0.0,0.0,0.0,0.0,0.0, 14:29:33.302
32650.689453, 17179.125000, 95212.593750, 59562.589844, 75223.718750, 58775.832031, 65026.496094, 88226.625000, 0.000, 0.000, 0.000,0.0,0.0,0.0,0.0,0.0, 14:29:33.303
32588.529297, 17112.986328, 95221.023438, 59971.539063, 75167.171875, 58979.703125, 65063.445313, 88184.648438, 0.000, 0.000, 0.000,0.0,0.0,0.0,0.0,0.0, 14:29:33.303
32642.107422, 17170.251953, 95187.539063, 59932.734375, 75200.203125, 58851.449219, 65046.972656, 88190.304688, 0.000, 0.000, 0.000,0.0,0.0,0.0,0.0,0.0, 14:29:33.303
32712.402344, 17244.281250, 95173.921875, 59516.011719, 75265.203125, 58623.570313, 65007.097656, 88234.000000, 0.000, 0.000, 0.000,0.0,0.0,0.0,0.0,0.0, 14:29:33.304
32667.005859, 17194.123047, 95207.226563, 59503.269531, 75245.757813, 58733.585938, 65024.640625, 88238.914063, 0.000, 0.000, 0.000,0.0,0.0,0.0,0.0,0.0, 14:29:33.304
32581.667969, 17106.035156, 95222.203125, 59919.460938, 75169.789063, 58966.359375, 65056.785156, 88184.242188, 0.000, 0.000, 0.000,0.0,0.0,0.0,0.0,0.0, 14:29:33.305
32610.947266, 17142.580078, 95185.976563, 59997.085938, 75173.984375, 58893.089844, 65040.109375, 88167.570313, 0.000, 0.000, 0.000,0.0,0.0,0.0,0.0,0.0, 14:29:33.305
32699.193359, 17231.451172, 95157.007813, 59576.250000, 75244.460938, 58638.234375, 64995.742188, 88212.117188, 0.000, 0.000, 0.000,0.0,0.0,0.0,0.0,0.0, 14:29:33.306
32673.152344, 17202.595703, 95194.445313, 59459.863281, 75239.945313, 58684.523438, 65005.285156, 88230.648438, 0.000, 0.000, 0.000,0.0,0.0,0.0,0.0,0.0, 14:29:33.306
32586.740234, 17112.583984, 95218.789063, 59849.273438, 75168.804688, 58932.093750, 65045.898438, 88188.734375, 0.266, 0.218, 0.934,0.0,0.0,0.0,0.0,0.0, 14:29:33.306
32603.527344, 17132.746094, 95188.406250, 60015.570313, 75171.171875, 58925.410156, 65052.558594, 88170.546875, 0.000, 0.000, 0.000,0.0,0.0,0.0,0.0,0.0, 14:29:33.307
32696.443359, 17228.121094, 95163.304688, 59650.343750, 75243.726563, 58679.093750, 65014.070313, 88210.976563, 0.000, 0.000, 0.000,0.0,0.0,0.0,0.0,0.0, 14:29:33.307
32691.927734, 17224.230469, 95192.679688, 59429.820313, 75261.984375, 58657.546875, 65015.949219, 88244.726563, 0.000, 0.000, 0.000,0.0,0.0,0.0,0.0,0.0, 14:29:33.307
32603.728516, 17129.861328, 95226.632813, 59770.730469, 75193.234375, 58903.906250, 65056.960938, 88207.265625, 0.000, 0.000, 0.000,0.0,0.0,0.0,0.0,0.0, 14:29:33.308
32592.775391, 17116.093750, 95202.312500, 60031.441406, 75168.023438, 58959.296875, 65062.281250, 88174.476563, 0.000, 0.000, 0.000,0.0,0.0,0.0,0.0,0.0, 14:29:33.308
32670.962891, 17200.382813, 95167.398438, 59732.507813, 75228.257813, 58719.347656, 65018.875000, 88200.250000, 0.000, 0.000, 0.000,0.0,0.0,0.0,0.0,0.0, 14:29:33.309
32694.789063, 17222.734375, 95182.867188, 59427.632813, 75260.156250, 58623.527344, 65008.593750, 88237.171875, 0.000, 0.000, 0.000,0.0,0.0,0.0,0.0,0.0, 14:29:33.309
32612.580078, 17133.707031, 95217.687500, 59690.218750, 75198.085938, 58851.828125, 65045.406250, 88209.476563, 0.000, 0.000, 0.000,0.0,0.0,0.0,0.0,0.0, 14:29:33.309
32585.511719, 17105.833984, 95202.757813, 60025.964844, 75161.718750, 58972.484375, 65061.566406, 88175.304688, 0.000, 0.000, 0.000,0.0,0.0,0.0,0.0,0.0, 14:29:33.310
32666.111328, 17188.847656, 95163.578125, 59807.812500, 75221.421875, 58766.132813, 65027.457031, 88199.335938, 0.264, 0.214, 0.932,0.0,0.0,0.0,0.0,0.0, 14:29:33.310
32713.029297, 17242.671875, 95175.046875, 59429.664063, 75271.062500, 58614.140625, 65003.250000, 88246.585938, 0.000, 0.000, 0.000,0.0,0.0,0.0,0.0,0.0, 14:29:33.311
32625.029297, 17150.359375, 95209.625000, 59599.070313, 75209.976563, 58807.527344, 65029.558594, 88221.820313, 0.000, 0.000, 0.000,0.0,0.0,0.0,0.0,0.0, 14:29:33.311
32566.535156, 17090.388672, 95210.984375, 59996.417969, 75157.406250, 58981.960938, 65061.945313, 88176.375000, 0.000, 0.000, 0.000,0.0,0.0,0.0,0.0,0.0, 14:29:33.311
32635.087891, 17159.925781, 95168.359375, 59888.746094, 75200.671875, 58811.953125, 65035.347656, 88184.828125, 0.000, 0.000, 0.000,0.0,0.0,0.0,0.0,0.0, 14:29:33.312
32704.109375, 17232.099609, 95162.750000, 59463.328125, 75266.523438, 58605.691406, 65001.554688, 88233.929688, 0.000, 0.000, 0.000,0.0,0.0,0.0,0.0,0.0, 14:29:33.312
32639.736328, 17167.099609, 95209.468750, 59533.667969, 75231.875000, 58761.996094, 65030.789063, 88231.851563, 0.000, 0.000, 0.000,0.0,0.0,0.0,0.0,0.0, 14:29:33.312
32566.580078, 17092.580078, 95221.890625, 59958.148438, 75168.039063, 58977.132813, 65065.277344, 88183.593750, 0.000, 0.000, 0.000,0.0,0.0,0.0,0.0,0.0, 14:29:33.313
32624.203125, 17149.173828, 95177.679688, 59946.839844, 75199.890625, 58857.527344, 65045.941406, 88183.531250, 0.000, 0.000, 0.000,0.0,0.0,0.0,0.0,0.0, 14:29:33.313
32702.166016, 17232.210938, 95159.398438, 59508.656250, 75272.445313, 58618.609375, 65009.644531, 88232.234375, 0.262, 0.216, 0.932,0.0,0.0,0.0,0.0,0.0, 14:29:33.313
32660.970703, 17187.820313, 95199.585938, 59464.488281, 75253.203125, 58714.097656, 65027.390625, 88238.046875, 0.000, 0.000, 0.000,0.0,0.0,0.0,0.0,0.0, 14:29:33.314
32573.531250, 17097.876953, 95223.101563, 59894.179688, 75175.101563, 58958.511719, 65062.460938, 88185.359375, 0.000, 0.000, 0.000,0.0,0.0,0.0,0.0,0.0, 14:29:33.314
32606.253906, 17131.851563, 95183.359375, 59999.457031, 75181.210938, 58898.675781, 65047.062500, 88171.570313, 0.000, 0.000, 0.000,0.0,0.0,0.0,0.0,0.0, 14:29:33.315
32703.439453, 17232.994141, 95159.171875, 59595.203125, 75261.632813, 58647.332031, 65013.218750, 88221.929688, 0.000, 0.000, 0.000,0.0,0.0,0.0,0.0,0.0, 14:29:33.744
32677.578125, 17203.466797, 95195.335938, 59446.742188, 75250.851563, 58673.664063, 65010.960938, 88235.140625, 0.000, 0.000, 0.000,0.0,0.0,0.0,0.0,0.0, 14:29:33.745
32584.082031, 17106.593750, 95220.375000, 59829.046875, 75175.773438, 58921.296875, 65050.011719, 88192.914063, 0.000, 0.000, 0.000,0.0,0.0,0.0,0.0,0.0, 14:29:33.745
32595.101563, 17122.597656, 95190.734375, 60020.734375, 75169.335938, 58930.035156, 65050.480469, 88170.406250, 0.000, 0.000, 0.000,0.0,0.0,0.0,0.0,0.0, 14:29:33.745
32680.908203, 17214.216797, 95161.703125, 59670.417969, 75238.406250, 58682.445313, 65010.917969, 88204.203125, 0.000, 0.000, 0.000,0.0,0.0,0.0,0.0,0.0, 14:29:33.745
32686.609375, 17223.962891, 95191.781250, 59424.746094, 75263.554688, 58641.542969, 65009.511719, 88241.796875, 0.000, 0.000, 0.000,0.0,0.0,0.0,0.0,0.0, 14:29:33.745
32586.898438, 17122.261719, 95221.914063, 59745.742188, 75193.992188, 58880.886719, 65045.941406, 88202.664063, 0.258, 0.214, 0.928,0.0,0.0,0.0,0.0,0.0, 14:29:33.746
32579.990234, 17104.515625, 95196.101563, 60027.664063, 75168.507813, 58951.292969, 65059.062500, 88165.265625, 0.000, 0.000, 0.000,0.0,0.0,0.0,0.0,0.0, 14:29:33.747
32662.714844, 17194.996094, 95160.515625, 59750.769531, 75230.132813, 58720.445313, 65018.605469, 88190.125000, 0.000, 0.000, 0.000,0.0,0.0,0.0,0.0,0.0, 14:29:33.747
32687.167969, 17224.187500, 95175.960938, 59424.726563, 75262.656250, 58608.484375, 64998.289063, 88226.179688, 0.000, 0.000, 0.000,0.0,0.0,0.0,0.0,0.0, 14:29:33.748
32609.181641, 17141.910156, 95213.218750, 59665.117188, 75203.578125, 58834.214844, 65032.109375, 88204.429688, 0.000, 0.000, 0.000,0.0,0.0,0.0,0.0,0.0, 14:29:33.748
32568.480469, 17101.117188, 95206.828125, 60030.523438, 75158.429688, 58971.296875, 65055.332031, 88163.546875, 0.000, 0.000, 0.000,0.0,0.0,0.0,0.0,0.0, 14:29:33.748
32648.431641, 17188.000000, 95166.257813, 59838.949219, 75215.492188, 58774.691406, 65024.820313, 88188.226563, 0.000, 0.000, 0.000,0.0,0.0,0.0,0.0,0.0, 14:29:33.749
32696.064453, 17233.216797, 95171.156250, 59449.000000, 75267.687500, 58606.628906, 64993.796875, 88232.437500, 0.000, 0.000, 0.000,0.0,0.0,0.0,0.0,0.0, 14:29:33.749
32631.289063, 17162.808594, 95214.765625, 59592.050781, 75224.257813, 58791.679688, 65027.414063, 88221.531250, 0.000, 0.000, 0.000,0.0,0.0,0.0,0.0,0.0, 14:29:33.749
32579.074219, 17108.203125, 95225.070313, 59996.417969, 75165.046875, 58982.718750, 65059.308594, 88177.562500, 0.264, 0.210, 0.930,0.0,0.0,0.0,0.0,0.0, 14:29:33.750
32633.300781, 17167.615234, 95182.242188, 59910.628906, 75197.367188, 58829.968750, 65030.343750, 88180.421875, 0.000, 0.000, 0.000,0.0,0.0,0.0,0.0,0.0, 14:29:33.750
32694.900391, 17232.390625, 95168.960938, 59485.074219, 75258.859375, 58610.296875, 64992.769531, 88222.976563, 0.000, 0.000, 0.000,0.0,0.0,0.0,0.0,0.0, 14:29:33.750
32643.558594, 17181.718750, 95210.914063, 59523.632813, 75229.445313, 58745.277344, 65018.203125, 88225.710938, 0.000, 0.000, 0.000,0.0,0.0,0.0,0.0,0.0, 14:29:33.750
32574.492188, 17110.281250, 95220.484375, 59931.707031, 75160.484375, 58964.949219, 65048.804688, 88180.757813, 0.000, 0.000, 0.000,0.0,0.0,0.0,0.0,0.0, 14:29:33.751
32618.570313, 17164.150391, 95186.890625, 59950.527344, 75190.437500, 58868.835938, 65040.312500, 88181.023438, 0.000, 0.000, 0.000,0.0,0.0,0.0,0.0,0.0, 14:29:33.751
32689.000000, 17238.648438, 95176.273438, 59541.312500, 75257.562500, 58631.171875, 65003.386719, 88224.273438, 0.000, 0.000, 0.000,0.0,0.0,0.0,0.0,0.0, 14:29:33.751
32659.361328, 17199.578125, 95210.695313, 59468.871094, 75244.617188, 58706.562500, 65014.359375, 88237.460938, 0.000, 0.000, 0.000,0.0,0.0,0.0,0.0,0.0, 14:29:33.752
32581.779297, 17112.875000, 95230.585938, 59880.812500, 75170.570313, 58947.449219, 65050.210938, 88187.710938, 0.000, 0.000, 0.000,0.0,0.0,0.0,0.0,0.0, 14:29:33.752
32614.859375, 17144.390625, 95195.203125, 60017.136719, 75171.953125, 58907.597656, 65042.769531, 88167.570313, 0.000, 0.000, 0.000,0.0,0.0,0.0,0.0,0.0, 14:29:33.752
32707.642578, 17243.900391, 95171.023438, 59627.500000, 75251.617188, 58657.480469, 65008.527344, 88215.335938, 0.266, 0.210, 0.932,0.0,0.0,0.0,0.0,0.0, 14:29:33.753
32696.980469, 17229.439453, 95210.179688, 59458.074219, 75256.554688, 58665.863281, 65011.140625, 88238.070313, 0.000, 0.000, 0.000,0.0,0.0,0.0,0.0,0.0, 14:29:33.753
32610.433594, 17141.240234, 95235.390625, 59826.363281, 75182.125000, 58913.472656, 65047.843750, 88195.960938, 0.000, 0.000, 0.000,0.0,0.0,0.0,0.0,0.0, 14:29:33.753
32609.607422, 17141.931641, 95201.578125, 60050.953125, 75165.851563, 58941.234375, 65052.671875, 88166.679688, 0.000, 0.000, 0.000,0.0,0.0,0.0,0.0,0.0, 14:29:33.754
32699.595703, 17236.457031, 95166.820313, 59717.308594, 75231.718750, 58697.378906, 65010.226563, 88200.515625, 0.000, 0.000, 0.000,0.0,0.0,0.0,0.0,0.0, 14:29:33.754
32707.910156, 17247.208984, 95193.328125, 59442.003906, 75257.828125, 58631.910156, 64999.250000, 88233.617188, 0.000, 0.000, 0.000,0.0,0.0,0.0,0.0,0.0, 14:29:33.754
32622.683594, 17155.097656, 95233.070313, 59741.652344, 75195.625000, 58869.976563, 65041.273438, 88203.039063, 0.000, 0.000, 0.000,0.0,0.0,0.0,0.0,0.0, 14:29:33.754
32602.007813, 17133.080078, 95214.492188, 60050.285156, 75158.054688, 58960.703125, 65052.468750, 88166.429688, 0.000, 0.000, 0.000,0.0,0.0,0.0,0.0,0.0, 14:29:33.755
32681.177734, 17218.375000, 95174.437500, 59788.835938, 75219.765625, 58735.644531, 65016.015625, 88195.062500, 0.000, 0.000, 0.000,0.0,0.0,0.0,0.0,0.0, 14:29:33.755
32710.078125, 17248.349609, 95186.531250, 59434.671875, 75261.023438, 58604.238281, 64994.132813, 88233.710938, 0.000, 0.000, 0.000,0.0,0.0,0.0,0.0,0.0, 14:29:33.755
32631.556641, 17165.603516, 95224.796875, 59646.542969, 75207.335938, 58819.238281, 65034.523438, 88216.226563, 0.270, 0.208, 0.926,0.0,0.0,0.0,0.0,0.0, 14:29:33.756
32585.824219, 17118.910156, 95217.804688, 60020.289063, 75160.351563, 58972.750000, 65064.832031, 88178.906250, 0.000, 0.000, 0.000,0.0,0.0,0.0,0.0,0.0, 14:29:33.756
32651.337891, 17184.601563, 95173.453125, 59860.136719, 75201.281250, 58786.113281, 65028.015625, 88189.609375, 0.000, 0.000, 0.000,0.0,0.0,0.0,0.0,0.0, 14:29:33.756
32714.681641, 17244.906250, 95169.882813, 59455.058594, 75261.429688, 58601.957031, 64997.953125, 88234.562500, 0.000, 0.000, 0.000,0.0,0.0,0.0,0.0,0.0, 14:29:33.757
32646.287109, 17173.582031, 95213.000000, 59573.609375, 75222.265625, 58775.386719, 65029.113281, 88222.421875, 0.000, 0.000, 0.000,0.0,0.0,0.0,0.0,0.0, 14:29:33.757
32586.427734, 17113.478516, 95223.031250, 59985.152344, 75166.570313, 58974.472656, 65065.925781, 88182.320313, 0.000, 0.000, 0.000,0.0,0.0,0.0,0.0,0.0, 14:29:33.758
32639.513672, 17172.197266, 95185.101563, 59933.316406, 75197.835938, 58838.035156, 65041.742188, 88186.546875, 0.000, 0.000, 0.000,0.0,0.0,0.0,0.0,0.0, 14:29:33.758
32705.138672, 17240.347656, 95172.117188, 59512.769531, 75254.789063, 58611.882813, 64997.328125, 88226.734375, 0.000, 0.000, 0.000,0.0,0.0,0.0,0.0,0.0, 14:29:33.758
32659.003906, 17193.654297, 95213.890625, 59525.980469, 75231.320313, 58735.710938, 65018.027344, 88231.765625, 0.000, 0.000, 0.000,0.0,0.0,0.0,0.0,0.0, 14:29:33.759
32585.914063, 17119.736328, 95230.585938, 59947.265625, 75166.343750, 58966.625000, 65058.191406, 88188.890625, 0.272, 0.206, 0.930,0.0,0.0,0.0,0.0,0.0, 14:29:33.759
32633.322266, 17168.933594, 95195.382813, 59994.671875, 75188.226563, 58888.128906, 65050.191406, 88188.718750, 0.000, 0.000, 0.000,0.0,0.0,0.0,0.0,0.0, 14:29:33.759
32716.537109, 17253.914063, 95176.320313, 59582.417969, 75255.054688, 58642.371094, 65007.765625, 88230.648438, 0.000, 0.000, 0.000,0.0,0.0,0.0,0.0,0.0, 14:29:33.760
32691.369141, 17230.132813, 95214.132813, 59473.339844, 75252.664063, 58697.644531, 65021.980469, 88248.773438, 0.000, 0.000, 0.000,0.0,0.0,0.0,0.0,0.0, 14:29:33.760
32604.980469, 17139.832031, 95243.398438, 59867.691406, 75180.890625, 58947.113281, 65063.355469, 88202.078125, 0.000, 0.000, 0.000,0.0,0.0,0.0,0.0,0.0, 14:29:33.760
32621.408203, 17158.248047, 95211.140625, 60024.644531, 75174.992188, 58927.710938, 65057.363281, 88179.531250, 0.000, 0.000, 0.000,0.0,0.0,0.0,0.0,0.0, 14:29:33.760
32706.234375, 17245.644531, 95182.265625, 59656.535156, 75243.617188, 58674.824219, 65013.355469, 88214.531250, 0.000, 0.000, 0.000,0.0,0.0,0.0,0.0,0.0, 14:29:33.761
32697.314453, 17234.714844, 95210.093750, 59448.285156, 75257.382813, 58657.011719, 65010.359375, 88241.757813, 0.000, 0.000, 0.000,0.0,0.0,0.0,0.0,0.0, 14:29:33.761
32610.835938, 17147.453125, 95242.632813, 59796.703125, 75191.867188, 58906.210938, 65053.855469, 88205.835938, 0.000, 0.000, 0.000,0.0,0.0,0.0,0.0,0.0, 14:29:33.761
32603.058594, 17144.949219, 95223.257813, 60059.605469, 75170.789063, 58958.109375, 65061.769531, 88175.257813, 0.000, 0.000, 0.000,0.0,0.0,0.0,0.0,0.0, 14:29:33.762
32697.962891, 17245.689453, 95184.859375, 59743.550781, 75241.132813, 58716.667969, 65024.597656, 88214.507813, 0.274, 0.212, 0.932,0.0,0.0,0.0,0.0,0.0, 14:29:33.762
32716.894531, 17262.341797, 95201.148438, 59426.179688, 75275.445313, 58626.410156, 65012.414063, 88254.179688, 0.000, 0.000, 0.000,0.0,0.0,0.0,0.0,0.0, 14:29:33.763
32623.263672, 17161.466797, 95239.484375, 59703.832031, 75210.468750, 58862.222656, 65051.062500, 88222.218750, 0.000, 0.000, 0.000,0.0,0.0,0.0,0.0,0.0, 14:29:33.764
32591.123047, 17126.197266, 95229.179688, 60044.472656, 75170.234375, 58977.019531, 65071.582031, 88181.945313, 0.000, 0.000, 0.000,0.0,0.0,0.0,0.0,0.0, 14:29:33.764
32675.656250, 17215.447266, 95192.078125, 59820.910156, 75232.125000, 58768.968750, 65042.054688, 88209.437500, 0.000, 0.000, 0.000,0.0,0.0,0.0,0.0,0.0, 14:29:33.764
32723.914063, 17266.408203, 95203.320313, 59442.941406, 75287.000000, 58622.968750, 65024.128906, 88260.820313, 0.000, 0.000, 0.000,0.0,0.0,0.0,0.0,0.0, 14:29:33.765
32636.898438, 17173.984375, 95247.796875, 59640.507813, 75230.132813, 58829.722656, 65055.687500, 88235.898438, 0.000, 0.000, 0.000,0.0,0.0,0.0,0.0,0.0, 14:29:33.765
32589.580078, 17126.644531, 95243.101563, 60031.351563, 75179.375000, 58996.464844, 65084.457031, 88192.468750, 0.000, 0.000, 0.000,0.0,0.0,0.0,0.0,0.0, 14:29:33.766
32655.562500, 17195.017578, 95198.156250, 59896.281250, 75217.218750, 58820.804688, 65049.429688, 88201.750000, 0.000, 0.000, 0.000,0.0,0.0,0.0,0.0,0.0, 14:29:33.767
32720.873047, 17258.921875, 95197.664063, 59476.894531, 75279.914063, 58622.609375, 65018.382813, 88253.312500, 0.270, 0.204, 0.930,0.0,0.0,0.0,0.0,0.0, 14:29:33.767
32657.619141, 17190.546875, 95245.046875, 59571.062500, 75243.164063, 58783.789063, 65044.937500, 88244.882813, 0.000, 0.000, 0.000,0.0,0.0,0.0,0.0,0.0, 14:29:33.767
32591.435547, 17128.521484, 95255.085938, 59994.023438, 75182.125000, 58994.542969, 65080.277344, 88199.648438, 0.000, 0.000, 0.000,0.0,0.0,0.0,0.0,0.0, 14:29:33.767
32650.041016, 17181.785156, 95210.601563, 59962.933594, 75210.421875, 58869.105469, 65060.269531, 88199.578125, 0.000, 0.000, 0.000,0.0,0.0,0.0,0.0,0.0, 14:29:33.768
32727.466797, 17260.597656, 95199.562500, 59543.679688, 75279.976563, 58635.687500, 65022.921875, 88243.210938, 0.000, 0.000, 0.000,0.0,0.0,0.0,0.0,0.0, 14:29:33.768
32682.273438, 17216.587891, 95238.898438, 59514.332031, 75261.515625, 58735.218750, 65043.484375, 88250.851563, 0.000, 0.000, 0.000,0.0,0.0,0.0,0.0,0.0, 14:29:33.768
32599.750000, 17129.169922, 95261.429688, 59933.453125, 75189.164063, 58972.996094, 65082.218750, 88202.640625, 0.000, 0.000, 0.000,0.0,0.0,0.0,0.0,0.0, 14:29:33.768
32633.121094, 17164.955078, 95224.664063, 60032.804688, 75197.859375, 58915.328125, 65071.648438, 88190.726563, 0.000, 0.000, 0.000,0.0,0.0,0.0,0.0,0.0, 14:29:33.769
32723.824219, 17261.335938, 95201.039063, 59626.761719, 75277.187500, 58667.335938, 65038.074219, 88242.023438, 0.000, 0.000, 0.000,0.0,0.0,0.0,0.0,0.0, 14:29:33.769
32695.482422, 17232.390625, 95234.234375, 59491.355469, 75270.078125, 58697.957031, 65041.027344, 88253.804688, 0.000, 0.000, 0.000,0.0,0.0,0.0,0.0,0.0, 14:29:33.769
32612.468750, 17143.273438, 95257.898438, 59867.582031, 75203.265625, 58942.957031, 65084.164063, 88214.937500, 0.266, 0.208, 0.934,0.0,0.0,0.0,0.0,0.0, 14:29:33.770
32618.369141, 17151.611328, 95227.125000, 60053.613281, 75194.257813, 58946.824219, 65083.875000, 88194.031250, 0.000, 0.000, 0.000,0.0,0.0,0.0,0.0,0.0, 14:29:33.771
32713.005859, 17252.283203, 95194.242188, 59685.949219, 75266.906250, 58700.214844, 65044.042969, 88234.828125, 0.000, 0.000, 0.000,0.0,0.0,0.0,0.0,0.0, 14:29:33.771
32711.419922, 17250.763672, 95224.710938, 59446.453125, 75284.562500, 58669.683594, 65037.250000, 88263.257813, 0.000, 0.000, 0.000,0.0,0.0,0.0,0.0,0.0, 14:29:33.771
32616.201172, 17149.107422, 95257.054688, 59786.355469, 75207.757813, 58916.179688, 65073.324219, 88221.390625, 0.000, 0.000, 0.000,0.0,0.0,0.0,0.0,0.0, 14:29:33.772
32607.505859, 17140.009766, 95238.429688, 60076.750000, 75184.468750, 58984.105469, 65087.382813, 88188.023438, 0.000, 0.000, 0.000,0.0,0.0,0.0,0.0,0.0, 14:29:33.772
32695.101563, 17231.250000, 95195.789063, 59784.031250, 75248.953125, 58744.160156, 65050.144531, 88216.812500, 0.000, 0.000, 0.000,0.0,0.0,0.0,0.0,0.0, 14:29:33.773
32724.539063, 17258.876953, 95210.875000, 59453.492188, 75287.218750, 58634.078125, 65030.988281, 88253.757813, 0.000, 0.000, 0.000,0.0,0.0,0.0,0.0,0.0, 14:29:33.773
32646.085938, 17173.984375, 95254.304688, 59701.484375, 75230.804688, 58859.203125, 65070.531250, 88230.312500, 0.000, 0.000, 0.000,0.0,0.0,0.0,0.0,0.0, 14:29:33.773
32613.205078, 17139.808594, 95246.835938, 60054.640625, 75189.859375, 58988.062500, 65094.289063, 88191.953125, 0.264, 0.206, 0.930,0.0,0.0,0.0,0.0,0.0, 14:29:33.773
32678.830078, 17209.277344, 95203.695313, 59862.039063, 75235.765625, 58785.265625, 65060.917969, 88205.945313, 0.000, 0.000, 0.000,0.0,0.0,0.0,0.0,0.0, 14:29:33.773
32730.351563, 17264.509766, 95209.171875, 59476.066406, 75287.398438, 58620.441406, 65033.449219, 88250.804688, 0.000, 0.000, 0.000,0.0,0.0,0.0,0.0,0.0, 14:29:33.774
32656.814453, 17188.111328, 95247.421875, 59626.628906, 75235.609375, 58809.917969, 65058.863281, 88232.882813, 0.000, 0.000, 0.000,0.0,0.0,0.0,0.0,0.0, 14:29:33.774
32601.292969, 17128.275391, 95248.421875, 60027.621094, 75182.171875, 58995.996094, 65089.707031, 88189.679688, 0.000, 0.000, 0.000,0.0,0.0,0.0,0.0,0.0, 14:29:33.774
32662.156250, 17195.957031, 95208.726563, 59939.242188, 75223.382813, 58843.425781, 65065.859375, 88202.281250, 0.000, 0.000, 0.000,0.0,0.0,0.0,0.0,0.0, 14:29:33.774
32733.636719, 17273.851563, 95205.148438, 59527.992188, 75290.085938, 58636.425781, 65034.230469, 88251.140625, 0.000, 0.000, 0.000,0.0,0.0,0.0,0.0,0.0, 14:29:33.774
32680.619141, 17217.681641, 95247.062500, 59575.332031, 75263.101563, 58778.917969, 65061.457031, 88252.531250, 0.000, 0.000, 0.000,0.0,0.0,0.0,0.0,0.0, 14:29:33.774
32592.507813, 17124.453125, 95251.953125, 59986.089844, 75187.710938, 58995.035156, 65089.929688, 88200.742188, 0.000, 0.000, 0.000,0.0,0.0,0.0,0.0,0.0, 14:29:33.775
32643.558594, 17180.130859, 95210.023438, 59991.855469, 75213.218750, 58890.316406, 65074.039063, 88199.335938, 0.000, 0.000, 0.000,0.0,0.0,0.0,0.0,0.0, 14:29:33.775
32728.517578, 17275.013672, 95196.703125, 59562.011719, 75286.460938, 58652.652344, 65033.449219, 88248.617188, 0.264, 0.208, 0.928,0.0,0.0,0.0,0.0,0.0, 14:29:33.775
32677.779297, 17220.275391, 95235.257813, 59509.976563, 75260.984375, 58733.320313, 65043.617188, 88250.648438, 0.000, 0.000, 0.000,0.0,0.0,0.0,0.0,0.0, 14:29:33.775
32587.589844, 17123.089844, 95251.601563, 59937.519531, 75181.921875, 58975.835938, 65080.050781, 88199.218750, 0.000, 0.000, 0.000,0.0,0.0,0.0,0.0,0.0, 14:29:33.775
32619.128906, 17158.091797, 95209.062500, 60045.390625, 75194.328125, 58929.949219, 65076.140625, 88188.960938, 0.000, 0.000, 0.000,0.0,0.0,0.0,0.0,0.0, 14:29:33.775
32708.849609, 17250.226563, 95189.171875, 59657.988281, 75265.164063, 58675.046875, 65034.765625, 88226.218750, 0.000, 0.000, 0.000,0.0,0.0,0.0,0.0,0.0, 14:29:33.776
32696.869141, 17237.978516, 95220.148438, 59486.171875, 75271.015625, 58685.039063, 65036.691406, 88249.531250, 0.000, 0.000, 0.000,0.0,0.0,0.0,0.0,0.0, 14:29:33.776
32608.130859, 17145.441406, 95248.242188, 59854.683594, 75199.867188, 58933.835938, 65077.304688, 88206.414063, 0.000, 0.000, 0.000,0.0,0.0,0.0,0.0,0.0, 14:29:33.776
32613.003906, 17151.521484, 95229.085938, 60076.949219, 75191.242188, 58961.015625, 65085.304688, 88181.406250, 0.000, 0.000, 0.000,0.0,0.0,0.0,0.0,0.0, 14:29:33.776
32710.636719, 17251.410156, 95192.679688, 59726.675781, 75266.812500, 58714.433594, 65047.753906, 88227.093750, 0.000, 0.000, 0.000,0.0,0.0,0.0,0.0,0.0, 14:29:33.776
32721.365234, 17259.927734, 95219.812500, 59452.488281, 75293.570313, 58659.023438, 65042.613281, 88263.546875, 0.000, 0.000, 0.000,0.0,0.0,0.0,0.0,0.0, 14:29:33.776
32632.628906, 17164.910156, 95260.046875, 59761.230469, 75231.703125, 58901.136719, 65083.046875, 88231.585938, 0.268, 0.202, 0.922,0.0,0.0,0.0,0.0,0.0, 14:29:33.776
32602.722656, 17135.539063, 95240.265625, 60068.277344, 75197.164063, 58988.574219, 65094.738281, 88194.929688, 0.000, 0.000, 0.000,0.0,0.0,0.0,0.0,0.0, 14:29:33.777
32689.984375, 17217.548828, 95202.023438, 59809.757813, 75252.781250, 58763.671875, 65053.117188, 88219.289063, 0.000, 0.000, 0.000,0.0,0.0,0.0,0.0,0.0, 14:29:33.777
32719.980469, 17248.550781, 95214.671875, 59468.175781, 75288.453125, 58639.398438, 65029.203125, 88258.476563, 0.000, 0.000, 0.000,0.0,0.0,0.0,0.0,0.0, 14:29:33.777
32641.949219, 17169.626953, 95252.601563, 59686.554688, 75237.242188, 58854.062500, 65070.777344, 88240.906250, 0.000, 0.000, 0.000,0.0,0.0,0.0,0.0,0.0, 14:29:33.778
32597.671875, 17128.029297, 95249.273438, 60060.609375, 75187.218750, 59001.160156, 65097.574219, 88197.140625, 0.000, 0.000, 0.000,0.0,0.0,0.0,0.0,0.0, 14:29:33.778
32664.816406, 17209.009766, 95206.250000, 59888.816406, 75237.312500, 58811.484375, 65068.964844, 88215.828125, 0.000, 0.000, 0.000,0.0,0.0,0.0,0.0,0.0, 14:29:33.778
32715.822266, 17261.582031, 95206.156250, 59481.050781, 75289.437500, 58629.898438, 65034.500000, 88258.500000, 0.000, 0.000, 0.000,0.0,0.0,0.0,0.0,0.0, 14:29:33.779
32654.332031, 17195.621094, 95242.273438, 59608.054688, 75235.210938, 58802.496094, 65052.113281, 88235.968750, 0.000, 0.000, 0.000,0.0,0.0,0.0,0.0,0.0, 14:29:33.779
32596.441406, 17136.009766, 95248.156250, 60031.507813, 75172.867188, 58993.785156, 65082.062500, 88183.820313, 0.276, 0.210, 0.924,0.0,0.0,0.0,0.0,0.0, 14:29:33.779
32669.197266, 17209.523438, 95209.867188, 59975.964844, 75218.289063, 58853.660156, 65066.687500, 88196.132813, 0.000, 0.000, 0.000,0.0,0.0,0.0,0.0,0.0, 14:29:33.779
32751.115234, 17293.566406, 95200.187500, 59544.351563, 75289.789063, 58631.484375, 65033.425781, 88249.242188, 0.000, 0.000, 0.000,0.0,0.0,0.0,0.0,0.0, 14:29:33.779
32698.656250, 17235.294922, 95236.734375, 59553.425781, 75261.359375, 58756.117188, 65054.617188, 88251.593750, 0.000, 0.000, 0.000,0.0,0.0,0.0,0.0,0.0, 14:29:33.780
32625.431641, 17154.917969, 95253.609375, 59966.687500, 75198.218750, 58987.101563, 65097.800781, 88207.710938, 0.000, 0.000, 0.000,0.0,0.0,0.0,0.0,0.0, 14:29:33.780
32663.027344, 17191.150391, 95218.429688, 60017.539063, 75214.312500, 58902.855469, 65084.386719, 88197.570313, 0.000, 0.000, 0.000,0.0,0.0,0.0,0.0,0.0, 14:29:33.780
32746.689453, 17276.466797, 95199.140625, 59607.449219, 75284.273438, 58657.546875, 65043.285156, 88243.296875, 0.000, 0.000, 0.000,0.0,0.0,0.0,0.0,0.0, 14:29:33.780
32718.058594, 17244.929688, 95240.132813, 59513.910156, 75282.437500, 58720.289063, 65058.839844, 88266.031250, 0.000, 0.000, 0.000,0.0,0.0,0.0,0.0,0.0, 14:29:33.781
32630.439453, 17152.013672, 95266.460938, 59923.550781, 75211.000000, 58969.710938, 65099.812500, 88221.414063, 0.000, 0.000, 0.000,0.0,0.0,0.0,0.0,0.0, 14:29:33.781
32648.341797, 17170.654297, 95227.679688, 60071.117188, 75205.390625, 58940.183594, 65090.175781, 88197.390625, 0.000, 0.000, 0.000,0.0,0.0,0.0,0.0,0.66190207, 14:29:34.224
32742.220703, 17269.605469, 95202.781250, 59689.816406, 75278.281250, 58688.949219, 65049.808594, 88239.031250, 0.274, 0.218, 0.928,0.0,0.0,0.0,0.0,0.66190207, 14:29:34.224
32739.873047, 17267.884766, 95239.953125, 59489.144531, 75296.343750, 58684.367188, 65057.074219, 88269.382813, 0.000, 0.000, 0.000,0.0,0.0,0.0,0.0,0.66190207, 14:29:34.225
32645.437500, 17171.123047, 95268.945313, 59836.847656, 75221.421875, 58928.023438, 65090.734375, 88226.062500, 0.000, 0.000, 0.000,0.0,0.0,0.0,0.0,0.66190207, 14:29:34.225
32639.826172, 17168.195313, 95244.531250, 60084.167969, 75203.671875, 58970.023438, 65100.906250, 88197.429688, 0.000, 0.000, 0.000,0.0,0.0,0.0,0.0,0.66190207, 14:29:34.225
32725.902344, 17259.703125, 95211.523438, 59768.363281, 75269.851563, 58730.882813, 65062.105469, 88231.250000, 0.000, 0.000, 0.000,0.0,0.0,0.0,0.0,0.66190207, 14:29:34.226
32735.871094, 17274.500000, 95234.093750, 59479.109375, 75295.578125, 58654.730469, 65050.257813, 88267.390625, 0.000, 0.000, 0.000,0.0,0.0,0.0,0.0,0.66190207, 14:29:34.226
32649.951172, 17182.142578, 95270.281250, 59768.226563, 75233.289063, 58893.984375, 65091.742188, 88240.484375, 0.000, 0.000, 0.000,0.0,0.0,0.0,0.0,0.66190207, 14:29:34.226
32626.191406, 17160.484375, 95252.937500, 60091.949219, 75200.117188, 59002.882813, 65113.175781, 88205.609375, 0.000, 0.000, 0.000,0.0,0.0,0.0,0.0,0.66190207, 14:29:34.227
32692.308594, 17229.818359, 95203.539063, 59849.500000, 75250.742188, 58783.230469, 65074.687500, 88221.750000, 0.000, 0.000, 0.000,0.0,0.0,0.0,0.0,0.66190207, 14:29:34.227
32742.421875, 17275.082031, 95209.484375, 59486.574219, 75295.468750, 58637.207031, 65049.652344, 88260.914063, 0.270, 0.220, 0.934,0.0,0.0,0.0,0.0,0.66190207, 14:29:34.227
32674.962891, 17200.716797, 95250.523438, 59672.250000, 75250.117188, 58840.875000, 65084.968750, 88244.929688, 0.000, 0.000, 0.000,0.0,0.0,0.0,0.0,0.66190207, 14:29:34.227
32624.671875, 17146.738281, 95252.648438, 60051.402344, 75200.453125, 59003.351563, 65111.589844, 88201.726563, 0.000, 0.000, 0.000,0.0,0.0,0.0,0.0,0.66190207, 14:29:34.228
32697.046875, 17223.539063, 95214.117188, 59909.066406, 75253.265625, 58830.839844, 65088.835938, 88220.117188, 0.000, 0.000, 0.000,0.0,0.0,0.0,0.0,0.66190207, 14:29:34.228
32757.753906, 17284.134766, 95211.320313, 59497.996094, 75311.023438, 58637.675781, 65057.363281, 88268.062500, 0.000, 0.000, 0.000,0.0,0.0,0.0,0.0,0.66190207, 14:29:34.228
32687.011719, 17210.685547, 95253.789063, 59596.007813, 75266.390625, 58801.871094, 65081.593750, 88260.132813, 0.000, 0.000, 0.000,0.0,0.0,0.0,0.0,0.66190207, 14:29:34.228
32612.802734, 17136.857422, 95260.609375, 60019.058594, 75198.437500, 59009.207031, 65109.042969, 88210.953125, 0.000, 0.000, 0.000,0.0,0.0,0.0,0.0,0.66190207, 14:29:34.229
32677.734375, 17204.248047, 95218.046875, 59983.789063, 75234.648438, 58884.574219, 65092.835938, 88222.375000, 0.000, 0.000, 0.000,0.0,0.0,0.0,0.0,0.66190207, 14:29:34.229
32752.099609, 17280.669922, 95203.140625, 59550.902344, 75297.281250, 58651.132813, 65048.804688, 88264.710938, 0.000, 0.000, 0.000,0.0,0.0,0.0,0.0,0.66190207, 14:29:34.229
32703.550781, 17231.384766, 95244.515625, 59539.546875, 75272.406250, 58759.203125, 65066.507813, 88268.312500, 0.000, 0.000, 0.000,0.0,0.0,0.0,0.0,0.66190207, 14:29:34.229
32621.789063, 17148.726563, 95263.218750, 59959.246094, 75206.507813, 58996.109375, 65104.886719, 88221.351563, 0.270, 0.218, 0.928,0.0,0.0,0.0,0.0,0.66190207, 14:29:34.230
32655.785156, 17181.361328, 95221.492188, 60026.992188, 75216.593750, 58924.875000, 65087.339844, 88207.046875, 0.000, 0.000, 0.000,0.0,0.0,0.0,0.0,0.66190207, 14:29:34.230
32744.455078, 17273.115234, 95197.796875, 59611.808594, 75293.054688, 58673.929688, 65050.636719, 88254.226563, 0.000, 0.000, 0.000,0.0,0.0,0.0,0.0,0.66190207, 14:29:34.230
32719.332031, 17250.337891, 95235.859375, 59480.695313, 75290.843750, 58715.953125, 65058.593750, 88271.664063, 0.000, 0.000, 0.000,0.0,0.0,0.0,0.0,0.66190207, 14:29:34.230
32630.125000, 17157.175781, 95262.664063, 59875.605469, 75214.687500, 58964.769531, 65095.160156, 88223.093750, 0.000, 0.000, 0.000,0.0,0.0,0.0,0.0,0.66190207, 14:29:34.231
32636.228516, 17164.597656, 95234.609375, 60068.367188, 75200.812500, 58961.574219, 65090.648438, 88194.257813, 0.000, 0.000, 0.000,0.0,0.0,0.0,0.0,0.66190207, 14:29:34.231
32729.457031, 17266.476563, 95198.312500, 59709.152344, 75270.031250, 58705.738281, 65046.660156, 88230.242188, 0.000, 0.000, 0.000,0.0,0.0,0.0,0.0,0.66190207, 14:29:34.231
32734.798828, 17272.041016, 95224.328125, 59478.636719, 75290.421875, 58673.773438, 65046.390625, 88261.359375, 0.000, 0.000, 0.000,0.0,0.0,0.0,0.0,0.66190207, 14:29:34.231
32640.742188, 17175.974609, 95262.125000, 59812.507813, 75221.929688, 58921.117188, 65088.679688, 88227.648438, 0.000, 0.000, 0.000,0.0,0.0,0.0,0.0,0.66190207, 14:29:34.232
32618.101563, 17156.482422, 95239.375000, 60087.343750, 75188.000000, 58977.132813, 65092.835938, 88185.250000, 0.272, 0.204, 0.930,0.0,0.0,0.0,0.0,0.66190207, 14:29:34.232
32713.095703, 17247.275391, 95197.882813, 59782.710938, 75258.835938, 58734.839844, 65056.695313, 88215.601563, 0.000, 0.000, 0.000,0.0,0.0,0.0,0.0,0.66190207, 14:29:34.232
32736.072266, 17268.376953, 95223.210938, 59472.289063, 75292.164063, 58640.113281, 65043.128906, 88253.578125, 0.000, 0.000, 0.000,0.0,0.0,0.0,0.0,0.66190207, 14:29:34.233
32653.148438, 17182.052734, 95263.960938, 59745.027344, 75227.210938, 58872.949219, 65080.140625, 88225.484375, 0.000, 0.000, 0.000,0.0,0.0,0.0,0.0,0.66190207, 14:29:34.233
32622.167969, 17151.677734, 95249.359375, 60084.214844, 75190.351563, 58995.460938, 65102.605469, 88191.757813, 0.000, 0.000, 0.000,0.0,0.0,0.0,0.0,0.66190207, 14:29:34.233
32696.308594, 17231.205078, 95208.835938, 59873.660156, 75244.484375, 58789.421875, 65069.457031, 88212.476563, 0.000, 0.000, 0.000,0.0,0.0,0.0,0.0,0.66190207, 14:29:34.233
32743.382813, 17276.892578, 95213.710938, 59489.253906, 75295.289063, 58630.769531, 65041.136719, 88255.593750, 0.000, 0.000, 0.000,0.0,0.0,0.0,0.0,0.66190207, 14:29:34.234
32666.939453, 17196.560547, 95254.234375, 59656.667969, 75244.484375, 58827.824219, 65075.179688, 88238.289063, 0.000, 0.000, 0.000,0.0,0.0,0.0,0.0,0.66190207, 14:29:34.234
32611.910156, 17143.207031, 95255.937500, 60060.253906, 75184.937500, 59004.132813, 65101.175781, 88190.343750, 0.000, 0.000, 0.000,0.0,0.0,0.0,0.0,0.66190207, 14:29:34.234
32674.806641, 17212.966797, 95214.585938, 59960.632813, 75224.414063, 58836.496094, 65075.023438, 88200.093750, 0.000, 0.000, 0.000,0.0,0.0,0.0,0.0,0.66190207, 14:29:34.234
32750.914063, 17287.777344, 95209.242188, 59536.148438, 75292.046875, 58627.996094, 65043.640625, 88252.554688, 0.264, 0.208, 0.930,0.0,0.0,0.0,0.0,0.66190207, 14:29:34.234
32701.406250, 17229.886719, 95258.570313, 59593.972656, 75265.492188, 58781.175781, 65075.492188, 88257.539063, 0.000, 0.000, 0.000,0.0,0.0,0.0,0.0,0.66190207, 14:29:34.235
32626.146484, 17153.578125, 95272.562500, 60011.816406, 75200.742188, 59000.980469, 65110.292969, 88211.242188, 0.000, 0.000, 0.000,0.0,0.0,0.0,0.0,0.66190207, 14:29:34.235
32675.320313, 17202.839844, 95229.648438, 60006.585938, 75224.750000, 58887.367188, 65092.835938, 88209.500000, 0.000, 0.000, 0.000,0.0,0.0,0.0,0.0,0.66190207, 14:29:34.235
32752.523438, 17282.837891, 95218.093750, 59592.968750, 75289.546875, 58650.058594, 65049.765625, 88248.507813, 0.000, 0.000, 0.000,0.0,0.0,0.0,0.0,0.66190207, 14:29:34.236
32716.113281, 17242.783203, 95256.515625, 59552.218750, 75276.335938, 58740.738281, 65068.785156, 88260.304688, 0.000, 0.000, 0.000,0.0,0.0,0.0,0.0,0.66190207, 14:29:34.236
32640.585938, 17167.837891, 95276.046875, 59955.734375, 75208.835938, 58979.187500, 65113.019531, 88217.773438, 0.000, 0.000, 0.000,0.0,0.0,0.0,0.0,0.66190207, 14:29:34.236
32665.375000, 17198.527344, 95237.468750, 60053.300781, 75210.398438, 58924.875000, 65093.148438, 88201.140625, 0.000, 0.000, 0.000,0.0,0.0,0.0,0.0,0.66190207, 14:29:34.236
32751.160156, 17289.900391, 95211.703125, 59650.031250, 75283.492188, 58672.769531, 65051.488281, 88243.367188, 0.000, 0.000, 0.000,0.0,0.0,0.0,0.0,0.66190207, 14:29:34.237
32726.640625, 17262.318359, 95246.750000, 59502.285156, 75279.843750, 58694.808594, 65054.773438, 88258.523438, 0.000, 0.000, 0.000,0.0,0.0,0.0,0.0,0.66190207, 14:29:34.237
32646.599609, 17176.332031, 95272.765625, 59869.859375, 75215.695313, 58943.023438, 65099.410156, 88223.382813, 0.264, 0.214, 0.930,0.0,0.0,0.0,0.0,0.66190207, 14:29:34.237
32650.710938, 17183.574219, 95251.304688, 60088.863281, 75206.445313, 58964.324219, 65105.175781, 88197.921875, 0.000, 0.000, 0.000,0.0,0.0,0.0,0.0,0.66190207, 14:29:34.237
32739.203125, 17276.042969, 95221.648438, 59748.492188, 75275.195313, 58716.128906, 65063.085938, 88232.593750, 0.000, 0.000, 0.000,0.0,0.0,0.0,0.0,0.66190207, 14:29:34.238
32742.800781, 17278.658203, 95244.335938, 59481.902344, 75294.773438, 58660.945313, 65051.597656, 88263.281250, 0.000, 0.000, 0.000,0.0,0.0,0.0,0.0,0.66190207, 14:29:34.238
32650.332031, 17184.378906, 95275.984375, 59796.750000, 75228.343750, 58903.414063, 65093.730469, 88230.359375, 0.000, 0.000, 0.000,0.0,0.0,0.0,0.0,0.66190207, 14:29:34.238
32634.148438, 17163.949219, 95256.109375, 60100.171875, 75198.906250, 58985.960938, 65108.664063, 88196.937500, 0.000, 0.000, 0.000,0.0,0.0,0.0,0.0,0.66190207, 14:29:34.238
32724.160156, 17254.205078, 95215.117188, 59826.253906, 75262.140625, 58756.765625, 65069.101563, 88225.593750, 0.000, 0.000, 0.000,0.0,0.0,0.0,0.0,0.66190207, 14:29:34.239
32759.542969, 17293.722656, 95230.968750, 59480.269531, 75305.078125, 58642.078125, 65051.687500, 88270.078125, 0.000, 0.000, 0.000,0.0,0.0,0.0,0.0,0.66190207, 14:29:34.239
32670.560547, 17203.802734, 95275.468750, 59718.941406, 75239.343750, 58864.210938, 65084.523438, 88240.460938, 0.000, 0.000, 0.000,0.0,0.0,0.0,0.0,0.66190207, 14:29:34.239
32626.707031, 17158.091797, 95269.593750, 60093.242188, 75190.414063, 59004.937500, 65108.484375, 88196.156250, 0.258, 0.218, 0.932,0.0,0.0,0.0,0.0,0.66190207, 14:29:34.240
32699.572266, 17236.748047, 95224.796875, 59921.605469, 75240.257813, 58808.734375, 65076.410156, 88208.226563, 0.000, 0.000, 0.000,0.0,0.0,0.0,0.0,0.66190207, 14:29:34.240
32759.050781, 17298.058594, 95227.210938, 59525.933594, 75294.109375, 58632.156250, 65044.492188, 88255.992188, 0.000, 0.000, 0.000,0.0,0.0,0.0,0.0,0.66190207, 14:29:34.240
32688.642578, 17221.929688, 95268.984375, 59660.359375, 75251.546875, 58812.199219, 65077.546875, 88244.953125, 0.000, 0.000, 0.000,0.0,0.0,0.0,0.0,0.66190207, 14:29:34.240
32630.169922, 17163.880859, 95272.203125, 60055.984375, 75199.226563, 59001.472656, 65112.171875, 88203.179688, 0.000, 0.000, 0.000,0.0,0.0,0.0,0.0,0.66190207, 14:29:34.241
32694.542969, 17230.914063, 95234.546875, 59977.574219, 75236.750000, 58855.089844, 65086.511719, 88210.929688, 0.000, 0.000, 0.000,0.0,0.0,0.0,0.0,0.66190207, 14:29:34.241
32762.582031, 17297.812500, 95230.320313, 59556.378906, 75304.414063, 58640.558594, 65054.035156, 88261.937500, 0.000, 0.000, 0.000,0.0,0.0,0.0,0.0,0.66190207, 14:29:34.241
32702.544922, 17238.021484, 95272.656250, 59590.062500, 75279.156250, 58777.261719, 65081.371094, 88264.890625, 0.000, 0.000, 0.000,0.0,0.0,0.0,0.0,0.66190207, 14:29:34.241
32633.099609, 17172.554688, 95279.601563, 60003.343750, 75207.265625, 58999.527344, 65112.460938, 88212.296875, 0.000, 0.000, 0.000,0.0,0.0,0.0,0.0,0.66190207, 14:29:34.242
32669.800781, 17218.666016, 95227.906250, 60025.652344, 75214.265625, 58896.039063, 65083.964844, 88194.101563, 0.000, 0.000, 0.000,0.0,0.0,0.0,0.0,0.66190207, 14:29:34.242
32743.605469, 17302.998047, 95204.281250, 59611.699219, 75280.382813, 58649.433594, 65039.484375, 88236.570313, 0.264, 0.222, 0.932,0.0,0.0,0.0,0.0,0.66190207, 14:29:34.242
32705.093750, 17261.335938, 95242.726563, 59531.097656, 75267.351563, 58717.046875, 65046.457031, 88247.390625, 0.000, 0.000, 0.000,0.0,0.0,0.0,0.0,0.66190207, 14:29:34.243
32621.990234, 17180.935547, 95261.882813, 59931.460938, 75189.726563, 58960.972656, 65078.734375, 88201.632813, 0.000, 0.000, 0.000,0.0,0.0,0.0,0.0,0.66190207, 14:29:34.243
32637.546875, 17202.773438, 95224.593750, 60063.582031, 75188.289063, 58930.574219, 65072.964844, 88183.195313, 0.000, 0.000, 0.000,0.0,0.0,0.0,0.0,0.66190207, 14:29:34.243
32728.429688, 17298.662109, 95198.242188, 59683.425781, 75262.546875, 58680.503906, 65037.226563, 88224.835938, 0.000, 0.000, 0.000,0.0,0.0,0.0,0.0,0.66190207, 14:29:34.243
32714.212891, 17281.205078, 95227.859375, 59500.656250, 75258.250000, 58677.417969, 65028.128906, 88242.046875, 0.000, 0.000, 0.000,0.0,0.0,0.0,0.0,0.66190207, 14:29:34.244
32633.679688, 17193.296875, 95260.000000, 59861.343750, 75190.507813, 58928.761719, 65068.539063, 88206.281250, 0.000, 0.000, 0.000,0.0,0.0,0.0,0.0,0.66190207, 14:29:34.244
32632.539063, 17191.933594, 95240.085938, 60103.035156, 75178.570313, 58967.230469, 65079.718750, 88180.804688, 0.000, 0.000, 0.000,0.0,0.0,0.0,0.0,0.66190207, 14:29:34.244
32721.142578, 17286.347656, 95202.648438, 59765.789063, 75250.812500, 58721.316406, 65041.675781, 88218.687500, 0.000, 0.000, 0.000,0.0,0.0,0.0,0.0,0.66190207, 14:29:34.245
32730.417969, 17297.208984, 95229.421875, 59491.691406, 75278.679688, 58656.808594, 65033.804688, 88252.976563, 0.264, 0.222, 0.932,0.0,0.0,0.0,0.0,0.66190207, 14:29:34.245
32640.921875, 17204.628906, 95262.414063, 59783.335938, 75213.218750, 58894.050781, 65072.699219, 88221.460938, 0.000, 0.000, 0.000,0.0,0.0,0.0,0.0,0.66190207, 14:29:34.245
32607.773438, 17170.587891, 95239.351563, 60101.871094, 75172.023438, 58988.820313, 65084.878906, 88178.414063, 0.000, 0.000, 0.000,0.0,0.0,0.0,0.0,0.66190207, 14:29:34.246
32688.306641, 17256.417969, 95194.242188, 59856.203125, 75231.140625, 58767.160156, 65049.453125, 88203.937500, 0.000, 0.000, 0.000,0.0,0.0,0.0,0.0,0.66190207, 14:29:34.246
32734.843750, 17303.244141, 95206.828125, 59489.589844, 75280.984375, 58630.500000, 65029.582031, 88250.789063, 0.000, 0.000, 0.000,0.0,0.0,0.0,0.0,0.66190207, 14:29:34.246
32656.388672, 17222.533203, 95251.531250, 59693.707031, 75226.734375, 58843.691406, 65067.980469, 88231.046875, 0.000, 0.000, 0.000,0.0,0.0,0.0,0.0,0.66190207, 14:29:34.247
32600.062500, 17165.558594, 95245.898438, 60078.246094, 75173.429688, 58999.035156, 65094.738281, 88184.156250, 0.000, 0.000, 0.000,0.0,0.0,0.0,0.0,0.66190207, 14:29:34.247
32671.320313, 17238.156250, 95201.710938, 59924.777344, 75221.820313, 58817.226563, 65067.421875, 88201.007813, 0.000, 0.000, 0.000,0.0,0.0,0.0,0.0,0.66190207, 14:29:34.247
32727.556641, 17297.902344, 95205.351563, 59521.710938, 75279.937500, 58629.628906, 65039.191406, 88251.007813, 0.000, 0.000, 0.000,0.0,0.0,0.0,0.0,0.66190207, 14:29:34.247
32661.664063, 17230.646484, 95242.437500, 59623.812500, 75241.359375, 58796.976563, 65067.937500, 88246.250000, 0.000, 0.000, 0.000,0.0,0.0,0.0,0.0,0.66190207, 14:29:34.248
32592.128906, 17163.835938, 95250.617188, 60035.242188, 75180.625000, 58997.539063, 65100.949219, 88198.843750, 0.260, 0.224, 0.934,0.0,0.0,0.0,0.0,0.66190207, 14:29:34.248
32648.007813, 17220.945313, 95210.492188, 59994.003906, 75213.257813, 58862.000000, 65078.777344, 88197.500000, 0.000, 0.000, 0.000,0.0,0.0,0.0,0.0,0.66190207, 14:29:34.248
32731.087891, 17304.474609, 95201.265625, 59560.488281, 75286.976563, 58633.785156, 65044.066406, 88249.023438, 0.000, 0.000, 0.000,0.0,0.0,0.0,0.0,0.66190207, 14:29:34.249
32669.263672, 17243.722656, 95243.820313, 59562.992188, 75254.117188, 58749.457031, 65055.062500, 88243.054688, 0.000, 0.000, 0.000,0.0,0.0,0.0,0.0,0.66190207, 14:29:34.249
32594.943359, 17167.615234, 95259.156250, 59981.953125, 75186.148438, 58982.832031, 65090.312500, 88194.820313, 0.000, 0.000, 0.000,0.0,0.0,0.0,0.0,0.66190207, 14:29:34.249
32650.064453, 17217.257813, 95221.023438, 60036.203125, 75208.187500, 58906.367188, 65082.332031, 88192.312500, 0.000, 0.000, 0.000,0.0,0.0,0.0,0.0,0.66190207, 14:29:34.249
32729.009766, 17301.433594, 95204.460938, 59631.480469, 75279.015625, 58661.726563, 65043.128906, 88235.007813, 0.000, 0.000, 0.000,0.0,0.0,0.0,0.0,0.66190207, 14:29:34.250
32695.302734, 17268.755859, 95240.492188, 59530.941406, 75275.421875, 58712.710938, 65058.484375, 88252.867188, 0.000, 0.000, 0.000,0.0,0.0,0.0,0.0,0.66190207, 14:29:34.250
32611.775391, 17180.757813, 95263.843750, 59926.277344, 75201.546875, 58961.128906, 65094.558594, 88211.851563, 0.000, 0.000, 0.000,0.0,0.0,0.0,0.0,0.66190207, 14:29:34.250
32633.142578, 17203.802734, 95236.937500, 60091.769531, 75197.476563, 58948.386719, 65088.457031, 88192.070313, 0.000, 0.000, 0.000,0.0,0.0,0.0,0.0,0.66190207, 14:29:34.251
32723.042969, 17297.634766, 95210.585938, 59717.085938, 75273.117188, 58698.742188, 65052.402344, 88236.906250, 0.266, 0.218, 0.936,0.0,0.0,0.0,0.0,0.66190207, 14:29:34.251
32717.164063, 17289.789063, 95244.312500, 59502.464844, 75287.648438, 58682.355469, 65050.949219, 88265.429688, 0.000, 0.000, 0.000,0.0,0.0,0.0,0.0,0.66190207, 14:29:34.251
32623.531250, 17193.542969, 95273.054688, 59846.546875, 75213.593750, 58930.527344, 65089.574219, 88224.257813, 0.000, 0.000, 0.000,0.0,0.0,0.0,0.0,0.66190207, 14:29:34.252
32616.648438, 17189.363281, 95246.632813, 60098.519531, 75193.906250, 58981.558594, 65101.554688, 88195.960938, 0.000, 0.000, 0.000,0.0,0.0,0.0,0.0,0.66190207, 14:29:34.253
32703.015625, 17281.406250, 95213.195313, 59795.472656, 75258.679688, 58746.238281, 65062.929688, 88225.554688, 0.000, 0.000, 0.000,0.0,0.0,0.0,0.0,0.66190207, 14:29:34.253
32721.656250, 17301.322266, 95229.562500, 59491.222656, 75283.937500, 58658.082031, 65040.757813, 88259.570313, 0.000, 0.000, 0.000,0.0,0.0,0.0,0.0,0.66190207, 14:29:34.253
32631.019531, 17205.679688, 95260.585938, 59764.917969, 75214.218750, 58885.109375, 65074.957031, 88226.625000, 0.000, 0.000, 0.000,0.0,0.0,0.0,0.0,0.66190207, 14:29:34.253
32601.984375, 17173.224609, 95247.929688, 60100.417969, 75175.375000, 59002.367188, 65092.503906, 88189.851563, 0.000, 0.000, 0.000,0.0,0.0,0.0,0.0,0.66190207, 14:29:34.253
32675.277344, 17254.562500, 95208.640625, 59892.437500, 75226.445313, 58795.613281, 65056.628906, 88208.164063, 0.000, 0.000, 0.000,0.0,0.0,0.0,0.0,0.66190207, 14:29:34.254
32720.181641, 17300.070313, 95213.085938, 59517.597656, 75278.015625, 58641.632813, 65033.246094, 88254.812500, 0.264, 0.218, 0.932,0.0,0.0,0.0,0.0,0.66190207, 14:29:34.254
32644.074219, 17217.750000, 95256.109375, 59697.507813, 75230.562500, 58843.511719, 65069.816406, 88239.742188, 0.000, 0.000, 0.000,0.0,0.0,0.0,0.0,0.66190207, 14:29:34.254
32593.468750, 17163.546875, 95249.718750, 60081.285156, 75174.078125, 59013.007813, 65093.441406, 88195.085938, 0.000, 0.000, 0.000,0.0,0.0,0.0,0.0,0.66190207, 14:29:34.254
32658.826172, 17232.835938, 95209.132813, 59955.511719, 75221.710938, 58844.472656, 65070.417969, 88207.218750, 0.000, 0.000, 0.000,0.0,0.0,0.0,0.0,0.66190207, 14:29:34.254
32724.271484, 17300.562500, 95209.085938, 59536.863281, 75285.835938, 58642.144531, 65038.902344, 88253.156250, 0.000, 0.000, 0.000,0.0,0.0,0.0,0.0,0.66190207, 14:29:34.254
32668.437500, 17239.228516, 95254.882813, 59607.785156, 75254.406250, 58795.523438, 65067.175781, 88253.203125, 0.000, 0.000, 0.000,0.0,0.0,0.0,0.0,0.66190207, 14:29:34.255
32600.957031, 17168.351563, 95263.351563, 60016.308594, 75190.304688, 59006.347656, 65104.839844, 88208.046875, 0.000, 0.000, 0.000,0.0,0.0,0.0,0.0,0.66190207, 14:29:34.255
32646.197266, 17215.693359, 95219.343750, 59996.683594, 75214.828125, 58884.863281, 65085.593750, 88201.750000, 0.000, 0.000, 0.000,0.0,0.0,0.0,0.0,0.66190207, 14:29:34.255
32722.148438, 17297.656250, 95201.328125, 59569.632813, 75281.320313, 58648.226563, 65044.691406, 88246.179688, 0.000, 0.000, 0.000,0.0,0.0,0.0,0.0,0.66190207, 14:29:34.255
32674.046875, 17247.902344, 95244.492188, 59548.800781, 75256.507813, 58745.007813, 65058.570313, 88246.179688, 0.000, 0.000, 0.000,0.0,0.0,0.0,0.0,0.66190207, 14:29:34.255
32597.537109, 17169.402344, 95263.937500, 59962.484375, 75190.750000, 58983.792969, 65098.937500, 88205.031250, 0.262, 0.214, 0.934,0.0,0.0,0.0,0.0,0.66190207, 14:29:34.255
32630.685547, 17201.253906, 95232.148438, 60061.839844, 75201.234375, 58928.226563, 65091.207031, 88193.992188, 0.000, 0.000, 0.000,0.0,0.0,0.0,0.0,0.66190207, 14:29:34.255
32718.080078, 17294.505859, 95205.890625, 59653.988281, 75276.914063, 58675.988281, 65051.531250, 88240.281250, 0.000, 0.000, 0.000,0.0,0.0,0.0,0.0,0.66190207, 14:29:34.256
32690.140625, 17267.527344, 95242.007813, 59513.261719, 75274.906250, 58705.648438, 65056.558594, 88256.687500, 0.000, 0.000, 0.000,0.0,0.0,0.0,0.0,0.66190207, 14:29:34.256
32608.914063, 17177.337891, 95265.296875, 59897.195313, 75200.359375, 58950.535156, 65092.769531, 88209.476563, 0.000, 0.000, 0.000,0.017227966,0.043520354,0.037670474,0.054051843,0.022737676, 14:29:34.704
32616.156250, 17186.634766, 95233.648438, 60097.984375, 75184.492188, 58959.070313, 65089.015625, 88183.242188, 0.000, 0.000, 0.000,0.017227966,0.043520354,0.037670474,0.054051843,0.022737676, 14:29:34.705
32714.035156, 17287.576172, 95208.187500, 59746.121094, 75260.218750, 58716.933594, 65052.113281, 88230.468750, 0.000, 0.000, 0.000,0.017227966,0.043520354,0.037670474,0.054051843,0.022737676, 14:29:34.706
32722.773438, 17293.119141, 95238.453125, 59509.839844, 75278.859375, 58679.183594, 65046.546875, 88262.765625, 0.000, 0.000, 0.000,0.017227966,0.043520354,0.037670474,0.054051843,0.022737676, 14:29:34.706
32634.238281, 17200.941406, 95268.203125, 59828.242188, 75212.296875, 58921.187500, 65088.613281, 88228.296875, 0.000, 0.000, 0.000,0.017227966,0.043520354,0.037670474,0.054051843,0.022737676, 14:29:34.706
32620.894531, 17187.283203, 95249.093750, 60109.562500, 75190.390625, 58995.214844, 65104.796875, 88197.882813, 0.266, 0.216, 0.932,0.017227966,0.043520354,0.037670474,0.054051843,0.022737676, 14:29:34.707
32706.121094, 17278.568359, 95217.781250, 59831.394531, 75257.312500, 58766.445313, 65070.753906, 88229.773438, 0.000, 0.000, 0.000,0.017227966,0.043520354,0.037670474,0.054051843,0.022737676, 14:29:34.707
32732.429688, 17308.832031, 95235.484375, 59505.906250, 75293.343750, 58662.015625, 65055.464844, 88267.750000, 0.000, 0.000, 0.000,0.017227966,0.043520354,0.037670474,0.054051843,0.022737676, 14:29:34.707
32642.531250, 17215.134766, 95265.500000, 59749.652344, 75218.179688, 58882.113281, 65077.011719, 88235.164063, 0.000, 0.000, 0.000,0.017227966,0.043520354,0.037670474,0.054051843,0.022737676, 14:29:34.708
32598.498047, 17171.794922, 95249.898438, 60101.246094, 75174.679688, 59011.597656, 65097.976563, 88191.937500, 0.000, 0.000, 0.000,0.017227966,0.043520354,0.037670474,0.054051843,0.022737676, 14:29:34.708
32683.859375, 17256.484375, 95209.867188, 59901.308594, 75236.351563, 58811.730469, 65072.273438, 88216.007813, 0.000, 0.000, 0.000,0.017227966,0.043520354,0.037670474,0.054051843,0.022737676, 14:29:34.708
32730.328125, 17302.394531, 95221.132813, 59520.593750, 75286.062500, 58647.062500, 65044.960938, 88258.343750, 0.000, 0.000, 0.000,0.017227966,0.043520354,0.037670474,0.054051843,0.022737676, 14:29:34.709
32660.859375, 17228.410156, 95264.898438, 59680.855469, 75237.578125, 58834.171875, 65077.078125, 88242.648438, 0.000, 0.000, 0.000,0.017227966,0.043520354,0.037670474,0.054051843,0.022737676, 14:29:34.709
32603.304688, 17171.882813, 95271.312500, 60087.320313, 75183.953125, 59016.628906, 65110.203125, 88200.984375, 0.000, 0.000, 0.000,0.017227966,0.043520354,0.037670474,0.054051843,0.022737676, 14:29:34.709
32660.904297, 17235.966797, 95227.859375, 60000.929688, 75222.867188, 58861.796875, 65082.957031, 88209.304688, 0.000, 0.000, 0.000,0.017227966,0.043520354,0.037670474,0.054051843,0.022737676, 14:29:34.710
32730.775391, 17302.552734, 95213.820313, 59570.324219, 75287.062500, 58646.347656, 65042.054688, 88257.335938, 0.268, 0.212, 0.934,0.017227966,0.043520354,0.037670474,0.054051843,0.022737676, 14:29:34.710
32672.974609, 17240.906250, 95251.929688, 59613.375000, 75257.023438, 58785.957031, 65067.222656, 88258.140625, 0.000, 0.000, 0.000,0.017227966,0.043520354,0.037670474,0.054051843,0.022737676, 14:29:34.711
32601.425781, 17167.525391, 95263.507813, 60039.914063, 75188.648438, 59006.792969, 65103.566406, 88209.726563, 0.000, 0.000, 0.000,0.017227966,0.043520354,0.037670474,0.054051843,0.022737676, 14:29:34.711
32649.728516, 17219.470703, 95220.398438, 60050.238281, 75209.125000, 58905.761719, 65085.105469, 88207.023438, 0.000, 0.000, 0.000,0.017227966,0.043520354,0.037670474,0.054051843,0.022737676, 14:29:34.711
32724.673828, 17300.496094, 95203.945313, 59635.300781, 75278.015625, 58665.035156, 65045.785156, 88247.906250, 0.000, 0.000, 0.000,0.017227966,0.043520354,0.037670474,0.054051843,0.022737676, 14:29:34.712
32695.482422, 17271.214844, 95240.312500, 59551.839844, 75272.625000, 58735.351563, 65063.398438, 88264.664063, 0.000, 0.000, 0.000,0.017227966,0.043520354,0.037670474,0.054051843,0.022737676, 14:29:34.712
32609.093750, 17180.488281, 95272.992188, 59963.937500, 75200.359375, 58983.750000, 65103.632813, 88215.828125, 0.000, 0.000, 0.000,0.017227966,0.043520354,0.037670474,0.054051843,0.022737676, 14:29:34.712
32631.199219, 17199.578125, 95239.375000, 60092.460938, 75205.148438, 58944.855469, 65098.781250, 88197.164063, 0.000, 0.000, 0.000,0.017227966,0.043520354,0.037670474,0.054051843,0.022737676, 14:29:34.713
32723.154297, 17294.707031, 95210.695313, 59703.207031, 75275.937500, 58687.968750, 65055.531250, 88232.078125, 0.000, 0.000, 0.000,0.017227966,0.043520354,0.037670474,0.054051843,0.022737676, 14:29:34.713
32710.882813, 17282.501953, 95247.125000, 59536.285156, 75271.617188, 58694.160156, 65047.464844, 88248.726563, 0.264, 0.216, 0.928,0.017227966,0.043520354,0.037670474,0.054051843,0.022737676, 14:29:34.713
32639.603516, 17198.638672, 95278.781250, 59906.496094, 75208.070313, 58946.062500, 65093.128906, 88216.632813, 0.000, 0.000, 0.000,0.017227966,0.043520354,0.037670474,0.054051843,0.022737676, 14:29:34.714
32646.353516, 17203.556641, 95256.492188, 60130.816406, 75199.515625, 58976.148438, 65102.761719, 88198.390625, 0.000, 0.000, 0.000,0.017227966,0.043520354,0.037670474,0.054051843,0.022737676, 14:29:34.714
32726.015625, 17291.800781, 95220.640625, 59799.562500, 75261.828125, 58727.843750, 65058.707031, 88229.351563, 0.000, 0.000, 0.000,0.017227966,0.043520354,0.037670474,0.054051843,0.022737676, 14:29:34.714
32735.783203, 17304.742188, 95238.343750, 59524.035156, 75290.843750, 58667.000000, 65053.855469, 88264.734375, 0.000, 0.000, 0.000,0.017227966,0.043520354,0.037670474,0.054051843,0.022737676, 14:29:34.715
32650.554688, 17212.408203, 95275.937500, 59827.792969, 75225.664063, 58912.691406, 65092.414063, 88233.039063, 0.000, 0.000, 0.000,0.017227966,0.043520354,0.037670474,0.054051843,0.022737676, 14:29:34.715
32632.115234, 17194.302734, 95260.515625, 60138.460938, 75193.234375, 59002.769531, 65103.230469, 88197.523438, 0.000, 0.000, 0.000,0.017227966,0.043520354,0.037670474,0.054051843,0.022737676, 14:29:34.716
32716.492188, 17282.726563, 95219.992188, 59873.792969, 75253.093750, 58775.406250, 65067.312500, 88225.726563, 0.000, 0.000, 0.000,0.017227966,0.043520354,0.037670474,0.054051843,0.022737676, 14:29:34.717
32754.490234, 17322.535156, 95235.437500, 59518.558594, 75293.882813, 58645.566406, 65046.234375, 88264.445313, 0.000, 0.000, 0.000,0.017227966,0.043520354,0.037670474,0.054051843,0.022737676, 14:29:34.717
32665.218750, 17224.791016, 95276.187500, 59743.125000, 75232.039063, 58859.316406, 65077.527344, 88235.679688, 0.000, 0.000, 0.000,0.017227966,0.043520354,0.037670474,0.054051843,0.022737676, 14:29:34.717
32621.296875, 17181.091797, 95266.078125, 60112.824219, 75185.609375, 59007.910156, 65104.527344, 88197.093750, 0.266, 0.222, 0.930,0.017227966,0.043520354,0.037670474,0.054051843,0.022737676, 14:29:34.718
32700.019531, 17268.822266, 95225.070313, 59944.000000, 75241.601563, 58823.574219, 65077.660156, 88223.140625, 0.000, 0.000, 0.000,0.017227966,0.043520354,0.037670474,0.054051843,0.022737676, 14:29:34.718
32742.308594, 17310.017578, 95222.898438, 59541.714844, 75291.218750, 58636.648438, 65041.761719, 88259.773438, 0.000, 0.000, 0.000,0.017227966,0.043520354,0.037670474,0.054051843,0.022737676, 14:29:34.719
32663.474609, 17228.746094, 95257.679688, 59653.695313, 75242.117188, 58804.621094, 65065.121094, 88242.000000, 0.000, 0.000, 0.000,0.017227966,0.043520354,0.037670474,0.054051843,0.022737676, 14:29:34.720
32600.263672, 17164.730469, 95265.500000, 60065.617188, 75183.484375, 59004.402344, 65100.593750, 88196.625000, 0.000, 0.000, 0.000,0.017227966,0.043520354,0.037670474,0.054051843,0.022737676, 14:29:34.720
32671.365234, 17235.027344, 95231.882813, 60013.515625, 75226.070313, 58869.910156, 65087.808594, 88207.734375, 0.000, 0.000, 0.000,0.017227966,0.043520354,0.037670474,0.054051843,0.022737676, 14:29:34.720
32748.232422, 17312.251953, 95220.906250, 59582.843750, 75294.328125, 58642.527344, 65049.406250, 88255.054688, 0.000, 0.000, 0.000,0.017227966,0.043520354,0.037670474,0.054051843,0.022737676, 14:29:34.720
32697.673828, 17259.814453, 95260.828125, 59585.972656, 75270.367188, 58765.371094, 65073.503906, 88260.109375, 0.000, 0.000, 0.000,0.017227966,0.043520354,0.037670474,0.054051843,0.022737676, 14:29:34.721
32623.755859, 17186.433594, 95277.593750, 59996.593750, 75204.164063, 58998.367188, 65115.792969, 88220.945313, 0.000, 0.000, 0.000,0.017227966,0.043520354,0.037670474,0.054051843,0.022737676, 14:29:34.721
32658.087891, 17224.857422, 95241.632813, 60056.476563, 75215.898438, 58916.535156, 65100.683594, 88210.437500, 0.000, 0.000, 0.000,0.017227966,0.043520354,0.037670474,0.054051843,0.022737676, 14:29:34.721
32736.519531, 17305.859375, 95215.835938, 59642.031250, 75285.523438, 58668.500000, 65057.007813, 88253.085938, 0.260, 0.228, 0.930,0.017227966,0.043520354,0.037670474,0.054051843,0.022737676, 14:29:34.722
32705.763672, 17273.896484, 95252.937500, 59543.636719, 75279.375000, 58729.964844, 65068.964844, 88269.179688, 0.000, 0.000, 0.000,0.017227966,0.043520354,0.037670474,0.054051843,0.022737676, 14:29:34.722
32627.041016, 17191.531250, 95280.609375, 59944.136719, 75214.937500, 58980.148438, 65113.804688, 88227.742188, 0.000, 0.000, 0.000,0.017227966,0.043520354,0.037670474,0.054051843,0.022737676, 14:29:34.722
32644.341797, 17213.390625, 95253.453125, 60112.199219, 75210.132813, 58963.050781, 65107.410156, 88208.179688, 0.000, 0.000, 0.000,0.017227966,0.043520354,0.037670474,0.054051843,0.022737676, 14:29:34.722
32720.740234, 17288.603516, 95213.710938, 59733.179688, 75269.476563, 58706.230469, 65056.226563, 88241.781250, 0.000, 0.000, 0.000,0.017227966,0.043520354,0.037670474,0.054051843,0.022737676, 14:29:34.723
32715.531250, 17282.345703, 95240.914063, 59521.730469, 75285.726563, 58688.949219, 65058.125000, 88268.960938, 0.000, 0.000, 0.000,0.017227966,0.043520354,0.037670474,0.054051843,0.022737676, 14:29:34.723
32627.287109, 17190.144531, 95274.062500, 59872.476563, 75211.203125, 58934.777344, 65094.914063, 88228.453125, 0.000, 0.000, 0.000,0.017227966,0.043520354,0.037670474,0.054051843,0.022737676, 14:29:34.723
32617.474609, 17186.949219, 95251.710938, 60124.714844, 75190.843750, 58978.785156, 65106.582031, 88198.859375, 0.000, 0.000, 0.000,0.017227966,0.043520354,0.037670474,0.054051843,0.022737676, 14:29:34.724
32712.759766, 17284.246094, 95220.375000, 59810.718750, 75257.070313, 58740.472656, 65068.093750, 88233.929688, 0.000, 0.000, 0.000,0.017227966,0.043520354,0.037670474,0.054051843,0.022737676, 14:29:34.724
32738.621094, 17308.787109, 95243.015625, 59508.769531, 75289.882813, 58659.089844, 65054.214844, 88270.500000, 0.264, 0.220, 0.930,0.017227966,0.043520354,0.037670474,0.054051843,0.022737676, 14:29:34.725
32652.232422, 17217.570313, 95282.375000, 59783.449219, 75232.039063, 58896.417969, 65095.117188, 88243.609375, 0.000, 0.000, 0.000,0.017227966,0.043520354,0.037670474,0.054051843,0.022737676, 14:29:34.725
32624.470703, 17191.507813, 95268.335938, 60115.035156, 75193.945313, 59008.023438, 65115.187500, 88207.000000, 0.000, 0.000, 0.000,0.017227966,0.043520354,0.037670474,0.054051843,0.022737676, 14:29:34.725
32695.437500, 17270.253906, 95226.007813, 59886.222656, 75248.375000, 58796.015625, 65077.414063, 88228.679688, 0.000, 0.000, 0.000,0.017227966,0.043520354,0.037670474,0.054051843,0.022737676, 14:29:34.726
32733.279297, 17307.222656, 95228.460938, 59519.742188, 75290.328125, 58647.980469, 65050.839844, 88268.312500, 0.000, 0.000, 0.000,0.017227966,0.043520354,0.037670474,0.054051843,0.022737676, 14:29:34.726
32660.189453, 17229.328125, 95268.789063, 59713.441406, 75240.015625, 58851.738281, 65088.367188, 88248.351563, 0.000, 0.000, 0.000,0.017227966,0.043520354,0.037670474,0.054051843,0.022737676, 14:29:34.726
32615.083984, 17184.601563, 95266.554688, 60099.546875, 75192.250000, 59018.394531, 65119.281250, 88207.960938, 0.000, 0.000, 0.000,0.017227966,0.043520354,0.037670474,0.054051843,0.022737676, 14:29:34.726
32686.363281, 17257.892578, 95231.859375, 59965.972656, 75241.046875, 58844.609375, 65096.570313, 88224.726563, 0.000, 0.000, 0.000,0.017227966,0.043520354,0.037670474,0.054051843,0.022737676, 14:29:34.727
32745.707031, 17317.035156, 95233.265625, 59559.039063, 75297.257813, 58644.070313, 65061.164063, 88265.515625, 0.000, 0.000, 0.000,0.017227966,0.043520354,0.037670474,0.054051843,0.022737676, 14:29:34.727
32687.324219, 17254.562500, 95271.156250, 59635.703125, 75265.984375, 58801.335938, 65094.355469, 88262.968750, 0.000, 0.000, 0.000,0.017227966,0.043520354,0.037670474,0.054051843,0.022737676, 14:29:34.727
32617.855469, 17182.097656, 95283.562500, 60047.085938, 75204.273438, 59008.355469, 65129.605469, 88215.898438, 0.274, 0.212, 0.932,0.017227966,0.043520354,0.037670474,0.054051843,0.022737676, 14:29:34.727
32671.140625, 17237.820313, 95247.015625, 60033.027344, 75227.031250, 58886.765625, 65099.742188, 88213.593750, 0.000, 0.000, 0.000,0.017227966,0.043520354,0.037670474,0.054051843,0.022737676, 14:29:34.728
32746.578125, 17319.962891, 95229.539063, 59608.656250, 75296.695313, 58654.148438, 65059.398438, 88262.210938, 0.000, 0.000, 0.000,0.017227966,0.043520354,0.037670474,0.054051843,0.022737676, 14:29:34.728
32700.154297, 17271.326172, 95265.945313, 59580.046875, 75274.328125, 58757.906250, 65077.503906, 88268.648438, 0.000, 0.000, 0.000,0.017227966,0.043520354,0.037670474,0.054051843,0.022737676, 14:29:34.728
32620.023438, 17187.775391, 95285.953125, 59998.316406, 75205.187500, 58993.984375, 65117.445313, 88222.242188, 0.000, 0.000, 0.000,0.017227966,0.043520354,0.037670474,0.054051843,0.022737676, 14:29:34.728
32651.472656, 17220.855469, 95250.101563, 60083.253906, 75215.875000, 58929.523438, 65108.148438, 88210.843750, 0.000, 0.000, 0.000,0.017227966,0.043520354,0.037670474,0.054051843,0.022737676, 14:29:34.729
32740.968750, 17317.437500, 95225.226563, 59675.847656, 75291.382813, 58676.320313, 65068.699219, 88253.828125, 0.000, 0.000, 0.000,0.017227966,0.043520354,0.037670474,0.054051843,0.022737676, 14:29:34.729
32710.636719, 17283.462891, 95257.898438, 59539.011719, 75287.984375, 58708.664063, 65073.996094, 88267.726563, 0.000, 0.000, 0.000,0.017227966,0.043520354,0.037670474,0.054051843,0.022737676, 14:29:34.729
32619.822266, 17191.150391, 95284.210938, 59926.679688, 75210.601563, 58958.492188, 65110.203125, 88221.546875, 0.000, 0.000, 0.000,0.017227966,0.043520354,0.037670474,0.054051843,0.022737676, 14:29:34.729
32627.064453, 17199.332031, 95253.859375, 60120.066406, 75200.968750, 58958.980469, 65107.210938, 88193.164063, 0.270, 0.218, 0.930,0.017227966,0.043520354,0.037670474,0.054051843,0.022737676, 14:29:34.730
32727.109375, 17301.076172, 95221.757813, 59756.539063, 75276.960938, 58710.386719, 65067.667969, 88237.531250, 0.000, 0.000, 0.000,0.017227966,0.043520354,0.037670474,0.054051843,0.022737676, 14:29:34.730
32725.388672, 17297.767578, 95250.500000, 59521.261719, 75295.312500, 58676.613281, 65062.417969, 88267.234375, 0.000, 0.000, 0.000,0.017227966,0.043520354,0.037670474,0.054051843,0.022737676, 14:29:34.730
32638.373047, 17207.132813, 95281.148438, 59844.132813, 75232.773438, 58922.773438, 65107.656250, 88237.734375, 0.000, 0.000, 0.000,0.017227966,0.043520354,0.037670474,0.054051843,0.022737676, 14:29:34.730
32622.726563, 17194.927734, 95263.890625, 60125.230469, 75205.703125, 58993.136719, 65121.625000, 88207.156250, 0.000, 0.000, 0.000,0.017227966,0.043520354,0.037670474,0.054051843,0.022737676, 14:29:34.731
32707.060547, 17289.566406, 95226.812500, 59841.296875, 75268.851563, 58760.542969, 65084.902344, 88240.015625, 0.000, 0.000, 0.000,0.017227966,0.043520354,0.037670474,0.054051843,0.022737676, 14:29:34.731
32730.597656, 17304.093750, 95237.382813, 59516.011719, 75299.312500, 58653.925781, 65064.160156, 88274.101563, 0.000, 0.000, 0.000,0.017227966,0.043520354,0.037670474,0.054051843,0.022737676, 14:29:34.731
32650.287109, 17221.056641, 95274.218750, 59761.097656, 75242.046875, 58879.902344, 65102.761719, 88245.265625, 0.000, 0.000, 0.000,0.017227966,0.043520354,0.037670474,0.054051843,0.022737676, 14:29:34.732
32613.072266, 17186.277344, 95269.125000, 60117.003906, 75196.851563, 59009.296875, 65121.269531, 88200.960938, 0.000, 0.000, 0.000,0.017227966,0.043520354,0.037670474,0.054051843,0.022737676, 14:29:34.732
32687.949219, 17267.593750, 95227.570313, 59923.550781, 75247.968750, 58807.906250, 65085.105469, 88218.375000, 0.000, 0.000, 0.000,0.017227966,0.043520354,0.037670474,0.054051843,0.022737676, 14:29:34.732
32741.705078, 17318.824219, 95228.171875, 59531.433594, 75304.210938, 58645.074219, 65059.265625, 88266.632813, 0.272, 0.214, 0.934,0.017227966,0.043520354,0.037670474,0.054051843,0.022737676, 14:29:34.732
32663.541016, 17230.736328, 95273.414063, 59699.519531, 75251.281250, 58837.968750, 65088.078125, 88247.570313, 0.000, 0.000, 0.000,0.017227966,0.043520354,0.037670474,0.054051843,0.022737676, 14:29:34.733
32610.679688, 17177.314453, 95274.351563, 60092.730469, 75200.117188, 59014.011719, 65121.246094, 88208.140625, 0.000, 0.000, 0.000,0.017227966,0.043520354,0.037670474,0.054051843,0.022737676, 14:29:34.733
32673.242188, 17245.957031, 95236.484375, 59989.710938, 75240.687500, 58855.070313, 65095.652344, 88219.250000, 0.000, 0.000, 0.000,0.017227966,0.043520354,0.037670474,0.054051843,0.022737676, 14:29:34.733
32736.609375, 17311.671875, 95234.898438, 59585.500000, 75301.773438, 58650.460938, 65064.832031, 88262.210938, 0.000, 0.000, 0.000,0.017227966,0.043520354,0.037670474,0.054051843,0.022737676, 14:29:34.733
32681.625000, 17254.875000, 95271.781250, 59642.722656, 75270.882813, 58797.625000, 65094.156250, 88265.273438, 0.000, 0.000, 0.000,0.017227966,0.043520354,0.037670474,0.054051843,0.022737676, 14:29:34.734
32616.312500, 17185.919922, 95284.343750, 60059.625000, 75204.835938, 59016.785156, 65127.167969, 88220.585938, 0.000, 0.000, 0.000,0.017227966,0.043520354,0.037670474,0.054051843,0.022737676, 14:29:34.734
32666.201172, 17237.306641, 95247.281250, 60063.136719, 75231.523438, 58907.773438, 65112.796875, 88217.953125, 0.000, 0.000, 0.000,0.017227966,0.043520354,0.037670474,0.054051843,0.022737676, 14:29:34.734
32741.705078, 17316.320313, 95230.632813, 59642.656250, 75295.890625, 58664.832031, 65069.816406, 88257.515625, 0.000, 0.000, 0.000,0.017227966,0.043520354,0.037670474,0.054051843,0.022737676, 14:29:34.734
32707.015625, 17278.835938, 95263.179688, 59567.574219, 75278.703125, 58742.191406, 65075.335938, 88269.179688, 0.268, 0.220, 0.936,0.017227966,0.043520354,0.037670474,0.054051843,0.022737676, 14:29:34.734
32621.453125, 17194.435547, 95291.718750, 59969.148438, 75211.515625, 58990.386719, 65118.878906, 88228.164063, 0.000, 0.000, 0.000,0.017227966,0.043520354,0.037670474,0.054051843,0.022737676, 14:29:34.734
32640.966797, 17215.447266, 95260.648438, 60094.046875, 75216.390625, 58948.050781, 65111.792969, 88208.046875, 0.000, 0.000, 0.000,0.017227966,0.043520354,0.037670474,0.054051843,0.022737676, 14:29:34.734
32732.251953, 17307.648438, 95229.804688, 59704.121094, 75289.882813, 58694.316406, 65071.738281, 88251.367188, 0.000, 0.000, 0.000,0.017227966,0.043520354,0.037670474,0.054051843,0.022737676, 14:29:34.735
32716.248047, 17289.699219, 95259.171875, 59534.761719, 75293.546875, 58707.792969, 65073.234375, 88271.218750, 0.000, 0.000, 0.000,0.017227966,0.043520354,0.037670474,0.054051843,0.022737676, 14:29:34.735
32616.849609, 17184.736328, 95287.648438, 59920.242188, 75211.203125, 58955.203125, 65106.160156, 88217.171875, 0.000, 0.000, 0.000,0.017227966,0.043520354,0.037670474,0.054051843,0.022737676, 14:29:34.735
32630.013672, 17197.789063, 95257.632813, 60140.765625, 75203.468750, 58972.371094, 65113.734375, 88193.609375, 0.000, 0.000, 0.000,0.017227966,0.043520354,0.037670474,0.054051843,0.022737676, 14:29:34.735
32726.193359, 17298.439453, 95219.789063, 59784.187500, 75276.109375, 58722.144531, 65074.464844, 88237.148438, 0.000, 0.000, 0.000,0.017227966,0.043520354,0.037670474,0.054051843,0.022737676, 14:29:34.735
32731.402344, 17309.279297, 95248.984375, 59517.484375, 75299.046875, 58669.750000, 65064.070313, 88269.984375, 0.000, 0.000, 0.000,0.017227966,0.043520354,0.037670474,0.054051843,0.022737676, 14:29:34.735
32648.990234, 17221.482422, 95289.953125, 59829.449219, 75235.656250, 58918.613281, 65107.074219, 88240.390625, 0.000, 0.000, 0.000,0.017227966,0.043520354,0.037670474,0.054051843,0.022737676, 14:29:34.736
32629.277344, 17197.699219, 95268.539063, 60129.343750, 75202.195313, 59005.742188, 65119.101563, 88207.851563, 0.268, 0.214, 0.930,0.017227966,0.043520354,0.037670474,0.054051843,0.022737676, 14:29:34.736
32712.269531, 17285.542969, 95225.781250, 59856.292969, 75260.710938, 58777.843750, 65079.718750, 88235.968750, 0.000, 0.000, 0.000,0.017227966,0.043520354,0.037670474,0.054051843,0.022737676, 14:29:34.736
32742.197266, 17308.900391, 95237.453125, 59516.703125, 75297.437500, 58654.976563, 65058.148438, 88272.242188, 0.000, 0.000, 0.000,0.017227966,0.043520354,0.037670474,0.054051843,0.022737676, 14:29:34.736
32659.630859, 17223.671875, 95276.343750, 59742.031250, 75242.203125, 58870.289063, 65095.878906, 88247.835938, 0.000, 0.000, 0.000,0.017227966,0.043520354,0.037670474,0.054051843,0.022737676, 14:29:34.736
32617.027344, 17183.775391, 95269.929688, 60109.335938, 75197.343750, 59013.007813, 65122.273438, 88206.281250, 0.000, 0.000, 0.000,0.017227966,0.043520354,0.037670474,0.054051843,0.022737676, 14:29:34.737
32693.806641, 17262.988281, 95232.445313, 59936.871094, 75251.929688, 58823.507813, 65095.363281, 88226.062500, 0.000, 0.000, 0.000,0.017227966,0.043520354,0.037670474,0.054051843,0.022737676, 14:29:34.737
32749.082031, 17319.271484, 95236.554688, 59547.996094, 75304.390625, 58646.414063, 65064.226563, 88269.671875, 0.000, 0.000, 0.000,0.017227966,0.043520354,0.037670474,0.054051843,0.022737676, 14:29:34.737
32672.974609, 17238.312500, 95275.335938, 59676.921875, 75257.937500, 58827.824219, 65092.972656, 88259.367188, 0.000, 0.000, 0.000,0.017227966,0.043520354,0.037670474,0.054051843,0.022737676, 14:29:34.737
32606.968750, 17173.113281, 95278.781250, 60088.929688, 75192.429688, 59018.437500, 65118.453125, 88208.789063, 0.000, 0.000, 0.000,0.017227966,0.043520354,0.037670474,0.054051843,0.022737676, 14:29:34.738
32671.185547, 17237.531250, 95236.914063, 60018.187500, 75230.179688, 58867.562500, 65093.910156, 88211.960938, 0.000, 0.000, 0.000,0.017227966,0.043520354,0.037670474,0.054051843,0.022737676, 14:29:34.738
32745.439453, 17319.046875, 95230.539063, 59594.421875, 75298.757813, 58647.601563, 65061.343750, 88261.132813, 0.258, 0.214, 0.924,0.017227966,0.043520354,0.037670474,0.054051843,0.022737676, 14:29:34.738
32696.509766, 17273.404297, 95273.835938, 59612.523438, 75273.296875, 58776.906250, 65083.941406, 88265.585938, 0.000, 0.000, 0.000,0.017227966,0.043520354,0.037670474,0.054051843,0.022737676, 14:29:34.739
32613.048828, 17192.960938, 95290.554688, 60035.195313, 75206.554688, 59004.246094, 65122.027344, 88213.187500, 0.000, 0.000, 0.000,0.017227966,0.043520354,0.037670474,0.054051843,0.022737676, 14:29:34.739
32657.619141, 17236.570313, 95248.914063, 60074.335938, 75225.328125, 58913.207031, 65105.933594, 88205.945313, 0.000, 0.000, 0.000,0.017227966,0.043520354,0.037670474,0.054051843,0.022737676, 14:29:34.739
32733.212891, 17312.699219, 95224.375000, 59662.101563, 75287.671875, 58672.230469, 65059.421875, 88248.437500, 0.000, 0.000, 0.000,0.017227966,0.043520354,0.037670474,0.054051843,0.022737676, 14:29:34.740
32698.320313, 17274.746094, 95260.093750, 59584.382813, 75277.453125, 58740.984375, 65070.753906, 88261.742188, 0.000, 0.000, 0.000,0.017227966,0.043520354,0.037670474,0.054051843,0.022737676, 14:29:34.740
32622.011719, 17194.033203, 95280.390625, 59977.304688, 75211.468750, 58985.000000, 65113.511719, 88225.281250, 0.000, 0.000, 0.000,0.017227966,0.043520354,0.037670474,0.054051843,0.022737676, 14:29:34.740
32648.386719, 17222.308594, 95248.804688, 60114.343750, 75212.414063, 58956.546875, 65104.839844, 88207.937500, 0.000, 0.000, 0.000,0.017227966,0.043520354,0.037670474,0.054051843,0.022737676, 14:29:34.740
32737.437500, 17319.046875, 95228.039063, 59734.140625, 75283.960938, 58707.882813, 65064.695313, 88250.140625, 0.000, 0.000, 0.000,0.017227966,0.043520354,0.037670474,0.054051843,0.022737676, 14:29:34.741
32730.015625, 17311.582031, 95261.093750, 59541.914063, 75293.125000, 58703.636719, 65069.882813, 88276.359375, 0.266, 0.216, 0.924,0.017227966,0.043520354,0.037670474,0.054051843,0.022737676, 14:29:34.741
32636.115234, 17216.587891, 95293.953125, 59901.464844, 75221.531250, 58949.796875, 65106.785156, 88235.500000, 0.000, 0.000, 0.000,0.0047854637,0.020911064,0.015281019,0.02248579,0.009672267, 14:29:35.186
32631.019531, 17209.300781, 95269.593750, 60150.488281, 75199.398438, 58987.078125, 65112.527344, 88204.585938, 0.000, 0.000, 0.000,0.0047854637,0.020911064,0.015281019,0.02248579,0.009672267, 14:29:35.188
32732.117188, 17310.621094, 95228.953125, 59816.863281, 75271.843750, 58743.289063, 65076.476563, 88243.945313, 0.000, 0.000, 0.000,0.0047854637,0.020911064,0.015281019,0.02248579,0.009672267, 14:29:35.189
32741.101563, 17321.863281, 95251.460938, 59524.750000, 75298.687500, 58671.605469, 65064.761719, 88275.554688, 0.000, 0.000, 0.000,0.0047854637,0.020911064,0.015281019,0.02248579,0.009672267, 14:29:35.191
32651.740234, 17229.707031, 95288.140625, 59813.421875, 75231.968750, 58906.632813, 65100.996094, 88241.085938, 0.000, 0.000, 0.000,0.0047854637,0.020911064,0.015281019,0.02248579,0.009672267, 14:29:35.191
32621.564453, 17200.560547, 95273.320313, 60138.527344, 75194.531250, 59010.035156, 65114.785156, 88201.187500, 0.000, 0.000, 0.000,0.0047854637,0.020911064,0.015281019,0.02248579,0.009672267, 14:29:35.192
32707.060547, 17288.515625, 95234.031250, 59905.289063, 75257.226563, 58796.039063, 65085.460938, 88229.867188, 0.000, 0.000, 0.000,0.0047854637,0.020911064,0.015281019,0.02248579,0.009672267, 14:29:35.192
32745.683594, 17328.568359, 95244.375000, 59551.125000, 75298.531250, 58658.218750, 65059.488281, 88268.015625, 0.000, 0.000, 0.000,0.0047854637,0.020911064,0.015281019,0.02248579,0.009672267, 14:29:35.193
32660.054688, 17240.837891, 95280.632813, 59756.246094, 75236.125000, 58860.769531, 65086.289063, 88239.140625, 0.000, 0.000, 0.000,0.0047854637,0.020911064,0.015281019,0.02248579,0.009672267, 14:29:35.194
32624.292969, 17201.632813, 95275.250000, 60127.015625, 75197.164063, 59016.851563, 65116.574219, 88204.828125, 0.264, 0.222, 0.928,0.0047854637,0.020911064,0.015281019,0.02248579,0.009672267, 14:29:35.194
32694.029297, 17273.875000, 95239.773438, 59992.101563, 75240.750000, 58838.574219, 65088.992188, 88215.804688, 0.000, 0.000, 0.000,0.0047854637,0.020911064,0.015281019,0.02248579,0.009672267, 14:29:35.194
32757.017578, 17337.867188, 95235.843750, 59590.867188, 75295.625000, 58644.335938, 65055.843750, 88259.750000, 0.000, 0.000, 0.000,0.0047854637,0.020911064,0.015281019,0.02248579,0.009672267, 14:29:35.194
32695.101563, 17275.931641, 95271.757813, 59665.273438, 75266.078125, 58808.355469, 65087.875000, 88263.390625, 0.000, 0.000, 0.000,0.0047854637,0.020911064,0.015281019,0.02248579,0.009672267, 14:29:35.195
32619.173828, 17199.287109, 95285.484375, 60077.710938, 75198.820313, 59019.152344, 65119.593750, 88212.812500, 0.000, 0.000, 0.000,0.0047854637,0.020911064,0.015281019,0.02248579,0.009672267, 14:29:35.195
32670.806641, 17253.892578, 95242.500000, 60044.472656, 75225.039063, 58886.921875, 65096.996094, 88211.132813, 0.000, 0.000, 0.000,0.0047854637,0.020911064,0.015281019,0.02248579,0.009672267, 14:29:35.195
32748.412109, 17335.632813, 95226.359375, 59616.929688, 75293.460938, 58656.652344, 65059.242188, 88259.460938, 0.000, 0.000, 0.000,0.0047854637,0.020911064,0.015281019,0.02248579,0.009672267, 14:29:35.195
32696.599609, 17282.234375, 95264.000000, 59613.597656, 75268.398438, 58769.574219, 65076.722656, 88258.539063, 0.000, 0.000, 0.000,0.0047854637,0.020911064,0.015281019,0.02248579,0.009672267, 14:29:35.196
32618.390625, 17198.638672, 95275.000000, 60030.414063, 75199.515625, 59000.601563, 65116.753906, 88211.070313, 0.000, 0.000, 0.000,0.0047854637,0.020911064,0.015281019,0.02248579,0.009672267, 14:29:35.196
32651.605469, 17235.697266, 95235.882813, 60102.117188, 75210.039063, 58926.058594, 65101.824219, 88195.976563, 0.262, 0.228, 0.926,0.0047854637,0.020911064,0.015281019,0.02248579,0.009672267, 14:29:35.196
32743.539063, 17328.726563, 95212.328125, 59691.246094, 75279.960938, 58676.007813, 65055.824219, 88240.992188, 0.000, 0.000, 0.000,0.0047854637,0.020911064,0.015281019,0.02248579,0.009672267, 14:29:35.197
32722.371094, 17300.964844, 95256.226563, 59579.109375, 75278.546875, 58725.832031, 65068.964844, 88261.851563, 0.000, 0.000, 0.000,0.0047854637,0.020911064,0.015281019,0.02248579,0.009672267, 14:29:35.197
32635.757813, 17216.072266, 95281.664063, 59960.921875, 75210.734375, 58971.031250, 65110.250000, 88222.218750, 0.000, 0.000, 0.000,0.0047854637,0.020911064,0.015281019,0.02248579,0.009672267, 14:29:35.197
32645.771484, 17229.617188, 95251.640625, 60129.765625, 75205.015625, 58960.433594, 65109.535156, 88201.031250, 0.000, 0.000, 0.000,0.0047854637,0.020911064,0.015281019,0.02248579,0.009672267, 14:29:35.198
32733.748047, 17326.490234, 95220.773438, 59757.027344, 75279.820313, 58710.339844, 65072.476563, 88245.625000, 0.000, 0.000, 0.000,0.0047854637,0.020911064,0.015281019,0.02248579,0.009672267, 14:29:35.198
32732.273438, 17322.892578, 95248.960938, 59530.250000, 75290.664063, 58687.007813, 65066.238281, 88271.976563, 0.000, 0.000, 0.000,0.0047854637,0.020911064,0.015281019,0.02248579,0.009672267, 14:29:35.198
32641.570313, 17224.320313, 95275.828125, 59867.847656, 75219.539063, 58931.332031, 65105.757813, 88232.632813, 0.000, 0.000, 0.000,0.0047854637,0.020911064,0.015281019,0.02248579,0.009672267, 14:29:35.198
32629.589844, 17212.832031, 95255.734375, 60126.660156, 75203.804688, 58992.152344, 65119.660156, 88206.398438, 0.000, 0.000, 0.000,0.0047854637,0.020911064,0.015281019,0.02248579,0.009672267, 14:29:35.199
32714.392578, 17301.277344, 95224.578125, 59838.410156, 75268.046875, 58759.449219, 65086.042969, 88235.476563, 0.000, 0.000, 0.000,0.0047854637,0.020911064,0.015281019,0.02248579,0.009672267, 14:29:35.199
32735.669922, 17320.857422, 95239.882813, 59526.917969, 75296.585938, 58663.359375, 65063.132813, 88270.679688, 0.272, 0.224, 0.922,0.0047854637,0.020911064,0.015281019,0.02248579,0.009672267, 14:29:35.199
32647.449219, 17229.617188, 95278.242188, 59790.625000, 75234.671875, 58892.531250, 65101.980469, 88242.984375, 0.000, 0.000, 0.000,0.0047854637,0.020911064,0.015281019,0.02248579,0.009672267, 14:29:35.199
32614.994141, 17197.050781, 95268.984375, 60141.949219, 75191.984375, 59014.863281, 65123.750000, 88200.117188, 0.000, 0.000, 0.000,0.0047854637,0.020911064,0.015281019,0.02248579,0.009672267, 14:29:35.199
32692.933594, 17281.406250, 95225.070313, 59926.433594, 75249.718750, 58806.476563, 65092.144531, 88225.640625, 0.000, 0.000, 0.000,0.0047854637,0.020911064,0.015281019,0.02248579,0.009672267, 14:29:35.200
32740.365234, 17330.447266, 95231.546875, 59554.968750, 75295.562500, 58653.390625, 65064.250000, 88269.625000, 0.000, 0.000, 0.000,0.0047854637,0.020911064,0.015281019,0.02248579,0.009672267, 14:29:35.200
32672.371094, 17258.048828, 95273.992188, 59720.617188, 75253.445313, 58851.671875, 65100.929688, 88259.148438, 0.000, 0.000, 0.000,0.0047854637,0.020911064,0.015281019,0.02248579,0.009672267, 14:29:35.200
32618.458984, 17200.425781, 95275.289063, 60101.804688, 75201.640625, 59024.070313, 65131.640625, 88215.804688, 0.000, 0.000, 0.000,0.0047854637,0.020911064,0.015281019,0.02248579,0.009672267, 14:29:35.201
32676.929688, 17266.230469, 95230.500000, 59986.222656, 75236.328125, 58856.187500, 65097.328125, 88218.937500, 0.000, 0.000, 0.000,0.0047854637,0.020911064,0.015281019,0.02248579,0.009672267, 14:29:35.201
32737.191406, 17324.568359, 95226.742188, 59577.679688, 75296.140625, 58650.664063, 65061.878906, 88260.460938, 0.000, 0.000, 0.000,0.0047854637,0.020911064,0.015281019,0.02248579,0.009672267, 14:29:35.201
32676.505859, 17260.039063, 95271.421875, 59659.218750, 75260.421875, 58802.429688, 65086.644531, 88253.335938, 0.000, 0.000, 0.000,0.0047854637,0.020911064,0.015281019,0.02248579,0.009672267, 14:29:35.201
32614.189453, 17193.296875, 95280.273438, 60075.945313, 75196.609375, 59011.867188, 65117.671875, 88207.335938, 0.264, 0.224, 0.926,0.0047854637,0.020911064,0.015281019,0.02248579,0.009672267, 14:29:35.201
32665.419922, 17248.371094, 95239.531250, 60053.144531, 75224.835938, 58895.191406, 65098.625000, 88209.054688, 0.000, 0.000, 0.000,0.0047854637,0.020911064,0.015281019,0.02248579,0.009672267, 14:29:35.202
32736.720703, 17325.037109, 95227.796875, 59640.597656, 75288.140625, 58663.714844, 65058.593750, 88248.726563, 0.000, 0.000, 0.000,0.0047854637,0.020911064,0.015281019,0.02248579,0.009672267, 14:29:35.202
32697.896484, 17283.732422, 95265.414063, 59600.074219, 75275.460938, 58757.816406, 65082.601563, 88260.062500, 0.000, 0.000, 0.000,0.0047854637,0.020911064,0.015281019,0.02248579,0.009672267, 14:29:35.202
32615.529297, 17202.595703, 95284.945313, 60007.769531, 75208.585938, 58998.679688, 65124.843750, 88220.835938, 0.000, 0.000, 0.000,0.0047854637,0.020911064,0.015281019,0.02248579,0.009672267, 14:29:35.203
32638.552734, 17227.449219, 95250.007813, 60113.828125, 75209.679688, 58946.667969, 65110.832031, 88205.523438, 0.000, 0.000, 0.000,0.0047854637,0.020911064,0.015281019,0.02248579,0.009672267, 14:29:35.204
32734.843750, 17325.730469, 95227.640625, 59722.382813, 75286.304688, 58700.261719, 65072.898438, 88251.593750, 0.000, 0.000, 0.000,0.0047854637,0.020911064,0.015281019,0.02248579,0.009672267, 14:29:35.205
32715.398438, 17303.535156, 95262.195313, 59571.242188, 75291.359375, 58726.414063, 65086.066406, 88274.210938, 0.000, 0.000, 0.000,0.0044610687,0.019833904,0.014893943,0.021561634,0.009234398, 14:29:35.205
32624.046875, 17209.390625, 95284.210938, 59943.957031, 75213.726563, 58970.023438, 65118.117188, 88228.500000, 0.000, 0.000, 0.000,0.0044610687,0.019833904,0.014893943,0.021561634,0.009234398, 14:29:35.205
32636.361328, 17222.376953, 95252.781250, 60139.714844, 75204.367188, 58980.148438, 65116.933594, 88206.617188, 0.256, 0.220, 0.930,0.0044610687,0.019833904,0.014893943,0.021561634,0.009234398, 14:29:35.206
32719.019531, 17307.267578, 95221.804688, 59803.410156, 75268.062500, 58730.324219, 65077.078125, 88237.375000, 0.000, 0.000, 0.000,0.0044610687,0.019833904,0.014893943,0.021561634,0.009234398, 14:29:35.206
32721.097656, 17305.636719, 95245.429688, 59561.160156, 75284.718750, 58682.445313, 65066.753906, 88263.773438, 0.000, 0.000, 0.000,0.0044610687,0.019833904,0.014893943,0.021561634,0.009234398, 14:29:35.206
32635.871094, 17220.386719, 95280.562500, 59872.230469, 75223.585938, 58926.484375, 65108.058594, 88236.054688, 0.000, 0.000, 0.000,0.0044610687,0.019833904,0.014893943,0.021561634,0.009234398, 14:29:35.206
32623.845703, 17205.412109, 95263.312500, 60161.886719, 75193.414063, 59004.421875, 65119.257813, 88202.484375, 0.000, 0.000, 0.000,0.0044610687,0.019833904,0.014893943,0.021561634,0.009234398, 14:29:35.207
32711.195313, 17297.253906, 95225.671875, 59881.750000, 75256.960938, 58773.953125, 65086.289063, 88234.312500, 0.000, 0.000, 0.000,0.0044610687,0.019833904,0.014893943,0.021561634,0.009234398, 14:29:35.207
32738.375000, 17326.892578, 95248.335938, 59553.894531, 75294.554688, 58663.761719, 65067.625000, 88271.437500, 0.000, 0.000, 0.000,0.0044610687,0.019833904,0.014893943,0.021561634,0.009234398, 14:29:35.207
32656.367188, 17241.464844, 95287.156250, 59798.445313, 75238.921875, 58885.312500, 65107.679688, 88245.937500, 0.000, 0.000, 0.000,0.0044610687,0.019833904,0.014893943,0.021561634,0.009234398, 14:29:35.207
