%OpenBCI Raw EEG Data
%
%Sample Rate = 250.0 Hz
%First Column = SampleIndex
%5 Columns before Timestamp are Frequency Power factors DELTA THETA ALPHA BETA GAMMA
%Last Column = Timestamp 
%Other Columns = EEG data in microvolts followed by Accel Data (in G) interleaved with Aux Data
0.000000, 0.000000, 0.000000, 0.000000, 0.000000, 0.000000, 0.000000, 0.000000, 0, 1, 1, 0, 1,0.0,0.0,0.0,0.0,0.0, 10:27:57.228
21354.363281, 30762.681641, 187500.015625, 187500.015625, 49104.277344, 41675.183594, 61038.609375, 86030.093750, 0, 1, 1, 0, 1,0.0,0.0,0.0,0.0,0.0, 10:27:57.705
21384.517578, 30786.173828, 187500.015625, 187500.015625, 48910.375000, 41467.222656, 61085.101563, 86131.328125, 0, 1, 1, 0, 1,0.0,0.0,0.0,0.0,0.0, 10:27:57.705
21185.921875, 30545.513672, 187500.015625, 187500.015625, 49230.050781, 41853.593750, 61241.093750, 86203.609375, 0, 1, 1, 0, 1,0.0,0.0,0.0,0.0,0.0, 10:27:57.705
21147.095703, 30512.298828, 187500.015625, 187500.015625, 49449.589844, 42073.894531, 61203.746094, 86098.914063, 0, 1, 1, 0, 1,0.0,0.0,0.0,0.0,0.0, 10:27:57.706
21329.531250, 30738.921875, 187500.015625, 187500.015625, 49166.371094, 41731.531250, 61056.269531, 86020.664063, 0, 1, 1, 0, 1,0.0,0.0,0.0,0.0,0.0, 10:27:57.706
21396.675781, 30806.783203, 187500.015625, 187500.015625, 48903.960938, 41434.300781, 61060.246094, 86099.632813, 0, 1, 1, 0, 1,0.0,0.0,0.0,0.0,0.0, 10:27:57.706
21222.175781, 30596.541016, 187500.015625, 187500.015625, 49158.191406, 41744.675781, 61219.949219, 86195.632813, 0, 1, 1, 0, 1,0.0,0.0,0.0,0.0,0.0, 10:27:57.706
21122.888672, 30491.824219, 187500.015625, 187500.015625, 49464.183594, 42071.414063, 61223.882813, 86115.187500, 0, 1, 1, 0, 1,0.0,0.0,0.0,0.0,0.0, 10:27:57.706
21262.677734, 30674.884766, 187500.015625, 187500.015625, 49278.375000, 41830.773438, 61064.226563, 86009.867188, 0, 1, 1, 0, 1,0.0,0.0,0.0,0.0,0.0, 10:27:57.706
21396.072266, 30825.490234, 187500.015625, 187500.015625, 48940.394531, 41459.554688, 61022.988281, 86060.289063, 0, 1, 1, 0, 1,0.0,0.0,0.0,0.0,0.0, 10:27:57.706
21250.339844, 30637.333984, 187500.015625, 187500.015625, 49100.566406, 41671.832031, 61168.585938, 86166.664063, 0, 1, 1, 0, 1,0.0,0.0,0.0,0.0,0.0, 10:27:57.706
21110.283203, 30478.972656, 187500.015625, 187500.015625, 49455.175781, 42063.589844, 61219.457031, 86119.164063, 0, 1, 1, 0, 1,0.0,0.0,0.0,0.0,0.0, 10:27:57.706
21219.337891, 30625.732422, 187500.015625, 187500.015625, 49358.304688, 41918.882813, 61079.468750, 86010.226563, 0, 1, 1, 0, 1,0.0,0.0,0.0,0.0,0.0, 10:27:57.706
21403.939453, 30840.779297, 187500.015625, 187500.015625, 48976.292969, 41490.960938, 61007.429688, 86050.320313, 0, 1, 1, 0, 1,0.0,0.0,0.0,0.0,0.0, 10:27:57.707
21302.330078, 30702.109375, 187500.015625, 187500.015625, 49029.691406, 41583.675781, 61150.546875, 86181.929688, 0, 1, 1, 0, 1,0.0,0.0,0.0,0.0,0.0, 10:27:57.707
21113.322266, 30484.023438, 187500.015625, 187500.015625, 49420.398438, 42026.777344, 61232.601563, 86149.210938, 0, 1, 1, 0, 1,0.0,0.0,0.0,0.0,0.0, 10:27:57.707
21202.529297, 30606.085938, 187500.015625, 187500.015625, 49406.675781, 41978.250000, 61115.007813, 86033.804688, 0, 1, 1, 0, 1,0.0,0.0,0.0,0.0,0.0, 10:27:57.707
21396.988281, 30836.287109, 187500.015625, 187500.015625, 49024.011719, 41540.289063, 61017.890625, 86039.390625, 0, 1, 1, 0, 1,0.0,0.0,0.0,0.0,0.0, 10:27:57.707
21339.232422, 30752.466797, 187500.015625, 187500.015625, 48980.738281, 41514.316406, 61132.199219, 86164.320313, 0, 1, 1, 0, 1,0.0,0.0,0.0,0.0,0.0, 10:27:57.707
21129.527344, 30504.251953, 187500.015625, 187500.015625, 49370.039063, 41959.363281, 61246.929688, 86167.468750, 0, 1, 1, 0, 1,0.0,0.0,0.0,0.0,0.0, 10:27:57.707
21145.398438, 30542.361328, 187500.015625, 187500.015625, 49468.343750, 42021.414063, 61141.718750, 86031.210938, 0, 1, 1, 0, 1,0.0,0.0,0.0,0.0,0.0, 10:27:57.708
21350.453125, 30791.226563, 187500.015625, 187500.015625, 49105.394531, 41596.257813, 61008.167969, 86005.015625, 0, 1, 1, 0, 1,0.0,0.0,0.0,0.0,0.0, 10:27:57.708
21356.957031, 30780.228516, 187500.015625, 187500.015625, 48959.593750, 41455.445313, 61085.617188, 86129.585938, 0, 1, 1, 0, 1,0.0,0.0,0.0,0.0,0.0, 10:27:57.708
21156.460938, 30540.484375, 187500.015625, 187500.015625, 49307.542969, 41872.953125, 61224.308594, 86173.859375, 0, 1, 1, 0, 1,0.0,0.0,0.0,0.0,0.0, 10:27:57.708
21142.603516, 30539.611328, 187500.015625, 187500.015625, 49475.964844, 42032.699219, 61160.562500, 86055.843750, 0, 1, 1, 0, 1,0.0,0.0,0.0,0.0,0.0, 10:27:57.708
21341.535156, 30781.972656, 187500.015625, 187500.015625, 49150.878906, 41654.800781, 61020.171875, 86009.484375, 0, 1, 1, 0, 1,0.0,0.0,0.0,0.0,0.0, 10:27:57.708
21407.248047, 30837.740234, 187500.015625, 187500.015625, 48919.117188, 41411.835938, 61063.042969, 86117.578125, 0, 1, 1, 0, 1,0.0,0.0,0.0,0.0,0.0, 10:27:57.709
21216.410156, 30596.339844, 187500.015625, 187500.015625, 49218.160156, 41776.480469, 61223.347656, 86192.882813, 0, 1, 1, 0, 1,0.0,0.0,0.0,0.0,0.0, 10:27:57.709
21150.337891, 30535.767578, 187500.015625, 187500.015625, 49478.804688, 42043.207031, 61200.058594, 86096.031250, 0, 1, 1, 0, 1,0.0,0.0,0.0,0.0,0.0, 10:27:57.709
21317.998047, 30749.160156, 187500.015625, 187500.015625, 49230.050781, 41735.980469, 61050.144531, 86015.609375, 0, 1, 1, 0, 1,0.0,0.0,0.0,0.0,0.0, 10:27:57.709
21423.789063, 30858.236328, 187500.015625, 187500.015625, 48929.507813, 41404.972656, 61048.000000, 86094.804688, 0, 1, 1, 0, 1,0.0,0.0,0.0,0.0,0.0, 10:27:57.709
21257.423828, 30647.281250, 187500.015625, 187500.015625, 49157.789063, 41689.781250, 61206.917969, 86197.218750, 0, 1, 1, 0, 1,0.0,0.0,0.0,0.0,0.0, 10:27:57.709
21141.933594, 30516.857422, 187500.015625, 187500.015625, 49483.183594, 42040.812500, 61227.058594, 86129.070313, 0, 1, 1, 0, 1,0.0,0.0,0.0,0.0,0.0, 10:27:57.709
21277.541016, 30696.007813, 187500.015625, 187500.015625, 49322.855469, 41824.539063, 61079.023438, 86028.085938, 0, 1, 1, 0, 1,0.0,0.0,0.0,0.0,0.0, 10:27:57.709
21421.621094, 30856.783203, 187500.015625, 187500.015625, 48972.156250, 41428.332031, 61033.714844, 86082.578125, 0, 1, 1, 0, 1,0.0,0.0,0.0,0.0,0.0, 10:27:57.709
21294.416016, 30686.240234, 187500.015625, 187500.015625, 49105.617188, 41603.613281, 61186.042969, 86204.929688, 0, 1, 1, 0, 1,0.0,0.0,0.0,0.0,0.0, 10:27:57.710
21145.083984, 30511.001953, 187500.015625, 187500.015625, 49469.863281, 42005.988281, 61249.945313, 86167.109375, 0, 1, 1, 0, 1,0.0,0.0,0.0,0.0,0.0, 10:27:57.710
21244.884766, 30651.638672, 187500.015625, 187500.015625, 49397.621094, 41881.312500, 61112.773438, 86048.914063, 0, 1, 1, 0, 1,0.0,0.0,0.0,0.0,0.0, 10:27:57.710
21427.320313, 30864.605469, 187500.015625, 187500.015625, 49012.746094, 41440.914063, 61026.093750, 86070.281250, 0, 1, 1, 0, 1,0.0,0.0,0.0,0.0,0.0, 10:27:57.710
21344.550781, 30747.259766, 187500.015625, 187500.015625, 49038.765625, 41487.050781, 61153.699219, 86190.625000, 0, 1, 1, 0, 1,0.0,0.0,0.0,0.0,0.0, 10:27:57.710
21156.775391, 30525.507813, 187500.015625, 187500.015625, 49424.554688, 41916.828125, 61248.179688, 86175.515625, 0, 1, 1, 0, 1,0.0,0.0,0.0,0.0,0.0, 10:27:57.710
21208.652344, 30608.121094, 187500.015625, 187500.015625, 49450.820313, 41899.238281, 61128.578125, 86049.343750, 0, 1, 1, 0, 1,0.0,0.0,0.0,0.0,0.0, 10:27:57.710
21402.822266, 30843.394531, 187500.015625, 187500.015625, 49066.593750, 41452.917969, 61009.753906, 86041.000000, 0, 1, 1, 0, 1,0.0,0.0,0.0,0.0,0.0, 10:27:57.710
21356.263672, 30769.052734, 187500.015625, 187500.015625, 49005.503906, 41390.468750, 61105.332031, 86154.195313, 0, 1, 1, 0, 1,0.0,0.0,0.0,0.0,0.0, 10:27:57.710
21161.066406, 30536.974609, 187500.015625, 187500.015625, 49392.035156, 41825.363281, 61231.195313, 86174.328125, 0, 1, 1, 0, 1,0.0,0.0,0.0,0.0,0.0, 10:27:57.711
21189.609375, 30588.427734, 187500.015625, 187500.015625, 49507.636719, 41913.230469, 61152.539063, 86067.445313, 0, 1, 1, 0, 1,0.0,0.0,0.0,0.0,0.0, 10:27:57.711
21381.542969, 30823.255859, 187500.015625, 187500.015625, 49166.503906, 41508.058594, 61021.667969, 86037.429688, 0, 1, 1, 0, 1,0.0,0.0,0.0,0.0,0.0, 10:27:57.711
21389.121094, 30813.419922, 187500.015625, 187500.015625, 49009.886719, 41339.816406, 61079.851563, 86134.320313, 0, 1, 1, 0, 1,0.0,0.0,0.0,0.0,0.0, 10:27:57.711
21194.281250, 30573.183594, 187500.015625, 187500.015625, 49355.757813, 41756.253906, 61228.152344, 86192.570313, 0, 1, 1, 0, 1,0.0,0.0,0.0,0.0,0.0, 10:27:57.711
21165.626953, 30556.599609, 187500.015625, 187500.015625, 49561.929688, 41964.593750, 61181.328125, 86091.695313, 0, 1, 1, 0, 1,0.0,0.0,0.0,0.0,0.0, 10:27:57.711
21353.804688, 30790.666016, 187500.015625, 187500.015625, 49264.226563, 41607.769531, 61035.929688, 86023.078125, 0, 1, 1, 0, 1,0.0,0.0,0.0,0.0,0.0, 10:27:57.718
21444.017578, 30880.164063, 187500.015625, 187500.015625, 48996.921875, 41317.332031, 61062.773438, 86115.812500, 0, 1, 1, 0, 1,0.0,0.0,0.0,0.0,0.0, 10:27:57.718
21268.599609, 30652.197266, 187500.015625, 187500.015625, 49264.425781, 41655.269531, 61233.539063, 86219.328125, 0, 1, 1, 0, 1,0.0,0.0,0.0,0.0,0.0, 10:27:57.718
21158.964844, 30534.494141, 187500.015625, 187500.015625, 49572.726563, 41970.628906, 61217.535156, 86122.296875, 0, 1, 1, 0, 1,0.0,0.0,0.0,0.0,0.0, 10:27:57.718
21321.664063, 30743.818359, 187500.015625, 187500.015625, 49355.914063, 41690.917969, 61061.835938, 86029.562500, 0, 1, 1, 0, 1,0.0,0.0,0.0,0.0,0.0, 10:27:57.718
21436.820313, 30869.859375, 187500.015625, 187500.015625, 49037.289063, 41328.554688, 61041.628906, 86098.421875, 0, 1, 1, 0, 1,0.0,0.0,0.0,0.0,0.0, 10:27:57.718
21271.171875, 30656.847656, 187500.015625, 187500.015625, 49238.769531, 41578.246094, 61192.457031, 86199.859375, 0, 1, 1, 0, 1,0.0,0.0,0.0,0.0,0.0, 10:27:57.718
21158.228516, 30533.130859, 187500.015625, 187500.015625, 49574.625000, 41947.339844, 61224.601563, 86141.945313, 0, 1, 1, 0, 1,0.0,0.0,0.0,0.0,0.0, 10:27:57.718
21295.355469, 30713.396484, 187500.015625, 187500.015625, 49424.710938, 41750.753906, 61087.359375, 86043.664063, 0, 1, 1, 0, 1,0.0,0.0,0.0,0.0,0.0, 10:27:57.718
21451.662109, 30891.406250, 187500.015625, 187500.015625, 49056.066406, 41339.707031, 61034.855469, 86091.585938, 0, 1, 1, 0, 1,0.0,0.0,0.0,0.0,0.0, 10:27:57.719
21318.109375, 30716.839844, 187500.015625, 187500.015625, 49162.257813, 41489.285156, 61176.519531, 86204.328125, 0, 1, 1, 0, 1,0.0,0.0,0.0,0.0,0.0, 10:27:57.719
21148.125000, 30520.904297, 187500.015625, 187500.015625, 49539.980469, 41917.140625, 61237.273438, 86156.921875, 0, 1, 1, 0, 1,0.0,0.0,0.0,0.0,0.0, 10:27:57.719
21248.574219, 30658.970703, 187500.015625, 187500.015625, 49487.117188, 41831.757813, 61104.191406, 86041.468750, 0, 1, 1, 0, 1,0.0,0.0,0.0,0.0,0.0, 10:27:57.719
21419.742188, 30863.958984, 187500.015625, 187500.015625, 49103.449219, 41404.324219, 61009.195313, 86055.976563, 0, 1, 1, 0, 1,0.0,0.0,0.0,0.0,0.0, 10:27:57.720
21351.570313, 30770.929688, 187500.015625, 187500.015625, 49098.867188, 41427.078125, 61129.804688, 86180.296875, 0, 1, 1, 0, 1,0.0,0.0,0.0,0.0,0.0, 10:27:57.720
21160.640625, 30546.720703, 187500.015625, 187500.015625, 49477.460938, 41871.433594, 61239.664063, 86186.445313, 0, 1, 1, 0, 1,0.0,0.0,0.0,0.0,0.0, 10:27:57.720
21198.371094, 30606.914063, 187500.015625, 187500.015625, 49531.820313, 41902.054688, 61125.203125, 86047.664063, 0, 1, 1, 0, 1,0.0,0.0,0.0,0.0,0.0, 10:27:57.720
21398.486328, 30842.007813, 187500.015625, 187500.015625, 49155.531250, 41476.921875, 61007.320313, 86034.523438, 0, 1, 1, 0, 1,0.0,0.0,0.0,0.0,0.0, 10:27:57.720
21362.076172, 30779.423828, 187500.015625, 187500.015625, 49064.558594, 41391.117188, 61090.421875, 86141.429688, 0, 1, 1, 0, 1,0.0,0.0,0.0,0.0,0.0, 10:27:57.720
21162.093750, 30541.265625, 187500.015625, 187500.015625, 49430.882813, 41824.472656, 61219.546875, 86171.265625, 0, 1, 1, 0, 1,0.0,0.0,0.0,0.0,0.0, 10:27:57.720
21179.373047, 30578.347656, 187500.015625, 187500.015625, 49564.746094, 41951.070313, 61150.503906, 86068.070313, 0, 1, 1, 0, 1,0.0,0.0,0.0,0.0,0.0, 10:27:57.720
21373.138672, 30816.035156, 187500.015625, 187500.015625, 49220.796875, 41558.285156, 61016.503906, 86029.890625, 0, 1, 1, 0, 1,0.0,0.0,0.0,0.0,0.0, 10:27:57.720
21399.917969, 30834.609375, 187500.015625, 187500.015625, 49017.574219, 41347.640625, 61066.394531, 86130.546875, 0, 1, 1, 0, 1,0.0,0.0,0.0,0.0,0.0, 10:27:57.720
21203.333984, 30594.128906, 187500.015625, 187500.015625, 49341.496094, 41735.777344, 61218.765625, 86191.539063, 0, 1, 1, 0, 1,0.0,0.0,0.0,0.0,0.0, 10:27:57.721
21168.843750, 30565.250000, 187500.015625, 187500.015625, 49560.835938, 41966.785156, 61186.019531, 86100.820313, 0, 1, 1, 0, 1,0.0,0.0,0.0,0.0,0.0, 10:27:57.721
21327.630859, 30761.966797, 187500.015625, 187500.015625, 49294.535156, 41645.949219, 61031.324219, 86025.398438, 0, 1, 1, 0, 1,0.0,0.0,0.0,0.0,0.0, 10:27:57.721
21427.990234, 30867.601563, 187500.015625, 187500.015625, 49007.941406, 41341.761719, 61039.394531, 86113.867188, 0, 1, 1, 0, 1,0.0,0.0,0.0,0.0,0.0, 10:27:57.721
21256.888672, 30645.335938, 187500.015625, 187500.015625, 49251.531250, 41659.312500, 61199.699219, 86208.304688, 0, 1, 1, 0, 1,0.0,0.0,0.0,0.0,0.0, 10:27:57.721
21147.365234, 30527.585938, 187500.015625, 187500.015625, 49557.636719, 41993.652344, 61197.644531, 86116.375000, 0, 1, 1, 0, 1,0.0,0.0,0.0,0.0,0.0, 10:27:57.721
21306.666016, 30732.529297, 187500.015625, 187500.015625, 49353.453125, 41746.820313, 61052.132813, 86029.718750, 0, 1, 1, 0, 1,0.0,0.0,0.0,0.0,0.0, 10:27:57.721
21427.923828, 30870.394531, 187500.015625, 187500.015625, 49016.636719, 41376.945313, 61020.238281, 86083.921875, 0, 1, 1, 0, 1,0.0,0.0,0.0,0.0,0.0, 10:27:57.721
21284.804688, 30684.988281, 187500.015625, 187500.015625, 49166.726563, 41586.000000, 61174.621094, 86196.281250, 0, 1, 1, 0, 1,0.0,0.0,0.0,0.0,0.0, 10:27:57.721
21135.853516, 30516.322266, 187500.015625, 187500.015625, 49521.093750, 41981.535156, 61217.714844, 86137.093750, 0, 1, 1, 0, 1,0.0,0.0,0.0,0.0,0.0, 10:27:57.721
21263.572266, 30685.859375, 187500.015625, 187500.015625, 49406.605469, 41821.632813, 61072.652344, 86021.109375, 0, 1, 1, 0, 1,0.0,0.0,0.0,0.0,0.0, 10:27:57.722
21437.826172, 30887.740234, 187500.015625, 187500.015625, 49020.816406, 41390.871094, 61005.820313, 86059.734375, 0, 1, 1, 0, 1,0.0,0.0,0.0,0.0,0.0, 10:27:57.722
21322.580078, 30733.691406, 187500.015625, 187500.015625, 49089.257813, 41494.894531, 61143.105469, 86181.773438, 0, 1, 1, 0, 1,0.0,0.0,0.0,0.0,0.0, 10:27:57.722
21153.734375, 30541.535156, 187500.015625, 187500.015625, 49463.312500, 41924.964844, 61226.542969, 86163.382813, 0, 1, 1, 0, 1,0.0,0.0,0.0,0.0,0.0, 10:27:57.722
21231.363281, 30652.443359, 187500.015625, 187500.015625, 49445.007813, 41877.914063, 61107.699219, 86047.421875, 0, 1, 1, 0, 1,0.0,0.0,0.0,0.0,0.0, 10:27:57.723
21411.697266, 30867.265625, 187500.015625, 187500.015625, 49062.992188, 41442.390625, 61007.562500, 86047.531250, 0, 1, 1, 0, 1,0.0,0.0,0.0,0.0,0.0, 10:27:57.723
21352.263672, 30781.615234, 187500.015625, 187500.015625, 49027.812500, 41422.964844, 61117.781250, 86167.226563, 0, 1, 1, 0, 1,0.0,0.0,0.0,0.0,0.0, 10:27:57.724
21163.904297, 30559.146484, 187500.015625, 187500.015625, 49409.066406, 41864.660156, 61240.468750, 86182.218750, 0, 1, 1, 0, 1,0.0,0.0,0.0,0.0,0.0, 10:27:57.724
21210.150391, 30628.728516, 187500.015625, 187500.015625, 49484.011719, 41919.085938, 61152.558594, 86071.312500, 0, 1, 1, 0, 1,0.0,0.0,0.0,0.0,0.0, 10:27:57.724
21395.447266, 30857.185547, 187500.015625, 187500.015625, 49120.324219, 41501.265625, 61019.902344, 86044.203125, 0, 1, 1, 0, 1,0.0,0.0,0.0,0.0,0.0, 10:27:57.724
21383.667969, 30829.089844, 187500.015625, 187500.015625, 48985.566406, 41370.371094, 61097.261719, 86156.515625, 0, 1, 1, 0, 1,0.0,0.0,0.0,0.0,0.0, 10:27:57.724
21167.078125, 30566.859375, 187500.015625, 187500.015625, 49356.136719, 41802.835938, 61231.238281, 86196.703125, 0, 1, 1, 0, 1,0.0,0.0,0.0,0.0,0.0, 10:27:57.724
21159.703125, 30573.699219, 187500.015625, 187500.015625, 49528.648438, 41969.289063, 61164.250000, 86087.945313, 0, 1, 1, 0, 1,0.0,0.0,0.0,0.0,0.0, 10:27:57.724
21357.091797, 30813.242188, 187500.015625, 187500.015625, 49198.914063, 41589.644531, 61021.578125, 86040.023438, 0, 1, 1, 0, 1,0.0,0.0,0.0,0.0,0.0, 10:27:57.724
21404.722656, 30855.173828, 187500.015625, 187500.015625, 48977.007813, 41349.453125, 61054.882813, 86129.250000, 0, 1, 1, 0, 1,0.0,0.0,0.0,0.0,0.0, 10:27:57.724
21209.300781, 30618.625000, 187500.015625, 187500.015625, 49275.179688, 41714.457031, 61210.765625, 86202.359375, 0, 1, 1, 0, 1,0.0,0.0,0.0,0.0,0.0, 10:27:57.725
21147.855469, 30560.421875, 187500.015625, 187500.015625, 49529.386719, 41977.648438, 61185.441406, 86104.750000, 0, 1, 1, 0, 1,0.0,0.0,0.0,0.0,0.0, 10:27:57.725
21337.130859, 30791.404297, 187500.015625, 187500.015625, 49267.644531, 41663.917969, 61041.316406, 86036.664063, 0, 1, 1, 0, 1,0.0,0.0,0.0,0.0,0.0, 10:27:57.725
21434.406250, 30892.658203, 187500.015625, 187500.015625, 48970.816406, 41333.113281, 61039.683594, 86111.765625, 0, 1, 1, 0, 1,0.0,0.0,0.0,0.0,0.0, 10:27:57.725
21267.818359, 30685.769531, 187500.015625, 187500.015625, 49192.187500, 41611.144531, 61203.074219, 86215.281250, 0, 1, 1, 0, 1,0.0,0.0,0.0,0.0,0.0, 10:27:57.725
21153.130859, 30562.388672, 187500.015625, 187500.015625, 49514.453125, 41960.058594, 61216.171875, 86140.625000, 0, 1, 1, 0, 1,0.0,0.0,0.0,0.0,0.0, 10:27:57.725
21288.917969, 30742.833984, 187500.015625, 187500.015625, 49342.972656, 41738.460938, 61059.578125, 86035.015625, 0, 1, 1, 0, 1,0.0,0.0,0.0,0.0,0.0, 10:27:57.725
21406.421875, 30877.726563, 187500.015625, 187500.015625, 49009.015625, 41358.371094, 61010.269531, 86076.367188, 0, 1, 1, 0, 1,0.0,0.0,0.0,0.0,0.0, 10:27:57.725
21262.900391, 30694.486328, 187500.015625, 187500.015625, 49155.304688, 41543.867188, 61149.742188, 86178.531250, 0, 1, 1, 0, 1,0.0,0.0,0.0,0.0,0.0, 10:27:57.725
21130.935547, 30541.244141, 187500.015625, 187500.015625, 49514.253906, 41945.035156, 61209.488281, 86133.492188, 0, 1, 1, 0, 1,0.0,0.0,0.0,0.0,0.0, 10:27:57.726
21248.171875, 30694.041016, 187500.015625, 187500.015625, 49432.757813, 41822.527344, 61077.882813, 86028.890625, 0, 1, 1, 0, 1,0.0,0.0,0.0,0.0,0.0, 10:27:57.726
21421.308594, 30896.123047, 187500.015625, 187500.015625, 49047.035156, 41389.261719, 60999.628906, 86058.703125, 0, 1, 1, 0, 1,0.0,0.0,0.0,0.0,0.0, 10:27:57.726
21323.361328, 30759.486328, 187500.015625, 187500.015625, 49083.019531, 41453.453125, 61128.128906, 86176.632813, 0, 1, 1, 0, 1,0.0,0.0,0.0,0.0,0.0, 10:27:57.726
21155.992188, 30561.226563, 187500.015625, 187500.015625, 49459.714844, 41887.703125, 61222.296875, 86163.492188, 0, 1, 1, 0, 1,0.0,0.0,0.0,0.0,0.0, 10:27:57.726
21232.078125, 30666.570313, 187500.015625, 187500.015625, 49461.414063, 41862.109375, 61115.925781, 86055.781250, 0, 1, 1, 0, 1,5.2553316E-4,6.9614156E-4,8.556939E-4,0.0026920184,0.0034185166, 10:27:57.726
21411.539063, 30879.582031, 187500.015625, 187500.015625, 49084.562500, 41429.828125, 61006.023438, 86048.421875, 0, 1, 1, 0, 1,5.2553316E-4,6.9614156E-4,8.556939E-4,0.0026920184,0.0034185166, 10:27:57.726
21364.511719, 30805.462891, 187500.015625, 187500.015625, 49016.078125, 41370.976563, 61099.742188, 86158.015625, 0, 1, 1, 0, 1,5.2553316E-4,6.9614156E-4,8.556939E-4,0.0026920184,0.0034185166, 10:27:57.726
21161.982422, 30562.902344, 187500.015625, 187500.015625, 49388.859375, 41813.136719, 61222.812500, 86180.812500, 0, 1, 1, 0, 1,5.2553316E-4,6.9614156E-4,8.556939E-4,0.0026920184,0.0034185166, 10:27:57.726
21176.019531, 30597.906250, 187500.015625, 187500.015625, 49504.730469, 41911.910156, 61132.957031, 86060.718750, 0, 1, 1, 0, 1,5.2553316E-4,6.9614156E-4,8.556939E-4,0.0026920184,0.0034185166, 10:27:57.727
21364.421875, 30827.011719, 187500.015625, 187500.015625, 49159.976563, 41503.878906, 60993.460938, 86019.476563, 0, 1, 1, 0, 1,5.2553316E-4,6.9614156E-4,8.556939E-4,0.0026920184,0.0034185166, 10:27:57.727
21393.054688, 30849.117188, 187500.015625, 187500.015625, 48981.164063, 41321.312500, 61061.523438, 86136.710938, 0, 1, 1, 0, 1,5.2553316E-4,6.9614156E-4,8.556939E-4,0.0026920184,0.0034185166, 10:27:57.727
21197.992188, 30613.886719, 187500.015625, 187500.015625, 49303.117188, 41719.597656, 61216.351563, 86204.554688, 0, 1, 1, 0, 1,5.2553316E-4,6.9614156E-4,8.556939E-4,0.0026920184,0.0034185166, 10:27:57.727
21154.472656, 30575.107422, 187500.015625, 187500.015625, 49512.980469, 41925.144531, 61166.867188, 86092.078125, 0, 1, 1, 0, 1,0.0,0.0,0.0,0.0,0.0, 10:27:58.187
21329.753906, 30791.226563, 187500.015625, 187500.015625, 49233.382813, 41583.472656, 61017.042969, 86019.632813, 0, 1, 1, 0, 1,0.0,0.0,0.0,0.0,0.0, 10:27:58.187
21402.800781, 30866.037109, 187500.015625, 187500.015625, 48977.164063, 41309.417969, 61039.503906, 86115.812500, 0, 1, 1, 0, 1,0.0,0.0,0.0,0.0,0.0, 10:27:58.187
21212.789063, 30627.341797, 187500.015625, 187500.015625, 49260.605469, 41653.078125, 61198.894531, 86193.757813, 0, 1, 1, 0, 1,0.0,0.0,0.0,0.0,0.0, 10:27:58.187
21135.832031, 30547.949219, 187500.015625, 187500.015625, 49540.406250, 41943.894531, 61187.050781, 86099.226563, 0, 1, 1, 0, 1,0.0,0.0,0.0,0.0,0.0, 10:27:58.187
21306.173828, 30762.638672, 187500.015625, 187500.015625, 49309.890625, 41657.054688, 61038.074219, 86016.570313, 0, 1, 1, 0, 1,0.0,0.0,0.0,0.0,0.0, 10:27:58.187
21405.863281, 30874.531250, 187500.015625, 187500.015625, 49003.875000, 41305.464844, 61014.605469, 86073.968750, 0, 1, 1, 0, 1,0.0,0.0,0.0,0.0,0.0, 10:27:58.188
21251.121094, 30679.958984, 187500.015625, 187500.015625, 49199.718750, 41551.644531, 61165.589844, 86175.718750, 0, 1, 1, 0, 1,0.0,0.0,0.0,0.0,0.0, 10:27:58.188
21137.283203, 30556.085938, 187500.015625, 187500.015625, 49527.464844, 41914.437500, 61196.371094, 86115.500000, 0, 1, 1, 0, 1,0.0,0.0,0.0,0.0,0.0, 10:27:58.188
21279.687500, 30741.716797, 187500.015625, 187500.015625, 49370.375000, 41715.820313, 61057.253906, 86021.492188, 0, 1, 1, 0, 1,0.0,0.0,0.0,0.0,0.0, 10:27:58.188
21418.222656, 30901.017578, 187500.015625, 187500.015625, 49007.113281, 41310.804688, 60998.019531, 86062.593750, 0, 1, 1, 0, 1,0.0,0.0,0.0,0.0,0.0, 10:27:58.189
21292.740234, 30738.162109, 187500.015625, 187500.015625, 49108.992188, 41452.023438, 61146.437500, 86182.132813, 0, 1, 1, 0, 1,0.0,0.0,0.0,0.0,0.0, 10:27:58.189
21126.130859, 30545.042969, 187500.015625, 187500.015625, 49490.628906, 41877.109375, 61212.328125, 86141.187500, 0, 1, 1, 0, 1,0.0,0.0,0.0,0.0,0.0, 10:27:58.189
21234.759766, 30685.970703, 187500.015625, 187500.015625, 49440.046875, 41788.550781, 61083.425781, 86026.742188, 0, 1, 1, 0, 1,0.0,0.0,0.0,0.0,0.0, 10:27:58.189
21422.068359, 30903.185547, 187500.015625, 187500.015625, 49056.511719, 41352.042969, 60991.335938, 86038.703125, 0, 1, 1, 0, 1,0.0,0.0,0.0,0.0,0.0, 10:27:58.189
21355.302734, 30806.871094, 187500.015625, 187500.015625, 49051.839844, 41371.914063, 61118.292969, 86167.179688, 0, 1, 1, 0, 1,0.0,0.0,0.0,0.0,0.0, 10:27:58.189
21165.960938, 30584.203125, 187500.015625, 187500.015625, 49434.457031, 41814.167969, 61229.671875, 86168.523438, 0, 1, 1, 0, 1,0.0,0.0,0.0,0.0,0.0, 10:27:58.189
21205.970703, 30648.017578, 187500.015625, 187500.015625, 49486.046875, 41837.703125, 61117.445313, 86040.601563, 0, 1, 1, 0, 1,0.0,0.0,0.0,0.0,0.0, 10:27:58.189
21402.777344, 30886.845703, 187500.015625, 187500.015625, 49111.230469, 41407.121094, 60996.386719, 86021.023438, 0, 1, 1, 0, 1,0.0,0.0,0.0,0.0,0.0, 10:27:58.190
21394.216797, 30860.873047, 187500.015625, 187500.015625, 48997.636719, 41301.687500, 61092.320313, 86145.296875, 0, 1, 1, 0, 1,0.0,0.0,0.0,0.0,0.0, 10:27:58.190
21181.830078, 30603.695313, 187500.015625, 187500.015625, 49374.242188, 41738.839844, 61231.574219, 86182.687500, 0, 1, 1, 0, 1,0.0,0.0,0.0,0.0,0.0, 10:27:58.190
21188.468750, 30624.951172, 187500.015625, 187500.015625, 49523.773438, 41866.132813, 61155.128906, 86069.656250, 0, 1, 1, 0, 1,0.0,0.0,0.0,0.0,0.0, 10:27:58.190
21371.417969, 30850.300781, 187500.015625, 187500.015625, 49194.332031, 41468.878906, 61014.156250, 86021.109375, 0, 1, 1, 0, 1,0.0,0.0,0.0,0.0,0.0, 10:27:58.190
21411.115234, 30883.560547, 187500.015625, 187500.015625, 48994.128906, 41247.125000, 61067.468750, 86130.570313, 0, 1, 1, 0, 1,0.0,0.0,0.0,0.0,0.0, 10:27:58.190
21207.603516, 30634.808594, 187500.015625, 187500.015625, 49325.917969, 41633.027344, 61222.050781, 86196.523438, 0, 1, 1, 0, 1,0.0,0.0,0.0,0.0,0.0, 10:27:58.190
21158.115234, 30593.390625, 187500.015625, 187500.015625, 49563.628906, 41860.257813, 61184.253906, 86091.875000, 0, 1, 1, 0, 1,0.0,0.0,0.0,0.0,0.0, 10:27:58.190
21334.695313, 30816.617188, 187500.015625, 187500.015625, 49292.812500, 41527.015625, 61035.546875, 86019.031250, 0, 1, 1, 0, 1,0.0,0.0,0.0,0.0,0.0, 10:27:58.190
21432.796875, 30921.201172, 187500.015625, 187500.015625, 49004.007813, 41224.214844, 61056.402344, 86114.203125, 0, 1, 1, 0, 1,0.0,0.0,0.0,0.0,0.0, 10:27:58.191
21263.347656, 30707.673828, 187500.015625, 187500.015625, 49240.847656, 41537.117188, 61219.617188, 86216.289063, 0, 1, 1, 0, 1,0.0,0.0,0.0,0.0,0.0, 10:27:58.191
21155.433594, 30588.048828, 187500.015625, 187500.015625, 49544.472656, 41864.570313, 61216.308594, 86128.507813, 0, 1, 1, 0, 1,0.0,0.0,0.0,0.0,0.0, 10:27:58.191
21307.560547, 30785.861328, 187500.015625, 187500.015625, 49344.222656, 41613.871094, 61060.941406, 86029.156250, 0, 1, 1, 0, 1,0.0,0.0,0.0,0.0,0.0, 10:27:58.191
21433.914063, 30926.363281, 187500.015625, 187500.015625, 49001.593750, 41240.621094, 61027.570313, 86090.601563, 0, 1, 1, 0, 1,0.0,0.0,0.0,0.0,0.0, 10:27:58.191
21277.541016, 30726.808594, 187500.015625, 187500.015625, 49165.050781, 41459.871094, 61176.230469, 86189.929688, 0, 1, 1, 0, 1,0.0,0.0,0.0,0.0,0.0, 10:27:58.191
21150.203125, 30584.382813, 187500.015625, 187500.015625, 49504.062500, 41843.605469, 61216.910156, 86131.484375, 0, 1, 1, 0, 1,0.0,0.0,0.0,0.0,0.0, 10:27:58.191
21259.615234, 30730.048828, 187500.015625, 187500.015625, 49389.351563, 41689.265625, 61073.589844, 86022.828125, 0, 1, 1, 0, 1,0.0,0.0,0.0,0.0,0.0, 10:27:58.191
21401.437500, 30892.144531, 187500.015625, 187500.015625, 49033.222656, 41280.339844, 60992.050781, 86038.765625, 0, 1, 1, 0, 1,0.0,0.0,0.0,0.0,0.0, 10:27:58.191
21300.564453, 30755.955078, 187500.015625, 187500.015625, 49101.347656, 41383.558594, 61126.519531, 86151.796875, 0, 1, 1, 0, 1,0.0,0.0,0.0,0.0,0.0, 10:27:58.192
21126.689453, 30554.722656, 187500.015625, 187500.015625, 49483.652344, 41817.652344, 61205.175781, 86124.578125, 0, 1, 1, 0, 1,0.0,0.0,0.0,0.0,0.0, 10:27:58.192
21203.466797, 30662.882813, 187500.015625, 187500.015625, 49472.253906, 41769.484375, 61083.761719, 86011.992188, 0, 1, 1, 0, 1,0.0,0.0,0.0,0.0,0.0, 10:27:58.192
21393.546875, 30890.892578, 187500.015625, 187500.015625, 49088.765625, 41336.687500, 60987.378906, 86021.554688, 0, 1, 1, 0, 1,0.0,0.0,0.0,0.0,0.0, 10:27:58.192
21345.937500, 30820.529297, 187500.015625, 187500.015625, 49038.093750, 41312.636719, 61103.230469, 86147.796875, 0, 1, 1, 0, 1,0.0,0.0,0.0,0.0,0.0, 10:27:58.192
21134.580078, 30573.027344, 187500.015625, 187500.015625, 49421.558594, 41758.398438, 61215.839844, 86154.726563, 0, 1, 1, 0, 1,0.0,0.0,0.0,0.0,0.0, 10:27:58.192
21177.091797, 30640.240234, 187500.015625, 187500.015625, 49496.281250, 41813.136719, 61117.691406, 86039.953125, 0, 1, 1, 0, 1,0.0,0.0,0.0,0.0,0.0, 10:27:58.192
21362.880859, 30863.599609, 187500.015625, 187500.015625, 49135.191406, 41401.375000, 60992.523438, 86011.140625, 0, 1, 1, 0, 1,0.0,0.0,0.0,0.0,0.0, 10:27:58.192
21371.486328, 30858.572266, 187500.015625, 187500.015625, 48991.019531, 41267.933594, 61070.929688, 86130.031250, 0, 1, 1, 0, 1,0.0,0.0,0.0,0.0,0.0, 10:27:58.192
21169.515625, 30618.960938, 187500.015625, 187500.015625, 49335.617188, 41688.773438, 61217.984375, 86185.617188, 0, 1, 1, 0, 1,0.0,0.0,0.0,0.0,0.0, 10:27:58.193
21135.718750, 30594.351563, 187500.015625, 187500.015625, 49521.875000, 41865.105469, 61152.605469, 86061.945313, 0, 1, 1, 0, 1,0.0,0.0,0.0,0.0,0.0, 10:27:58.193
21339.253906, 30847.841797, 187500.015625, 187500.015625, 49189.347656, 41475.582031, 61005.441406, 86010.718750, 0, 1, 1, 0, 1,0.0,0.0,0.0,0.0,0.0, 10:27:58.193
21373.429688, 30875.156250, 187500.015625, 187500.015625, 48973.273438, 41236.238281, 61035.460938, 86100.523438, 0, 1, 1, 0, 1,0.0,0.0,0.0,0.0,0.0, 10:27:58.193
21172.554688, 30630.248047, 187500.015625, 187500.015625, 49281.906250, 41602.609375, 61187.718750, 86168.539063, 0, 1, 1, 0, 1,0.0,0.0,0.0,0.0,0.0, 10:27:58.193
21120.117188, 30580.626953, 187500.015625, 187500.015625, 49531.375000, 41855.742188, 61158.304688, 86069.906250, 0, 1, 1, 0, 1,0.0,0.0,0.0,0.0,0.0, 10:27:58.193
21292.472656, 30798.064453, 187500.015625, 187500.015625, 49273.996094, 41541.921875, 61007.699219, 85995.203125, 0, 1, 1, 0, 1,0.0,0.0,0.0,0.0,0.0, 10:27:58.193
21393.882813, 30906.292969, 187500.015625, 187500.015625, 48974.324219, 41212.679688, 61010.000000, 86081.679688, 0, 1, 1, 0, 1,0.0,0.0,0.0,0.0,0.0, 10:27:58.193
21218.912109, 30682.707031, 187500.015625, 187500.015625, 49206.066406, 41500.570313, 61165.703125, 86175.671875, 0, 1, 1, 0, 1,0.0,0.0,0.0,0.0,0.0, 10:27:58.193
21115.111328, 30569.496094, 187500.015625, 187500.015625, 49520.109375, 41841.437500, 61180.296875, 86098.265625, 0, 1, 1, 0, 1,0.0,0.0,0.0,0.0,0.0, 10:27:58.193
21263.750000, 30754.679688, 187500.015625, 187500.015625, 49339.484375, 41612.128906, 61034.542969, 86003.070313, 0, 1, 1, 0, 1,0.0,0.0,0.0,0.0,0.0, 10:27:58.194
21415.072266, 30922.273438, 187500.015625, 187500.015625, 48981.277344, 41212.593750, 60992.765625, 86060.273438, 0, 1, 1, 0, 1,0.0,0.0,0.0,0.0,0.0, 10:27:58.194
21288.248047, 30754.724609, 187500.015625, 187500.015625, 49109.597656, 41393.886719, 61150.636719, 86185.281250, 0, 1, 1, 0, 1,0.0,0.0,0.0,0.0,0.0, 10:27:58.194
21130.802734, 30575.150391, 187500.015625, 187500.015625, 49474.398438, 41810.812500, 61209.421875, 86140.578125, 0, 1, 1, 0, 1,0.0,0.0,0.0,0.0,0.0, 10:27:58.194
21229.730469, 30710.603516, 187500.015625, 187500.015625, 49396.214844, 41701.335938, 61074.171875, 86027.234375, 0, 1, 1, 0, 1,0.0,0.0,0.0,0.0,0.0, 10:27:58.194
21396.363281, 30904.169922, 187500.015625, 187500.015625, 49024.773438, 41285.546875, 60994.578125, 86042.367188, 0, 1, 1, 0, 1,0.0,0.0,0.0,0.0,0.0, 10:27:58.194
21310.800781, 30781.501953, 187500.015625, 187500.015625, 49063.238281, 41355.039063, 61130.031250, 86162.375000, 0, 1, 1, 0, 1,0.0,0.0,0.0,0.0,0.0, 10:27:58.194
21141.531250, 30578.794922, 187500.015625, 187500.015625, 49437.945313, 41791.589844, 61224.531250, 86154.929688, 0, 1, 1, 0, 1,0.0,0.0,0.0,0.0,0.0, 10:27:58.194
21215.425781, 30681.880859, 187500.015625, 187500.015625, 49442.882813, 41772.859375, 61108.414063, 86039.976563, 0, 1, 1, 0, 1,0.0,0.0,0.0,0.0,0.0, 10:27:58.194
21392.853516, 30893.216797, 187500.015625, 187500.015625, 49070.437500, 41346.234375, 60997.105469, 86027.703125, 0, 1, 1, 0, 1,0.0,0.0,0.0,0.0,0.0, 10:27:58.195
21361.851563, 30842.410156, 187500.015625, 187500.015625, 49002.039063, 41285.457031, 61095.898438, 86142.632813, 0, 1, 1, 0, 1,0.0,0.0,0.0,0.0,0.0, 10:27:58.195
21150.583984, 30589.970703, 187500.015625, 187500.015625, 49390.960938, 41733.031250, 61220.218750, 86161.140625, 0, 1, 1, 0, 1,0.0,0.0,0.0,0.0,0.0, 10:27:58.195
21159.144531, 30621.128906, 187500.015625, 187500.015625, 49513.984375, 41833.769531, 61127.636719, 86033.601563, 0, 1, 1, 0, 1,0.0,0.0,0.0,0.0,0.0, 10:27:58.196
21373.609375, 30883.896484, 187500.015625, 187500.015625, 49149.226563, 41415.007813, 60997.125000, 86003.515625, 0, 1, 1, 0, 1,0.0,0.0,0.0,0.0,0.0, 10:27:58.196
21371.820313, 30867.355469, 187500.015625, 187500.015625, 48992.562500, 41255.285156, 61062.996094, 86116.281250, 0, 1, 1, 0, 1,0.0,0.0,0.0,0.0,0.0, 10:27:58.196
21172.152344, 30627.632813, 187500.015625, 187500.015625, 49336.109375, 41669.214844, 61204.460938, 86170.843750, 0, 1, 1, 0, 1,0.0,0.0,0.0,0.0,0.0, 10:27:58.196
21138.871094, 30604.656250, 187500.015625, 187500.015625, 49533.585938, 41869.218750, 61145.562500, 86062.507813, 0, 1, 1, 0, 1,0.0,0.0,0.0,0.0,0.0, 10:27:58.196
21315.605469, 30831.347656, 187500.015625, 187500.015625, 49225.847656, 41512.062500, 60992.007813, 85993.867188, 0, 1, 1, 0, 1,0.0,0.0,0.0,0.0,0.0, 10:27:58.196
21387.734375, 30904.281250, 187500.015625, 187500.015625, 48963.351563, 41236.015625, 61016.214844, 86090.468750, 0, 1, 1, 0, 1,0.0,0.0,0.0,0.0,0.0, 10:27:58.196
21204.115234, 30677.410156, 187500.015625, 187500.015625, 49229.804688, 41574.042969, 61179.917969, 86182.937500, 0, 1, 1, 0, 1,0.0,0.0,0.0,0.0,0.0, 10:27:58.197
21117.949219, 30587.646484, 187500.015625, 187500.015625, 49505.425781, 41868.546875, 61168.429688, 86090.023438, 0, 1, 1, 0, 1,0.0,0.0,0.0,0.0,0.0, 10:27:58.197
21278.054688, 30793.281250, 187500.015625, 187500.015625, 49272.832031, 41586.691406, 61014.539063, 86001.148438, 0, 1, 1, 0, 1,0.0,0.0,0.0,0.0,0.0, 10:27:58.197
21382.617188, 30909.041016, 187500.015625, 187500.015625, 48956.109375, 41241.492188, 60994.535156, 86067.734375, 0, 1, 1, 0, 1,0.0,0.0,0.0,0.0,0.0, 10:27:58.197
21216.654297, 30699.830078, 187500.015625, 187500.015625, 49158.210938, 41499.679688, 61147.152344, 86168.968750, 0, 1, 1, 0, 1,0.0,0.0,0.0,0.0,0.0, 10:27:58.197
21095.576172, 30563.685547, 187500.015625, 187500.015625, 49496.906250, 41871.656250, 61172.074219, 86101.976563, 0, 1, 1, 0, 1,0.0,0.0,0.0,0.0,0.0, 10:27:58.197
21240.773438, 30749.205078, 187500.015625, 187500.015625, 49345.878906, 41673.039063, 61032.308594, 86001.351563, 0, 1, 1, 0, 1,0.0,0.0,0.0,0.0,0.0, 10:27:58.197
21398.933594, 30930.164063, 187500.015625, 187500.015625, 48976.828125, 41265.164063, 60983.847656, 86044.781250, 0, 1, 1, 0, 1,0.0,0.0,0.0,0.0,0.0, 10:27:58.197
21264.689453, 30752.021484, 187500.015625, 187500.015625, 49088.250000, 41418.363281, 61123.703125, 86156.093750, 0, 1, 1, 0, 1,0.0,0.0,0.0,0.0,0.0, 10:27:58.197
21093.988281, 30558.544922, 187500.015625, 187500.015625, 49473.707031, 41848.031250, 61186.667969, 86114.046875, 0, 1, 1, 0, 1,0.0,0.0,0.0,0.0,0.0, 10:27:58.198
21207.289063, 30716.035156, 187500.015625, 187500.015625, 49415.257813, 41753.773438, 61062.929688, 86013.578125, 0, 1, 1, 0, 1,0.0,0.0,0.0,0.0,0.0, 10:27:58.198
21389.904297, 30930.566406, 187500.015625, 187500.015625, 49026.917969, 41317.554688, 60977.480469, 86038.656250, 0, 1, 1, 0, 1,0.0,0.0,0.0,0.0,0.0, 10:27:58.198
21299.066406, 30805.306641, 187500.015625, 187500.015625, 49042.207031, 41349.363281, 61095.519531, 86143.890625, 0, 1, 1, 0, 1,0.0,0.0,0.0,0.0,0.0, 10:27:58.198
21129.349609, 30610.376953, 187500.015625, 187500.015625, 49408.460938, 41777.621094, 61198.917969, 86147.617188, 0, 1, 1, 0, 1,0.0,0.0,0.0,0.0,0.0, 10:27:58.198
21178.298828, 30685.390625, 187500.015625, 187500.015625, 49444.113281, 41787.144531, 61100.035156, 86040.492188, 0, 1, 1, 0, 1,0.0,0.0,0.0,0.0,0.0, 10:27:58.198
21353.246094, 30899.363281, 187500.015625, 187500.015625, 49086.550781, 41361.855469, 60977.480469, 86017.710938, 0, 1, 1, 0, 1,0.0,0.0,0.0,0.0,0.0, 10:27:58.198
21334.560547, 30862.794922, 187500.015625, 187500.015625, 48988.429688, 41260.781250, 61070.238281, 86134.609375, 0, 1, 1, 0, 1,0.0,0.0,0.0,0.0,0.0, 10:27:58.198
21137.417969, 30623.609375, 187500.015625, 187500.015625, 49357.613281, 41685.710938, 61206.496094, 86165.882813, 0, 1, 1, 0, 1,0.0,0.0,0.0,0.0,0.0, 10:27:58.198
21141.753906, 30639.480469, 187500.015625, 187500.015625, 49510.320313, 41808.957031, 61130.117188, 86051.796875, 0, 1, 1, 0, 1,0.0,0.0,0.0,0.0,0.0, 10:27:58.199
21352.753906, 30895.117188, 187500.015625, 187500.015625, 49163.933594, 41392.546875, 60984.964844, 86012.281250, 0, 1, 1, 0, 1,0.0,0.0,0.0,0.0,0.0, 10:27:58.199
21386.527344, 30919.525391, 187500.015625, 187500.015625, 48961.003906, 41164.558594, 61039.394531, 86122.898438, 0, 1, 1, 0, 1,0.0,0.0,0.0,0.0,0.0, 10:27:58.199
21183.574219, 30671.554688, 187500.015625, 187500.015625, 49285.660156, 41535.976563, 61191.003906, 86184.007813, 0, 1, 1, 0, 1,0.0,0.0,0.0,0.0,0.0, 10:27:58.199
21119.582031, 30609.214844, 187500.015625, 187500.015625, 49533.117188, 41763.695313, 61148.851563, 86065.968750, 0, 1, 1, 0, 1,0.0,0.0,0.0,0.0,0.0, 10:27:58.199
21305.302734, 30842.007813, 187500.015625, 187500.015625, 49255.890625, 41412.550781, 60992.031250, 85986.710938, 0, 1, 1, 0, 1,0.0,0.0,0.0,0.0,0.0, 10:27:58.199
21404.410156, 30937.316406, 187500.015625, 187500.015625, 48973.140625, 41093.187500, 61007.003906, 86084.523438, 0, 1, 1, 0, 1,0.0,0.0,0.0,0.0,0.0, 10:27:58.199
21218.533203, 30706.066406, 187500.015625, 187500.015625, 49228.574219, 41401.261719, 61168.542969, 86179.648438, 0, 1, 1, 0, 1,0.0,0.0,0.0,0.0,0.0, 10:27:58.199
21122.666016, 30610.019531, 187500.015625, 187500.015625, 49522.234375, 41711.125000, 61163.937500, 86089.882813, 0, 1, 1, 0, 1,0.0,0.0,0.0,0.0,0.0, 10:27:58.200
21270.455078, 30800.144531, 187500.015625, 187500.015625, 49319.972656, 41451.843750, 61010.292969, 85995.312500, 0, 1, 1, 0, 1,0.0,0.0,0.0,0.0,0.0, 10:27:58.200
21387.824219, 30935.841797, 187500.015625, 187500.015625, 48986.171875, 41072.378906, 60975.355469, 86058.148438, 0, 1, 1, 0, 1,0.0,0.0,0.0,0.0,0.0, 10:27:58.200
21243.455078, 30752.625000, 187500.015625, 187500.015625, 49154.925781, 41284.808594, 61126.410156, 86163.554688, 0, 1, 1, 0, 1,0.0,0.0,0.0,0.0,0.0, 10:27:58.200
21116.228516, 30607.025391, 187500.015625, 187500.015625, 49499.253906, 41662.800781, 61174.734375, 86109.218750, 0, 1, 1, 0, 1,0.0,0.0,0.0,0.0,0.0, 10:27:58.200
21236.927734, 30765.095703, 187500.015625, 187500.015625, 49383.316406, 41495.609375, 61037.000000, 86003.273438, 0, 1, 1, 0, 1,0.0,0.0,0.0,0.0,0.0, 10:27:58.200
21382.304688, 30930.119141, 187500.015625, 187500.015625, 49027.855469, 41085.722656, 60964.605469, 86027.164063, 0, 1, 1, 0, 1,0.0,0.0,0.0,0.0,0.0, 10:27:58.200
21295.601563, 30814.001953, 187500.015625, 187500.015625, 49087.023438, 41185.097656, 61101.105469, 86148.109375, 0, 1, 1, 0, 1,0.0,0.0,0.0,0.0,0.0, 10:27:58.200
21117.501953, 30609.572266, 187500.015625, 187500.015625, 49466.531250, 41626.078125, 61187.765625, 86128.171875, 0, 1, 1, 0, 1,0.0,0.0,0.0,0.0,0.0, 10:27:58.200
21197.701172, 30722.248047, 187500.015625, 187500.015625, 49450.683594, 41586.468750, 61063.824219, 86011.367188, 0, 1, 1, 0, 1,0.0,0.0,0.0,0.0,0.0, 10:27:58.200
21377.230469, 30932.958984, 187500.015625, 187500.015625, 49069.386719, 41168.871094, 60962.570313, 86011.742188, 0, 1, 1, 0, 1,0.0,0.0,0.0,0.0,0.0, 10:27:58.201
21322.333984, 30852.468750, 187500.015625, 187500.015625, 49035.300781, 41162.121094, 61071.246094, 86131.234375, 0, 1, 1, 0, 1,0.0,0.0,0.0,0.0,0.0, 10:27:58.201
21117.123047, 30611.048828, 187500.015625, 187500.015625, 49426.320313, 41619.347656, 61182.398438, 86138.546875, 0, 1, 1, 0, 1,0.0,0.0,0.0,0.0,0.0, 10:27:58.201
21176.287109, 30698.689453, 187500.015625, 187500.015625, 49487.789063, 41674.289063, 61085.660156, 86030.226563, 0, 1, 1, 0, 1,0.0,0.0,0.0,0.0,0.0, 10:27:58.201
21369.742188, 30931.035156, 187500.015625, 187500.015625, 49113.531250, 41262.906250, 60967.933594, 86017.914063, 0, 1, 1, 0, 1,0.0,0.0,0.0,0.0,0.0, 10:27:58.201
21350.408203, 30891.808594, 187500.015625, 187500.015625, 48983.085938, 41140.933594, 61045.359375, 86127.328125, 0, 1, 1, 0, 1,0.0,0.0,0.0,0.0,0.0, 10:27:58.201
21133.976563, 30634.115234, 187500.015625, 187500.015625, 49358.148438, 41583.496094, 61178.375000, 86158.531250, 0, 1, 1, 0, 1,0.0,0.0,0.0,0.0,0.0, 10:27:58.201
21134.109375, 30654.298828, 187500.015625, 187500.015625, 49518.769531, 41751.156250, 61120.375000, 86053.898438, 0, 1, 1, 0, 1,0.0,0.0,0.0,0.0,0.0, 10:27:58.201
21322.916016, 30888.500000, 187500.015625, 187500.015625, 49191.738281, 41381.304688, 60978.171875, 86002.070313, 0, 1, 1, 0, 1,0.0,0.0,0.0,0.0,0.0, 10:27:58.202
21373.050781, 30929.158203, 187500.015625, 187500.015625, 48966.566406, 41154.613281, 61020.214844, 86099.632813, 0, 1, 1, 0, 1,0.0,0.0,0.0,0.0,0.0, 10:27:58.202
21174.521484, 30682.328125, 187500.015625, 187500.015625, 49278.578125, 41538.726563, 61170.375000, 86165.164063, 0, 1, 1, 0, 1,0.0,0.0,0.0,0.0,0.0, 10:27:58.666
21114.417969, 30621.822266, 187500.015625, 187500.015625, 49535.242188, 41810.523438, 61143.843750, 86067.156250, 0, 1, 1, 0, 1,0.0,0.0,0.0,0.0,0.0, 10:27:58.667
21285.878906, 30839.169922, 187500.015625, 187500.015625, 49279.941406, 41504.863281, 60993.816406, 85989.078125, 0, 1, 1, 0, 1,0.0,0.0,0.0,0.0,0.0, 10:27:58.667
21375.107422, 30932.958984, 187500.015625, 187500.015625, 48990.371094, 41181.679688, 60988.343750, 86063.734375, 0, 1, 1, 0, 1,0.0,0.0,0.0,0.0,0.0, 10:27:58.667
21219.449219, 30732.931641, 187500.015625, 187500.015625, 49209.734375, 41465.144531, 61143.640625, 86171.093750, 0, 1, 1, 0, 1,0.0,0.0,0.0,0.0,0.0, 10:27:58.667
21110.574219, 30612.054688, 187500.015625, 187500.015625, 49528.199219, 41817.808594, 61156.359375, 86102.421875, 0, 1, 1, 0, 1,0.0,0.0,0.0,0.0,0.0, 10:27:58.667
21243.142578, 30786.978516, 187500.015625, 187500.015625, 49356.898438, 41603.816406, 61008.101563, 86004.703125, 0, 1, 1, 0, 1,0.0,0.0,0.0,0.0,0.0, 10:27:58.668
21383.443359, 30951.599609, 187500.015625, 187500.015625, 48998.285156, 41211.855469, 60963.105469, 86058.328125, 0, 1, 1, 0, 1,0.0,0.0,0.0,0.0,0.0, 10:27:58.668
21239.810547, 30764.492188, 187500.015625, 187500.015625, 49132.796875, 41400.839844, 61109.933594, 86173.703125, 0, 1, 1, 0, 1,0.0,0.0,0.0,0.0,0.0, 10:27:58.668
21090.255859, 30593.591797, 187500.015625, 187500.015625, 49501.445313, 41819.933594, 61165.746094, 86130.859375, 0, 1, 1, 0, 1,0.0,0.0,0.0,0.0,0.0, 10:27:58.668
21196.650391, 30736.798828, 187500.015625, 187500.015625, 49423.167969, 41700.933594, 61024.886719, 86009.601563, 0, 1, 1, 0, 1,0.0,0.0,0.0,0.0,0.0, 10:27:58.668
21352.150391, 30919.033203, 187500.015625, 187500.015625, 49052.667969, 41273.746094, 60934.898438, 86023.945313, 0, 1, 1, 0, 1,0.0,0.0,0.0,0.0,0.0, 10:27:58.669
21279.285156, 30815.275391, 187500.015625, 187500.015625, 49077.746094, 41322.519531, 61063.800781, 86153.406250, 0, 1, 1, 0, 1,0.0,0.0,0.0,0.0,0.0, 10:27:58.669
21099.128906, 30596.339844, 187500.015625, 187500.015625, 49463.292969, 41756.855469, 61155.308594, 86140.085938, 0, 1, 1, 0, 1,0.0,0.0,0.0,0.0,0.0, 10:27:58.669
21163.994141, 30691.312500, 187500.015625, 187500.015625, 49481.304688, 41736.539063, 61036.734375, 86016.750000, 0, 1, 1, 0, 1,0.0,0.0,0.0,0.0,0.0, 10:27:58.669
21358.007813, 30922.408203, 187500.015625, 187500.015625, 49092.007813, 41291.917969, 60928.730469, 86009.148438, 0, 1, 1, 0, 1,0.0,0.0,0.0,0.0,0.0, 10:27:58.669
21316.433594, 30854.525391, 187500.015625, 187500.015625, 49025.914063, 41230.941406, 61028.238281, 86120.125000, 0, 1, 1, 0, 1,0.0,0.0,0.0,0.0,0.0, 10:27:58.669
21123.783203, 30623.720703, 187500.015625, 187500.015625, 49402.449219, 41667.605469, 61156.695313, 86141.656250, 0, 1, 1, 0, 1,0.0,0.0,0.0,0.0,0.0, 10:27:58.669
21153.556641, 30674.839844, 187500.015625, 187500.015625, 49508.753906, 41749.636719, 61073.167969, 86024.617188, 0, 1, 1, 0, 1,0.0,0.0,0.0,0.0,0.0, 10:27:58.669
21355.281250, 30914.048828, 187500.015625, 187500.015625, 49153.429688, 41330.027344, 60940.777344, 85992.765625, 0, 1, 1, 0, 1,0.0,0.0,0.0,0.0,0.0, 10:27:58.669
21349.066406, 30889.685547, 187500.015625, 187500.015625, 49014.109375, 41165.003906, 61001.417969, 86090.781250, 0, 1, 1, 0, 1,0.0,0.0,0.0,0.0,0.0, 10:27:58.670
21167.593750, 30670.458984, 187500.015625, 187500.015625, 49346.503906, 41558.195313, 61149.093750, 86152.335938, 0, 1, 1, 0, 1,0.0,0.0,0.0,0.0,0.0, 10:27:58.670
21138.736328, 30650.253906, 187500.015625, 187500.015625, 49538.257813, 41744.675781, 61101.574219, 86049.500000, 0, 1, 1, 0, 1,0.0,0.0,0.0,0.0,0.0, 10:27:58.670
21309.080078, 30868.406250, 187500.015625, 187500.015625, 49245.964844, 41378.441406, 60954.636719, 85981.187500, 0, 1, 1, 0, 1,0.0,0.0,0.0,0.0,0.0, 10:27:58.670
21385.277344, 30939.037109, 187500.015625, 187500.015625, 48994.062500, 41082.148438, 60987.269531, 86083.046875, 0, 1, 1, 0, 1,0.0,0.0,0.0,0.0,0.0, 10:27:58.670
21200.205078, 30710.044922, 187500.015625, 187500.015625, 49273.570313, 41405.128906, 61149.496094, 86174.328125, 0, 1, 1, 0, 1,0.0,0.0,0.0,0.0,0.0, 10:27:58.670
21123.335938, 30636.574219, 187500.015625, 187500.015625, 49542.617188, 41673.753906, 61124.597656, 86076.585938, 0, 1, 1, 0, 1,0.0,0.0,0.0,0.0,0.0, 10:27:58.670
21284.089844, 30843.148438, 187500.015625, 187500.015625, 49305.531250, 41367.398438, 60967.039063, 85989.593750, 0, 1, 1, 0, 1,0.0,0.0,0.0,0.0,0.0, 10:27:58.670
21392.562500, 30963.244141, 187500.015625, 187500.015625, 48985.054688, 40997.164063, 60953.921875, 86064.585938, 0, 1, 1, 0, 1,0.0,0.0,0.0,0.0,0.0, 10:27:58.671
21220.500000, 30751.126953, 187500.015625, 187500.015625, 49189.972656, 41241.492188, 61115.390625, 86170.015625, 0, 1, 1, 0, 1,0.0,0.0,0.0,0.0,0.0, 10:27:58.671
21088.646484, 30611.652344, 187500.015625, 187500.015625, 49530.457031, 41601.667969, 61150.257813, 86103.562500, 0, 1, 1, 0, 1,0.0,0.0,0.0,0.0,0.0, 10:27:58.671
21215.335938, 30781.457031, 187500.015625, 187500.015625, 49384.277344, 41397.640625, 61003.250000, 85995.515625, 0, 1, 1, 0, 1,0.0,0.0,0.0,0.0,0.0, 10:27:58.671
21352.330078, 30938.992188, 187500.015625, 187500.015625, 49029.578125, 40984.625000, 60935.011719, 86027.437500, 0, 1, 1, 0, 1,0.0,0.0,0.0,0.0,0.0, 10:27:58.671
21224.367188, 30774.238281, 187500.015625, 187500.015625, 49144.019531, 41128.324219, 61075.445313, 86136.710938, 0, 1, 1, 0, 1,0.0,0.0,0.0,0.0,0.0, 10:27:58.671
21067.568359, 30595.849609, 187500.015625, 187500.015625, 49511.078125, 41540.605469, 61146.816406, 86105.421875, 0, 1, 1, 0, 1,0.0,0.0,0.0,0.0,0.0, 10:27:58.671
21151.142578, 30710.669922, 187500.015625, 187500.015625, 49468.230469, 41453.968750, 61016.257813, 85990.085938, 0, 1, 1, 0, 1,0.0,0.0,0.0,0.0,0.0, 10:27:58.671
21324.501953, 30919.099609, 187500.015625, 187500.015625, 49090.976563, 41020.164063, 60919.921875, 86007.226563, 0, 1, 1, 0, 1,0.0,0.0,0.0,0.0,0.0, 10:27:58.671
21257.582031, 30825.066406, 187500.015625, 187500.015625, 49086.753906, 41036.167969, 61040.667969, 86132.351563, 0, 1, 1, 0, 1,0.0,0.0,0.0,0.0,0.0, 10:27:58.672
21077.626953, 30611.853516, 187500.015625, 187500.015625, 49467.246094, 41474.375000, 61150.257813, 86136.085938, 0, 1, 1, 0, 1,0.0,0.0,0.0,0.0,0.0, 10:27:58.672
21120.654297, 30676.226563, 187500.015625, 187500.015625, 49527.304688, 41501.218750, 61049.699219, 86022.609375, 0, 1, 1, 0, 1,0.0,0.0,0.0,0.0,0.0, 10:27:58.672
21306.419922, 30900.570313, 187500.015625, 187500.015625, 49162.996094, 41075.105469, 60929.085938, 86005.460938, 0, 1, 1, 0, 1,0.0,0.0,0.0,0.0,0.0, 10:27:58.672
21294.751953, 30870.015625, 187500.015625, 187500.015625, 49055.886719, 40968.914063, 61023.144531, 86126.992188, 0, 1, 1, 0, 1,0.0,0.0,0.0,0.0,0.0, 10:27:58.672
21077.001953, 30609.685547, 187500.015625, 187500.015625, 49439.753906, 41410.160156, 61158.707031, 86152.671875, 0, 1, 1, 0, 1,0.0,0.0,0.0,0.0,0.0, 10:27:58.672
21100.068359, 30657.919922, 187500.015625, 187500.015625, 49571.695313, 41526.523438, 61082.152344, 86037.625000, 0, 1, 1, 0, 1,0.0,0.0,0.0,0.0,0.0, 10:27:58.672
21291.779297, 30887.628906, 187500.015625, 187500.015625, 49227.750000, 41123.542969, 60947.035156, 86004.476563, 0, 1, 1, 0, 1,0.0,0.0,0.0,0.0,0.0, 10:27:58.672
21327.810547, 30914.070313, 187500.015625, 187500.015625, 49022.738281, 40907.089844, 60998.378906, 86107.367188, 0, 1, 1, 0, 1,0.0,0.0,0.0,0.0,0.0, 10:27:58.672
21116.630859, 30654.500000, 187500.015625, 187500.015625, 49347.039063, 41299.136719, 61152.089844, 86169.078125, 0, 1, 1, 0, 1,0.0,0.0,0.0,0.0,0.0, 10:27:58.673
21042.580078, 30583.421875, 187500.015625, 187500.015625, 49593.488281, 41545.542969, 61103.339844, 86051.304688, 0, 1, 1, 0, 1,0.0,0.0,0.0,0.0,0.0, 10:27:58.673
21244.013672, 30838.656250, 187500.015625, 187500.015625, 49298.937500, 41198.265625, 60957.363281, 85994.062500, 0, 1, 1, 0, 1,0.0,0.0,0.0,0.0,0.0, 10:27:58.673
21324.769531, 30915.478516, 187500.015625, 187500.015625, 49027.992188, 40895.019531, 60974.058594, 86084.812500, 0, 1, 1, 0, 1,0.0,0.0,0.0,0.0,0.0, 10:27:58.673
21136.658203, 30678.617188, 187500.015625, 187500.015625, 49300.750000, 41220.636719, 61131.125000, 86165.101563, 0, 1, 1, 0, 1,0.0,0.0,0.0,0.0,0.0, 10:27:58.673
21039.785156, 30574.861328, 187500.015625, 187500.015625, 49607.101563, 41546.617188, 61128.621094, 86077.171875, 0, 1, 1, 0, 1,0.0,0.0,0.0,0.0,0.0, 10:27:58.673
21205.904297, 30787.359375, 187500.015625, 187500.015625, 49397.957031, 41284.855469, 60975.601563, 85980.812500, 0, 1, 1, 0, 1,0.0,0.0,0.0,0.0,0.0, 10:27:58.673
21344.998047, 30940.199219, 187500.015625, 187500.015625, 49045.359375, 40897.789063, 60954.570313, 86058.929688, 0, 1, 1, 0, 1,0.0,0.0,0.0,0.0,0.0, 10:27:58.673
21184.871094, 30731.769531, 187500.015625, 187500.015625, 49223.636719, 41124.011719, 61109.578125, 86171.742188, 0, 1, 1, 0, 1,0.0,0.0,0.0,0.0,0.0, 10:27:58.674
21063.210938, 30601.482422, 187500.015625, 187500.015625, 49567.515625, 41512.171875, 61151.308594, 86118.515625, 0, 1, 1, 0, 1,0.0,0.0,0.0,0.0,0.0, 10:27:58.674
21187.261719, 30760.939453, 187500.015625, 187500.015625, 49448.250000, 41352.199219, 61011.585938, 86016.375000, 0, 1, 1, 0, 1,0.0,0.0,0.0,0.0,0.0, 10:27:58.674
21351.906250, 30949.185547, 187500.015625, 187500.015625, 49076.539063, 40927.851563, 60943.304688, 86049.585938, 0, 1, 1, 0, 1,0.0,0.0,0.0,0.0,0.0, 10:27:58.674
21239.722656, 30801.373047, 187500.015625, 187500.015625, 49149.562500, 41031.945313, 61080.207031, 86171.648438, 0, 1, 1, 0, 1,0.0,0.0,0.0,0.0,0.0, 10:27:58.674
21060.527344, 30596.228516, 187500.015625, 187500.015625, 49537.968750, 41465.925781, 61155.644531, 86138.296875, 0, 1, 1, 0, 1,0.0,0.0,0.0,0.0,0.0, 10:27:58.674
21146.224609, 30713.910156, 187500.015625, 187500.015625, 49519.550781, 41411.656250, 61035.214844, 86024.304688, 0, 1, 1, 0, 1,0.0,0.0,0.0,0.0,0.0, 10:27:58.674
21328.078125, 30925.335938, 187500.015625, 187500.015625, 49135.457031, 40980.871094, 60936.015625, 86031.546875, 0, 1, 1, 0, 1,0.0,0.0,0.0,0.0,0.0, 10:27:58.674
21264.062500, 30833.089844, 187500.015625, 187500.015625, 49106.535156, 40975.039063, 61040.578125, 86145.898438, 0, 1, 1, 0, 1,0.0,0.0,0.0,0.0,0.0, 10:27:58.674
21077.716797, 30614.847656, 187500.015625, 187500.015625, 49482.179688, 41418.875000, 61152.046875, 86144.601563, 0, 1, 1, 0, 1,0.0,0.0,0.0,0.0,0.0, 10:27:58.675
21120.966797, 30679.824219, 187500.015625, 187500.015625, 49555.179688, 41479.496094, 61059.062500, 86020.570313, 0, 1, 1, 0, 1,0.0,0.0,0.0,0.0,0.0, 10:27:58.675
21304.585938, 30902.761719, 187500.015625, 187500.015625, 49198.734375, 41072.757813, 60930.382813, 85990.312500, 0, 1, 1, 0, 1,0.0,0.0,0.0,0.0,0.0, 10:27:58.675
21299.244141, 30886.355469, 187500.015625, 187500.015625, 49063.238281, 40945.421875, 61005.933594, 86106.562500, 0, 1, 1, 0, 1,0.0,0.0,0.0,0.0,0.0, 10:27:58.675
21090.703125, 30637.914063, 187500.015625, 187500.015625, 49416.398438, 41377.125000, 61144.960938, 86146.125000, 0, 1, 1, 0, 1,0.0,0.0,0.0,0.0,0.0, 10:27:58.675
21064.439453, 30622.447266, 187500.015625, 187500.015625, 49592.082031, 41553.097656, 61078.417969, 86023.882813, 0, 1, 1, 0, 1,0.0,0.0,0.0,0.0,0.0, 10:27:58.675
21264.509766, 30868.472656, 187500.015625, 187500.015625, 49263.199219, 41177.410156, 60930.675781, 85965.968750, 0, 1, 1, 0, 1,0.0,0.0,0.0,0.0,0.0, 10:27:58.675
21304.207031, 30900.212891, 187500.015625, 187500.015625, 49041.335938, 40944.304688, 60968.761719, 86066.820313, 0, 1, 1, 0, 1,0.0,0.0,0.0,0.0,0.0, 10:27:58.675
21109.076172, 30661.138672, 187500.015625, 187500.015625, 49347.753906, 41317.890625, 61120.105469, 86135.218750, 0, 1, 1, 0, 1,0.0,0.0,0.0,0.0,0.0, 10:27:58.675
21056.884766, 30610.757813, 187500.015625, 187500.015625, 49591.007813, 41575.003906, 61094.289063, 86042.234375, 0, 1, 1, 0, 1,0.0,0.0,0.0,0.0,0.0, 10:27:58.675
21217.884766, 30815.029297, 187500.015625, 187500.015625, 49341.496094, 41269.007813, 60938.855469, 85959.734375, 0, 1, 1, 0, 1,0.0,0.0,0.0,0.0,0.0, 10:27:58.676
21324.390625, 30930.007813, 187500.015625, 187500.015625, 49038.207031, 40937.843750, 60934.898438, 86037.648438, 0, 1, 1, 0, 1,0.0,0.0,0.0,0.0,0.0, 10:27:58.676
21142.000000, 30701.863281, 187500.015625, 187500.015625, 49276.878906, 41234.070313, 61089.191406, 86127.523438, 0, 1, 1, 0, 1,0.0,0.0,0.0,0.0,0.0, 10:27:58.676
21037.125000, 30592.451172, 187500.015625, 187500.015625, 49591.500000, 41580.414063, 61099.542969, 86049.671875, 0, 1, 1, 0, 1,0.0,0.0,0.0,0.0,0.0, 10:27:58.676
21188.693359, 30786.867188, 187500.015625, 187500.015625, 49403.859375, 41352.000000, 60957.316406, 85963.937500, 0, 1, 1, 0, 1,0.0,0.0,0.0,0.0,0.0, 10:27:58.676
21306.441406, 30922.564453, 187500.015625, 187500.015625, 49070.996094, 40975.082031, 60913.796875, 86008.773438, 0, 1, 1, 0, 1,0.0,0.0,0.0,0.0,0.0, 10:27:58.676
21195.041016, 30776.339844, 187500.015625, 187500.015625, 49190.398438, 41147.281250, 61069.457031, 86137.539063, 0, 1, 1, 0, 1,0.0,0.0,0.0,0.0,0.0, 10:27:58.676
21048.837891, 30607.292969, 187500.015625, 187500.015625, 49544.046875, 41555.066406, 61129.851563, 86100.976563, 0, 1, 1, 0, 1,0.0,0.0,0.0,0.0,0.0, 10:27:58.676
21150.917969, 30739.035156, 187500.015625, 187500.015625, 49460.117188, 41437.406250, 60989.683594, 85981.992188, 0, 1, 1, 0, 1,0.0,0.0,0.0,0.0,0.0, 10:27:58.676
21325.330078, 30938.814453, 187500.015625, 187500.015625, 49077.925781, 41010.511719, 60909.214844, 86006.960938, 0, 1, 1, 0, 1,0.0,0.0,0.0,0.0,0.0, 10:27:58.677
21230.177734, 30807.117188, 187500.015625, 187500.015625, 49119.542969, 41077.429688, 61037.671875, 86113.578125, 0, 1, 1, 0, 1,0.0,0.0,0.0,0.0,0.0, 10:27:58.677
21053.242188, 30599.603516, 187500.015625, 187500.015625, 49508.242188, 41521.515625, 61129.558594, 86102.132813, 0, 1, 1, 0, 1,0.0,0.0,0.0,0.0,0.0, 10:27:58.677
21128.968750, 30701.773438, 187500.015625, 187500.015625, 49518.277344, 41503.835938, 61018.851563, 85994.867188, 0, 1, 1, 0, 1,0.0,0.0,0.0,0.0,0.0, 10:27:58.677
21323.250000, 30933.896484, 187500.015625, 187500.015625, 49135.300781, 41067.753906, 60913.441406, 86000.234375, 0, 1, 1, 0, 1,0.0,0.0,0.0,0.0,0.0, 10:27:58.677
21278.234375, 30867.355469, 187500.015625, 187500.015625, 49068.761719, 41016.542969, 61011.074219, 86119.835938, 0, 1, 1, 0, 1,0.0,0.0,0.0,0.0,0.0, 10:27:58.677
21072.753906, 30623.162109, 187500.015625, 187500.015625, 49448.652344, 41466.062500, 61133.984375, 86137.898438, 0, 1, 1, 0, 1,0.0,0.0,0.0,0.0,0.0, 10:27:58.677
21087.820313, 30662.166016, 187500.015625, 187500.015625, 49563.359375, 41566.195313, 61043.750000, 86013.015625, 0, 1, 1, 0, 1,0.0,0.0,0.0,0.0,0.0, 10:27:58.677
21294.371094, 30910.292969, 187500.015625, 187500.015625, 49202.023438, 41151.796875, 60911.718750, 85977.656250, 0, 1, 1, 0, 1,0.0,0.0,0.0,0.0,0.0, 10:27:58.677
21308.990234, 30904.951172, 187500.015625, 187500.015625, 49046.027344, 40987.890625, 60979.000000, 86086.039063, 0, 1, 1, 0, 1,0.0,0.0,0.0,0.0,0.0, 10:27:58.677
21113.925781, 30664.044922, 187500.015625, 187500.015625, 49390.289063, 41401.332031, 61125.714844, 86140.289063, 0, 1, 1, 0, 1,0.0,0.0,0.0,0.0,0.0, 10:27:58.678
21084.802734, 30643.414063, 187500.015625, 187500.015625, 49595.656250, 41608.484375, 61069.925781, 86025.515625, 0, 1, 1, 0, 1,0.0,0.0,0.0,0.0,0.0, 10:27:58.678
21280.738281, 30887.404297, 187500.015625, 187500.015625, 49286.980469, 41254.367188, 60922.828125, 85964.937500, 0, 1, 1, 0, 1,0.0,0.0,0.0,0.0,0.0, 10:27:58.678
21360.824219, 30966.105469, 187500.015625, 187500.015625, 49026.425781, 40982.726563, 60953.183594, 86062.593750, 0, 1, 1, 0, 1,0.0,0.0,0.0,0.0,0.0, 10:27:58.678
21180.556641, 30738.789063, 187500.015625, 187500.015625, 49302.804688, 41331.101563, 61114.113281, 86148.109375, 0, 1, 1, 0, 1,0.0,0.0,0.0,0.0,0.0, 10:27:58.678
21105.455078, 30653.337891, 187500.015625, 187500.015625, 49578.781250, 41628.757813, 61098.289063, 86050.054688, 0, 1, 1, 0, 1,0.0,0.0,0.0,0.0,0.0, 10:27:58.678
21281.296875, 30869.814453, 187500.015625, 187500.015625, 49352.269531, 41350.457031, 60942.164063, 85960.875000, 0, 1, 1, 0, 1,0.0,0.0,0.0,0.0,0.0, 10:27:58.678
21398.531250, 31004.013672, 187500.015625, 187500.015625, 49037.378906, 41002.976563, 60930.160156, 86037.742188, 0, 1, 1, 0, 1,0.0,0.0,0.0,0.0,0.0, 10:27:58.679
21248.439453, 30806.648438, 187500.015625, 187500.015625, 49245.250000, 41262.929688, 61087.359375, 86141.539063, 0, 1, 1, 0, 1,0.0,0.0,0.0,0.0,0.0, 10:27:58.679
21134.712891, 30681.925781, 187500.015625, 187500.015625, 49584.863281, 41636.203125, 61114.113281, 86075.085938, 0, 1, 1, 0, 1,0.0,0.0,0.0,0.0,0.0, 10:27:58.679
21264.710938, 30857.968750, 187500.015625, 187500.015625, 49449.007813, 41452.292969, 60967.710938, 85965.210938, 0, 1, 1, 0, 1,0.0,0.0,0.0,0.0,0.0, 10:27:58.679
21433.310547, 31051.847656, 187500.015625, 187500.015625, 49084.988281, 41041.398438, 60912.769531, 86015.570313, 0, 1, 1, 0, 1,0.0,0.0,0.0,0.0,0.0, 10:27:58.679
21313.371094, 30894.646484, 187500.015625, 187500.015625, 49195.941406, 41190.777344, 61047.796875, 86125.718750, 0, 1, 1, 0, 1,0.0,0.0,0.0,0.0,0.0, 10:27:58.679
21170.654297, 30728.550781, 187500.015625, 187500.015625, 49559.894531, 41610.027344, 61112.101563, 86090.515625, 0, 1, 1, 0, 1,0.0,0.0,0.0,0.0,0.0, 10:27:58.679
21284.962891, 30878.843750, 187500.015625, 187500.015625, 49497.601563, 41519.792969, 60990.667969, 85984.164063, 0, 1, 1, 0, 1,0.0,0.0,0.0,0.0,0.0, 10:27:58.679
21455.125000, 31073.193359, 187500.015625, 187500.015625, 49126.496094, 41100.074219, 60899.628906, 85984.742188, 0, 1, 1, 0, 1,0.0,0.0,0.0,0.0,0.0, 10:27:58.679
21390.775391, 30981.886719, 187500.015625, 187500.015625, 49132.062500, 41131.277344, 61016.617188, 86103.679688, 0, 1, 1, 0, 1,0.0,0.0,0.0,0.0,0.0, 10:27:58.680
21213.279297, 30775.087891, 187500.015625, 187500.015625, 49505.984375, 41570.757813, 61124.800781, 86111.726563, 0, 1, 1, 0, 1,0.0,0.0,0.0,0.0,0.0, 10:27:58.680
21272.199219, 30859.398438, 187500.015625, 187500.015625, 49547.667969, 41586.222656, 61023.746094, 85999.968750, 0, 1, 1, 0, 1,0.0,0.0,0.0,0.0,0.0, 10:27:58.680
21468.044922, 31086.738281, 187500.015625, 187500.015625, 49179.914063, 41157.605469, 60910.894531, 85986.109375, 0, 1, 1, 0, 1,0.0,0.0,0.0,0.0,0.0, 10:27:58.680
21433.869141, 31026.500000, 187500.015625, 187500.015625, 49095.695313, 41071.417969, 60999.226563, 86097.148438, 0, 1, 1, 0, 1,0.0,0.0,0.0,0.0,0.0, 10:27:58.680
21231.697266, 30784.408203, 187500.015625, 187500.015625, 49472.386719, 41514.542969, 61130.453125, 86121.734375, 0, 1, 1, 0, 1,0.0,0.0,0.0,0.0,0.0, 10:27:58.680
21243.074219, 30812.347656, 187500.015625, 187500.015625, 49611.640625, 41646.261719, 61059.152344, 86009.265625, 0, 1, 1, 0, 1,0.0,0.0,0.0,0.0,0.0, 10:27:58.680
21440.373047, 31052.875000, 187500.015625, 187500.015625, 49268.964844, 41249.496094, 60925.242188, 85972.875000, 0, 1, 1, 0, 1,0.0,0.0,0.0,0.0,0.0, 10:27:58.680
21461.853516, 31066.957031, 187500.015625, 187500.015625, 49078.214844, 41047.457031, 60984.562500, 86078.976563, 0, 1, 1, 0, 1,0.0,0.0,0.0,0.0,0.0, 10:27:58.680
21239.654297, 30802.535156, 187500.015625, 187500.015625, 49413.492188, 41447.644531, 61130.945313, 86132.375000, 0, 1, 1, 0, 1,0.0,0.0,0.0,0.0,0.0, 10:27:58.680
21174.410156, 30746.074219, 187500.015625, 187500.015625, 49647.402344, 41684.816406, 61083.156250, 86020.351563, 0, 1, 1, 0, 1,0.0,0.0,0.0,0.0,0.0, 10:27:58.681
21349.513672, 30967.804688, 187500.015625, 187500.015625, 49362.015625, 41350.546875, 60933.738281, 85950.945313, 0, 1, 1, 0, 1,0.0,0.0,0.0,0.0,0.0, 10:27:58.681
21433.130859, 31053.232422, 187500.015625, 187500.015625, 49079.691406, 41048.261719, 60939.191406, 86034.562500, 0, 1, 1, 0, 1,0.0,0.0,0.0,0.0,93.30432, 10:27:59.145
21258.654297, 30830.945313, 187500.015625, 187500.015625, 49320.796875, 41358.750000, 61104.011719, 86137.335938, 0, 1, 1, 0, 1,0.0,0.0,0.0,0.0,93.30432, 10:27:59.145
21144.525391, 30712.279297, 187500.015625, 187500.015625, 49622.882813, 41683.609375, 61104.281250, 86049.765625, 0, 1, 1, 0, 1,0.0,0.0,0.0,0.0,93.30432, 10:27:59.145
21287.375000, 30898.781250, 187500.015625, 187500.015625, 49415.613281, 41428.800781, 60951.773438, 85956.601563, 0, 1, 1, 0, 1,0.0,0.0,0.0,0.0,93.30432, 10:27:59.147
21405.304688, 31028.935547, 187500.015625, 187500.015625, 49077.925781, 41057.269531, 60917.195313, 86009.757813, 0, 1, 1, 0, 1,0.0,0.0,0.0,0.0,93.30432, 10:27:59.148
21243.701172, 30826.408203, 187500.015625, 187500.015625, 49243.171875, 41280.003906, 61063.933594, 86113.867188, 0, 1, 1, 0, 1,0.0,0.0,0.0,0.0,93.30432, 10:27:59.148
21099.173828, 30664.603516, 187500.015625, 187500.015625, 49590.250000, 41670.265625, 61100.144531, 86055.304688, 0, 1, 1, 0, 1,0.0,0.0,0.0,0.0,93.30432, 10:27:59.149
21222.376953, 30826.228516, 187500.015625, 187500.015625, 49463.851563, 41506.093750, 60958.144531, 85954.570313, 0, 1, 1, 0, 1,0.0,0.0,0.0,0.0,93.30432, 10:27:59.149
21366.187500, 30991.296875, 187500.015625, 187500.015625, 49095.605469, 41091.871094, 60883.535156, 85977.703125, 0, 1, 1, 0, 1,0.0,0.0,0.0,0.0,93.30432, 10:27:59.149
21247.166016, 30836.287109, 187500.015625, 187500.015625, 49169.367188, 41205.664063, 61011.117188, 86090.937500, 0, 1, 1, 0, 1,0.0,0.0,0.0,0.0,93.30432, 10:27:59.150
21067.882813, 30631.365234, 187500.015625, 187500.015625, 49549.570313, 41646.863281, 61092.164063, 86068.718750, 0, 1, 1, 0, 1,0.0,0.0,0.0,0.0,93.30432, 10:27:59.150
21141.441406, 30735.591797, 187500.015625, 187500.015625, 49530.437500, 41602.496094, 60971.289063, 85949.406250, 0, 1, 1, 0, 1,0.0,0.0,0.0,0.0,93.30432, 10:27:59.150
21311.023438, 30936.691406, 187500.015625, 187500.015625, 49159.308594, 41184.070313, 60862.500000, 85948.000000, 0, 1, 1, 0, 1,0.0,0.0,0.0,0.0,93.30432, 10:27:59.150
21263.705078, 30863.488281, 187500.015625, 187500.015625, 49122.269531, 41172.785156, 60973.632813, 86067.671875, 0, 1, 1, 0, 1,0.0,0.0,0.0,0.0,93.30432, 10:27:59.150
21074.386719, 30639.501953, 187500.015625, 187500.015625, 49500.753906, 41616.511719, 61088.968750, 86073.304688, 0, 1, 1, 0, 1,0.0,0.0,0.0,0.0,93.30432, 10:27:59.150
21109.589844, 30698.710938, 187500.015625, 187500.015625, 49574.648438, 41670.734375, 60991.628906, 85956.960938, 0, 1, 1, 0, 1,0.0,0.0,0.0,0.0,93.30432, 10:27:59.150
21306.152344, 30936.087891, 187500.015625, 187500.015625, 49208.617188, 41245.246094, 60860.156250, 85929.203125, 0, 1, 1, 0, 1,0.0,0.0,0.0,0.0,93.30432, 10:27:59.150
21302.843750, 30915.589844, 187500.015625, 187500.015625, 49076.203125, 41107.738281, 60937.871094, 86042.632813, 0, 1, 1, 0, 1,0.0,0.0,0.0,0.0,93.30432, 10:27:59.150
21100.425781, 30672.023438, 187500.015625, 187500.015625, 49433.136719, 41529.585938, 61081.214844, 86092.617188, 0, 1, 1, 0, 1,0.0,0.0,0.0,0.0,93.30432, 10:27:59.151
21081.539063, 30664.156250, 187500.015625, 187500.015625, 49607.324219, 41696.933594, 61020.171875, 85985.570313, 0, 1, 1, 0, 1,0.0,0.0,0.0,0.0,93.30432, 10:27:59.151
21260.798828, 30888.187500, 187500.015625, 187500.015625, 49294.625000, 41327.300781, 60876.539063, 85931.140625, 0, 1, 1, 0, 1,0.0,0.0,0.0,0.0,93.30432, 10:27:59.151
21297.748047, 30922.162109, 187500.015625, 187500.015625, 49082.687500, 41094.285156, 60915.117188, 86028.109375, 0, 1, 1, 0, 1,0.0,0.0,0.0,0.0,93.30432, 10:27:59.151
21118.865234, 30703.740234, 187500.015625, 187500.015625, 49375.984375, 41457.835938, 61075.355469, 86110.695313, 0, 1, 1, 0, 1,0.0,0.0,0.0,0.0,93.30432, 10:27:59.151
21063.343750, 30649.113281, 187500.015625, 187500.015625, 49619.621094, 41715.015625, 61054.546875, 86022.164063, 0, 1, 1, 0, 1,0.0,0.0,0.0,0.0,93.30432, 10:27:59.151
21233.798828, 30863.488281, 187500.015625, 187500.015625, 49368.183594, 41404.906250, 60911.140625, 85944.156250, 0, 1, 1, 0, 1,0.0,0.0,0.0,0.0,93.30432, 10:27:59.151
21345.400391, 30985.708984, 187500.015625, 187500.015625, 49065.476563, 41068.468750, 60912.367188, 86025.539063, 0, 1, 1, 0, 1,0.0,0.0,0.0,0.0,93.30432, 10:27:59.151
21162.787109, 30757.474609, 187500.015625, 187500.015625, 49303.992188, 41357.230469, 61068.449219, 86115.882813, 0, 1, 1, 0, 1,0.0,0.0,0.0,0.0,93.30432, 10:27:59.151
21057.308594, 30643.861328, 187500.015625, 187500.015625, 49629.589844, 41703.859375, 61079.515625, 86034.562500, 0, 1, 1, 0, 1,0.0,0.0,0.0,0.0,93.30432, 10:27:59.152
21195.734375, 30823.099609, 187500.015625, 187500.015625, 49465.144531, 41482.980469, 60930.851563, 85935.320313, 0, 1, 1, 0, 1,0.0,0.0,0.0,0.0,93.30432, 10:27:59.152
21329.955078, 30978.800781, 187500.015625, 187500.015625, 49127.164063, 41090.843750, 60885.121094, 85985.414063, 0, 1, 1, 0, 1,0.0,0.0,0.0,0.0,93.30432, 10:27:59.152
21194.503906, 30799.316406, 187500.015625, 187500.015625, 49267.488281, 41272.250000, 61033.046875, 86102.250000, 0, 1, 1, 0, 1,0.0,0.0,0.0,0.0,93.30432, 10:27:59.152
21052.236328, 30632.416016, 187500.015625, 187500.015625, 49624.804688, 41671.898438, 61085.906250, 86053.187500, 0, 1, 1, 0, 1,0.0,0.0,0.0,0.0,93.30432, 10:27:59.152
21154.763672, 30768.761719, 187500.015625, 187500.015625, 49546.417969, 41543.152344, 60948.488281, 85940.976563, 0, 1, 1, 0, 1,0.0,0.0,0.0,0.0,93.30432, 10:27:59.152
21331.074219, 30974.621094, 187500.015625, 187500.015625, 49166.882813, 41104.097656, 60868.894531, 85968.132813, 0, 1, 1, 0, 1,0.0,0.0,0.0,0.0,93.30432, 10:27:59.152
21253.847656, 30862.974609, 187500.015625, 187500.015625, 49190.847656, 41159.441406, 61011.585938, 86106.781250, 0, 1, 1, 0, 1,0.0,0.0,0.0,0.0,93.30432, 10:27:59.152
21064.619141, 30643.435547, 187500.015625, 187500.015625, 49583.253906, 41606.140625, 61108.082031, 86096.148438, 0, 1, 1, 0, 1,0.0,0.0,0.0,0.0,93.30432, 10:27:59.152
21128.343750, 30742.185547, 187500.015625, 187500.015625, 49597.265625, 41589.375000, 60988.722656, 85979.625000, 0, 1, 1, 0, 1,0.0,0.0,0.0,0.0,93.30432, 10:27:59.153
21306.464844, 30955.957031, 187500.015625, 187500.015625, 49222.273438, 41156.625000, 60875.933594, 85965.992188, 0, 1, 1, 0, 1,0.0,0.0,0.0,0.0,93.30432, 10:27:59.153
21280.156250, 30904.794922, 187500.015625, 187500.015625, 49146.656250, 41093.097656, 60976.160156, 86089.304688, 0, 1, 1, 0, 1,0.0,0.0,0.0,0.0,93.30432, 10:27:59.153
21079.125000, 30665.228516, 187500.015625, 187500.015625, 49530.613281, 41537.945313, 61098.804688, 86107.429688, 0, 1, 1, 0, 1,0.0,0.0,0.0,0.0,93.30432, 10:27:59.153
21094.011719, 30701.662109, 187500.015625, 187500.015625, 49643.824219, 41626.546875, 61011.921875, 85984.250000, 0, 1, 1, 0, 1,0.0,0.0,0.0,0.0,93.30432, 10:27:59.153
21292.763672, 30944.603516, 187500.015625, 187500.015625, 49285.839844, 41206.601563, 60882.550781, 85948.914063, 0, 1, 1, 0, 1,0.0,0.0,0.0,0.0,93.30432, 10:27:59.153
21321.351563, 30959.980469, 187500.015625, 187500.015625, 49112.949219, 41025.484375, 60947.796875, 86059.757813, 0, 1, 1, 0, 1,0.0,0.0,0.0,0.0,93.30432, 10:27:59.153
21121.480469, 30717.554688, 187500.015625, 187500.015625, 49450.261719, 41431.773438, 61098.246094, 86122.765625, 0, 1, 1, 0, 1,0.0,0.0,0.0,0.0,93.30432, 10:27:59.153
21089.697266, 30693.236328, 187500.015625, 187500.015625, 49655.785156, 41635.644531, 61048.691406, 86013.468750, 0, 1, 1, 0, 1,0.0,0.0,0.0,0.0,93.30432, 10:27:59.154
21266.343750, 30910.472656, 187500.015625, 187500.015625, 49361.925781, 41281.367188, 60898.488281, 85944.218750, 0, 1, 1, 0, 1,0.0,0.0,0.0,0.0,93.30432, 10:27:59.154
21353.269531, 30999.455078, 187500.015625, 187500.015625, 49099.226563, 40998.015625, 60923.542969, 86039.039063, 0, 1, 1, 0, 1,0.0,0.0,0.0,0.0,93.30432, 10:27:59.154
21168.800781, 30771.242188, 187500.015625, 187500.015625, 49369.101563, 41338.007813, 61091.585938, 86131.750000, 0, 1, 1, 0, 1,0.0,0.0,0.0,0.0,93.30432, 10:27:59.154
21080.509766, 30681.121094, 187500.015625, 187500.015625, 49657.191406, 41640.382813, 61091.539063, 86036.710938, 0, 1, 1, 0, 1,0.0,0.0,0.0,0.0,93.30432, 10:27:59.154
21250.496094, 30898.222656, 187500.015625, 187500.015625, 49429.226563, 41355.800781, 60957.117188, 85950.281250, 0, 1, 1, 0, 1,0.0,0.0,0.0,0.0,93.30432, 10:27:59.154
21368.847656, 31027.484375, 187500.015625, 187500.015625, 49108.949219, 40998.574219, 60947.929688, 86023.968750, 0, 1, 1, 0, 1,0.0,0.0,0.0,0.0,93.30432, 10:27:59.154
21208.898438, 30823.634766, 187500.015625, 187500.015625, 49313.312500, 41254.410156, 61106.402344, 86125.093750, 0, 1, 1, 0, 1,0.0,0.0,0.0,0.0,93.30432, 10:27:59.154
21092.312500, 30695.851563, 187500.015625, 187500.015625, 49647.378906, 41625.003906, 61137.875000, 86058.195313, 0, 1, 1, 0, 1,0.0,0.0,0.0,0.0,93.30432, 10:27:59.155
21248.707031, 30889.460938, 187500.015625, 187500.015625, 49486.738281, 41424.062500, 61002.468750, 85958.968750, 0, 1, 1, 0, 1,0.0,0.0,0.0,0.0,93.30432, 10:27:59.155
21394.351563, 31054.439453, 187500.015625, 187500.015625, 49129.511719, 41023.808594, 60947.839844, 85997.867188, 0, 1, 1, 0, 1,0.0,0.0,0.0,0.0,93.30432, 10:27:59.155
21284.492188, 30911.925781, 187500.015625, 187500.015625, 49229.023438, 41172.000000, 61087.761719, 86116.257813, 0, 1, 1, 0, 1,0.0,0.0,0.0,0.0,93.30432, 10:27:59.155
21138.804688, 30741.761719, 187500.015625, 187500.015625, 49592.640625, 41592.726563, 61152.269531, 86084.742188, 0, 1, 1, 0, 1,0.0,0.0,0.0,0.0,93.30432, 10:27:59.155
21243.701172, 30883.181641, 187500.015625, 187500.015625, 49530.906250, 41497.421875, 61023.812500, 85972.539063, 0, 1, 1, 0, 1,0.0,0.0,0.0,0.0,93.30432, 10:27:59.155
21419.630859, 31082.916016, 187500.015625, 187500.015625, 49163.644531, 41076.828125, 60936.261719, 85988.250000, 0, 1, 1, 0, 1,0.0,0.0,0.0,0.0,93.30432, 10:27:59.156
21356.755859, 30991.072266, 187500.015625, 187500.015625, 49176.652344, 41119.652344, 61057.386719, 86111.007813, 0, 1, 1, 0, 1,0.0,0.0,0.0,0.0,93.30432, 10:27:59.156
21175.236328, 30777.546875, 187500.015625, 187500.015625, 49574.289063, 41579.136719, 61153.855469, 86095.031250, 0, 1, 1, 0, 1,0.0,0.0,0.0,0.0,93.30432, 10:27:59.156
21244.796875, 30874.933594, 187500.015625, 187500.015625, 49613.449219, 41592.839844, 61048.445313, 85978.593750, 0, 1, 1, 0, 1,0.0,0.0,0.0,0.0,93.30432, 10:27:59.157
21434.652344, 31104.126953, 187500.015625, 187500.015625, 49244.175781, 41161.382813, 60934.070313, 85962.906250, 0, 1, 1, 0, 1,0.0,0.0,0.0,0.0,93.30432, 10:27:59.157
21418.378906, 31071.203125, 187500.015625, 187500.015625, 49138.453125, 41054.921875, 61018.179688, 86076.367188, 0, 1, 1, 0, 1,0.0,0.0,0.0,0.0,93.30432, 10:27:59.157
21216.029297, 30827.771484, 187500.015625, 187500.015625, 49504.441406, 41485.105469, 61147.976563, 86108.484375, 0, 1, 1, 0, 1,0.0,0.0,0.0,0.0,93.30432, 10:27:59.157
21218.599609, 30846.322266, 187500.015625, 187500.015625, 49643.625000, 41610.921875, 61070.640625, 85995.921875, 0, 1, 1, 0, 1,0.0,0.0,0.0,0.0,93.30432, 10:27:59.157
21418.781250, 31091.587891, 187500.015625, 187500.015625, 49298.917969, 41213.464844, 60939.660156, 85958.796875, 0, 1, 1, 0, 1,0.0,0.0,0.0,0.0,93.30432, 10:27:59.157
21446.990234, 31104.798828, 187500.015625, 187500.015625, 49112.546875, 41019.183594, 60996.410156, 86062.976563, 0, 1, 1, 0, 1,0.0,0.0,0.0,0.0,93.30432, 10:27:59.157
21254.808594, 30869.322266, 187500.015625, 187500.015625, 49431.484375, 41410.652344, 61148.203125, 86129.250000, 0, 1, 1, 0, 1,0.0,0.0,0.0,0.0,93.30432, 10:27:59.157
21206.552734, 30824.708984, 187500.015625, 187500.015625, 49658.421875, 41644.359375, 61107.632813, 86026.968750, 0, 1, 1, 0, 1,0.0,0.0,0.0,0.0,93.30432, 10:27:59.157
21387.935547, 31045.878906, 187500.015625, 187500.015625, 49379.472656, 41304.660156, 60952.132813, 85953.609375, 0, 1, 1, 0, 1,0.0,0.0,0.0,0.0,57.227356, 10:27:59.158
21466.480469, 31126.009766, 187500.015625, 187500.015625, 49113.015625, 40998.820313, 60964.449219, 86032.507813, 0, 1, 1, 0, 1,0.0,0.0,0.0,0.0,57.227356, 10:27:59.158
21282.480469, 30898.423828, 187500.015625, 187500.015625, 49368.898438, 41313.890625, 61125.023438, 86123.054688, 0, 1, 1, 0, 1,0.0,0.0,0.0,0.0,57.227356, 10:27:59.158
21180.445313, 30790.734375, 187500.015625, 187500.015625, 49670.425781, 41639.375000, 61120.039063, 86033.000000, 0, 1, 1, 0, 1,0.0,0.0,0.0,0.0,57.227356, 10:27:59.158
21332.080078, 30985.886719, 187500.015625, 187500.015625, 49457.906250, 41381.437500, 60970.683594, 85941.492188, 0, 1, 1, 0, 1,0.0,0.0,0.0,0.0,57.227356, 10:27:59.158
21465.294922, 31132.492188, 187500.015625, 187500.015625, 49110.714844, 41001.523438, 60948.308594, 86012.617188, 0, 1, 1, 0, 1,0.0,0.0,0.0,0.0,57.227356, 10:27:59.158
21312.253906, 30939.126953, 187500.015625, 187500.015625, 49279.425781, 41222.648438, 61106.515625, 86131.796875, 0, 1, 1, 0, 1,0.0,0.0,0.0,0.0,57.227356, 10:27:59.158
21166.587891, 30776.808594, 187500.015625, 187500.015625, 49630.011719, 41609.804688, 61150.480469, 86071.023438, 0, 1, 1, 0, 1,0.0,0.0,0.0,0.0,57.227356, 10:27:59.158
21274.992188, 30920.976563, 187500.015625, 187500.015625, 49524.960938, 41453.207031, 61008.613281, 85960.023438, 0, 1, 1, 0, 1,0.0,0.0,0.0,0.0,57.227356, 10:27:59.158
21436.261719, 31109.537109, 187500.015625, 187500.015625, 49153.832031, 41032.792969, 60941.089844, 85995.515625, 0, 1, 1, 0, 1,0.0,0.0,0.0,0.0,57.227356, 10:27:59.159
21321.595703, 30959.244141, 187500.015625, 187500.015625, 49222.316406, 41134.160156, 61079.851563, 86111.906250, 0, 1, 1, 0, 1,0.0,0.0,0.0,0.0,57.227356, 10:27:59.159
21151.298828, 30761.564453, 187500.015625, 187500.015625, 49601.671875, 41561.210938, 61160.093750, 86084.968750, 0, 1, 1, 0, 1,0.0,0.0,0.0,0.0,57.227356, 10:27:59.159
21220.857422, 30859.398438, 187500.015625, 187500.015625, 49590.785156, 41513.601563, 61044.578125, 85979.382813, 0, 1, 1, 0, 1,0.0,0.0,0.0,0.0,57.227356, 10:27:59.159
21381.923828, 31052.830078, 187500.015625, 187500.015625, 49228.886719, 41089.234375, 60946.207031, 85976.226563, 0, 1, 1, 0, 1,0.0,0.0,0.0,0.0,57.227356, 10:27:59.159
21335.431641, 30983.853516, 187500.015625, 187500.015625, 49188.722656, 41066.343750, 61058.035156, 86096.953125, 0, 1, 1, 0, 1,0.0,0.0,0.0,0.0,57.227356, 10:27:59.159
21126.890625, 30736.507813, 187500.015625, 187500.015625, 49574.109375, 41521.539063, 61172.140625, 86108.125000, 0, 1, 1, 0, 1,0.0,0.0,0.0,0.0,57.227356, 10:27:59.159
21149.130859, 30782.128906, 187500.015625, 187500.015625, 49653.125000, 41582.625000, 61065.746094, 85976.984375, 0, 1, 1, 0, 1,0.0,0.0,0.0,0.0,57.227356, 10:27:59.159
21348.865234, 31021.179688, 187500.015625, 187500.015625, 49275.558594, 41152.265625, 60934.675781, 85952.445313, 0, 1, 1, 0, 1,0.0,0.0,0.0,0.0,57.227356, 10:27:59.159
21349.111328, 31004.148438, 187500.015625, 187500.015625, 49129.402344, 41015.070313, 61015.476563, 86077.367188, 0, 1, 1, 0, 1,0.0,0.0,0.0,0.0,57.227356, 10:27:59.160
21131.048828, 30742.812500, 187500.015625, 187500.015625, 49490.695313, 41453.343750, 61154.996094, 86117.625000, 0, 1, 1, 0, 1,0.0,0.0,0.0,0.0,57.227356, 10:27:59.160
21093.564453, 30715.363281, 187500.015625, 187500.015625, 49675.902344, 41631.285156, 61075.335938, 85982.820313, 0, 1, 1, 0, 1,0.0,0.0,0.0,0.0,57.227356, 10:27:59.160
21284.269531, 30950.839844, 187500.015625, 187500.015625, 49354.011719, 41252.511719, 60924.816406, 85924.867188, 0, 1, 1, 0, 1,0.0,0.0,0.0,0.0,57.227356, 10:27:59.160
21317.371094, 30973.347656, 187500.015625, 187500.015625, 49146.769531, 41022.871094, 60956.960938, 86016.015625, 0, 1, 1, 0, 1,0.0,0.0,0.0,0.0,57.227356, 10:27:59.160
21131.539063, 30747.640625, 187500.015625, 187500.015625, 49445.699219, 41391.988281, 61106.402344, 86089.257813, 0, 1, 1, 0, 1,0.0,0.0,0.0,0.0,57.227356, 10:27:59.160
21089.808594, 30711.988281, 187500.015625, 187500.015625, 49667.742188, 41638.371094, 61087.472656, 86011.835938, 0, 1, 1, 0, 1,0.0,0.0,0.0,0.0,57.227356, 10:27:59.160
21257.179688, 30923.167969, 187500.015625, 187500.015625, 49406.562500, 41329.582031, 60947.996094, 85940.328125, 0, 1, 1, 0, 1,0.0,0.0,0.0,0.0,57.227356, 10:27:59.160
21338.404297, 31006.763672, 187500.015625, 187500.015625, 49122.335938, 41011.785156, 60947.593750, 86007.695313, 0, 1, 1, 0, 1,0.0,0.0,0.0,0.0,57.227356, 10:27:59.160
21166.609375, 30791.292969, 187500.015625, 187500.015625, 49350.953125, 41302.378906, 61095.988281, 86098.203125, 0, 1, 1, 0, 1,0.0,0.0,0.0,0.0,57.227356, 10:27:59.160
21044.144531, 30663.708984, 187500.015625, 187500.015625, 49674.761719, 41654.218750, 61103.027344, 86021.554688, 0, 1, 1, 0, 1,0.0,0.0,0.0,0.0,57.227356, 10:27:59.161
21200.361328, 30866.976563, 187500.015625, 187500.015625, 49487.898438, 41422.898438, 60961.183594, 85933.085938, 0, 1, 1, 0, 1,0.0,0.0,0.0,0.0,57.227356, 10:27:59.161
21338.316406, 31021.851563, 187500.015625, 187500.015625, 49137.449219, 41035.207031, 60930.988281, 85993.882813, 0, 1, 1, 0, 1,0.0,0.0,0.0,0.0,57.227356, 10:27:59.161
21206.753906, 30847.396484, 187500.015625, 187500.015625, 49269.746094, 41220.527344, 61077.660156, 86107.273438, 0, 1, 1, 0, 1,0.0,0.0,0.0,0.0,57.227356, 10:27:59.161
21052.482422, 30668.582031, 187500.015625, 187500.015625, 49632.003906, 41633.496094, 61133.179688, 86062.796875, 0, 1, 1, 0, 1,0.0,0.0,0.0,0.0,57.227356, 10:27:59.161
21146.470703, 30799.003906, 187500.015625, 187500.015625, 49553.414063, 41511.343750, 60991.875000, 85936.351563, 0, 1, 1, 0, 1,0.0,0.0,0.0,0.0,57.227356, 10:27:59.161
21334.539063, 31017.626953, 187500.015625, 187500.015625, 49160.937500, 41066.320313, 60912.750000, 85958.343750, 0, 1, 1, 0, 1,0.0,0.0,0.0,0.0,57.227356, 10:27:59.161
21254.876953, 30899.072266, 187500.015625, 187500.015625, 49189.882813, 41131.320313, 61049.628906, 86093.664063, 0, 1, 1, 0, 1,0.0,0.0,0.0,0.0,57.227356, 10:27:59.161
21055.521484, 30667.017578, 187500.015625, 187500.015625, 49589.601563, 41589.734375, 61136.488281, 86072.429688, 0, 1, 1, 0, 1,0.0,0.0,0.0,0.0,57.227356, 10:27:59.162
21121.480469, 30764.246094, 187500.015625, 187500.015625, 49604.980469, 41576.746094, 61017.734375, 85959.265625, 0, 1, 1, 0, 1,0.0,0.0,0.0,0.0,57.227356, 10:27:59.162
21308.609375, 30988.435547, 187500.015625, 187500.015625, 49220.730469, 41138.136719, 60910.714844, 85953.140625, 0, 1, 1, 0, 1,0.0,0.0,0.0,0.0,57.227356, 10:27:59.162
21272.378906, 30927.146484, 187500.015625, 187500.015625, 49152.246094, 41081.921875, 61015.433594, 86067.828125, 0, 1, 1, 0, 1,0.0,0.0,0.0,0.0,57.227356, 10:27:59.162
21067.769531, 30684.517578, 187500.015625, 187500.015625, 49528.425781, 41523.617188, 61139.058594, 86088.789063, 0, 1, 1, 0, 1,0.0,0.0,0.0,0.0,57.227356, 10:27:59.162
21088.355469, 30727.544922, 187500.015625, 187500.015625, 49622.750000, 41600.640625, 61047.285156, 85970.218750, 0, 1, 1, 0, 1,0.0,0.0,0.0,0.0,57.227356, 10:27:59.162
21269.472656, 30947.753906, 187500.015625, 187500.015625, 49268.519531, 41186.640625, 60918.425781, 85936.531250, 0, 1, 1, 0, 1,0.0,0.0,0.0,0.0,57.227356, 10:27:59.162
21274.412109, 30940.156250, 187500.015625, 187500.015625, 49111.519531, 41018.554688, 60986.062500, 86040.960938, 0, 1, 1, 0, 1,0.0,0.0,0.0,0.0,57.227356, 10:27:59.163
21061.779297, 30687.849609, 187500.015625, 187500.015625, 49459.691406, 41430.187500, 61128.687500, 86086.445313, 0, 1, 1, 0, 1,0.0,0.0,0.0,0.0,57.227356, 10:27:59.163
21026.621094, 30663.507813, 187500.015625, 187500.015625, 49662.714844, 41627.796875, 61065.789063, 85966.460938, 0, 1, 1, 0, 1,0.0,0.0,0.0,0.0,57.227356, 10:27:59.163
21245.154297, 30932.623047, 187500.015625, 187500.015625, 49339.328125, 41254.859375, 60922.335938, 85920.484375, 0, 1, 1, 0, 1,0.0,0.0,0.0,0.0,57.227356, 10:27:59.163
21312.476563, 30993.912109, 187500.015625, 187500.015625, 49087.714844, 40985.988281, 60955.531250, 86020.460938, 0, 1, 1, 0, 1,0.0,0.0,0.0,0.0,57.227356, 10:27:59.163
21118.462891, 30750.724609, 187500.015625, 187500.015625, 49377.839844, 41343.550781, 61115.078125, 86100.570313, 0, 1, 1, 0, 1,0.0,0.0,0.0,0.0,57.227356, 10:27:59.163
21041.908203, 30672.761719, 187500.015625, 187500.015625, 49654.757813, 41643.378906, 61097.707031, 86004.125000, 0, 1, 1, 0, 1,0.0,0.0,0.0,0.0,57.227356, 10:27:59.163
21210.150391, 30885.169922, 187500.015625, 187500.015625, 49412.796875, 41355.531250, 60944.355469, 85920.437500, 0, 1, 1, 0, 1,0.0,0.0,0.0,0.0,57.227356, 10:27:59.164
21326.267578, 31013.558594, 187500.015625, 187500.015625, 49088.363281, 41004.339844, 60935.750000, 86002.515625, 0, 1, 1, 0, 1,20.341806,31.677956,9.5154915,7.601532,3.505124, 10:27:59.627
21154.718750, 30796.277344, 187500.015625, 187500.015625, 49294.582031, 41271.289063, 61091.113281, 86103.140625, 0, 1, 1, 0, 1,20.341806,31.677956,9.5154915,7.601532,3.505124, 10:27:59.627
21035.404297, 30664.894531, 187500.015625, 187500.015625, 49626.726563, 41644.292969, 61111.140625, 86033.984375, 0, 1, 1, 0, 1,20.341806,31.677956,9.5154915,7.601532,3.505124, 10:27:59.627
21171.951172, 30840.914063, 187500.015625, 187500.015625, 49478.804688, 41453.589844, 60975.289063, 85938.226563, 0, 1, 1, 0, 1,20.341806,31.677956,9.5154915,7.601532,3.505124, 10:27:59.628
21327.384766, 31014.138672, 187500.015625, 187500.015625, 49120.238281, 41047.613281, 60924.707031, 85983.960938, 0, 1, 1, 0, 1,20.341806,31.677956,9.5154915,7.601532,3.505124, 10:27:59.628
21195.845703, 30838.878906, 187500.015625, 187500.015625, 49229.738281, 41198.757813, 61064.652344, 86094.468750, 0, 1, 1, 0, 1,20.341806,31.677956,9.5154915,7.601532,3.505124, 10:27:59.628
21007.777344, 30625.173828, 187500.015625, 187500.015625, 49621.070313, 41633.742188, 61123.726563, 86043.015625, 0, 1, 1, 0, 1,20.341806,31.677956,9.5154915,7.601532,3.505124, 10:27:59.628
21117.904297, 30776.027344, 187500.015625, 187500.015625, 49561.660156, 41531.507813, 60985.972656, 85915.539063, 0, 1, 1, 0, 1,20.341806,31.677956,9.5154915,7.601532,3.505124, 10:27:59.628
21307.828125, 30996.482422, 187500.015625, 187500.015625, 49172.898438, 41092.785156, 60902.667969, 85941.132813, 0, 1, 1, 0, 1,20.341806,31.677956,9.5154915,7.601532,3.505124, 10:27:59.629
21231.808594, 30889.037109, 187500.015625, 187500.015625, 49176.718750, 41124.792969, 61026.832031, 86067.445313, 0, 1, 1, 0, 1,20.341806,31.677956,9.5154915,7.601532,3.505124, 10:27:59.629
21036.746094, 30662.300781, 187500.015625, 187500.015625, 49564.457031, 41575.046875, 61124.957031, 86062.304688, 0, 1, 1, 0, 1,20.341806,31.677956,9.5154915,7.601532,3.505124, 10:27:59.629
21088.625000, 30742.007813, 187500.015625, 187500.015625, 49605.917969, 41593.441406, 61019.386719, 85950.257813, 0, 1, 1, 0, 1,20.341806,31.677956,9.5154915,7.601532,3.505124, 10:27:59.629
21262.341797, 30949.320313, 187500.015625, 187500.015625, 49244.265625, 41170.929688, 60904.097656, 85927.632813, 0, 1, 1, 0, 1,20.341806,31.677956,9.5154915,7.601532,3.505124, 10:27:59.629
21251.634766, 30918.027344, 187500.015625, 187500.015625, 49142.992188, 41076.851563, 60988.855469, 86038.476563, 0, 1, 1, 0, 1,20.341806,31.677956,9.5154915,7.601532,3.505124, 10:27:59.629
21058.650391, 30685.121094, 187500.015625, 187500.015625, 49502.339844, 41507.992188, 61118.765625, 86066.593750, 0, 1, 1, 0, 1,20.341806,31.677956,9.5154915,7.601532,3.505124, 10:27:59.629
21065.892578, 30705.730469, 187500.015625, 187500.015625, 49633.613281, 41627.531250, 61044.644531, 85957.921875, 0, 1, 1, 0, 1,20.341806,31.677956,9.5154915,7.601532,3.505124, 10:27:59.630
21263.794922, 30949.810547, 187500.015625, 187500.015625, 49287.339844, 41226.136719, 60907.585938, 85920.351563, 0, 1, 1, 0, 1,20.341806,31.677956,9.5154915,7.601532,3.505124, 10:27:59.630
21288.158203, 30963.847656, 187500.015625, 187500.015625, 49090.933594, 41020.566406, 60961.339844, 86029.312500, 0, 1, 1, 0, 1,20.341806,31.677956,9.5154915,7.601532,3.505124, 10:27:59.630
21082.767578, 30712.748047, 187500.015625, 187500.015625, 49421.089844, 41418.183594, 61111.433594, 86090.468750, 0, 1, 1, 0, 1,20.341806,31.677956,9.5154915,7.601532,3.505124, 10:27:59.630
21041.619141, 30676.314453, 187500.015625, 187500.015625, 49644.875000, 41648.316406, 61074.640625, 85987.250000, 0, 1, 1, 0, 1,20.341806,31.677956,9.5154915,7.601532,3.505124, 10:27:59.630
21218.666016, 30894.333984, 187500.015625, 187500.015625, 49362.460938, 41312.726563, 60931.343750, 85914.492188, 0, 1, 1, 0, 1,20.341806,31.677956,9.5154915,7.601532,3.505124, 10:27:59.630
21283.933594, 30956.806641, 187500.015625, 187500.015625, 49107.472656, 41024.234375, 60939.773438, 85984.835938, 0, 1, 1, 0, 1,20.341806,31.677956,9.5154915,7.601532,3.505124, 10:27:59.630
21115.468750, 30744.734375, 187500.015625, 187500.015625, 49359.691406, 41343.105469, 61094.355469, 86080.320313, 0, 1, 1, 0, 1,20.341806,31.677956,9.5154915,7.601532,3.505124, 10:27:59.630
21017.142578, 30642.609375, 187500.015625, 187500.015625, 49652.789063, 41665.035156, 61086.289063, 85998.445313, 0, 1, 1, 0, 1,20.341806,31.677956,9.5154915,7.601532,3.505124, 10:27:59.630
21173.158203, 30843.460938, 187500.015625, 187500.015625, 49447.199219, 41411.613281, 60941.046875, 85908.414063, 0, 1, 1, 0, 1,20.341806,31.677956,9.5154915,7.601532,3.505124, 10:27:59.631
21303.021484, 30988.480469, 187500.015625, 187500.015625, 49116.035156, 41046.453125, 60924.394531, 85977.007813, 0, 1, 1, 0, 1,20.341806,31.677956,9.5154915,7.601532,3.505124, 10:27:59.631
21156.015625, 30805.105469, 187500.015625, 187500.015625, 49276.406250, 41268.269531, 61078.375000, 86084.210938, 0, 1, 1, 0, 1,20.341806,31.677956,9.5154915,7.601532,3.505124, 10:27:59.631
21026.708984, 30657.673828, 187500.015625, 187500.015625, 49608.554688, 41655.132813, 61124.890625, 86036.265625, 0, 1, 1, 0, 1,20.341806,31.677956,9.5154915,7.601532,3.505124, 10:27:59.631
21133.976563, 30798.042969, 187500.015625, 187500.015625, 49498.562500, 41501.042969, 60981.906250, 85922.804688, 0, 1, 1, 0, 1,20.341806,31.677956,9.5154915,7.601532,3.505124, 10:27:59.631
21276.156250, 30965.703125, 187500.015625, 187500.015625, 49144.464844, 41092.406250, 60904.500000, 85944.601563, 0, 1, 1, 0, 1,20.341806,31.677956,9.5154915,7.601532,3.505124, 10:27:59.631
21173.539063, 30834.744141, 187500.015625, 187500.015625, 49212.570313, 41196.921875, 61037.226563, 86065.031250, 0, 1, 1, 0, 1,20.341806,31.677956,9.5154915,7.601532,3.505124, 10:27:59.631
21001.072266, 30632.953125, 187500.015625, 187500.015625, 49584.125000, 41624.734375, 61110.203125, 86038.273438, 0, 1, 1, 0, 1,20.341806,31.677956,9.5154915,7.601532,3.505124, 10:27:59.631
21091.484375, 30753.003906, 187500.015625, 187500.015625, 49549.925781, 41560.003906, 60992.589844, 85933.515625, 0, 1, 1, 0, 1,20.341806,31.677956,9.5154915,7.601532,3.505124, 10:27:59.631
21256.664063, 30946.101563, 187500.015625, 187500.015625, 49186.062500, 41135.476563, 60895.738281, 85927.945313, 0, 1, 1, 0, 1,20.341806,31.677956,9.5154915,7.601532,3.505124, 10:27:59.631
21198.304688, 30861.476563, 187500.015625, 187500.015625, 49171.867188, 41131.878906, 61004.433594, 86039.437500, 0, 1, 1, 0, 1,20.341806,31.677956,9.5154915,7.601532,3.505124, 10:27:59.632
21010.326172, 30640.931641, 187500.015625, 187500.015625, 49550.707031, 41571.808594, 61109.601563, 86045.179688, 0, 1, 1, 0, 1,20.341806,31.677956,9.5154915,7.601532,3.505124, 10:27:59.632
21044.681641, 30697.371094, 187500.015625, 187500.015625, 49626.683594, 41625.585938, 61011.253906, 85926.945313, 0, 1, 1, 0, 1,20.341806,31.677956,9.5154915,7.601532,3.505124, 10:27:59.632
21238.068359, 30930.833984, 187500.015625, 187500.015625, 49268.562500, 41202.332031, 60885.679688, 85900.414063, 0, 1, 1, 0, 1,20.341806,31.677956,9.5154915,7.601532,3.505124, 10:27:59.632
21251.835938, 30931.884766, 187500.015625, 187500.015625, 49126.539063, 41056.242188, 60966.792969, 86018.648438, 0, 1, 1, 0, 1,20.341806,31.677956,9.5154915,7.601532,3.505124, 10:27:59.632
21044.367188, 30678.640625, 187500.015625, 187500.015625, 49479.808594, 41478.511719, 61107.566406, 86064.179688, 0, 1, 1, 0, 1,20.341806,31.677956,9.5154915,7.601532,3.505124, 10:27:59.632
21037.505859, 30678.169922, 187500.015625, 187500.015625, 49645.949219, 41637.296875, 61040.464844, 85947.101563, 0, 1, 1, 0, 1,20.341806,31.677956,9.5154915,7.601532,3.505124, 10:27:59.632
21234.537109, 30914.785156, 187500.015625, 187500.015625, 49319.679688, 41251.640625, 60905.195313, 85897.437500, 0, 1, 1, 0, 1,20.341806,31.677956,9.5154915,7.601532,3.505124, 10:27:59.632
21277.117188, 30951.353516, 187500.015625, 187500.015625, 49108.210938, 41025.710938, 60948.710938, 86003.046875, 0, 1, 1, 0, 1,20.341806,31.677956,9.5154915,7.601532,3.505124, 10:27:59.633
21081.314453, 30716.302734, 187500.015625, 187500.015625, 49406.964844, 41399.832031, 61088.367188, 86072.515625, 0, 1, 1, 0, 1,20.341806,31.677956,9.5154915,7.601532,3.505124, 10:27:59.633
21017.925781, 30655.908203, 187500.015625, 187500.015625, 49648.699219, 41660.296875, 61054.054688, 85969.414063, 0, 1, 1, 0, 1,20.341806,31.677956,9.5154915,7.601532,3.505124, 10:27:59.633
21159.367188, 30838.320313, 187500.015625, 187500.015625, 49415.660156, 41366.683594, 60902.332031, 85881.296875, 0, 1, 1, 0, 1,20.341806,31.677956,9.5154915,7.601532,3.505124, 10:27:59.633
21241.376953, 30929.626953, 187500.015625, 187500.015625, 49142.699219, 41049.714844, 60889.324219, 85947.281250, 0, 1, 1, 0, 1,20.341806,31.677956,9.5154915,7.601532,3.505124, 10:27:59.633
21087.015625, 30737.044922, 187500.015625, 187500.015625, 49362.910156, 41330.093750, 61046.007813, 86054.773438, 0, 1, 1, 0, 1,20.341806,31.677956,9.5154915,7.601532,3.505124, 10:27:59.633
20990.208984, 30635.277344, 187500.015625, 187500.015625, 49657.996094, 41662.531250, 61064.335938, 85990.757813, 0, 1, 1, 0, 1,20.341806,31.677956,9.5154915,7.601532,3.505124, 10:27:59.633
21126.130859, 30809.240234, 187500.015625, 187500.015625, 49482.445313, 41439.773438, 60921.824219, 85893.148438, 0, 1, 1, 0, 1,20.341806,31.677956,9.5154915,7.601532,3.505124, 10:27:59.633
21258.587891, 30959.691406, 187500.015625, 187500.015625, 49143.593750, 41052.976563, 60881.187500, 85945.273438, 0, 1, 1, 0, 1,20.341806,31.677956,9.5154915,7.601532,3.505124, 10:27:59.634
21127.583984, 30789.191406, 187500.015625, 187500.015625, 49285.281250, 41239.929688, 61025.757813, 86050.187500, 0, 1, 1, 0, 1,20.341806,31.677956,9.5154915,7.601532,3.505124, 10:27:59.634
20979.837891, 30620.435547, 187500.015625, 187500.015625, 49643.421875, 41644.808594, 61080.230469, 86001.734375, 0, 1, 1, 0, 1,20.341806,31.677956,9.5154915,7.601532,3.505124, 10:27:59.634
21086.814453, 30762.167969, 187500.015625, 187500.015625, 49570.445313, 41518.898438, 60945.851563, 85885.750000, 0, 1, 1, 0, 1,20.341806,31.677956,9.5154915,7.601532,3.505124, 10:27:59.634
21270.455078, 30976.029297, 187500.015625, 187500.015625, 49184.296875, 41072.199219, 60870.906250, 85917.781250, 0, 1, 1, 0, 1,20.341806,31.677956,9.5154915,7.601532,3.505124, 10:27:59.634
21173.470703, 30842.298828, 187500.015625, 187500.015625, 49222.226563, 41130.449219, 60999.519531, 86029.914063, 0, 1, 1, 0, 1,20.341806,31.677956,9.5154915,7.601532,3.505124, 10:27:59.634
20984.800781, 30625.107422, 187500.015625, 187500.015625, 49607.660156, 41567.804688, 61081.324219, 86005.867188, 0, 1, 1, 0, 1,20.341806,31.677956,9.5154915,7.601532,3.505124, 10:27:59.634
21051.677734, 30719.699219, 187500.015625, 187500.015625, 49621.250000, 41547.847656, 60967.777344, 85893.976563, 0, 1, 1, 0, 1,20.341806,31.677956,9.5154915,7.601532,3.505124, 10:27:59.635
21247.589844, 30950.816406, 187500.015625, 187500.015625, 49248.402344, 41111.988281, 60861.562500, 85895.648438, 0, 1, 1, 0, 1,20.341806,31.677956,9.5154915,7.601532,3.505124, 10:27:59.635
21219.917969, 30901.263672, 187500.015625, 187500.015625, 49173.656250, 41050.003906, 60969.722656, 86027.031250, 0, 1, 1, 0, 1,20.341806,31.677956,9.5154915,7.601532,3.505124, 10:27:59.635
21004.470703, 30642.541016, 187500.015625, 187500.015625, 49559.046875, 41496.617188, 61088.300781, 86035.078125, 0, 1, 1, 0, 1,20.341806,31.677956,9.5154915,7.601532,3.505124, 10:27:59.635
21009.164063, 30664.781250, 187500.015625, 187500.015625, 49682.671875, 41591.097656, 60993.527344, 85901.257813, 0, 1, 1, 0, 1,20.341806,31.677956,9.5154915,7.601532,3.505124, 10:27:59.635
21215.962891, 30914.250000, 187500.015625, 187500.015625, 49325.292969, 41166.925781, 60862.277344, 85871.507813, 0, 1, 1, 0, 1,20.341806,31.677956,9.5154915,7.601532,3.505124, 10:27:59.635
21242.113281, 30925.894531, 187500.015625, 187500.015625, 49157.429688, 40991.062500, 60929.199219, 85990.976563, 0, 1, 1, 0, 1,20.341806,31.677956,9.5154915,7.601532,3.505124, 10:27:59.635
21043.183594, 30687.357422, 187500.015625, 187500.015625, 49488.371094, 41397.082031, 61071.578125, 86051.914063, 0, 1, 1, 0, 1,20.341806,31.677956,9.5154915,7.601532,3.505124, 10:27:59.635
21003.822266, 30660.535156, 187500.015625, 187500.015625, 49690.316406, 41595.656250, 61014.515625, 85936.195313, 0, 1, 1, 0, 1,20.341806,31.677956,9.5154915,7.601532,3.505124, 10:27:59.635
21184.781250, 30883.359375, 187500.015625, 187500.015625, 49401.710938, 41240.285156, 60875.109375, 85873.476563, 0, 1, 1, 0, 1,20.341806,31.677956,9.5154915,7.601532,3.505124, 10:27:59.636
21261.470703, 30959.824219, 187500.015625, 187500.015625, 49155.796875, 40970.613281, 60909.687500, 85972.609375, 0, 1, 1, 0, 1,20.341806,31.677956,9.5154915,7.601532,3.505124, 10:27:59.636
21080.935547, 30737.201172, 187500.015625, 187500.015625, 49429.898438, 41317.957031, 61068.742188, 86061.656250, 0, 1, 1, 0, 1,20.341806,31.677956,9.5154915,7.601532,3.505124, 10:27:59.636
20994.457031, 30651.572266, 187500.015625, 187500.015625, 49700.242188, 41612.175781, 61048.667969, 85971.687500, 0, 1, 1, 0, 1,20.341806,31.677956,9.5154915,7.601532,3.505124, 10:27:59.636
21166.117188, 30869.814453, 187500.015625, 187500.015625, 49460.050781, 41326.609375, 60902.488281, 85892.765625, 0, 1, 1, 0, 1,20.341806,31.677956,9.5154915,7.601532,3.505124, 10:27:59.636
21263.347656, 30972.900391, 187500.015625, 187500.015625, 49157.027344, 40987.687500, 60888.429688, 85958.101563, 0, 1, 1, 0, 1,20.341806,31.677956,9.5154915,7.601532,3.505124, 10:27:59.636
21113.099609, 30782.396484, 187500.015625, 187500.015625, 49357.410156, 41246.945313, 61037.828125, 86057.164063, 0, 1, 1, 0, 1,20.341806,31.677956,9.5154915,7.601532,3.505124, 10:27:59.636
20986.431641, 30642.005859, 187500.015625, 187500.015625, 49691.257813, 41619.773438, 61067.265625, 85991.648438, 0, 1, 1, 0, 1,20.341806,31.677956,9.5154915,7.601532,3.505124, 10:27:59.636
21132.253906, 30831.750000, 187500.015625, 187500.015625, 49540.917969, 41420.730469, 60925.398438, 85887.312500, 0, 1, 1, 0, 1,20.341806,31.677956,9.5154915,7.601532,3.505124, 10:27:59.636
21290.103516, 31014.296875, 187500.015625, 187500.015625, 49174.820313, 41009.882813, 60885.234375, 85946.859375, 0, 1, 1, 0, 1,20.341806,31.677956,9.5154915,7.601532,3.505124, 10:27:59.637
21137.484375, 30823.591797, 187500.015625, 187500.015625, 49304.125000, 41172.894531, 61023.210938, 86054.101563, 0, 1, 1, 0, 1,20.341806,31.677956,9.5154915,7.601532,3.505124, 10:27:59.637
20981.894531, 30646.341797, 187500.015625, 187500.015625, 49681.980469, 41599.187500, 61081.546875, 86013.468750, 0, 1, 1, 0, 1,20.341806,31.677956,9.5154915,7.601532,3.505124, 10:27:59.637
21082.656250, 30781.234375, 187500.015625, 187500.015625, 49632.406250, 41507.007813, 60954.367188, 85894.484375, 0, 1, 1, 0, 1,20.341806,31.677956,9.5154915,7.601532,3.505124, 10:27:59.637
21258.990234, 30989.955078, 187500.015625, 187500.015625, 49254.035156, 41072.023438, 60869.675781, 85913.039063, 0, 1, 1, 0, 1,20.341806,31.677956,9.5154915,7.601532,3.505124, 10:27:59.637
21182.949219, 30882.734375, 187500.015625, 187500.015625, 49260.808594, 41107.003906, 60993.148438, 86040.687500, 0, 1, 1, 0, 1,20.341806,31.677956,9.5154915,7.601532,3.505124, 10:27:59.637
20987.437500, 30652.755859, 187500.015625, 187500.015625, 49654.867188, 41564.093750, 61083.558594, 86025.937500, 0, 1, 1, 0, 1,20.341806,31.677956,9.5154915,7.601532,3.505124, 10:27:59.637
21058.605469, 30754.724609, 187500.015625, 187500.015625, 49681.800781, 41573.101563, 60975.644531, 85910.539063, 0, 1, 1, 0, 1,20.341806,31.677956,9.5154915,7.601532,3.505124, 10:27:59.637
21239.900391, 30969.705078, 187500.015625, 187500.015625, 49318.382813, 41156.222656, 60866.390625, 85897.257813, 0, 1, 1, 0, 1,20.341806,31.677956,9.5154915,7.601532,3.505124, 10:27:59.637
21235.921875, 30946.705078, 187500.015625, 187500.015625, 49206.738281, 41065.003906, 60962.593750, 86023.296875, 0, 1, 1, 0, 1,20.341806,31.677956,9.5154915,7.601532,3.505124, 10:27:59.637
21015.734375, 30684.406250, 187500.015625, 187500.015625, 49578.000000, 41515.570313, 61091.316406, 86054.703125, 0, 1, 1, 0, 1,20.341806,31.677956,9.5154915,7.601532,3.505124, 10:27:59.638
21026.150391, 30715.564453, 187500.015625, 187500.015625, 49707.015625, 41637.074219, 61004.546875, 85933.625000, 0, 1, 1, 0, 1,20.341806,31.677956,9.5154915,7.601532,3.505124, 10:27:59.638
21222.689453, 30952.560547, 187500.015625, 187500.015625, 49368.207031, 41240.351563, 60874.996094, 85898.062500, 0, 1, 1, 0, 1,20.341806,31.677956,9.5154915,7.601532,3.505124, 10:27:59.638
21275.595703, 30994.917969, 187500.015625, 187500.015625, 49165.007813, 41029.957031, 60937.425781, 86014.468750, 0, 1, 1, 0, 1,20.341806,31.677956,9.5154915,7.601532,3.505124, 10:27:59.638
21064.417969, 30740.218750, 187500.015625, 187500.015625, 49488.683594, 41425.960938, 61086.691406, 86072.875000, 0, 1, 1, 0, 1,20.341806,31.677956,9.5154915,7.601532,3.505124, 10:27:59.638
21012.203125, 30694.888672, 187500.015625, 187500.015625, 49707.394531, 41652.160156, 61039.863281, 85966.195313, 0, 1, 1, 0, 1,20.341806,31.677956,9.5154915,7.601532,3.505124, 10:27:59.638
21187.060547, 30914.785156, 187500.015625, 187500.015625, 49422.746094, 41313.597656, 60891.714844, 85899.359375, 0, 1, 1, 0, 1,20.341806,31.677956,9.5154915,7.601532,3.505124, 10:27:59.638
21269.896484, 30997.689453, 187500.015625, 187500.015625, 49148.980469, 41011.582031, 60906.109375, 85983.937500, 0, 1, 1, 0, 1,20.341806,31.677956,9.5154915,7.601532,3.505124, 10:27:59.638
21086.097656, 30765.699219, 187500.015625, 187500.015625, 49407.792969, 41329.984375, 61061.656250, 86066.437500, 0, 1, 1, 0, 1,20.341806,31.677956,9.5154915,7.601532,3.505124, 10:27:59.638
21002.056641, 30677.142578, 187500.015625, 187500.015625, 49694.230469, 41639.218750, 61056.781250, 85978.593750, 0, 1, 1, 0, 1,20.341806,31.677956,9.5154915,7.601532,3.505124, 10:27:59.638
21149.578125, 30859.443359, 187500.015625, 187500.015625, 49492.238281, 41380.656250, 60907.292969, 85887.203125, 0, 1, 1, 0, 1,20.341806,31.677956,9.5154915,7.601532,3.505124, 10:27:59.639
21284.603516, 31004.572266, 187500.015625, 187500.015625, 49160.671875, 41003.871094, 60879.957031, 85949.406250, 0, 1, 1, 0, 1,20.341806,31.677956,9.5154915,7.601532,3.505124, 10:27:59.639
21152.013672, 30829.960938, 187500.015625, 187500.015625, 49321.960938, 41220.707031, 61034.968750, 86066.843750, 0, 1, 1, 0, 1,20.341806,31.677956,9.5154915,7.601532,3.505124, 10:27:59.639
21036.076172, 30705.841797, 187500.015625, 187500.015625, 49638.910156, 41589.687500, 61081.035156, 86022.812500, 0, 1, 1, 0, 1,20.341806,31.677956,9.5154915,7.601532,3.505124, 10:27:59.639
21147.365234, 30850.300781, 187500.015625, 187500.015625, 49523.843750, 41424.464844, 60949.828125, 85921.843750, 0, 1, 1, 0, 1,20.341806,31.677956,9.5154915,7.601532,3.505124, 10:27:59.639
21301.480469, 31025.896484, 187500.015625, 187500.015625, 49161.789063, 40999.535156, 60883.109375, 85953.984375, 0, 1, 1, 0, 1,20.341806,31.677956,9.5154915,7.601532,3.505124, 10:27:59.639
21200.160156, 30892.367188, 187500.015625, 187500.015625, 49230.855469, 41095.492188, 61017.218750, 86071.242188, 0, 1, 1, 0, 1,20.341806,31.677956,9.5154915,7.601532,3.505124, 10:27:59.639
21026.017578, 30691.714844, 187500.015625, 187500.015625, 49601.781250, 41514.296875, 61094.824219, 86048.695313, 0, 1, 1, 0, 1,20.341806,31.677956,9.5154915,7.601532,3.505124, 10:27:59.639
21085.652344, 30779.847656, 187500.015625, 187500.015625, 49596.640625, 41459.535156, 60969.835938, 85923.031250, 0, 1, 1, 0, 1,20.341806,31.677956,9.5154915,7.601532,3.505124, 10:27:59.639
21278.546875, 31009.625000, 187500.015625, 187500.015625, 49222.429688, 41014.242188, 60873.855469, 85931.140625, 0, 1, 1, 0, 1,20.341806,31.677956,9.5154915,7.601532,3.505124, 10:27:59.640
21229.439453, 30932.533203, 187500.015625, 187500.015625, 49196.878906, 40990.839844, 60988.164063, 86055.625000, 0, 1, 1, 0, 1,20.341806,31.677956,9.5154915,7.601532,3.505124, 10:27:59.640
21053.689453, 30725.869141, 187500.015625, 187500.015625, 49561.078125, 41419.523438, 61103.296875, 86076.320313, 0, 1, 1, 0, 1,20.341806,31.677956,9.5154915,7.601532,3.505124, 10:27:59.640
21075.615234, 30764.359375, 187500.015625, 187500.015625, 49643.199219, 41478.511719, 61006.871094, 85957.632813, 0, 1, 1, 0, 1,20.341806,31.677956,9.5154915,7.601532,3.505124, 10:27:59.640
21280.447266, 31006.830078, 187500.015625, 187500.015625, 49276.207031, 41055.906250, 60877.902344, 85929.085938, 0, 1, 1, 0, 1,20.341806,31.677956,9.5154915,7.601532,3.505124, 10:27:59.640
21270.724609, 30976.431641, 187500.015625, 187500.015625, 49145.851563, 40931.207031, 60956.980469, 86049.187500, 0, 1, 1, 0, 1,20.341806,31.677956,9.5154915,7.601532,3.505124, 10:27:59.640
21052.525391, 30714.111328, 187500.015625, 187500.015625, 49513.269531, 41364.828125, 61084.453125, 86077.820313, 0, 1, 1, 0, 1,20.341806,31.677956,9.5154915,7.601532,3.505124, 10:27:59.640
21059.791016, 30739.771484, 187500.015625, 187500.015625, 49662.488281, 41515.210938, 61017.691406, 85964.132813, 0, 1, 1, 0, 1,20.341806,31.677956,9.5154915,7.601532,3.505124, 10:27:59.640
21262.699219, 30987.273438, 187500.015625, 187500.015625, 49322.453125, 41122.402344, 60886.640625, 85919.562500, 0, 1, 1, 0, 1,20.341806,31.677956,9.5154915,7.601532,3.505124, 10:27:59.640
21300.966797, 31016.107422, 187500.015625, 187500.015625, 49108.390625, 40886.792969, 60936.128906, 86024.304688, 0, 1, 1, 0, 1,20.341806,31.677956,9.5154915,7.601532,3.505124, 10:27:59.641
21080.578125, 30750.121094, 187500.015625, 187500.015625, 49429.449219, 41271.109375, 61076.074219, 86076.921875, 0, 1, 1, 0, 1,20.341806,31.677956,9.5154915,7.601532,3.505124, 10:27:59.641
21033.884766, 30711.005859, 187500.015625, 187500.015625, 49663.585938, 41520.441406, 61045.472656, 85977.101563, 0, 1, 1, 0, 1,20.341806,31.677956,9.5154915,7.601532,3.505124, 10:27:59.641
21201.880859, 30921.111328, 187500.015625, 187500.015625, 49403.746094, 41201.996094, 60905.550781, 85903.804688, 0, 1, 1, 0, 1,20.341806,31.677956,9.5154915,7.601532,3.505124, 10:27:59.641
21281.296875, 31007.121094, 187500.015625, 187500.015625, 49127.500000, 40880.421875, 60901.773438, 85976.515625, 0, 1, 1, 0, 1,20.341806,31.677956,9.5154915,7.601532,3.505124, 10:27:59.641
21110.820313, 30800.054688, 187500.015625, 187500.015625, 49355.937500, 41166.300781, 61051.484375, 86076.500000, 0, 1, 1, 0, 1,20.341806,31.677956,9.5154915,7.601532,3.505124, 10:27:59.641
20991.796875, 30668.291016, 187500.015625, 187500.015625, 49670.781250, 41513.625000, 61047.929688, 85989.414063, 0, 1, 1, 0, 1,20.341806,31.677956,9.5154915,7.601532,3.505124, 10:27:59.641
21138.513672, 30855.218750, 187500.015625, 187500.015625, 49488.144531, 41286.375000, 60898.488281, 85885.726563, 0, 1, 1, 0, 1,11.015469,13.423127,3.2254117,3.238173,2.1118193, 10:28:00.106
21274.322266, 31004.796875, 187500.015625, 187500.015625, 49144.734375, 40903.625000, 60868.378906, 85941.289063, 0, 1, 1, 0, 1,11.015469,13.423127,3.2254117,3.238173,2.1118193, 10:28:00.106
21149.421875, 30840.845703, 187500.015625, 187500.015625, 49273.660156, 41089.320313, 61018.250000, 86058.351563, 0, 1, 1, 0, 1,11.015469,13.423127,3.2254117,3.238173,2.1118193, 10:28:00.106
20994.679688, 30661.541016, 187500.015625, 187500.015625, 49638.839844, 41502.425781, 61067.691406, 86005.484375, 0, 1, 1, 0, 1,11.015469,13.423127,3.2254117,3.238173,2.1118193, 10:28:00.106
21124.095703, 30830.363281, 187500.015625, 187500.015625, 49545.187500, 41373.144531, 60933.984375, 85901.820313, 0, 1, 1, 0, 1,11.015469,13.423127,3.2254117,3.238173,2.1118193, 10:28:00.106
21289.611328, 31018.990234, 187500.015625, 187500.015625, 49169.523438, 40950.988281, 60860.824219, 85928.906250, 0, 1, 1, 0, 1,11.015469,13.423127,3.2254117,3.238173,2.1118193, 10:28:00.106
21200.406250, 30898.312500, 187500.015625, 187500.015625, 49208.617188, 41023.808594, 60987.761719, 86047.867188, 0, 1, 1, 0, 1,11.015469,13.423127,3.2254117,3.238173,2.1118193, 10:28:00.106
21022.664063, 30693.839844, 187500.015625, 187500.015625, 49588.171875, 41465.816406, 61078.957031, 86038.054688, 0, 1, 1, 0, 1,11.015469,13.423127,3.2254117,3.238173,2.1118193, 10:28:00.107
21075.080078, 30774.820313, 187500.015625, 187500.015625, 49605.179688, 41451.554688, 60961.050781, 85915.007813, 0, 1, 1, 0, 1,11.015469,13.423127,3.2254117,3.238173,2.1118193, 10:28:00.107
21256.978516, 30993.285156, 187500.015625, 187500.015625, 49239.015625, 41019.875000, 60850.207031, 85901.414063, 0, 1, 1, 0, 1,11.015469,13.423127,3.2254117,3.238173,2.1118193, 10:28:00.107
21211.669922, 30927.080078, 187500.015625, 187500.015625, 49183.449219, 40966.140625, 60945.515625, 86018.609375, 0, 1, 1, 0, 1,11.015469,13.423127,3.2254117,3.238173,2.1118193, 10:28:00.107
21010.951172, 30689.771484, 187500.015625, 187500.015625, 49563.964844, 41410.316406, 61065.097656, 86037.921875, 0, 1, 1, 0, 1,11.015469,13.423127,3.2254117,3.238173,2.1118193, 10:28:00.107
21043.675781, 30746.746094, 187500.015625, 187500.015625, 49668.613281, 41498.000000, 60983.132813, 85927.257813, 0, 1, 1, 0, 1,11.015469,13.423127,3.2254117,3.238173,2.1118193, 10:28:00.107
21247.835938, 30992.726563, 187500.015625, 187500.015625, 49312.304688, 41084.003906, 60860.289063, 85903.429688, 0, 1, 1, 0, 1,11.015469,13.423127,3.2254117,3.238173,2.1118193, 10:28:00.107
21260.062500, 30989.039063, 187500.015625, 187500.015625, 49151.304688, 40913.546875, 60928.125000, 86020.062500, 0, 1, 1, 0, 1,11.015469,13.423127,3.2254117,3.238173,2.1118193, 10:28:00.107
21050.224609, 30734.453125, 187500.015625, 187500.015625, 49498.472656, 41323.949219, 61066.527344, 86065.437500, 0, 1, 1, 0, 1,11.015469,13.423127,3.2254117,3.238173,2.1118193, 10:28:00.107
21019.958984, 30714.783203, 187500.015625, 187500.015625, 49694.320313, 41518.027344, 61010.468750, 85959.820313, 0, 1, 1, 0, 1,11.015469,13.423127,3.2254117,3.238173,2.1118193, 10:28:00.107
21196.515625, 30935.082031, 187500.015625, 187500.015625, 49404.058594, 41167.062500, 60867.082031, 85903.453125, 0, 1, 1, 0, 1,11.015469,13.423127,3.2254117,3.238173,2.1118193, 10:28:00.108
21272.712891, 31009.691406, 187500.015625, 187500.015625, 49164.066406, 40897.769531, 60897.078125, 85992.585938, 0, 1, 1, 0, 1,11.015469,13.423127,3.2254117,3.238173,2.1118193, 10:28:00.108
21081.136719, 30773.277344, 187500.015625, 187500.015625, 49451.132813, 41246.320313, 61050.882813, 86059.351563, 0, 1, 1, 0, 1,11.015469,13.423127,3.2254117,3.238173,2.1118193, 10:28:00.108
21010.125000, 30701.707031, 187500.015625, 187500.015625, 49715.351563, 41527.503906, 61031.390625, 85967.218750, 0, 1, 1, 0, 1,11.015469,13.423127,3.2254117,3.238173,2.1118193, 10:28:00.108
21174.923828, 30906.716797, 187500.015625, 187500.015625, 49483.964844, 41234.050781, 60885.234375, 85883.023438, 0, 1, 1, 0, 1,11.015469,13.423127,3.2254117,3.238173,2.1118193, 10:28:00.108
21287.599609, 31028.869141, 187500.015625, 187500.015625, 49173.054688, 40877.917969, 60875.464844, 85953.656250, 0, 1, 1, 0, 1,11.015469,13.423127,3.2254117,3.238173,2.1118193, 10:28:00.108
21136.234375, 30839.796875, 187500.015625, 187500.015625, 49368.140625, 41127.675781, 61035.839844, 86065.031250, 0, 1, 1, 0, 1,11.015469,13.423127,3.2254117,3.238173,2.1118193, 10:28:00.108
21000.871094, 30690.195313, 187500.015625, 187500.015625, 49709.292969, 41498.714844, 61061.453125, 85996.523438, 0, 1, 1, 0, 1,11.015469,13.423127,3.2254117,3.238173,2.1118193, 10:28:00.108
21151.343750, 30883.470703, 187500.015625, 187500.015625, 49552.789063, 41289.503906, 60919.429688, 85904.125000, 0, 1, 1, 0, 1,11.015469,13.423127,3.2254117,3.238173,2.1118193, 10:28:00.108
21296.427734, 31042.347656, 187500.015625, 187500.015625, 49202.402344, 40885.789063, 60872.335938, 85953.945313, 0, 1, 1, 0, 1,11.015469,13.423127,3.2254117,3.238173,2.1118193, 10:28:00.109
21166.072266, 30872.162109, 187500.015625, 187500.015625, 49320.710938, 41041.289063, 61011.007813, 86062.531250, 0, 1, 1, 0, 1,11.015469,13.423127,3.2254117,3.238173,2.1118193, 10:28:00.109
21009.656250, 30692.005859, 187500.015625, 187500.015625, 49696.621094, 41469.839844, 61073.660156, 86024.281250, 0, 1, 1, 0, 1,11.015469,13.423127,3.2254117,3.238173,2.1118193, 10:28:00.109
21107.980469, 30819.210938, 187500.015625, 187500.015625, 49641.011719, 41381.371094, 60945.964844, 85913.734375, 0, 1, 1, 0, 1,11.015469,13.423127,3.2254117,3.238173,2.1118193, 10:28:00.109
21276.781250, 31014.453125, 187500.015625, 187500.015625, 49266.281250, 40958.609375, 60863.195313, 85931.164063, 0, 1, 1, 0, 1,11.015469,13.423127,3.2254117,3.238173,2.1118193, 10:28:00.109
21200.292969, 30913.601563, 187500.015625, 187500.015625, 49274.597656, 40996.003906, 60978.687500, 86045.117188, 0, 1, 1, 0, 1,11.015469,13.423127,3.2254117,3.238173,2.1118193, 10:28:00.109
21012.181641, 30696.566406, 187500.015625, 187500.015625, 49661.574219, 41449.007813, 61073.480469, 86036.757813, 0, 1, 1, 0, 1,11.015469,13.423127,3.2254117,3.238173,2.1118193, 10:28:00.109
21088.468750, 30804.167969, 187500.015625, 187500.015625, 49686.406250, 41451.464844, 60971.511719, 85928.843750, 0, 1, 1, 0, 1,11.015469,13.423127,3.2254117,3.238173,2.1118193, 10:28:00.110
21276.490234, 31024.957031, 187500.015625, 187500.015625, 49315.769531, 41020.703125, 60863.820313, 85915.812500, 0, 1, 1, 0, 1,11.015469,13.423127,3.2254117,3.238173,2.1118193, 10:28:00.110
21247.724609, 30976.119141, 187500.015625, 187500.015625, 49225.179688, 40930.535156, 60953.406250, 86025.265625, 0, 1, 1, 0, 1,11.015469,13.423127,3.2254117,3.238173,2.1118193, 10:28:00.110
21049.441406, 30739.705078, 187500.015625, 187500.015625, 49597.265625, 41365.523438, 61080.164063, 86051.125000, 0, 1, 1, 0, 1,11.015469,13.423127,3.2254117,3.238173,2.1118193, 10:28:00.110
21069.021484, 30782.083984, 187500.015625, 187500.015625, 49715.285156, 41475.761719, 61001.953125, 85940.976563, 0, 1, 1, 0, 1,11.015469,13.423127,3.2254117,3.238173,2.1118193, 10:28:00.110
21234.984375, 30984.277344, 187500.015625, 187500.015625, 49391.921875, 41088.695313, 60867.218750, 85896.703125, 0, 1, 1, 0, 1,11.015469,13.423127,3.2254117,3.238173,2.1118193, 10:28:00.110
21252.595703, 30990.982422, 187500.015625, 187500.015625, 49217.332031, 40889.003906, 60911.699219, 85982.039063, 0, 1, 1, 0, 1,11.015469,13.423127,3.2254117,3.238173,2.1118193, 10:28:00.110
21063.544922, 30757.429688, 187500.015625, 187500.015625, 49536.359375, 41275.511719, 61053.742188, 86046.140625, 0, 1, 1, 0, 1,11.015469,13.423127,3.2254117,3.238173,2.1118193, 10:28:00.111
21029.324219, 30726.740234, 187500.015625, 187500.015625, 49752.386719, 41502.113281, 61021.445313, 85959.617188, 0, 1, 1, 0, 1,11.015469,13.423127,3.2254117,3.238173,2.1118193, 10:28:00.111
21192.179688, 30931.013672, 187500.015625, 187500.015625, 49487.273438, 41174.570313, 60881.523438, 85888.523438, 0, 1, 1, 0, 1,11.015469,13.423127,3.2254117,3.238173,2.1118193, 10:28:00.111
21280.000000, 31028.244141, 187500.015625, 187500.015625, 49212.863281, 40875.347656, 60893.300781, 85974.242188, 0, 1, 1, 0, 1,11.015469,13.423127,3.2254117,3.238173,2.1118193, 10:28:00.111
21108.472656, 30813.197266, 187500.015625, 187500.015625, 49448.562500, 41189.925781, 61055.441406, 86078.265625, 0, 1, 1, 0, 1,11.015469,13.423127,3.2254117,3.238173,2.1118193, 10:28:00.111
20988.734375, 30682.775391, 187500.015625, 187500.015625, 49764.457031, 41532.175781, 61051.105469, 85981.054688, 0, 1, 1, 0, 1,11.015469,13.423127,3.2254117,3.238173,2.1118193, 10:28:00.111
21157.556641, 30897.865234, 187500.015625, 187500.015625, 49558.777344, 41275.937500, 60907.921875, 85895.937500, 0, 1, 1, 0, 1,11.015469,13.423127,3.2254117,3.238173,2.1118193, 10:28:00.111
21286.437500, 31041.230469, 187500.015625, 187500.015625, 49225.066406, 40905.167969, 60889.769531, 85967.937500, 0, 1, 1, 0, 1,11.015469,13.423127,3.2254117,3.238173,2.1118193, 10:28:00.111
21124.587891, 30834.476563, 187500.015625, 187500.015625, 49398.382813, 41137.019531, 61036.687500, 86070.796875, 0, 1, 1, 0, 1,11.015469,13.423127,3.2254117,3.238173,2.1118193, 10:28:00.111
20984.822266, 30678.505859, 187500.015625, 187500.015625, 49750.710938, 41539.687500, 61067.890625, 86004.968750, 0, 1, 1, 0, 1,11.015469,13.423127,3.2254117,3.238173,2.1118193, 10:28:00.111
21105.074219, 30833.425781, 187500.015625, 187500.015625, 49641.882813, 41392.703125, 60925.734375, 85896.968750, 0, 1, 1, 0, 1,11.015469,13.423127,3.2254117,3.238173,2.1118193, 10:28:00.112
21281.876953, 31033.183594, 187500.015625, 187500.015625, 49274.285156, 40974.636719, 60860.156250, 85932.421875, 0, 1, 1, 0, 1,11.015469,13.423127,3.2254117,3.238173,2.1118193, 10:28:00.112
21196.091797, 30914.138672, 187500.015625, 187500.015625, 49325.203125, 41068.667969, 60999.605469, 86061.679688, 0, 1, 1, 0, 1,11.015469,13.423127,3.2254117,3.238173,2.1118193, 10:28:00.112
21020.607422, 30709.373047, 187500.015625, 187500.015625, 49695.167969, 41493.039063, 61075.335938, 86029.492188, 0, 1, 1, 0, 1,11.015469,13.423127,3.2254117,3.238173,2.1118193, 10:28:00.112
21093.294922, 30809.107422, 187500.015625, 187500.015625, 49674.492188, 41432.800781, 60954.300781, 85910.335938, 0, 1, 1, 0, 1,11.015469,13.423127,3.2254117,3.238173,2.1118193, 10:28:00.112
21273.406250, 31024.869141, 187500.015625, 187500.015625, 49300.996094, 40999.714844, 60850.253906, 85909.953125, 0, 1, 1, 0, 1,11.015469,13.423127,3.2254117,3.238173,2.1118193, 10:28:00.112
21220.791016, 30945.966797, 187500.015625, 187500.015625, 49265.253906, 40993.878906, 60960.960938, 86035.796875, 0, 1, 1, 0, 1,11.015469,13.423127,3.2254117,3.238173,2.1118193, 10:28:00.112
21014.662109, 30699.830078, 187500.015625, 187500.015625, 49649.636719, 41459.265625, 61065.500000, 86034.007813, 0, 1, 1, 0, 1,11.015469,13.423127,3.2254117,3.238173,2.1118193, 10:28:00.112
21051.029297, 30758.546875, 187500.015625, 187500.015625, 49725.500000, 41522.632813, 60964.066406, 85909.640625, 0, 1, 1, 0, 1,11.015469,13.423127,3.2254117,3.238173,2.1118193, 10:28:00.112
21235.228516, 30979.986328, 187500.015625, 187500.015625, 49366.710938, 41111.695313, 60842.027344, 85885.929688, 0, 1, 1, 0, 1,11.015469,13.423127,3.2254117,3.238173,2.1118193, 10:28:00.112
21239.453125, 30967.849609, 187500.015625, 187500.015625, 49229.625000, 40985.675781, 60918.761719, 86003.273438, 0, 1, 1, 0, 1,11.015469,13.423127,3.2254117,3.238173,2.1118193, 10:28:00.113
21034.912109, 30722.851563, 187500.015625, 187500.015625, 49575.945313, 41421.445313, 61046.031250, 86044.359375, 0, 1, 1, 0, 1,11.015469,13.423127,3.2254117,3.238173,2.1118193, 10:28:00.113
21023.669922, 30728.261719, 187500.015625, 187500.015625, 49726.394531, 41583.898438, 60972.671875, 85933.671875, 0, 1, 1, 0, 1,11.015469,13.423127,3.2254117,3.238173,2.1118193, 10:28:00.113
21205.009766, 30951.263672, 187500.015625, 187500.015625, 49399.925781, 41211.945313, 60834.562500, 85890.929688, 0, 1, 1, 0, 1,11.015469,13.423127,3.2254117,3.238173,2.1118193, 10:28:00.113
21250.160156, 30990.267578, 187500.015625, 187500.015625, 49177.546875, 40980.625000, 60874.953125, 85989.507813, 0, 1, 1, 0, 1,11.015469,13.423127,3.2254117,3.238173,2.1118193, 10:28:00.113
21052.011719, 30751.775391, 187500.015625, 187500.015625, 49470.242188, 41357.632813, 61022.027344, 86056.601563, 0, 1, 1, 0, 1,11.015469,13.423127,3.2254117,3.238173,2.1118193, 10:28:00.113
20983.392578, 30688.810547, 187500.015625, 187500.015625, 49708.781250, 41622.230469, 60990.128906, 85954.945313, 0, 1, 1, 0, 1,11.015469,13.423127,3.2254117,3.238173,2.1118193, 10:28:00.113
21152.929688, 30902.939453, 187500.015625, 187500.015625, 49446.304688, 41309.308594, 60845.492188, 85880.093750, 0, 1, 1, 0, 1,11.015469,13.423127,3.2254117,3.238173,2.1118193, 10:28:00.113
21242.896484, 30997.263672, 187500.015625, 187500.015625, 49149.406250, 40980.828125, 60849.179688, 85954.773438, 0, 1, 1, 0, 1,11.015469,13.423127,3.2254117,3.238173,2.1118193, 10:28:00.113
21063.947266, 30773.925781, 187500.015625, 187500.015625, 49380.054688, 41273.277344, 60993.593750, 86033.718750, 0, 1, 1, 0, 1,11.015469,13.423127,3.2254117,3.238173,2.1118193, 10:28:00.113
20961.800781, 30663.462891, 187500.015625, 187500.015625, 49674.539063, 41614.074219, 60999.742188, 85956.695313, 0, 1, 1, 0, 1,11.015469,13.423127,3.2254117,3.238173,2.1118193, 10:28:00.114
21096.068359, 30837.292969, 187500.015625, 187500.015625, 49495.230469, 41391.761719, 60853.425781, 85860.734375, 0, 1, 1, 0, 1,11.015469,13.423127,3.2254117,3.238173,2.1118193, 10:28:00.114
21231.607422, 30985.193359, 187500.015625, 187500.015625, 49155.195313, 41001.636719, 60819.250000, 85912.460938, 0, 1, 1, 0, 1,11.015469,13.423127,3.2254117,3.238173,2.1118193, 10:28:00.114
21085.562500, 30799.742188, 187500.015625, 187500.015625, 49305.039063, 41188.945313, 60959.710938, 86015.789063, 0, 1, 1, 0, 1,11.015469,13.423127,3.2254117,3.238173,2.1118193, 10:28:00.114
20978.474609, 30681.367188, 187500.015625, 187500.015625, 49636.046875, 41567.515625, 61017.757813, 85988.210938, 0, 1, 1, 0, 1,11.015469,13.423127,3.2254117,3.238173,2.1118193, 10:28:00.114
21093.251953, 30828.375000, 187500.015625, 187500.015625, 49542.664063, 41426.429688, 60898.511719, 85894.843750, 0, 1, 1, 0, 1,11.015469,13.423127,3.2254117,3.238173,2.1118193, 10:28:00.114
21257.669922, 31016.464844, 187500.015625, 187500.015625, 49183.515625, 40997.097656, 60830.359375, 85921.242188, 0, 1, 1, 0, 1,11.015469,13.423127,3.2254117,3.238173,2.1118193, 10:28:00.114
21160.039063, 30889.394531, 187500.015625, 187500.015625, 49231.371094, 41063.058594, 60958.054688, 86036.375000, 0, 1, 1, 0, 1,11.015469,13.423127,3.2254117,3.238173,2.1118193, 10:28:00.114
20969.421875, 30672.851563, 187500.015625, 187500.015625, 49610.722656, 41497.777344, 61040.242188, 86019.367188, 0, 1, 1, 0, 1,11.015469,13.423127,3.2254117,3.238173,2.1118193, 10:28:00.114
21029.101563, 30758.837891, 187500.015625, 187500.015625, 49629.746094, 41474.265625, 60919.230469, 85892.875000, 0, 1, 1, 0, 1,11.015469,13.423127,3.2254117,3.238173,2.1118193, 10:28:00.114
21231.048828, 30994.089844, 187500.015625, 187500.015625, 49256.558594, 41031.476563, 60814.691406, 85895.000000, 0, 1, 1, 0, 1,11.015469,13.423127,3.2254117,3.238173,2.1118193, 10:28:00.115
21194.951172, 30932.220703, 187500.015625, 187500.015625, 49192.164063, 40975.328125, 60923.277344, 86023.570313, 0, 1, 1, 0, 1,11.015469,13.423127,3.2254117,3.238173,2.1118193, 10:28:00.115
20995.238281, 30694.666016, 187500.015625, 187500.015625, 49572.859375, 41422.945313, 61036.957031, 86033.742188, 0, 1, 1, 0, 1,11.015469,13.423127,3.2254117,3.238173,2.1118193, 10:28:00.115
21020.406250, 30740.644531, 187500.015625, 187500.015625, 49678.628906, 41505.199219, 60948.667969, 85925.179688, 0, 1, 1, 0, 1,11.015469,13.423127,3.2254117,3.238173,2.1118193, 10:28:00.115
21212.832031, 30980.724609, 187500.015625, 187500.015625, 49329.046875, 41090.707031, 60822.042969, 85901.750000, 0, 1, 1, 0, 1,11.015469,13.423127,3.2254117,3.238173,2.1118193, 10:28:00.115
21227.205078, 30980.656250, 187500.015625, 187500.015625, 49169.140625, 40924.500000, 60899.003906, 86019.414063, 0, 1, 1, 0, 1,11.015469,13.423127,3.2254117,3.238173,2.1118193, 10:28:00.115
21023.177734, 30733.156250, 187500.015625, 187500.015625, 49508.488281, 41335.460938, 61039.906250, 86062.882813, 0, 1, 1, 0, 1,11.015469,13.423127,3.2254117,3.238173,2.1118193, 10:28:00.115
20986.410156, 30699.359375, 187500.015625, 187500.015625, 49711.195313, 41522.878906, 60978.773438, 85936.507813, 0, 1, 1, 0, 1,11.015469,13.423127,3.2254117,3.238173,2.1118193, 10:28:00.116
21191.128906, 30948.357422, 187500.015625, 187500.015625, 49405.601563, 41137.445313, 60842.808594, 85881.570313, 0, 1, 1, 0, 1,11.015469,13.423127,3.2254117,3.238173,2.1118193, 10:28:00.116
21255.435547, 31004.037109, 187500.015625, 187500.015625, 49173.925781, 40860.820313, 60879.914063, 85986.195313, 0, 1, 1, 0, 1,11.015469,13.423127,3.2254117,3.238173,2.1118193, 10:28:00.116
21068.798828, 30772.583984, 187500.015625, 187500.015625, 49463.984375, 41205.148438, 61025.871094, 86062.593750, 0, 1, 1, 0, 1,11.015469,13.423127,3.2254117,3.238173,2.1118193, 10:28:00.116
20986.611328, 30686.126953, 187500.015625, 187500.015625, 49745.683594, 41494.468750, 61012.527344, 85971.757813, 0, 1, 1, 0, 1,11.015469,13.423127,3.2254117,3.238173,2.1118193, 10:28:00.116
21146.447266, 30890.937500, 187500.015625, 187500.015625, 49525.363281, 41202.578125, 60862.210938, 85885.945313, 0, 1, 1, 0, 1,11.015469,13.423127,3.2254117,3.238173,2.1118193, 10:28:00.117
