%OpenBCI Raw EEG Data
%
%Sample Rate = 250.0 Hz
%First Column = SampleIndex
%5 Columns before Timestamp are Frequency Power factors DELTA THETA ALPHA BETA GAMMA
%Last Column = Timestamp 
%Other Columns = EEG data in microvolts followed by Accel Data (in G) interleaved with Aux Data
, 0.000000, 0.000000, 0.000000, 0.000000, 0.000000, 0.000000, 0.000000, 0.000000, 0.000, 0.000, 0.000,0.0,0.0,0.0,0.0,0.0, 21:53:40.383
, 7.821687, 8.749230, 15.517249, 14.599891, 11.299110, 7.295039, 10.364730, 9.405710, 0.304, 0.282, 0.900,0.0,0.0,0.0,0.0,0.0, 21:53:40.862
, 7.823642, 8.751245, 15.519037, 14.592349, 11.301078, 7.289038, 10.364240, 9.399277, 0.000, 0.000, 0.000,0.0,0.0,0.0,0.0,0.0, 21:53:40.863
, 7.825489, 8.753086, 15.520516, 14.584437, 11.304144, 7.286183, 10.367132, 9.395960, 0.000, 0.000, 0.000,0.0,0.0,0.0,0.0,0.0, 21:53:40.864
, 7.822914, 8.749736, 15.517138, 14.592557, 11.301252, 7.293104, 10.366610, 9.403470, 0.000, 0.000, 0.000,0.0,0.0,0.0,0.0,0.0, 21:53:40.865
, 7.820198, 8.747349, 15.514403, 14.600097, 11.298764, 7.296405, 10.364229, 9.406423, 0.000, 0.000, 0.000,0.0,0.0,0.0,0.0,0.0, 21:53:40.866
, 7.821615, 8.749382, 15.515779, 14.595363, 11.299924, 7.291266, 10.362638, 9.401146, 0.000, 0.000, 0.000,0.0,0.0,0.0,0.0,0.0, 21:53:40.866
, 7.825985, 8.752476, 15.519643, 14.583874, 11.304571, 7.285453, 10.366136, 9.395013, 0.288, 0.248, 0.910,0.0,0.0,0.0,0.0,0.0, 21:53:40.867
, 7.825281, 8.752076, 15.519478, 14.589205, 11.304947, 7.291454, 10.369591, 9.401246, 0.000, 0.000, 0.000,0.0,0.0,0.0,0.0,0.0, 21:53:40.867
, 7.822735, 8.749440, 15.517341, 14.599357, 11.302361, 7.296619, 10.368516, 9.406830, 0.000, 0.000, 0.000,0.0,0.0,0.0,0.0,0.0, 21:53:40.868
, 7.824203, 8.750596, 15.519051, 14.597928, 11.302296, 7.292786, 10.365820, 9.402673, 0.000, 0.000, 0.000,0.0,0.0,0.0,0.0,0.0, 21:53:40.869
, 7.827903, 8.753920, 15.522274, 14.586891, 11.305677, 7.285460, 10.367212, 9.394755, 0.000, 0.000, 0.000,0.0,0.0,0.0,0.0,0.0, 21:53:40.870
, 7.827087, 8.752750, 15.520908, 14.589647, 11.305208, 7.289746, 10.369019, 9.399651, 0.000, 0.000, 0.000,0.0,0.0,0.0,0.0,0.0, 21:53:40.870
, 7.824340, 8.750442, 15.517826, 14.598099, 11.302108, 7.295310, 10.367530, 9.405258, 0.000, 0.000, 0.000,0.0,0.0,0.0,0.0,0.0, 21:53:40.870
, 7.823459, 8.750039, 15.516610, 14.600119, 11.301098, 7.294002, 10.365436, 9.404009, 0.000, 0.000, 0.000,0.0,0.0,0.0,0.0,0.0, 21:53:40.870
, 7.827360, 8.753904, 15.521136, 14.586100, 11.306459, 7.284945, 10.367202, 9.393895, 0.000, 0.000, 0.000,0.0,0.0,0.0,0.0,0.0, 21:53:40.871
, 7.827214, 8.753086, 15.521113, 14.586440, 11.307690, 7.288477, 10.371066, 9.397491, 0.000, 0.000, 0.000,0.0,0.0,0.0,0.0,0.0, 21:53:40.871
, 7.824244, 8.750526, 15.517515, 14.597833, 11.303380, 7.295301, 10.368844, 9.405193, 0.282, 0.216, 0.912,0.0,0.0,0.0,0.0,0.0, 21:53:40.872
, 7.822176, 8.748980, 15.515233, 14.600988, 11.301983, 7.294708, 10.365994, 9.404774, 0.000, 0.000, 0.000,0.0,0.0,0.0,0.0,0.0, 21:53:40.872
, 7.824610, 8.750237, 15.516936, 14.588460, 11.303816, 7.285538, 10.364597, 9.394785, 0.000, 0.000, 0.000,0.0,0.0,0.0,0.0,0.0, 21:53:40.873
, 7.827328, 8.752409, 15.519053, 14.585941, 11.307369, 7.287567, 10.369682, 9.396948, 0.000, 0.000, 0.000,0.0,0.0,0.0,0.0,0.0, 21:53:40.873
, 7.824965, 8.749515, 15.516406, 14.594509, 11.305150, 7.294002, 10.369602, 9.403872, 0.000, 0.000, 0.000,0.0,0.0,0.0,0.0,0.0, 21:53:40.873
, 7.822471, 8.746506, 15.513565, 14.599330, 11.302425, 7.294887, 10.366801, 9.404999, 0.000, 0.000, 0.000,0.0,0.0,0.0,0.0,0.0, 21:53:40.874
, 7.825701, 8.748881, 15.517019, 14.588621, 11.305235, 7.286736, 10.365670, 9.396407, 0.000, 0.000, 0.000,0.0,0.0,0.0,0.0,0.0, 21:53:40.874
, 7.827103, 8.749427, 15.518914, 14.582626, 11.308319, 7.285167, 10.369910, 9.394847, 0.000, 0.000, 0.000,0.0,0.0,0.0,0.0,0.0, 21:53:40.874
, 7.822838, 8.745238, 15.514965, 14.591833, 11.304706, 7.292171, 10.370194, 9.402989, 0.000, 0.000, 0.000,0.0,0.0,0.0,0.0,0.0, 21:53:40.875
, 7.820408, 8.743244, 15.512901, 14.599714, 11.301022, 7.295220, 10.366793, 9.406437, 0.280, 0.218, 0.918,0.0,0.0,0.0,0.0,0.0, 21:53:40.875
, 7.824646, 8.746564, 15.517200, 14.592061, 11.304106, 7.287699, 10.365346, 9.398187, 0.000, 0.000, 0.000,0.0,0.0,0.0,0.0,0.0, 21:53:40.875
, 7.828484, 8.749861, 15.521038, 14.582584, 11.308266, 7.283602, 10.369005, 9.393012, 0.000, 0.000, 0.000,0.0,0.0,0.0,0.0,0.0, 21:53:40.876
, 7.827042, 8.749125, 15.519611, 14.589055, 11.307454, 7.290017, 10.370807, 9.399499, 0.000, 0.000, 0.000,0.0,0.0,0.0,0.0,0.0, 21:53:40.876
, 7.822154, 8.743647, 15.515009, 14.598568, 11.303349, 7.293931, 10.368017, 9.403913, 0.000, 0.000, 0.000,0.0,0.0,0.0,0.0,0.0, 21:53:40.876
, 7.822668, 8.743931, 15.515902, 14.594911, 11.303389, 7.288984, 10.365619, 9.398902, 0.000, 0.000, 0.000,0.0,0.0,0.0,0.0,0.0, 21:53:40.876
, 7.827797, 8.746845, 15.520479, 14.583561, 11.308578, 7.283193, 10.369285, 9.392529, 0.000, 0.000, 0.000,0.0,0.0,0.0,0.0,0.0, 21:53:40.877
, 7.827167, 8.746253, 15.519440, 14.588154, 11.308400, 7.289109, 10.372295, 9.398844, 0.000, 0.000, 0.000,0.0,0.0,0.0,0.0,0.0, 21:53:40.877
, 7.823540, 8.746548, 15.515944, 14.596344, 11.304752, 7.293656, 10.369499, 9.403227, 0.000, 0.000, 0.000,0.0,0.0,0.0,0.0,0.0, 21:53:40.877
, 7.823148, 8.745551, 15.515577, 14.596913, 11.303889, 7.291173, 10.366981, 9.401294, 0.000, 0.000, 0.000,0.0,0.0,0.0,0.0,0.0, 21:53:40.878
, 7.826968, 8.749167, 15.519337, 14.585322, 11.307410, 7.283801, 10.368172, 9.393609, 0.286, 0.206, 0.924,0.0,0.0,0.0,0.0,0.0, 21:53:40.878
, 7.826463, 8.749157, 15.518362, 14.587914, 11.307209, 7.288593, 10.371058, 9.398784, 0.000, 0.000, 0.000,0.0,0.0,0.0,0.0,0.0, 21:53:40.878
, 7.822225, 8.745489, 15.514338, 14.597151, 11.302184, 7.293864, 10.368145, 9.404242, 0.000, 0.000, 0.000,0.0,0.0,0.0,0.0,0.0, 21:53:40.879
, 7.822818, 8.746005, 15.515222, 14.597459, 11.302231, 7.292460, 10.366569, 9.402066, 0.000, 0.000, 0.000,0.0,0.0,0.0,0.0,0.0, 21:53:40.879
, 7.826112, 8.748490, 15.518711, 14.585304, 11.305472, 7.284465, 10.367535, 9.393483, 0.000, 0.000, 0.000,0.0,0.0,0.0,0.0,0.0, 21:53:40.880
, 7.826323, 8.748184, 15.518675, 14.584100, 11.306960, 7.286868, 10.371086, 9.396051, 0.000, 0.000, 0.000,0.0,0.0,0.0,0.0,0.0, 21:53:40.880
, 7.823271, 8.744362, 15.515345, 14.592888, 11.303360, 7.292943, 10.369571, 9.402209, 0.000, 0.000, 0.000,0.0,0.0,0.0,0.0,0.0, 21:53:40.880
, 7.820654, 8.741506, 15.513277, 14.597054, 11.301256, 7.293390, 10.367014, 9.402851, 0.000, 0.000, 0.000,0.0,0.0,0.0,0.0,0.0, 21:53:40.880
, 7.825381, 8.745017, 15.517978, 14.584533, 11.306125, 7.284858, 10.368275, 9.393602, 0.000, 0.000, 0.000,0.0,0.0,0.0,0.0,0.0, 21:53:40.881
, 7.826360, 8.745158, 15.518447, 14.582789, 11.308069, 7.286597, 10.372729, 9.396090, 0.000, 0.000, 0.000,0.0,0.0,0.0,0.0,0.0, 21:53:40.881
, 7.822894, 8.740200, 15.514962, 14.591659, 11.303894, 7.292789, 10.370680, 9.402768, 0.284, 0.196, 0.926,0.0,0.0,0.0,0.0,0.0, 21:53:40.881
, 7.820891, 8.735785, 15.513002, 14.598242, 11.301840, 7.294858, 10.368586, 9.404894, 0.000, 0.000, 0.000,0.0,0.0,0.0,0.0,0.0, 21:53:40.882
, 7.824521, 8.737534, 15.516898, 14.588272, 11.305213, 7.287015, 10.367917, 9.396166, 0.000, 0.000, 0.000,0.0,0.0,0.0,0.0,0.0, 21:53:40.882
, 7.826738, 8.738397, 15.519312, 14.581277, 11.308700, 7.285549, 10.372383, 9.393810, 0.000, 0.000, 0.000,0.0,0.0,0.0,0.0,0.0, 21:53:40.882
, 7.822583, 8.733696, 15.515561, 14.589604, 11.304884, 7.292462, 10.372347, 9.401740, 0.000, 0.000, 0.000,0.0,0.0,0.0,0.0,0.0, 21:53:40.882
, 7.820095, 8.730151, 15.513270, 14.597562, 11.301907, 7.295696, 10.369884, 9.405437, 0.000, 0.000, 0.000,0.0,0.0,0.0,0.0,0.0, 21:53:40.883
, 7.822997, 8.731780, 15.516682, 14.590928, 11.304482, 7.289603, 10.368854, 9.399134, 0.000, 0.000, 0.000,0.0,0.0,0.0,0.0,0.0, 21:53:40.883
, 7.826781, 8.734818, 15.520376, 14.582027, 11.308029, 7.285797, 10.372392, 9.395140, 0.000, 0.000, 0.000,0.0,0.0,0.0,0.0,0.0, 21:53:40.883
, 7.823164, 8.731302, 15.516940, 14.589167, 11.304611, 7.292073, 10.373017, 9.402623, 0.000, 0.000, 0.000,0.0,0.0,0.0,0.0,0.0, 21:53:40.883
, 7.819919, 8.727676, 15.513235, 14.597696, 11.300512, 7.295591, 10.369805, 9.406607, 0.282, 0.196, 0.922,0.0,0.0,0.0,0.0,0.0, 21:53:40.884
, 7.821199, 8.728864, 15.514153, 14.594383, 11.299826, 7.290853, 10.366981, 9.402060, 0.000, 0.000, 0.000,0.0,0.0,0.0,0.0,0.0, 21:53:40.884
, 7.824735, 8.732149, 15.517670, 14.582104, 11.304137, 7.283991, 10.369236, 9.394503, 0.000, 0.000, 0.000,0.0,0.0,0.0,0.0,0.0, 21:53:40.884
, 7.824259, 8.731630, 15.517647, 14.585143, 11.305315, 7.289192, 10.372849, 9.400046, 0.000, 0.000, 0.000,0.0,0.0,0.0,0.0,0.0, 21:53:40.884
, 7.822069, 8.729228, 15.515278, 14.594044, 11.302638, 7.293966, 10.372128, 9.405087, 0.000, 0.000, 0.000,0.0,0.0,0.0,0.0,0.0, 21:53:40.891
, 7.821045, 8.728061, 15.514209, 14.595446, 11.301366, 7.292069, 10.368954, 9.403149, 0.000, 0.000, 0.000,0.0,0.0,0.0,0.0,0.0, 21:53:40.891
, 7.824335, 8.731025, 15.517920, 14.584073, 11.305097, 7.284509, 10.369740, 9.395100, 0.000, 0.000, 0.000,0.0,0.0,0.0,0.0,0.0, 21:53:40.891
, 7.823991, 8.731803, 15.517748, 14.586136, 11.305727, 7.288350, 10.373373, 9.399836, 0.000, 0.000, 0.000,0.0,0.0,0.0,0.0,0.0, 21:53:40.892
, 7.819579, 8.727590, 15.513395, 14.595479, 11.300834, 7.293725, 10.370592, 9.405931, 0.000, 0.000, 0.000,0.0,0.0,0.0,0.0,0.0, 21:53:40.892
, 7.819337, 8.726686, 15.513199, 14.597169, 11.299481, 7.292958, 10.368200, 9.404825, 0.000, 0.000, 0.000,0.0,0.0,0.0,0.0,0.0, 21:53:40.892
, 7.823884, 8.731751, 15.518085, 14.584207, 11.303954, 7.284621, 10.369430, 9.395308, 0.266, 0.206, 0.924,0.0,0.0,0.0,0.0,0.0, 21:53:40.893
, 7.823819, 8.732498, 15.518159, 14.583651, 11.305085, 7.287051, 10.373471, 9.398283, 0.000, 0.000, 0.000,0.0,0.0,0.0,0.0,0.0, 21:53:40.893
, 7.820243, 8.729013, 15.514842, 14.592365, 11.301592, 7.292922, 10.372410, 9.404984, 0.000, 0.000, 0.000,0.0,0.0,0.0,0.0,0.0, 21:53:40.894
, 7.819762, 8.728200, 15.514523, 14.595496, 11.300353, 7.293063, 10.370519, 9.404845, 0.000, 0.000, 0.000,0.0,0.0,0.0,0.0,0.0, 21:53:40.894
, 7.824762, 8.732954, 15.519668, 14.585617, 11.304900, 7.285824, 10.371991, 9.397024, 0.000, 0.000, 0.000,0.0,0.0,0.0,0.0,0.0, 21:53:40.894
, 7.826054, 8.734777, 15.520676, 14.583165, 11.306326, 7.286425, 10.375459, 9.398068, 0.000, 0.000, 0.000,0.0,0.0,0.0,0.0,0.0, 21:53:40.895
, 7.821852, 8.731667, 15.516782, 14.591558, 11.302349, 7.292388, 10.374330, 9.404468, 0.000, 0.000, 0.000,0.0,0.0,0.0,0.0,0.0, 21:53:40.895
, 7.817894, 8.727723, 15.512904, 14.599102, 11.299032, 7.294628, 10.371520, 9.407031, 0.000, 0.000, 0.000,0.0,0.0,0.0,0.0,0.0, 21:53:40.895
, 7.822326, 8.731557, 15.516950, 14.590228, 11.302226, 7.287473, 10.370838, 9.399090, 0.000, 0.000, 0.000,0.0,0.0,0.0,0.0,0.0, 21:53:40.896
, 7.824780, 8.734941, 15.519388, 14.582405, 11.304911, 7.284918, 10.374001, 9.395871, 0.270, 0.214, 0.928,0.0,0.0,0.0,0.0,0.0, 21:53:40.896
, 7.822361, 8.733696, 15.517222, 14.590449, 11.302645, 7.291819, 10.374374, 9.403249, 0.000, 0.000, 0.000,0.0,0.0,0.0,0.0,0.0, 21:53:40.896
, 7.819793, 8.731640, 15.514669, 14.598016, 11.299491, 7.295205, 10.372249, 9.406569, 0.000, 0.000, 0.000,0.0,0.0,0.0,0.0,0.0, 21:53:40.897
, 7.821640, 8.733443, 15.516890, 14.592401, 11.300767, 7.289527, 10.370537, 9.400489, 0.000, 0.000, 0.000,0.0,0.0,0.0,0.0,0.0, 21:53:40.897
, 7.825437, 8.737073, 15.520756, 14.582215, 11.305139, 7.284876, 10.374062, 9.394948, 0.000, 0.000, 0.000,0.0,0.0,0.0,0.0,0.0, 21:53:40.897
, 7.821997, 8.733924, 15.517327, 14.589323, 11.302074, 7.291439, 10.374620, 9.402281, 0.000, 0.000, 0.000,0.0,0.0,0.0,0.0,0.0, 21:53:40.898
, 7.819331, 8.731318, 15.514752, 14.598279, 11.298619, 7.295862, 10.372054, 9.406678, 0.000, 0.000, 0.000,0.0,0.0,0.0,0.0,0.0, 21:53:40.898
, 7.820459, 8.732487, 15.515935, 14.596838, 11.298762, 7.292312, 10.370414, 9.403255, 0.000, 0.000, 0.000,0.0,0.0,0.0,0.0,0.0, 21:53:40.899
, 7.825560, 8.736720, 15.520885, 14.584947, 11.304202, 7.285343, 10.373313, 9.395576, 0.000, 0.000, 0.000,0.0,0.0,0.0,0.0,0.0, 21:53:40.899
, 7.824284, 8.735750, 15.519793, 14.588265, 11.304113, 7.290424, 10.376464, 9.401074, 0.000, 0.000, 0.000,0.0,0.0,0.0,0.0,0.0, 21:53:40.900
, 7.819248, 8.731217, 15.514894, 14.598863, 11.299263, 7.295645, 10.373737, 9.407259, 0.266, 0.216, 0.922,0.0,0.0,0.0,0.0,0.0, 21:53:40.900
, 7.818839, 8.730070, 15.514460, 14.599891, 11.297917, 7.293278, 10.370655, 9.404945, 0.000, 0.000, 0.000,0.0,0.0,0.0,0.0,0.0, 21:53:40.900
, 7.825424, 8.735987, 15.520847, 14.586301, 11.304207, 7.284997, 10.373431, 9.395417, 0.000, 0.000, 0.000,0.0,0.0,0.0,0.0,0.0, 21:53:40.901
, 7.825683, 8.736052, 15.520910, 14.588429, 11.304931, 7.289134, 10.377540, 9.400231, 0.000, 0.000, 0.000,0.0,0.0,0.0,0.0,0.0, 21:53:40.901
, 7.821197, 8.731807, 15.516702, 14.596956, 11.300067, 7.294118, 10.374947, 9.405650, 0.000, 0.000, 0.000,0.0,0.0,0.0,0.0,0.0, 21:53:40.901
, 7.820958, 8.731045, 15.516194, 14.599587, 11.298816, 7.293513, 10.372383, 9.404799, 0.000, 0.000, 0.000,0.0,0.0,0.0,0.0,0.0, 21:53:40.902
, 7.826658, 8.735723, 15.522153, 14.587751, 11.304106, 7.285397, 10.374030, 9.395663, 0.000, 0.000, 0.000,0.0,0.0,0.0,0.0,0.0, 21:53:40.902
, 7.827114, 8.736170, 15.522732, 14.586643, 11.305586, 7.287375, 10.377973, 9.397842, 0.000, 0.000, 0.000,0.0,0.0,0.0,0.0,0.0, 21:53:40.902
, 7.824038, 8.733428, 15.519408, 14.596842, 11.302179, 7.294378, 10.377192, 9.405437, 0.000, 0.000, 0.000,0.0,0.0,0.0,0.0,0.0, 21:53:40.903
, 7.821302, 8.730694, 15.516988, 14.603264, 11.299866, 7.295887, 10.374870, 9.407500, 0.000, 0.000, 0.000,0.0,0.0,0.0,0.0,0.0, 21:53:40.903
, 7.825104, 8.733774, 15.520496, 14.592673, 11.302660, 7.287554, 10.373661, 9.398727, 0.272, 0.216, 0.924,0.0,0.0,0.0,0.0,0.0, 21:53:40.903
, 7.827022, 8.735368, 15.521670, 14.586994, 11.305373, 7.286769, 10.377029, 9.397746, 0.000, 0.000, 0.000,0.0,0.0,0.0,0.0,0.0, 21:53:40.904
, 7.823783, 8.732487, 15.518643, 14.595863, 11.302886, 7.293772, 10.377685, 9.405641, 0.000, 0.000, 0.000,0.0,0.0,0.0,0.0,0.0, 21:53:40.904
, 7.821812, 8.729925, 15.516504, 14.601807, 11.300226, 7.295953, 10.374363, 9.407701, 0.000, 0.000, 0.000,0.0,0.0,0.0,0.0,0.0, 21:53:40.905
, 7.824796, 8.731660, 15.519433, 14.594073, 11.302410, 7.289326, 10.373797, 9.400956, 0.000, 0.000, 0.000,0.0,0.0,0.0,0.0,0.0, 21:53:40.905
, 7.827777, 8.732758, 15.522099, 14.586147, 11.305950, 7.286088, 10.377083, 9.397844, 0.000, 0.000, 0.000,0.0,0.0,0.0,0.0,0.0, 21:53:40.905
, 7.824429, 8.728687, 15.518766, 14.594692, 11.302772, 7.292576, 10.377255, 9.405659, 0.000, 0.000, 0.000,0.0,0.0,0.0,0.0,0.0, 21:53:40.906
, 7.821287, 8.725081, 15.515740, 14.603014, 11.299383, 7.295773, 10.374444, 9.409147, 0.000, 0.000, 0.000,0.0,0.0,0.0,0.0,0.0, 21:53:40.906
, 7.823694, 8.726342, 15.518483, 14.597595, 11.301712, 7.290406, 10.373762, 9.403305, 0.000, 0.000, 0.000,0.0,0.0,0.0,0.0,0.0, 21:53:40.906
, 7.828645, 8.731228, 15.523231, 14.585968, 11.305662, 7.284755, 10.375961, 9.396899, 0.272, 0.210, 0.924,0.0,0.0,0.0,0.0,0.0, 21:53:40.906
, 7.827038, 8.730148, 15.521375, 14.591905, 11.304669, 7.290962, 10.378568, 9.403934, 0.000, 0.000, 0.000,0.0,0.0,0.0,0.0,0.0, 21:53:40.907
, 7.825158, 8.728041, 15.519310, 14.600660, 11.301953, 7.295725, 10.376866, 9.409105, 0.000, 0.000, 0.000,0.0,0.0,0.0,0.0,0.0, 21:53:40.907
, 7.825276, 8.728077, 15.519520, 14.599124, 11.301256, 7.292248, 10.373914, 9.405898, 0.000, 0.000, 0.000,0.0,0.0,0.0,0.0,0.0, 21:53:40.907
, 7.829624, 8.732059, 15.523753, 14.587094, 11.306397, 7.284818, 10.376793, 9.398024, 0.000, 0.000, 0.000,0.0,0.0,0.0,0.0,0.0, 21:53:40.907
, 7.828177, 8.730454, 15.521936, 14.590548, 11.306024, 7.290057, 10.379989, 9.403893, 0.000, 0.000, 0.000,0.0,0.0,0.0,0.0,0.0, 21:53:40.907
, 7.824975, 8.726910, 15.518641, 14.599875, 11.302928, 7.295739, 10.378304, 9.409899, 0.000, 0.000, 0.000,0.0,0.0,0.0,0.0,0.0, 21:53:40.908
, 7.824454, 8.725840, 15.518139, 14.601188, 11.302242, 7.294311, 10.375963, 9.408542, 0.000, 0.000, 0.000,0.0,0.0,0.0,0.0,0.0, 21:53:40.908
, 7.828361, 8.728508, 15.522148, 14.588423, 11.306728, 7.286088, 10.377312, 9.399689, 0.000, 0.000, 0.000,0.0,0.0,0.0,0.0,0.0, 21:53:40.908
, 7.828879, 8.728162, 15.523172, 14.588257, 11.309034, 7.289652, 10.381929, 9.403343, 0.000, 0.000, 0.000,0.0,0.0,0.0,0.0,0.0, 21:53:40.908
, 7.826025, 8.725176, 15.520240, 14.597580, 11.305863, 7.295587, 10.380667, 9.409556, 0.268, 0.218, 0.922,0.0,0.0,0.0,0.0,0.0, 21:53:40.909
, 7.824270, 8.723922, 15.518282, 14.601547, 11.303476, 7.295374, 10.377676, 9.409599, 0.000, 0.000, 0.000,0.0,0.0,0.0,0.0,0.0, 21:53:40.909
, 7.826908, 8.726548, 15.520796, 14.590769, 11.305539, 7.286622, 10.376698, 9.401079, 0.000, 0.000, 0.000,0.0,0.0,0.0,0.0,0.0, 21:53:40.909
, 7.828073, 8.727650, 15.521858, 14.588351, 11.307537, 7.287927, 10.380897, 9.402693, 0.000, 0.000, 0.000,0.0,0.0,0.0,0.0,0.0, 21:53:40.909
, 7.825998, 8.725700, 15.520037, 14.595940, 11.305148, 7.294136, 10.380418, 9.408944, 0.000, 0.000, 0.000,0.0,0.0,0.0,0.0,0.0, 21:53:40.910
, 7.823922, 8.723982, 15.518400, 14.601583, 11.302774, 7.295354, 10.377365, 9.410102, 0.000, 0.000, 0.000,0.0,0.0,0.0,0.0,0.0, 21:53:40.910
, 7.826763, 8.726510, 15.521384, 14.592347, 11.304699, 7.287605, 10.375820, 9.402096, 0.000, 0.000, 0.000,0.0,0.0,0.0,0.0,0.0, 21:53:40.911
, 7.827527, 8.727265, 15.521905, 14.587796, 11.306509, 7.286380, 10.378912, 9.401510, 0.000, 0.000, 0.000,0.0,0.0,0.0,0.0,0.0, 21:53:40.911
, 7.825531, 8.725697, 15.520007, 14.594960, 11.304683, 7.292750, 10.379531, 9.408003, 0.000, 0.000, 0.000,0.0,0.0,0.0,0.0,0.0, 21:53:41.343
, 7.823048, 8.723463, 15.517144, 14.602278, 11.302119, 7.295920, 10.377003, 9.410867, 0.282, 0.214, 0.926,0.0,0.0,0.0,0.0,0.0, 21:53:41.343
, 7.825321, 8.725612, 15.519676, 14.593844, 11.304486, 7.289036, 10.376003, 9.403135, 0.000, 0.000, 0.000,0.0,0.0,0.0,0.0,0.0, 21:53:41.343
, 7.827417, 8.727533, 15.521704, 14.585398, 11.308702, 7.285654, 10.379930, 9.399489, 0.000, 0.000, 0.000,0.0,0.0,0.0,0.0,0.0, 21:53:41.344
, 7.825663, 8.725479, 15.519393, 14.591858, 11.306925, 7.292047, 10.380637, 9.406143, 0.000, 0.000, 0.000,0.0,0.0,0.0,0.0,0.0, 21:53:41.344
, 7.823401, 8.723072, 15.517101, 14.599956, 11.304446, 7.296083, 10.378916, 9.409829, 0.000, 0.000, 0.000,0.0,0.0,0.0,0.0,0.0, 21:53:41.344
, 7.824572, 8.724303, 15.518152, 14.596409, 11.304417, 7.291300, 10.376788, 9.405035, 0.000, 0.000, 0.000,0.0,0.0,0.0,0.0,0.0, 21:53:41.345
, 7.828426, 8.727859, 15.521605, 14.585684, 11.308121, 7.285372, 10.378498, 9.398766, 0.000, 0.000, 0.000,0.0,0.0,0.0,0.0,0.0, 21:53:41.345
, 7.827042, 8.726848, 15.520045, 14.590727, 11.306998, 7.291025, 10.380467, 9.405299, 0.000, 0.000, 0.000,0.0,0.0,0.0,0.0,0.0, 21:53:41.346
, 7.823112, 8.723734, 15.516439, 14.599799, 11.303084, 7.295455, 10.378109, 9.410336, 0.000, 0.000, 0.000,0.0,0.0,0.0,0.0,0.0, 21:53:41.346
, 7.824297, 8.724793, 15.517694, 14.598074, 11.303470, 7.292382, 10.376632, 9.406940, 0.000, 0.000, 0.000,0.0,0.0,0.0,0.0,0.0, 21:53:41.347
, 7.829762, 8.729836, 15.523499, 14.584705, 11.309160, 7.284818, 10.379869, 9.398459, 0.290, 0.218, 0.924,0.0,0.0,0.0,0.0,0.0, 21:53:41.347
, 7.828931, 8.728506, 15.522593, 14.588072, 11.308990, 7.289711, 10.383080, 9.403937, 0.000, 0.000, 0.000,0.0,0.0,0.0,0.0,0.0, 21:53:41.347
, 7.825232, 8.724501, 15.518394, 14.599174, 11.304189, 7.295464, 10.380281, 9.410373, 0.000, 0.000, 0.000,0.0,0.0,0.0,0.0,0.0, 21:53:41.348
, 7.824601, 8.723316, 15.517600, 14.602013, 11.302745, 7.294206, 10.376947, 9.409159, 0.000, 0.000, 0.000,0.0,0.0,0.0,0.0,0.0, 21:53:41.348
, 7.829279, 8.727317, 15.522942, 14.588092, 11.308577, 7.285258, 10.378265, 9.398784, 0.000, 0.000, 0.000,0.0,0.0,0.0,0.0,0.0, 21:53:41.348
, 7.828347, 8.726396, 15.521804, 14.588568, 11.310036, 7.288387, 10.381703, 9.402322, 0.000, 0.000, 0.000,0.0,0.0,0.0,0.0,0.0, 21:53:41.349
, 7.824565, 8.723195, 15.518297, 14.597850, 11.307066, 7.294427, 10.380344, 9.408768, 0.000, 0.000, 0.000,0.0,0.0,0.0,0.0,0.0, 21:53:41.349
, 7.822409, 8.721051, 15.516431, 14.602325, 11.304859, 7.295120, 10.377611, 9.409456, 0.000, 0.000, 0.000,0.0,0.0,0.0,0.0,0.0, 21:53:41.349
, 7.827169, 8.724981, 15.521089, 14.589712, 11.309522, 7.286613, 10.378142, 9.399818, 0.000, 0.000, 0.000,0.0,0.0,0.0,0.0,0.0, 21:53:41.350
, 7.829391, 8.726834, 15.522843, 14.586021, 11.312777, 7.287518, 10.382986, 9.400915, 0.292, 0.222, 0.922,0.0,0.0,0.0,0.0,0.0, 21:53:41.350
, 7.825965, 8.723410, 15.519580, 14.595258, 11.309406, 7.294179, 10.382036, 9.408323, 0.000, 0.000, 0.000,0.0,0.0,0.0,0.0,0.0, 21:53:41.350
, 7.822453, 8.719431, 15.516377, 14.602206, 11.305351, 7.295994, 10.378275, 9.410607, 0.000, 0.000, 0.000,0.0,0.0,0.0,0.0,0.0, 21:53:41.351
, 7.826658, 8.722813, 15.520796, 14.592443, 11.308805, 7.288394, 10.378304, 9.402493, 0.000, 0.000, 0.000,0.0,0.0,0.0,0.0,0.0, 21:53:41.351
, 7.829630, 8.725361, 15.523997, 14.585313, 11.312640, 7.286398, 10.382602, 9.400411, 0.000, 0.000, 0.000,0.0,0.0,0.0,0.0,0.0, 21:53:41.352
, 7.826291, 8.721961, 15.520915, 14.593623, 11.309971, 7.292686, 10.382886, 9.407976, 0.000, 0.000, 0.000,0.0,0.0,0.0,0.0,0.0, 21:53:41.352
, 7.823488, 8.718912, 15.518004, 14.601624, 11.306471, 7.295435, 10.379880, 9.411318, 0.000, 0.000, 0.000,0.0,0.0,0.0,0.0,0.0, 21:53:41.352
, 7.825377, 8.720569, 15.520063, 14.595825, 11.307427, 7.289516, 10.378388, 9.405319, 0.000, 0.000, 0.000,0.0,0.0,0.0,0.0,0.0, 21:53:41.353
, 7.829597, 8.725046, 15.524332, 14.585512, 11.312466, 7.285026, 10.382483, 9.399952, 0.000, 0.000, 0.000,0.0,0.0,0.0,0.0,0.0, 21:53:41.353
, 7.827183, 8.723351, 15.521682, 14.592133, 11.310651, 7.291380, 10.383643, 9.406437, 0.000, 0.000, 0.000,0.0,0.0,0.0,0.0,0.0, 21:53:41.353
, 7.824040, 8.720537, 15.518344, 14.601018, 11.307682, 7.295491, 10.380908, 9.410737, 0.290, 0.222, 0.920,0.0,0.0,0.0,0.0,0.0, 21:53:41.353
, 7.825229, 8.721622, 15.519525, 14.598000, 11.308284, 7.291309, 10.379471, 9.406651, 0.000, 0.000, 0.000,0.0,0.0,0.0,0.0,0.0, 21:53:41.354
, 7.828354, 8.724281, 15.522635, 14.587209, 11.312083, 7.285126, 10.381386, 9.400236, 0.000, 0.000, 0.000,0.0,0.0,0.0,0.0,0.0, 21:53:41.354
, 7.827865, 8.723626, 15.522223, 14.590669, 11.312309, 7.290679, 10.383916, 9.406128, 0.000, 0.000, 0.000,0.0,0.0,0.0,0.0,0.0, 21:53:41.354
, 7.823948, 8.719559, 15.518590, 14.600496, 11.308442, 7.295882, 10.381943, 9.411760, 0.000, 0.000, 0.000,0.0,0.0,0.0,0.0,0.0, 21:53:41.354
, 7.824543, 8.720043, 15.519520, 14.599348, 11.308543, 7.293186, 10.379712, 9.408200, 0.000, 0.000, 0.000,0.0,0.0,0.0,0.0,0.0, 21:53:41.354
, 7.829000, 8.724364, 15.524290, 14.586808, 11.313675, 7.285578, 10.382003, 9.399798, 0.000, 0.000, 0.000,0.0,0.0,0.0,0.0,0.0, 21:53:41.355
, 7.828082, 8.723742, 15.523190, 14.589915, 11.314355, 7.289807, 10.385405, 9.405207, 0.000, 0.000, 0.000,0.0,0.0,0.0,0.0,0.0, 21:53:41.355
, 7.825283, 8.721708, 15.520300, 14.599375, 11.311261, 7.295444, 10.383919, 9.411349, 0.000, 0.000, 0.000,0.0,0.0,0.0,0.0,0.0, 21:53:41.355
, 7.824928, 8.722004, 15.519842, 14.601525, 11.309819, 7.294509, 10.381630, 9.410295, 0.000, 0.000, 0.000,0.0,0.0,0.0,0.0,0.0, 21:53:41.355
, 7.828821, 8.725996, 15.523374, 14.590441, 11.312710, 7.286212, 10.381913, 9.401834, 0.286, 0.222, 0.920,0.0,0.0,0.0,0.0,0.0, 21:53:41.356
, 7.830163, 8.726374, 15.524408, 14.589283, 11.314771, 7.288521, 10.386366, 9.403947, 0.000, 0.000, 0.000,0.0,0.0,0.0,0.0,0.0, 21:53:41.356
, 7.826343, 8.722084, 15.520801, 14.598954, 11.311120, 7.294883, 10.385391, 9.410810, 0.000, 0.000, 0.000,0.0,0.0,0.0,0.0,0.0, 21:53:41.356
, 7.823712, 8.719838, 15.518099, 14.604445, 11.308360, 7.295723, 10.382367, 9.412292, 0.000, 0.000, 0.000,0.0,0.0,0.0,0.0,0.0, 21:53:41.356
, 7.828209, 8.724749, 15.522551, 14.592442, 11.312298, 7.287140, 10.382226, 9.402878, 0.000, 0.000, 0.000,0.0,0.0,0.0,0.0,0.0, 21:53:41.356
, 7.830189, 8.727259, 15.524071, 14.588485, 11.315150, 7.287645, 10.386431, 9.403325, 0.000, 0.000, 0.000,0.0,0.0,0.0,0.0,0.0, 21:53:41.357
, 7.826546, 8.724230, 15.520535, 14.597269, 11.311820, 7.294168, 10.386357, 9.410428, 0.000, 0.000, 0.000,0.0,0.0,0.0,0.0,0.0, 21:53:41.357
, 7.823956, 8.722793, 15.518307, 14.602949, 11.308758, 7.296112, 10.383827, 9.412266, 0.000, 0.000, 0.000,0.0,0.0,0.0,0.0,0.0, 21:53:41.357
, 7.826423, 8.725441, 15.520960, 14.594927, 11.311316, 7.289183, 10.383159, 9.405248, 0.000, 0.000, 0.000,0.0,0.0,0.0,0.0,0.0, 21:53:41.357
, 7.829892, 8.728541, 15.523883, 14.587247, 11.315222, 7.286919, 10.386657, 9.402641, 0.296, 0.220, 0.920,0.0,0.0,0.0,0.0,0.0, 21:53:41.357
, 7.827947, 8.726966, 15.521235, 14.594750, 11.313380, 7.293843, 10.387803, 9.410022, 0.000, 0.000, 0.000,0.0,0.0,0.0,0.0,0.0, 21:53:41.358
, 7.824058, 8.723866, 15.517349, 14.603688, 11.309175, 7.297315, 10.384985, 9.414204, 0.000, 0.000, 0.000,0.0,0.0,0.0,0.0,0.0, 21:53:41.358
, 7.827165, 8.727294, 15.520360, 14.597184, 11.310857, 7.291282, 10.382294, 9.407720, 0.000, 0.000, 0.000,0.0,0.0,0.0,0.0,0.0, 21:53:41.358
, 7.831206, 8.731685, 15.524294, 14.586617, 11.315515, 7.286398, 10.386003, 9.402201, 0.000, 0.000, 0.000,0.0,0.0,0.0,0.0,0.0, 21:53:41.358
, 7.828721, 8.729375, 15.521697, 14.592979, 11.313176, 7.292395, 10.387597, 9.408954, 0.000, 0.000, 0.000,0.0,0.0,0.0,0.0,0.0, 21:53:41.359
, 7.824438, 8.725160, 15.517271, 14.602797, 11.308304, 7.296669, 10.384363, 9.413876, 0.000, 0.000, 0.000,0.0,0.0,0.0,0.0,0.0, 21:53:41.359
, 7.826298, 8.726796, 15.518874, 14.600005, 11.308646, 7.292592, 10.382076, 9.409673, 0.000, 0.000, 0.000,0.0,0.0,0.0,0.0,0.0, 21:53:41.359
, 7.830793, 8.731186, 15.523753, 14.587334, 11.314227, 7.285654, 10.385188, 9.401868, 0.000, 0.000, 0.000,0.0,0.0,0.0,0.0,0.0, 21:53:41.359
, 7.830263, 8.730556, 15.522877, 14.591422, 11.313713, 7.290962, 10.388204, 9.407762, 0.000, 0.000, 0.000,0.0,0.0,0.0,0.0,0.0, 21:53:41.359
, 7.826756, 8.727006, 15.518966, 14.601065, 11.309392, 7.295893, 10.385724, 9.413232, 0.298, 0.202, 0.912,0.0,0.0,0.0,0.0,0.0, 21:53:41.360
, 7.827560, 8.727590, 15.519502, 14.600534, 11.308990, 7.293472, 10.383534, 9.410643, 0.000, 0.000, 0.000,0.0,0.0,0.0,0.0,0.0, 21:53:41.360
, 7.831258, 8.730855, 15.523492, 14.588921, 11.312913, 7.285746, 10.385015, 9.402963, 0.000, 0.000, 0.000,0.0,0.0,0.0,0.0,0.0, 21:53:41.360
, 7.831318, 8.730506, 15.523597, 14.590754, 11.314433, 7.289856, 10.389092, 9.408024, 0.000, 0.000, 0.000,0.0,0.0,0.0,0.0,0.0, 21:53:41.361
, 7.828582, 8.728336, 15.520577, 14.599839, 11.311366, 7.295488, 10.388179, 9.414423, 0.000, 0.000, 0.000,0.0,0.0,0.0,0.0,0.0, 21:53:41.361
, 7.826561, 8.726725, 15.518378, 14.602757, 11.308517, 7.294836, 10.384024, 9.414036, 0.000, 0.000, 0.000,0.0,0.0,0.0,0.0,0.0, 21:53:41.361
, 7.832366, 8.732015, 15.523809, 14.589077, 11.313540, 7.286043, 10.385137, 9.403906, 0.000, 0.000, 0.000,0.0,0.0,0.0,0.0,0.0, 21:53:41.362
, 7.832677, 8.732339, 15.523986, 14.588744, 11.314882, 7.288392, 10.389303, 9.406682, 0.000, 0.000, 0.000,0.0,0.0,0.0,0.0,0.0, 21:53:41.362
, 7.828372, 8.728523, 15.519585, 14.599397, 11.309951, 7.294740, 10.387342, 9.414056, 0.000, 0.000, 0.000,0.0,0.0,0.0,0.0,0.0, 21:53:41.362
, 7.826394, 8.726487, 15.517853, 14.604719, 11.307332, 7.295897, 10.384032, 9.415216, 0.300, 0.214, 0.918,0.0,0.0,0.0,0.0,0.0, 21:53:41.363
, 7.830469, 8.730223, 15.521912, 14.593661, 11.310465, 7.287420, 10.383778, 9.406052, 0.000, 0.000, 0.000,0.0,0.0,0.0,0.0,0.0, 21:53:41.363
, 7.832567, 8.732721, 15.523899, 14.588668, 11.313304, 7.286758, 10.388125, 9.405451, 0.000, 0.000, 0.000,0.0,0.0,0.0,0.0,0.0, 21:53:41.363
, 7.829264, 8.729527, 15.520396, 14.596938, 11.309929, 7.293231, 10.387687, 9.412125, 0.000, 0.000, 0.000,0.0,0.0,0.0,0.0,0.0, 21:53:41.364
, 7.826197, 8.726465, 15.517305, 14.604337, 11.305988, 7.295339, 10.384296, 9.414349, 0.000, 0.000, 0.000,0.0,0.0,0.0,0.0,0.0, 21:53:41.364
, 7.831220, 8.730747, 15.522200, 14.595266, 11.309417, 7.288090, 10.383490, 9.405808, 0.000, 0.000, 0.000,0.0,0.0,0.0,0.0,0.0, 21:53:41.364
, 7.834049, 8.733009, 15.524674, 14.587021, 11.313149, 7.285028, 10.394379, 9.402214, 0.000, 0.000, 0.000,0.0,0.0,0.0,0.0,0.0, 21:53:41.365
, 7.830793, 8.729791, 15.521359, 14.595065, 11.309576, 7.291635, 10.405036, 9.409573, 0.000, 0.000, 0.000,0.0,0.0,0.0,0.0,0.0, 21:53:41.365
, 7.828569, 8.727272, 15.518959, 14.602783, 11.307294, 7.295189, 10.407195, 9.412760, 0.000, 0.000, 0.000,0.0,0.0,0.0,0.0,0.0, 21:53:41.365
, 7.829785, 8.728193, 15.520416, 14.598470, 11.308455, 7.289914, 10.407070, 9.407272, 0.000, 0.000, 0.000,0.0,0.0,0.0,0.0,0.0, 21:53:41.366
, 7.834530, 8.732784, 15.525571, 14.587081, 11.314024, 7.284391, 10.412223, 9.400947, 0.300, 0.218, 0.922,0.0,0.0,0.0,0.0,0.0, 21:53:41.366
, 7.831557, 8.729981, 15.523246, 14.593177, 11.312269, 7.290506, 10.415222, 9.407826, 0.000, 0.000, 0.000,0.0,0.0,0.0,0.0,0.0, 21:53:41.366
, 7.826571, 8.725120, 15.518228, 14.602980, 11.307269, 7.294702, 10.412260, 9.412798, 0.000, 0.000, 0.000,0.0,0.0,0.0,0.0,0.0, 21:53:41.367
, 7.827360, 8.725189, 15.518888, 14.600660, 11.306845, 7.290734, 10.410048, 9.408834, 0.000, 0.000, 0.000,0.0,0.0,0.0,0.0,0.0, 21:53:41.367
, 7.832489, 8.728866, 15.524049, 14.586846, 11.312155, 7.282793, 10.413076, 9.400153, 0.000, 0.000, 0.000,0.0,0.0,0.0,0.0,0.0, 21:53:41.367
, 7.831609, 8.726910, 15.522870, 14.591377, 11.311932, 7.288439, 10.416244, 9.406689, 0.000, 0.000, 0.000,0.0,0.0,0.0,0.0,0.0, 21:53:41.368
, 7.828526, 8.722949, 15.519648, 14.601058, 11.308492, 7.294266, 10.414570, 9.412335, 0.000, 0.000, 0.000,0.0,0.0,0.0,0.0,0.0, 21:53:41.368
, 7.828535, 8.722147, 15.519764, 14.602540, 11.307710, 7.292985, 10.412283, 9.410769, 0.000, 0.000, 0.000,0.0,0.0,0.0,0.0,0.0, 21:53:41.368
, 7.833073, 8.725672, 15.525295, 14.589551, 11.312687, 7.284907, 10.414804, 9.401716, 0.000, 0.000, 0.000,0.0,0.0,0.0,0.0,0.0, 21:53:41.368
, 7.831877, 8.724491, 15.524140, 14.591066, 11.312846, 7.288325, 10.418092, 9.405730, 0.292, 0.212, 0.922,0.0,0.0,0.0,0.0,0.0, 21:53:41.369
, 7.828886, 8.721923, 15.520428, 14.600313, 11.308640, 7.293783, 10.415515, 9.411314, 0.000, 0.000, 0.000,0.0,0.0,0.0,0.0,0.0, 21:53:41.369
, 7.827516, 8.720640, 15.518507, 14.604232, 11.305774, 7.293549, 10.411887, 9.411128, 0.000, 0.000, 0.000,0.0,0.0,0.0,0.0,0.0, 21:53:41.369
, 7.830956, 8.723443, 15.521925, 14.592676, 11.308874, 7.284838, 10.411762, 9.402199, 0.000, 0.000, 0.000,0.0,0.0,0.0,0.0,0.0, 21:53:41.369
, 7.832456, 8.724543, 15.523234, 14.589417, 11.311020, 7.285654, 10.415425, 9.402987, 0.000, 0.000, 0.000,0.0,0.0,0.0,0.0,0.0, 21:53:41.369
, 7.828998, 8.720727, 15.520255, 14.598228, 11.308337, 7.292308, 10.415032, 9.410125, 0.000, 0.000, 0.000,0.0,0.0,0.0,0.0,0.0, 21:53:41.370
, 7.826720, 8.718349, 15.518181, 14.603796, 11.306218, 7.293904, 10.413115, 9.412134, 0.000, 0.000, 0.000,0.0,0.0,0.0,0.0,0.0, 21:53:41.370
, 7.830379, 8.721807, 15.521614, 14.593492, 11.309004, 7.285734, 10.412211, 9.404012, 0.000, 0.000, 0.000,0.0,0.0,0.0,0.0,0.0, 21:53:41.370
, 7.831734, 8.722909, 15.523074, 14.587997, 11.312184, 7.284543, 10.416322, 9.403126, 0.000, 0.000, 0.000,0.0,0.0,0.0,0.0,0.0, 21:53:41.370
, 7.828490, 8.719732, 15.519688, 14.596614, 11.308843, 7.291389, 10.415996, 9.410657, 0.000, 0.000, 0.000,0.0,0.0,0.0,0.0,0.0, 21:53:41.370
, 7.825037, 8.716043, 15.516519, 14.603693, 11.305047, 7.293810, 10.412667, 9.412954, 0.298, 0.210, 0.924,0.0,0.0,0.0,0.0,0.0, 21:53:41.371
, 7.829268, 8.719396, 15.520644, 14.595313, 11.308047, 7.287076, 10.412587, 9.405549, 0.000, 0.000, 0.000,0.0,0.0,0.0,0.0,0.0, 21:53:41.371
, 7.833855, 8.723273, 15.525057, 14.585917, 11.313396, 7.283582, 10.417638, 9.401671, 0.000, 0.000, 0.000,0.0,0.0,0.0,0.0,0.0, 21:53:41.371
, 7.829876, 8.718932, 15.521080, 14.594200, 11.309739, 7.290482, 10.417714, 9.409550, 0.000, 0.000, 0.000,0.0,0.0,0.0,0.0,0.0, 21:53:41.371
, 7.826499, 8.715421, 15.517723, 14.602615, 11.305923, 7.294373, 10.414562, 9.413093, 0.000, 0.000, 0.000,0.0,0.0,0.0,0.0,0.0, 21:53:41.372
, 7.827478, 8.716156, 15.518966, 14.598480, 11.306835, 7.289655, 10.413045, 9.408267, 0.000, 0.000, 0.000,0.0,0.0,0.0,0.0,0.0, 21:53:41.372
, 7.831937, 8.719471, 15.523309, 14.586931, 11.311646, 7.283868, 10.416451, 9.401890, 0.000, 0.000, 0.000,0.0,0.0,0.0,0.0,0.0, 21:53:41.372
, 7.831021, 8.717851, 15.522316, 14.591221, 11.310666, 7.289360, 10.418566, 9.407724, 0.000, 0.000, 0.000,0.0,0.0,0.0,0.0,0.0, 21:53:41.372
, 7.826580, 8.712703, 15.518295, 14.601697, 11.306562, 7.294579, 10.416244, 9.413647, 0.000, 0.000, 0.000,0.0,0.0,0.0,0.0,0.0, 21:53:41.372
, 7.828131, 8.712802, 15.519896, 14.599788, 11.307367, 7.291499, 10.414948, 9.410170, 0.000, 0.000, 0.000,0.0,0.0,0.0,0.0,0.0, 21:53:41.373
, 7.832910, 8.716807, 15.524628, 14.587064, 11.312180, 7.283984, 10.417714, 9.402192, 0.300, 0.214, 0.922,0.0,0.0,0.0,0.0,0.0, 21:53:41.373
, 7.831430, 8.715655, 15.523172, 14.590550, 11.311634, 7.289044, 10.421145, 9.407941, 0.000, 0.000, 0.000,0.0,0.0,0.0,0.0,0.0, 21:53:41.373
, 7.827579, 8.711405, 15.519435, 14.600345, 11.306960, 7.294829, 10.418461, 9.414247, 0.000, 0.000, 0.000,0.0,0.0,0.0,0.0,0.0, 21:53:41.373
, 7.827856, 8.710794, 15.519430, 14.601170, 11.306824, 7.293407, 10.416664, 9.412662, 0.000, 0.000, 0.000,0.0,0.0,0.0,0.0,0.0, 21:53:41.373
, 7.832653, 8.715050, 15.524216, 14.588027, 11.311599, 7.284621, 10.418286, 9.402878, 0.000, 0.000, 0.000,0.0,0.0,0.0,0.0,0.0, 21:53:41.374
, 7.831881, 8.714214, 15.523646, 14.588614, 11.311865, 7.287310, 10.421324, 9.406226, 0.000, 0.000, 0.000,0.0,0.0,0.0,0.0,0.0, 21:53:41.374
, 7.828160, 8.710600, 15.520295, 14.598295, 11.308523, 7.293209, 10.420023, 9.412853, 0.000, 0.000, 0.000,0.0,0.0,0.0,0.0,0.0, 21:53:41.374
, 7.827038, 8.709248, 15.518921, 14.603262, 11.307961, 7.294009, 10.418085, 9.414054, 0.000, 0.000, 0.000,0.0,0.0,0.0,0.0,0.0, 21:53:41.375
, 7.829597, 8.711382, 15.521481, 14.592687, 11.310123, 7.285627, 10.417480, 9.405828, 0.000, 0.000, 0.000,0.0,0.0,0.0,0.0,0.0, 21:53:41.375
, 7.831825, 8.713183, 15.523503, 14.588024, 11.312506, 7.285944, 10.421443, 9.406090, 0.298, 0.224, 0.922,0.0,0.0,0.0,0.0,0.0, 21:53:41.375
, 7.829961, 8.711686, 15.521610, 14.595843, 11.310669, 7.292350, 10.421771, 9.412595, 0.000, 0.000, 0.000,0.0,0.0,0.0,0.0,0.0, 21:53:41.376
, 7.827232, 8.709402, 15.519022, 14.602274, 11.307810, 7.294355, 10.419185, 9.414803, 0.000, 0.000, 0.000,0.0,0.0,0.0,0.0,0.0, 21:53:41.376
, 7.830815, 8.712278, 15.522529, 14.592497, 11.310624, 7.286769, 10.418631, 9.406454, 0.000, 0.000, 0.000,0.0,0.0,0.0,0.0,0.0, 21:53:41.376
, 7.832210, 8.713246, 15.523686, 14.586612, 11.313083, 7.285144, 10.422050, 9.404923, 0.000, 0.000, 0.000,0.0,0.0,0.0,0.0,0.0, 21:53:41.823
, 7.829653, 8.710633, 15.521078, 14.594172, 11.310847, 7.291780, 10.422318, 9.411674, 0.000, 0.000, 0.000,0.0,0.0,0.0,0.0,0.0, 21:53:41.823
, 7.825858, 8.706854, 15.517323, 14.603803, 11.306744, 7.295506, 10.419208, 9.416010, 0.000, 0.000, 0.000,0.0,0.0,0.0,0.0,0.0, 21:53:41.824
, 7.827972, 8.708655, 15.519994, 14.597251, 11.307658, 7.289176, 10.417645, 9.409470, 0.000, 0.000, 0.000,0.0,0.0,0.0,0.0,0.0, 21:53:41.824
, 7.830793, 8.710734, 15.522620, 14.587843, 11.310691, 7.284623, 10.420492, 9.404720, 0.000, 0.000, 0.000,0.0,0.0,0.0,0.0,0.0, 21:53:41.824
, 7.828712, 8.708910, 15.520852, 14.593887, 11.309365, 7.290555, 10.421885, 9.411128, 0.000, 0.000, 0.000,0.0,0.0,0.0,0.0,0.0, 21:53:41.824
, 7.826798, 8.707066, 15.518883, 14.601840, 11.307924, 7.294675, 10.420370, 9.415160, 0.304, 0.220, 0.926,0.0,0.0,0.0,0.0,0.0, 21:53:41.825
, 7.827963, 8.707616, 15.519987, 14.597866, 11.308237, 7.290216, 10.418421, 9.410629, 0.000, 0.000, 0.000,0.0,0.0,0.0,0.0,0.0, 21:53:41.825
, 7.831365, 8.710562, 15.523362, 14.586247, 11.311875, 7.283839, 10.421058, 9.403839, 0.000, 0.000, 0.000,0.0,0.0,0.0,0.0,0.0, 21:53:41.825
, 7.828003, 8.707393, 15.520331, 14.591685, 11.310047, 7.289467, 10.422523, 9.410596, 0.000, 0.000, 0.000,0.0,0.0,0.0,0.0,0.0, 21:53:41.825
, 7.825462, 8.704229, 15.517535, 14.599694, 11.306835, 7.294069, 10.420091, 9.414821, 0.000, 0.000, 0.000,0.0,0.0,0.0,0.0,0.0, 21:53:41.826
, 7.825515, 8.704028, 15.516978, 14.598916, 11.306768, 7.291557, 10.418794, 9.411926, 0.000, 0.000, 0.000,0.0,0.0,0.0,0.0,0.0, 21:53:41.826
, 7.828799, 8.706885, 15.520014, 14.587034, 11.310642, 7.283533, 10.420300, 9.403564, 0.000, 0.000, 0.000,0.0,0.0,0.0,0.0,0.0, 21:53:41.826
, 7.829042, 8.706967, 15.520079, 14.588127, 11.312043, 7.287619, 10.423740, 9.407643, 0.000, 0.000, 0.000,0.0,0.0,0.0,0.0,0.0, 21:53:41.826
, 7.826957, 8.704951, 15.517868, 14.596766, 11.308881, 7.293110, 10.422741, 9.412994, 0.000, 0.000, 0.000,0.0,0.0,0.0,0.0,0.0, 21:53:41.827
, 7.826387, 8.704276, 15.517629, 14.600012, 11.306471, 7.292873, 10.420578, 9.412617, 0.304, 0.224, 0.926,0.0,0.0,0.0,0.0,0.0, 21:53:41.827
, 7.830954, 8.708664, 15.522615, 14.587904, 11.310736, 7.284163, 10.421934, 9.403589, 0.000, 0.000, 0.000,0.0,0.0,0.0,0.0,0.0, 21:53:41.827
, 7.831626, 8.709717, 15.523063, 14.587851, 11.312506, 7.286655, 10.425600, 9.406501, 0.000, 0.000, 0.000,0.0,0.0,0.0,0.0,0.0, 21:53:41.828
, 7.828216, 8.706237, 15.519686, 14.597299, 11.309052, 7.292753, 10.424270, 9.413066, 0.000, 0.000, 0.000,0.0,0.0,0.0,0.0,0.0, 21:53:41.828
, 7.825661, 8.703281, 15.517282, 14.603740, 11.306815, 7.293975, 10.420866, 9.415194, 0.000, 0.000, 0.000,0.0,0.0,0.0,0.0,0.0, 21:53:41.828
, 7.829773, 8.707169, 15.521719, 14.592249, 11.312407, 7.285213, 10.421105, 9.405712, 0.000, 0.000, 0.000,0.0,0.0,0.0,0.0,0.0, 21:53:41.829
, 7.831553, 8.708702, 15.523208, 14.587540, 11.314813, 7.284967, 10.425459, 9.405231, 0.000, 0.000, 0.000,0.0,0.0,0.0,0.0,0.0, 21:53:41.829
, 7.827997, 8.705370, 15.519608, 14.596482, 11.309694, 7.291727, 10.425278, 9.412447, 0.000, 0.000, 0.000,0.0,0.0,0.0,0.0,0.0, 21:53:41.829
, 7.824811, 8.701869, 15.516552, 14.602863, 11.305568, 7.293486, 10.421470, 9.414365, 0.000, 0.000, 0.000,0.0,0.0,0.0,0.0,0.0, 21:53:41.830
, 7.828379, 8.704760, 15.520105, 14.593116, 11.307345, 7.286054, 10.420942, 9.405976, 0.000, 0.000, 0.000,0.0,0.0,0.0,0.0,0.0, 21:53:41.830
, 7.831700, 8.707764, 15.523031, 14.583959, 11.310812, 7.283490, 10.426201, 9.402806, 0.328, 0.218, 0.918,0.0,0.0,0.0,0.0,0.0, 21:53:41.830
, 7.828216, 8.704091, 15.518997, 14.592267, 11.306705, 7.290437, 10.426668, 9.411195, 0.000, 0.000, 0.000,0.0,0.0,0.0,0.0,0.0, 21:53:41.830
, 7.826005, 8.701078, 15.516662, 14.600313, 11.303224, 7.293669, 10.423079, 9.414803, 0.000, 0.000, 0.000,0.0,0.0,0.0,0.0,0.0, 21:53:41.831
, 7.829751, 8.703693, 15.520350, 14.594080, 11.306319, 7.287489, 10.422721, 9.407780, 0.000, 0.000, 0.000,0.0,0.0,0.0,0.0,0.0, 21:53:41.831
, 7.832474, 8.706367, 15.523377, 14.585173, 11.309001, 7.283039, 10.426532, 9.403048, 0.000, 0.000, 0.000,0.0,0.0,0.0,0.0,0.0, 21:53:41.831
, 7.830527, 8.705305, 15.521569, 14.591397, 11.307226, 7.289610, 10.428479, 9.409769, 0.000, 0.000, 0.000,0.0,0.0,0.0,0.0,0.0, 21:53:41.831
, 7.827654, 8.702050, 15.518892, 14.600305, 11.304538, 7.293937, 10.426105, 9.413926, 0.000, 0.000, 0.000,0.0,0.0,0.0,0.0,0.0, 21:53:41.832
, 7.827020, 8.698564, 15.519308, 14.598447, 11.305038, 7.290095, 10.424800, 9.410048, 0.000, 0.000, 0.000,0.0,0.0,0.0,0.0,0.0, 21:53:41.832
, 7.830775, 8.699958, 15.523347, 14.586927, 11.309099, 7.283510, 10.427601, 9.402813, 0.000, 0.000, 0.000,0.0,0.0,0.0,0.0,0.0, 21:53:41.832
, 7.829738, 8.698112, 15.521518, 14.590895, 11.308735, 7.288455, 10.430121, 9.408350, 0.360, 0.208, 0.912,0.0,0.0,0.0,0.0,0.0, 21:53:41.832
, 7.827628, 8.695210, 15.518487, 14.600365, 11.306500, 7.293770, 10.429116, 9.413954, 0.000, 0.000, 0.000,0.0,0.0,0.0,0.0,0.0, 21:53:41.833
, 7.828361, 8.694674, 15.518572, 14.600609, 11.305080, 7.291255, 10.425502, 9.411345, 0.000, 0.000, 0.000,0.0,0.0,0.0,0.0,0.0, 21:53:41.833
, 7.833256, 8.698156, 15.522783, 14.586846, 11.306607, 7.282759, 10.426344, 9.401700, 0.000, 0.000, 0.000,0.0,0.0,0.0,0.0,0.0, 21:53:41.833
, 7.833113, 8.695971, 15.522073, 14.587459, 11.306131, 7.286550, 10.430723, 9.405462, 0.000, 0.000, 0.000,0.0,0.0,0.0,0.0,0.0, 21:53:41.833
, 7.830209, 8.687846, 15.518706, 14.596577, 11.303264, 7.292750, 10.430466, 9.411379, 0.000, 0.000, 0.000,0.0,0.0,0.0,0.0,0.0, 21:53:41.834
, 7.829858, 8.681294, 15.518018, 14.599475, 11.301294, 7.291944, 10.428902, 9.410062, 0.000, 0.000, 0.000,0.0,0.0,0.0,0.0,0.0, 21:53:41.834
, 7.835189, 8.682725, 15.522920, 14.586835, 11.301661, 7.283159, 10.429501, 9.401968, 0.000, 0.000, 0.000,0.0,0.0,0.0,0.0,0.0, 21:53:41.834
, 7.834617, 8.679768, 15.522291, 14.586223, 11.300181, 7.285274, 10.432730, 9.404856, 0.000, 0.000, 0.000,0.0,0.0,0.0,0.0,0.0, 21:53:41.835
, 7.832071, 8.675045, 15.519781, 14.595160, 11.297284, 7.291872, 10.432909, 9.411025, 0.000, 0.000, 0.000,0.0,0.0,0.0,0.0,0.0, 21:53:41.835
, 7.831747, 8.672202, 15.519229, 14.601107, 11.296677, 7.293859, 10.432134, 9.412380, 0.398, 0.206, 0.904,0.0,0.0,0.0,0.0,0.0, 21:53:41.835
, 7.836535, 8.677510, 15.523686, 14.590691, 11.299917, 7.285412, 10.432004, 9.402699, 0.000, 0.000, 0.000,0.0,0.0,0.0,0.0,0.0, 21:53:41.836
, 7.838665, 8.683166, 15.525631, 14.586958, 11.301270, 7.285589, 10.437424, 9.402768, 0.000, 0.000, 0.000,0.0,0.0,0.0,0.0,0.0, 21:53:41.836
, 7.835592, 8.681895, 15.522723, 14.595704, 11.296996, 7.292227, 10.438396, 9.409671, 0.000, 0.000, 0.000,0.0,0.0,0.0,0.0,0.0, 21:53:41.836
, 7.833607, 8.680807, 15.520551, 14.603096, 11.293089, 7.295663, 10.436552, 9.412537, 0.000, 0.000, 0.000,0.0,0.0,0.0,0.0,0.0, 21:53:41.836
, 7.837402, 8.684368, 15.524365, 14.594142, 11.294455, 7.288354, 10.435822, 9.404040, 0.000, 0.000, 0.000,0.0,0.0,0.0,0.0,0.0, 21:53:41.837
, 7.839510, 8.686422, 15.525962, 14.586048, 11.296514, 7.285030, 10.440310, 9.400414, 0.000, 0.000, 0.000,0.0,0.0,0.0,0.0,0.0, 21:53:41.837
, 7.836971, 8.683465, 15.522826, 14.593957, 11.292666, 7.291523, 10.440600, 9.407786, 0.000, 0.000, 0.000,0.0,0.0,0.0,0.0,0.0, 21:53:41.837
, 7.836177, 8.681384, 15.521402, 14.601943, 11.290680, 7.296025, 10.440180, 9.411542, 0.000, 0.000, 0.000,0.0,0.0,0.0,0.0,0.0, 21:53:41.837
, 7.839684, 8.683309, 15.524420, 14.596581, 11.290986, 7.290902, 10.439235, 9.405417, 0.000, 0.000, 0.000,0.0,0.0,0.0,0.0,0.0, 21:53:41.838
, 7.844291, 8.686956, 15.528351, 14.586312, 11.292826, 7.285138, 10.441170, 9.398651, 0.402, 0.228, 0.890,0.0,0.0,0.0,0.0,0.0, 21:53:41.838
, 7.842556, 8.685059, 15.526451, 14.592119, 11.290316, 7.291845, 10.443318, 9.405619, 0.000, 0.000, 0.000,0.0,0.0,0.0,0.0,0.0, 21:53:41.838
, 7.837641, 8.679877, 15.521797, 14.603000, 11.285695, 7.296928, 10.440102, 9.411406, 0.000, 0.000, 0.000,0.0,0.0,0.0,0.0,0.0, 21:53:41.838
, 7.840397, 8.681780, 15.524522, 14.599716, 11.286118, 7.291731, 10.437688, 9.404822, 0.000, 0.000, 0.000,0.0,0.0,0.0,0.0,0.0, 21:53:41.839
, 7.845907, 8.686236, 15.530064, 14.587054, 11.290977, 7.284304, 10.441876, 9.395424, 0.000, 0.000, 0.000,0.0,0.0,0.0,0.0,0.0, 21:53:41.839
, 7.844888, 8.685450, 15.529104, 14.591346, 11.288422, 7.290046, 10.446186, 9.401208, 0.000, 0.000, 0.000,0.0,0.0,0.0,0.0,0.0, 21:53:41.839
, 7.841522, 8.683036, 15.525747, 14.602352, 11.282320, 7.296792, 10.445354, 9.408410, 0.000, 0.000, 0.000,0.0,0.0,0.0,0.0,0.0, 21:53:41.839
, 7.841866, 8.683127, 15.525919, 14.604162, 11.279412, 7.295319, 10.443001, 9.406767, 0.000, 0.000, 0.000,0.0,0.0,0.0,0.0,0.0, 21:53:41.840
, 7.847192, 8.688071, 15.531391, 14.591985, 11.283192, 7.287116, 10.446193, 9.397583, 0.000, 0.000, 0.000,0.0,0.0,0.0,0.0,0.0, 21:53:41.840
, 7.848269, 8.689207, 15.532529, 14.592325, 11.284432, 7.290511, 10.452986, 9.400826, 0.378, 0.234, 0.882,0.0,0.0,0.0,0.0,0.0, 21:53:41.840
, 7.843370, 8.684428, 15.527289, 14.603271, 11.278210, 7.297390, 10.452645, 9.407851, 0.000, 0.000, 0.000,0.0,0.0,0.0,0.0,0.0, 21:53:41.840
, 7.842793, 8.683575, 15.526440, 14.606279, 11.275558, 7.297907, 10.450772, 9.407237, 0.000, 0.000, 0.000,0.0,0.0,0.0,0.0,0.0, 21:53:41.841
, 7.848410, 8.688116, 15.531860, 14.593630, 11.278824, 7.289053, 10.451837, 9.396157, 0.000, 0.000, 0.000,0.0,0.0,0.0,0.0,0.0, 21:53:41.841
, 7.848620, 8.687264, 15.531507, 14.591876, 11.276580, 7.289538, 10.455089, 9.396522, 0.000, 0.000, 0.000,0.0,0.0,0.0,0.0,0.0, 21:53:41.841
, 7.846707, 8.684075, 15.528876, 14.600303, 11.271934, 7.296740, 10.456233, 9.403480, 0.000, 0.000, 0.000,0.0,0.0,0.0,0.0,0.0, 21:53:41.842
, 7.843884, 8.680822, 15.525769, 14.607073, 11.267155, 7.299943, 10.455546, 9.406935, 0.000, 0.000, 0.000,0.0,0.0,0.0,0.0,0.0, 21:53:41.842
, 7.848757, 8.685175, 15.530370, 14.596988, 11.268994, 7.292194, 10.456409, 9.398079, 0.000, 0.000, 0.000,0.0,0.0,0.0,0.0,0.0, 21:53:41.842
, 7.851501, 8.688026, 15.532564, 14.590691, 11.271811, 7.288785, 10.459866, 9.393573, 0.000, 0.000, 0.000,0.0,0.0,0.0,0.0,0.0, 21:53:41.842
, 7.847096, 8.683758, 15.528329, 14.599771, 11.267284, 7.295875, 10.459698, 9.399885, 0.000, 0.000, 0.000,0.0,0.0,0.0,0.0,0.0, 21:53:41.843
, 7.844897, 8.681008, 15.525906, 14.607236, 11.262331, 7.299999, 10.458061, 9.402578, 0.334, 0.228, 0.888,0.0,0.0,0.0,0.0,0.0, 21:53:41.843
, 7.848907, 8.683512, 15.530070, 14.598715, 11.260864, 7.293629, 10.459112, 9.393459, 0.000, 0.000, 0.000,0.0,0.0,0.0,0.0,0.0, 21:53:41.843
, 7.852411, 8.684500, 15.533521, 14.589900, 11.262273, 7.290328, 10.463367, 9.387962, 0.000, 0.000, 0.000,0.0,0.0,0.0,0.0,0.0, 21:53:41.843
, 7.848439, 8.678516, 15.529570, 14.597743, 11.257532, 7.296255, 10.463118, 9.393586, 0.000, 0.000, 0.000,0.0,0.0,0.0,0.0,0.0, 21:53:41.844
, 7.844798, 8.673044, 15.526127, 14.607068, 11.252362, 7.301271, 10.461709, 9.397851, 0.000, 0.000, 0.000,0.0,0.0,0.0,0.0,0.0, 21:53:41.844
, 7.848245, 8.675892, 15.529744, 14.602442, 11.252040, 7.297239, 10.461075, 9.392308, 0.000, 0.000, 0.000,0.0,0.0,0.0,0.0,0.0, 21:53:41.844
, 7.852642, 8.679571, 15.534134, 14.591395, 11.255663, 7.290658, 10.465315, 9.384007, 0.000, 0.000, 0.000,0.0,0.0,0.0,0.0,0.0, 21:53:41.844
, 7.850458, 8.675188, 15.532165, 14.596527, 11.253158, 7.296271, 10.468068, 9.388759, 0.000, 0.000, 0.000,0.0,0.0,0.0,0.0,0.0, 21:53:41.845
, 7.847635, 8.667731, 15.529375, 14.606697, 11.249472, 7.304387, 10.467161, 9.396414, 0.000, 0.000, 0.000,0.0,0.0,0.0,0.0,0.0, 21:53:41.845
, 7.848587, 8.666359, 15.529297, 14.605057, 11.245842, 7.299765, 10.462999, 9.390904, 0.272, 0.228, 0.908,0.0,0.0,0.0,0.0,0.0, 21:53:41.845
, 7.852722, 8.668972, 15.533477, 14.591529, 11.247123, 7.290669, 10.466275, 9.379232, 0.000, 0.000, 0.000,0.0,0.0,0.0,0.0,0.0, 21:53:41.846
, 7.850216, 8.666761, 15.531100, 14.595097, 11.244856, 7.295797, 10.470120, 9.383998, 0.000, 0.000, 0.000,0.0,0.0,0.0,0.0,0.0, 21:53:41.846
, 7.847666, 8.664486, 15.528088, 14.604026, 11.239353, 7.303394, 10.467916, 9.390900, 0.000, 0.000, 0.000,0.0,0.0,0.0,0.0,0.0, 21:53:41.846
, 7.847252, 8.663456, 15.527285, 14.605365, 11.234782, 7.303184, 10.466231, 9.390066, 0.000, 0.000, 0.000,0.0,0.0,0.0,0.0,0.0, 21:53:41.846
, 7.851077, 8.666223, 15.531360, 14.593407, 11.237192, 7.293613, 10.467563, 9.378920, 0.000, 0.000, 0.000,0.0,0.0,0.0,0.0,0.0, 21:53:41.847
, 7.851316, 8.664982, 15.532158, 14.593347, 11.238854, 7.296544, 10.471395, 9.380545, 0.000, 0.000, 0.000,0.0,0.0,0.0,0.0,0.0, 21:53:41.847
, 7.847923, 8.661518, 15.529004, 14.603166, 11.234771, 7.303645, 10.470308, 9.387149, 0.000, 0.000, 0.000,0.0,0.0,0.0,0.0,0.0, 21:53:41.847
, 7.847785, 8.660946, 15.528878, 14.607848, 11.230243, 7.305565, 10.469146, 9.387932, 0.000, 0.000, 0.000,0.0,0.0,0.0,0.0,0.0, 21:53:41.847
, 7.852203, 8.665058, 15.533349, 14.596434, 11.229378, 7.295594, 10.468915, 9.376492, 0.000, 0.000, 0.000,0.0,0.0,0.0,0.0,0.0, 21:53:41.848
, 7.854774, 8.668091, 15.535235, 14.592575, 11.230352, 7.294514, 10.472970, 9.374485, 0.226, 0.232, 0.920,0.0,0.0,0.0,0.0,0.0, 21:53:41.848
, 7.851611, 8.665512, 15.532368, 14.601630, 11.226214, 7.302319, 10.474953, 9.382874, 0.000, 0.000, 0.000,0.0,0.0,0.0,0.0,0.0, 21:53:41.848
, 7.848596, 8.662756, 15.529625, 14.608620, 11.221114, 7.305732, 10.474783, 9.386803, 0.000, 0.000, 0.000,0.0,0.0,0.0,0.0,0.0, 21:53:41.848
, 7.852076, 8.666227, 15.532401, 14.599531, 11.221673, 7.296868, 10.474379, 9.376568, 0.000, 0.000, 0.000,0.0,0.0,0.0,0.0,0.0, 21:53:41.848
, 7.853279, 8.668248, 15.533504, 14.594621, 11.221776, 7.295276, 10.476540, 9.374308, 0.000, 0.000, 0.000,0.0,0.0,0.0,0.0,0.0, 21:53:41.849
, 7.852157, 8.667197, 15.532125, 14.601286, 11.218215, 7.303359, 10.480246, 9.382669, 0.000, 0.000, 0.000,0.0,0.0,0.0,0.0,0.0, 21:53:41.849
, 7.849722, 8.664491, 15.529442, 14.608494, 11.212844, 7.306691, 10.480449, 9.385595, 0.000, 0.000, 0.000,0.0,0.0,0.0,0.0,0.0, 21:53:41.849
, 7.852161, 8.667154, 15.532151, 14.600742, 11.211242, 7.299393, 10.478862, 9.376253, 0.000, 0.000, 0.000,0.0,0.0,0.0,0.0,0.0, 21:53:41.849
, 7.855994, 8.671511, 15.535776, 14.590943, 11.210618, 7.294038, 10.481804, 9.368384, 0.000, 0.000, 0.000,0.0,0.0,0.0,0.0,0.0, 21:53:41.849
, 7.853719, 8.669848, 15.533624, 14.597224, 11.205982, 7.300216, 10.485641, 9.374703, 0.186, 0.252, 0.918,0.0,0.0,0.0,0.0,0.0, 21:53:41.849
, 7.850976, 8.667410, 15.530975, 14.606062, 11.199846, 7.308111, 10.485615, 9.382312, 0.000, 0.000, 0.000,0.0,0.0,0.0,0.0,0.0, 21:53:41.849
, 7.851110, 8.667892, 15.531834, 14.604305, 11.197392, 7.304481, 10.483735, 9.379058, 0.000, 0.000, 0.000,0.0,0.0,0.0,0.0,0.0, 21:53:41.850
, 7.854208, 8.670615, 15.534605, 14.592774, 11.198796, 7.294836, 10.486703, 9.368016, 0.000, 0.000, 0.000,0.0,0.0,0.0,0.0,0.0, 21:53:41.850
, 7.852496, 8.668263, 15.533116, 14.596297, 11.196228, 7.299565, 10.489654, 9.371881, 0.000, 0.000, 0.000,0.0,0.0,0.0,0.0,0.0, 21:53:41.850
, 7.849888, 8.662959, 15.531443, 14.604654, 11.190803, 7.306622, 10.489331, 9.377666, 0.000, 0.000, 0.000,0.0,0.0,0.0,0.0,0.0, 21:53:41.850
, 7.849528, 8.658925, 15.531380, 14.604962, 11.185977, 7.305449, 10.486688, 9.375520, 0.000, 0.000, 0.000,0.0,0.0,0.0,0.0,0.0, 21:53:41.850
, 7.854293, 8.659180, 15.535801, 14.592944, 11.186228, 7.295753, 10.486506, 9.363988, 0.000, 0.000, 0.000,0.0,0.0,0.0,0.0,0.0, 21:53:41.850
, 7.852684, 8.655309, 15.533812, 14.595466, 11.184649, 7.298944, 10.489865, 9.367949, 0.000, 0.000, 0.000,0.0,0.0,0.0,0.0,0.0, 21:53:41.851
, 7.850500, 8.651587, 15.530960, 14.604222, 11.180879, 7.306038, 10.489555, 9.375766, 0.000, 0.000, 0.000,0.0,0.0,0.0,0.0,0.0, 21:53:41.851
, 7.850348, 8.649660, 15.530217, 14.607247, 11.176086, 7.306016, 10.487604, 9.375285, 0.144, 0.256, 0.924,0.0,0.0,0.0,0.0,0.0, 21:53:41.851
, 7.854195, 8.652762, 15.534227, 14.595023, 11.174549, 7.295522, 10.487182, 9.361898, 0.000, 0.000, 0.000,0.0,0.0,0.0,0.0,0.0, 21:53:41.851
, 7.854352, 8.651949, 15.534183, 14.594446, 11.173014, 7.296720, 10.490161, 9.361709, 0.000, 0.000, 0.000,0.0,0.0,0.0,0.0,0.0, 21:53:41.851
, 7.852150, 8.646631, 15.531588, 14.602720, 11.167513, 7.303843, 10.487635, 9.368436, 0.000, 0.000, 0.000,0.0,0.0,0.0,0.0,0.0, 21:53:41.851
, 7.849644, 8.639812, 15.529565, 14.609344, 11.161522, 7.307491, 10.486234, 9.372684, 0.000, 0.000, 0.000,0.0,0.0,0.0,0.0,0.0, 21:53:41.852
, 7.854944, 8.641365, 15.535074, 14.597908, 11.162463, 7.296872, 10.482787, 9.360723, 0.000, 0.000, 0.000,0.0,0.0,0.0,0.0,0.0, 21:53:41.852
, 7.856786, 8.640129, 15.536731, 14.593287, 11.162783, 7.292887, 10.482222, 9.355910, 0.000, 0.000, 0.000,0.0,0.0,0.0,0.0,0.0, 21:53:41.852
, 7.853922, 8.634568, 15.534379, 14.601655, 11.157970, 7.300775, 10.482709, 9.363494, 0.000, 0.000, 0.000,0.0,0.0,0.0,0.0,0.0, 21:53:41.852
, 7.851897, 8.629087, 15.532587, 14.609668, 11.150540, 7.306700, 10.479988, 9.369154, 0.000, 0.000, 0.000,0.0,0.0,0.0,0.0,0.0, 21:53:41.852
, 7.855885, 8.630739, 15.536222, 14.601055, 11.148822, 7.297938, 10.476428, 9.358434, 0.000, 0.000, 0.000,0.0,0.0,0.0,0.0,0.0, 21:53:42.302
, 7.859798, 8.633589, 15.539873, 14.592957, 11.151280, 7.292511, 10.479399, 9.350727, 0.122, 0.258, 0.928,0.0,0.0,0.0,0.0,0.0, 21:53:42.302
, 7.856155, 8.629492, 15.536275, 14.600553, 11.144969, 7.300815, 10.479206, 9.358883, 0.000, 0.000, 0.000,0.0,0.0,0.0,0.0,0.0, 21:53:42.303
, 7.852344, 8.627554, 15.532517, 14.608845, 11.137961, 7.306870, 10.475806, 9.364089, 0.000, 0.000, 0.000,0.0,0.0,0.0,0.0,0.0, 21:53:42.303
, 7.854101, 8.636817, 15.533928, 14.603635, 11.135511, 7.300404, 10.471633, 9.355268, 0.000, 0.000, 0.000,0.0,0.0,0.0,0.0,0.0, 21:53:42.303
, 7.857418, 8.643524, 15.536651, 14.593925, 11.135152, 7.293477, 10.472431, 9.345709, 0.000, 0.000, 0.000,0.0,0.0,0.0,0.0,0.0, 21:53:42.303
, 7.855044, 8.640884, 15.534512, 14.598731, 11.130205, 7.300373, 10.475518, 9.351840, 0.000, 0.000, 0.000,0.0,0.0,0.0,0.0,0.0, 21:53:42.303
, 7.850462, 8.633386, 15.530170, 14.607853, 11.123598, 7.307525, 10.474858, 9.358235, 0.000, 0.000, 0.000,0.0,0.0,0.0,0.0,0.0, 21:53:42.303
, 7.851689, 8.630243, 15.531212, 14.605557, 11.121128, 7.305661, 10.472007, 9.354679, 0.000, 0.000, 0.000,0.0,0.0,0.0,0.0,0.0, 21:53:42.303
, 7.856980, 8.633482, 15.536266, 14.593375, 11.122849, 7.294921, 10.472529, 9.340988, 0.000, 0.000, 0.000,0.0,0.0,0.0,0.0,0.0, 21:53:42.304
, 7.857150, 8.632684, 15.537035, 14.597345, 11.122520, 7.299456, 10.477250, 9.344004, 0.086, 0.278, 0.936,0.0,0.0,0.0,0.0,0.0, 21:53:42.304
, 7.853341, 8.627662, 15.533241, 14.608204, 11.115230, 7.308799, 10.476021, 9.353367, 0.000, 0.000, 0.000,0.0,0.0,0.0,0.0,0.0, 21:53:42.304
, 7.852704, 8.626406, 15.532770, 14.609931, 11.108620, 7.307176, 10.471182, 9.351133, 0.000, 0.000, 0.000,0.0,0.0,0.0,0.0,0.0, 21:53:42.304
, 7.859204, 8.632532, 15.539802, 14.596970, 11.110719, 7.296847, 10.473229, 9.338152, 0.000, 0.000, 0.000,0.0,0.0,0.0,0.0,0.0, 21:53:42.304
, 7.859018, 8.632812, 15.539822, 14.598042, 11.110078, 7.299765, 10.474617, 9.340557, 0.000, 0.000, 0.000,0.0,0.0,0.0,0.0,0.0, 21:53:42.304
, 7.854716, 8.629720, 15.535582, 14.607658, 11.102630, 7.308654, 10.469331, 9.349902, 0.000, 0.000, 0.000,0.0,0.0,0.0,0.0,0.0, 21:53:42.305
, 7.853511, 8.629832, 15.533908, 14.611458, 11.098370, 7.310169, 10.465880, 9.351022, 0.000, 0.000, 0.000,0.0,0.0,0.0,0.0,0.0, 21:53:42.305
, 7.858138, 8.634939, 15.538032, 14.600108, 11.099324, 7.300940, 10.464796, 9.339281, 0.000, 0.000, 0.000,0.0,0.0,0.0,0.0,0.0, 21:53:42.305
, 7.857521, 8.635641, 15.537589, 14.599453, 11.098260, 7.302201, 10.468750, 9.339082, 0.000, 0.000, 0.000,0.0,0.0,0.0,0.0,0.0, 21:53:42.305
, 7.853120, 8.632689, 15.533544, 14.607326, 11.092162, 7.310330, 10.469291, 9.346540, 0.000, 0.000, 0.000,0.0,0.0,0.0,0.0,0.0, 21:53:42.305
, 7.850704, 8.631855, 15.530580, 14.612305, 11.086056, 7.315572, 10.467275, 9.350559, 0.064, 0.310, 0.954,0.0,0.0,0.0,0.0,0.0, 21:53:42.305
, 7.854461, 8.636428, 15.533510, 14.601331, 11.086731, 7.306711, 10.464798, 9.339025, 0.000, 0.000, 0.000,0.0,0.0,0.0,0.0,0.0, 21:53:42.305
, 7.855295, 8.637877, 15.534096, 14.597359, 11.087900, 7.305761, 10.466964, 9.335792, 0.000, 0.000, 0.000,0.0,0.0,0.0,0.0,0.0, 21:53:42.306
, 7.853971, 8.637657, 15.532725, 14.602735, 11.084557, 7.313113, 10.468307, 9.341570, 0.000, 0.000, 0.000,0.0,0.0,0.0,0.0,0.0, 21:53:42.306
, 7.850824, 8.635091, 15.529144, 14.610220, 11.076501, 7.318267, 10.464550, 9.346161, 0.000, 0.000, 0.000,0.0,0.0,0.0,0.0,0.0, 21:53:42.306
, 7.853822, 8.637203, 15.531939, 14.603422, 11.074831, 7.311421, 10.461917, 9.337557, 0.000, 0.000, 0.000,0.0,0.0,0.0,0.0,0.0, 21:53:42.306
, 7.857065, 8.639756, 15.535124, 14.595720, 11.077053, 7.305024, 10.464049, 9.329062, 0.000, 0.000, 0.000,0.0,0.0,0.0,0.0,0.0, 21:53:42.307
, 7.855854, 8.638607, 15.534719, 14.601722, 11.073805, 7.312185, 10.465140, 9.334649, 0.000, 0.000, 0.000,0.0,0.0,0.0,0.0,0.0, 21:53:42.307
, 7.852630, 8.636077, 15.532198, 14.610832, 11.067138, 7.320017, 10.460496, 9.342425, 0.000, 0.000, 0.000,0.0,0.0,0.0,0.0,0.0, 21:53:42.307
, 7.855055, 8.638773, 15.535144, 14.607622, 11.064676, 7.315965, 10.458010, 9.337816, 0.044, 0.320, 0.950,0.0,0.0,0.0,0.0,0.0, 21:53:42.307
, 7.859488, 8.644161, 15.539494, 14.598105, 11.065289, 7.308207, 10.457547, 9.328095, 0.000, 0.000, 0.000,0.0,0.0,0.0,0.0,0.0, 21:53:42.307
, 7.857543, 8.643943, 15.537609, 14.601840, 11.061326, 7.313039, 10.457710, 9.333058, 0.000, 0.000, 0.000,0.0,0.0,0.0,0.0,0.0, 21:53:42.307
, 7.852635, 8.640505, 15.532557, 14.610709, 11.054802, 7.320674, 10.454307, 9.342217, 0.000, 0.000, 0.000,0.0,0.0,0.0,0.0,0.0, 21:53:42.307
, 7.852561, 8.646115, 15.532397, 14.609488, 11.052495, 7.317738, 10.449639, 9.339238, 0.000, 0.000, 0.000,0.0,0.0,0.0,0.0,0.0, 21:53:42.308
, 7.857103, 8.652485, 15.536912, 14.596744, 11.054935, 7.306108, 10.450965, 9.325615, 0.000, 0.000, 0.000,0.0,0.0,0.0,0.0,0.0, 21:53:42.308
, 7.855791, 8.651068, 15.535109, 14.599839, 11.050923, 7.310140, 10.453500, 9.328907, 0.000, 0.000, 0.000,0.0,0.0,0.0,0.0,0.0, 21:53:42.308
, 7.852709, 8.648357, 15.532108, 14.608454, 11.045421, 7.319488, 10.453079, 9.337801, 0.000, 0.000, 0.000,0.0,0.0,0.0,0.0,0.0, 21:53:42.308
, 7.852622, 8.649260, 15.532376, 14.609531, 11.043749, 7.319597, 10.450135, 9.337588, 0.000, 0.000, 0.000,0.0,0.0,0.0,0.0,0.0, 21:53:42.309
, 7.856971, 8.653607, 15.536576, 14.598751, 11.045208, 7.309188, 10.449333, 9.325416, 0.000, 0.000, 0.000,0.0,0.0,0.0,0.0,0.0, 21:53:42.309
, 7.856240, 8.653621, 15.536409, 14.600499, 11.043375, 7.310672, 10.453888, 9.326324, 0.016, 0.324, 0.944,0.0,0.0,0.0,0.0,0.0, 21:53:42.309
, 7.853670, 8.651598, 15.534031, 14.609049, 11.036690, 7.319734, 10.456137, 9.334980, 0.000, 0.000, 0.000,0.0,0.0,0.0,0.0,0.0, 21:53:42.309
, 7.851643, 8.648028, 15.531767, 14.614279, 11.030514, 7.323301, 10.455585, 9.337931, 0.000, 0.000, 0.000,0.0,0.0,0.0,0.0,0.0, 21:53:42.310
, 7.855786, 8.649542, 15.536427, 14.603807, 11.032747, 7.312547, 10.454581, 9.325018, 0.000, 0.000, 0.000,0.0,0.0,0.0,0.0,0.0, 21:53:42.310
, 7.856765, 8.647243, 15.537457, 14.601168, 11.034376, 7.311045, 10.459566, 9.321518, 0.000, 0.000, 0.000,0.0,0.0,0.0,0.0,0.0, 21:53:42.310
, 7.854998, 8.642018, 15.535789, 14.608845, 11.030487, 7.320560, 10.463359, 9.330492, 0.000, 0.000, 0.000,0.0,0.0,0.0,0.0,0.0, 21:53:42.310
, 7.852943, 8.638276, 15.533630, 14.614223, 11.023855, 7.325693, 10.462686, 9.334868, 0.000, 0.000, 0.000,0.0,0.0,0.0,0.0,0.0, 21:53:42.310
, 7.854975, 8.637606, 15.535696, 14.604661, 11.019309, 7.315690, 10.458938, 9.322104, 0.000, 0.000, 0.000,0.0,0.0,0.0,0.0,0.0, 21:53:42.311
, 7.855268, 8.630619, 15.537032, 14.599540, 11.019642, 7.312858, 10.463978, 9.317210, 0.000, 0.000, 0.000,0.0,0.0,0.0,0.0,0.0, 21:53:42.311
, 7.853831, 8.624588, 15.535439, 14.605709, 11.018196, 7.321258, 10.466188, 9.325234, -0.016, 0.342, 0.932,0.0,0.0,0.0,0.0,0.0, 21:53:42.311
, 7.852602, 8.621712, 15.533640, 14.611527, 11.012512, 7.327972, 10.462456, 9.331853, 0.000, 0.000, 0.000,0.0,0.0,0.0,0.0,0.0, 21:53:42.312
, 7.856687, 8.624270, 15.537022, 14.604380, 11.010751, 7.321016, 10.460714, 9.323936, 0.000, 0.000, 0.000,0.0,0.0,0.0,0.0,0.0, 21:53:42.312
, 7.858922, 8.625491, 15.539364, 14.597976, 11.011127, 7.314356, 10.462892, 9.315932, 0.000, 0.000, 0.000,0.0,0.0,0.0,0.0,0.0, 21:53:42.312
, 7.856855, 8.622434, 15.537406, 14.604511, 11.007733, 7.321490, 10.463878, 9.321964, 0.000, 0.000, 0.000,0.0,0.0,0.0,0.0,0.0, 21:53:42.312
, 7.855831, 8.620641, 15.536007, 14.611123, 11.005353, 7.329430, 10.462682, 9.327660, 0.000, 0.000, 0.000,0.0,0.0,0.0,0.0,0.0, 21:53:42.313
, 7.857031, 8.624117, 15.537171, 14.608309, 11.003140, 7.325004, 10.459626, 9.320570, 0.000, 0.000, 0.000,0.0,0.0,0.0,0.0,0.0, 21:53:42.313
, 7.859866, 8.629948, 15.540468, 14.599348, 11.002905, 7.316845, 10.460839, 9.309618, 0.000, 0.000, 0.000,0.0,0.0,0.0,0.0,0.0, 21:53:42.313
, 7.856897, 8.627722, 15.538548, 14.605012, 10.999021, 7.323032, 10.463861, 9.315217, 0.000, 0.000, 0.000,0.0,0.0,0.0,0.0,0.0, 21:53:42.313
, 7.854501, 8.624219, 15.535839, 14.612502, 10.992485, 7.331122, 10.465247, 9.321862, 0.000, 0.000, 0.000,0.0,0.0,0.0,0.0,0.0, 21:53:42.314
, 7.855373, 8.623898, 15.536416, 14.611569, 10.989373, 7.329550, 10.462938, 9.318988, -0.020, 0.354, 0.936,0.0,0.0,0.0,0.0,0.0, 21:53:42.314
, 7.859117, 8.626318, 15.540146, 14.602410, 10.990366, 7.320610, 10.462284, 9.307950, 0.000, 0.000, 0.000,0.0,0.0,0.0,0.0,0.0, 21:53:42.314
, 7.858384, 8.624273, 15.539974, 14.606509, 10.990502, 7.326325, 10.467005, 9.312445, 0.000, 0.000, 0.000,0.0,0.0,0.0,0.0,0.0, 21:53:42.315
, 7.855438, 8.621452, 15.537772, 14.613048, 10.987227, 7.335219, 10.467125, 9.319993, 0.000, 0.000, 0.000,0.0,0.0,0.0,0.0,0.0, 21:53:42.315
, 7.854856, 8.621584, 15.537238, 14.613289, 10.983578, 7.337168, 10.465900, 9.320452, 0.000, 0.000, 0.000,0.0,0.0,0.0,0.0,0.0, 21:53:42.315
, 7.858987, 8.625017, 15.540774, 14.602946, 10.985160, 7.328032, 10.466792, 9.310024, 0.000, 0.000, 0.000,0.0,0.0,0.0,0.0,0.0, 21:53:42.315
, 7.858542, 8.623126, 15.539863, 14.603861, 10.982510, 7.329582, 10.468102, 9.311931, 0.000, 0.000, 0.000,0.0,0.0,0.0,0.0,0.0, 21:53:42.316
, 7.855469, 8.618430, 15.537064, 14.610403, 10.977315, 7.336542, 10.467192, 9.319394, 0.000, 0.000, 0.000,0.0,0.0,0.0,0.0,0.0, 21:53:42.316
, 7.853725, 8.613392, 15.535003, 14.615272, 10.974190, 7.339781, 10.465563, 9.323140, 0.000, 0.000, 0.000,0.0,0.0,0.0,0.0,0.0, 21:53:42.316
, 7.859213, 8.611083, 15.540806, 14.605378, 10.974733, 7.331665, 10.463078, 9.312653, 0.000, 0.000, 0.000,0.0,0.0,0.0,0.0,0.0, 21:53:42.316
, 7.859378, 8.608187, 15.540613, 14.603292, 10.971056, 7.330326, 10.463690, 9.309316, -0.054, 0.382, 0.940,0.0,0.0,0.0,0.0,0.0, 21:53:42.317
, 7.857076, 8.606199, 15.538486, 14.609410, 10.963955, 7.338596, 10.464347, 9.316257, 0.000, 0.000, 0.000,0.0,0.0,0.0,0.0,0.0, 21:53:42.317
, 7.856709, 8.606318, 15.537705, 14.614838, 10.959657, 7.343981, 10.462067, 9.319875, 0.000, 0.000, 0.000,0.0,0.0,0.0,0.0,0.0, 21:53:42.317
, 7.860044, 8.608989, 15.541431, 14.608530, 10.959091, 7.335404, 10.458267, 9.309372, 0.000, 0.000, 0.000,0.0,0.0,0.0,0.0,0.0, 21:53:42.317
, 7.861423, 8.607308, 15.542734, 14.604382, 10.960538, 7.330858, 10.460260, 9.303647, 0.000, 0.000, 0.000,0.0,0.0,0.0,0.0,0.0, 21:53:42.318
, 7.857816, 8.601112, 15.539362, 14.611002, 10.955095, 7.336305, 10.461045, 9.310565, 0.000, 0.000, 0.000,0.0,0.0,0.0,0.0,0.0, 21:53:42.318
, 7.855894, 8.597887, 15.537531, 14.616011, 10.947782, 7.340539, 10.456170, 9.315181, 0.000, 0.000, 0.000,0.0,0.0,0.0,0.0,0.0, 21:53:42.318
, 7.858846, 8.599975, 15.540588, 14.610602, 10.947111, 7.334816, 10.454445, 9.308068, 0.000, 0.000, 0.000,0.0,0.0,0.0,0.0,0.0, 21:53:42.318
, 7.861647, 8.602219, 15.544168, 14.602904, 10.950090, 7.329456, 10.459917, 9.300094, 0.000, 0.000, 0.000,0.0,0.0,0.0,0.0,0.0, 21:53:42.319
, 7.859582, 8.600101, 15.542726, 14.607462, 10.947587, 7.336415, 10.462995, 9.306124, -0.072, 0.392, 0.940,0.0,0.0,0.0,0.0,0.0, 21:53:42.319
, 7.855945, 8.595540, 15.538852, 14.615327, 10.943069, 7.344267, 10.462132, 9.313802, 0.000, 0.000, 0.000,0.0,0.0,0.0,0.0,0.0, 21:53:42.319
, 7.857765, 8.596394, 15.540683, 14.611567, 10.940742, 7.340943, 10.459977, 9.307047, 0.000, 0.000, 0.000,0.0,0.0,0.0,0.0,0.0, 21:53:42.319
, 7.861602, 8.600151, 15.544364, 14.602095, 10.941463, 7.333916, 10.462168, 9.295125, 0.000, 0.000, 0.000,0.0,0.0,0.0,0.0,0.0, 21:53:42.319
, 7.858026, 8.596329, 15.541483, 14.605220, 10.938106, 7.339877, 10.465152, 9.297503, 0.000, 0.000, 0.000,0.0,0.0,0.0,0.0,0.0, 21:53:42.319
, 7.854385, 8.591807, 15.537694, 14.613378, 10.933270, 7.350257, 10.465674, 9.306661, 0.000, 0.000, 0.000,0.0,0.0,0.0,0.0,0.0, 21:53:42.320
, 7.854307, 8.591778, 15.537142, 14.614142, 10.927864, 7.350778, 10.463279, 9.305981, 0.000, 0.000, 0.000,0.0,0.0,0.0,0.0,0.0, 21:53:42.320
, 7.859483, 8.596334, 15.542388, 14.604305, 10.930582, 7.342555, 10.465212, 9.294450, 0.000, 0.000, 0.000,0.0,0.0,0.0,0.0,0.0, 21:53:42.320
, 7.859881, 8.595931, 15.542786, 14.606416, 10.930913, 7.346833, 10.468853, 9.296600, 0.000, 0.000, 0.000,0.0,0.0,0.0,0.0,0.0, 21:53:42.320
, 7.857302, 8.593070, 15.540535, 14.614223, 10.927385, 7.355972, 10.470891, 9.305827, 0.000, 0.000, 0.000,0.0,0.0,0.0,0.0,0.0, 21:53:42.320
, 7.855127, 8.589409, 15.538412, 14.616478, 10.922235, 7.357018, 10.465413, 9.307503, -0.082, 0.382, 0.936,0.0,0.0,0.0,0.0,0.0, 21:53:42.320
, 7.859960, 8.591355, 15.543081, 14.605939, 10.923141, 7.345610, 10.462833, 9.294036, 0.000, 0.000, 0.000,0.0,0.0,0.0,0.0,0.0, 21:53:42.321
, 7.858395, 8.587240, 15.542478, 14.606451, 10.921657, 7.346721, 10.466463, 9.293515, 0.000, 0.000, 0.000,0.0,0.0,0.0,0.0,0.0, 21:53:42.321
, 7.853578, 8.580667, 15.538584, 14.612173, 10.914940, 7.353959, 10.465075, 9.299926, 0.000, 0.000, 0.000,0.0,0.0,0.0,0.0,0.0, 21:53:42.321
, 7.852414, 8.578903, 15.537627, 14.615864, 10.910396, 7.358382, 10.463386, 9.302787, 0.000, 0.000, 0.000,0.0,0.0,0.0,0.0,0.0, 21:53:42.321
, 7.855246, 8.580551, 15.540345, 14.607306, 10.908699, 7.349059, 10.459402, 9.291341, 0.000, 0.000, 0.000,0.0,0.0,0.0,0.0,0.0, 21:53:42.322
, 7.854573, 8.578602, 15.540155, 14.604723, 10.910204, 7.346026, 10.460095, 9.286897, 0.000, 0.000, 0.000,0.0,0.0,0.0,0.0,0.0, 21:53:42.322
, 7.852557, 8.576306, 15.538445, 14.610188, 10.908053, 7.352273, 10.461689, 9.292903, 0.000, 0.000, 0.000,0.0,0.0,0.0,0.0,0.0, 21:53:42.322
, 7.851745, 8.574616, 15.537030, 14.613776, 10.903811, 7.357103, 10.463493, 9.297474, 0.000, 0.000, 0.000,0.0,0.0,0.0,0.0,0.0, 21:53:42.323
, 7.855831, 8.577719, 15.540751, 14.607857, 10.902351, 7.350809, 10.461801, 9.290563, -0.092, 0.376, 0.906,0.0,0.0,0.0,0.0,0.0, 21:53:42.323
, 7.858518, 8.581724, 15.543662, 14.603148, 10.903098, 7.345827, 10.464499, 9.284119, 0.000, 0.000, 0.000,0.0,0.0,0.0,0.0,0.0, 21:53:42.323
, 7.853095, 8.576228, 15.540410, 14.609097, 10.899178, 7.353771, 10.467257, 9.291986, 0.000, 0.000, 0.000,0.0,0.0,0.0,0.0,0.0, 21:53:42.323
, 7.848679, 8.569987, 15.536498, 14.615445, 10.895297, 7.359658, 10.466745, 9.298853, 0.000, 0.000, 0.000,0.0,0.0,0.0,0.0,0.0, 21:53:42.323
, 7.851692, 8.570395, 15.538139, 14.609287, 10.892667, 7.352655, 10.461942, 9.290303, 0.000, 0.000, 0.000,0.0,0.0,0.0,0.0,0.0, 21:53:42.323
, 7.853650, 8.571865, 15.540573, 14.601203, 10.895528, 7.346587, 10.464380, 9.281604, 0.000, 0.000, 0.000,0.0,0.0,0.0,0.0,0.0, 21:53:42.324
, 7.851260, 8.570255, 15.539109, 14.606547, 10.891877, 7.352320, 10.467346, 9.287161, 0.000, 0.000, 0.000,0.0,0.0,0.0,0.0,0.0, 21:53:42.324
, 7.847541, 8.567866, 15.536014, 14.613914, 10.884124, 7.359580, 10.466130, 9.294345, 0.000, 0.000, 0.000,0.0,0.0,0.0,0.0,0.0, 21:53:42.324
, 7.847959, 8.568628, 15.536907, 14.611176, 10.878630, 7.356600, 10.462695, 9.290451, 0.000, 0.000, 0.000,0.0,0.0,0.0,0.0,0.0, 21:53:42.324
, 7.853019, 8.573347, 15.541736, 14.602868, 10.882112, 7.349381, 10.463573, 9.280670, 0.000, 0.000, 0.000,0.0,0.0,0.0,0.0,0.0, 21:53:42.324
, 7.852103, 8.574134, 15.541947, 14.608231, 10.885481, 7.354676, 10.468053, 9.285844, -0.104, 0.394, 0.922,0.0,0.0,0.0,0.0,0.0, 21:53:42.324
, 7.847501, 8.571586, 15.537097, 14.614420, 10.877575, 7.362249, 10.466571, 9.293678, 0.000, 0.000, 0.000,0.0,0.0,0.0,0.0,0.0, 21:53:42.325
, 7.848243, 8.571975, 15.537875, 14.614545, 10.870735, 7.362119, 10.465453, 9.292523, 0.000, 0.000, 0.000,0.0,0.0,0.0,0.0,0.0, 21:53:42.325
, 7.852798, 8.577782, 15.542619, 14.605762, 10.868154, 7.353248, 10.463625, 9.280534, 0.000, 0.000, 0.000,0.0,0.0,0.0,0.0,0.0, 21:53:42.325
, 7.854273, 8.581355, 15.544679, 14.611241, 10.867292, 7.358516, 10.467221, 9.284508, 0.000, 0.000, 0.000,0.0,0.0,0.0,0.0,0.0, 21:53:42.325
, 7.849827, 8.577189, 15.541664, 14.618139, 10.862843, 7.365295, 10.467201, 9.290684, 0.000, 0.000, 0.000,0.0,0.0,0.0,0.0,0.0, 21:53:42.325
, 7.848395, 8.575480, 15.540200, 14.620687, 10.861933, 7.368237, 10.465107, 9.291720, 0.000, 0.000, 0.000,0.0,0.0,0.0,0.0,0.0, 21:53:42.325
, 7.850641, 8.578790, 15.542679, 14.613193, 10.858667, 7.359053, 10.462275, 9.279917, 0.000, 0.000, 0.000,0.0,0.0,0.0,0.0,0.0, 21:53:42.326
, 7.848985, 8.581223, 15.542010, 14.611747, 10.857789, 7.357137, 10.462422, 9.275391, 0.000, 0.000, 0.000,0.0,0.0,0.0,0.0,0.0, 21:53:42.326
, 7.845422, 8.580711, 15.540179, 14.618514, 10.851971, 7.365660, 10.463169, 9.282813, 0.000, 0.000, 0.000,0.0,0.0,0.0,0.0,0.0, 21:53:42.326
, 7.845109, 8.567634, 15.539831, 14.624375, 10.846640, 7.371227, 10.461937, 9.287252, -0.122, 0.374, 0.944,0.0,0.0,0.0,0.0,0.0, 21:53:42.326
, 7.846236, 8.550908, 15.541250, 14.616491, 10.846066, 7.363212, 10.460862, 9.276076, 0.000, 0.000, 0.000,0.0,0.0,0.0,0.0,0.0, 21:53:42.327
, 7.845221, 8.548610, 15.541764, 14.614710, 10.849765, 7.361806, 10.463490, 9.271879, 0.000, 0.000, 0.000,0.0,0.0,0.0,0.0,0.0, 21:53:42.327
, 7.842241, 8.548932, 15.540350, 14.623787, 10.844277, 7.369126, 10.463472, 9.279213, 0.000, 0.000, 0.000,0.0,0.0,0.0,0.0,0.0, 21:53:42.327
, 7.840733, 8.549511, 15.538738, 14.630374, 10.833835, 7.375101, 10.457496, 9.284718, 0.000, 0.000, 0.000,33.996567,77.60582,25.137949,33.275635,9.933916, 21:53:42.783
, 7.842610, 8.551317, 15.539748, 14.625216, 10.839532, 7.369873, 10.459664, 9.277628, 0.000, 0.000, 0.000,33.996567,77.60582,25.137949,33.275635,9.933916, 21:53:42.783
, 7.844168, 8.553022, 15.541362, 14.620191, 10.844968, 7.366015, 10.463118, 9.270956, 0.000, 0.000, 0.000,33.996567,77.60582,25.137949,33.275635,9.933916, 21:53:42.783
, 7.840950, 8.550157, 15.538512, 14.627468, 10.844628, 7.375161, 10.465623, 9.278625, 0.000, 0.000, 0.000,33.996567,77.60582,25.137949,33.275635,9.933916, 21:53:42.783
, 7.836870, 8.548038, 15.535255, 14.635036, 10.843890, 7.382904, 10.465491, 9.286730, 0.000, 0.000, 0.000,33.996567,77.60582,25.137949,33.275635,9.933916, 21:53:42.784
, 7.839183, 8.551545, 15.537336, 14.632523, 10.843050, 7.378394, 10.460920, 9.280471, -0.172, 0.334, 0.940,33.996567,77.60582,25.137949,33.275635,9.933916, 21:53:42.784
, 7.843683, 8.561614, 15.541661, 14.627433, 10.846360, 7.371994, 10.461483, 9.270670, 0.000, 0.000, 0.000,33.996567,77.60582,25.137949,33.275635,9.933916, 21:53:42.785
, 7.842261, 8.572083, 15.540673, 14.635055, 10.843338, 7.379790, 10.461553, 9.276711, 0.000, 0.000, 0.000,33.996567,77.60582,25.137949,33.275635,9.933916, 21:53:42.785
, 7.837391, 8.572263, 15.537060, 14.643794, 10.840694, 7.388070, 10.457386, 9.285234, 0.000, 0.000, 0.000,33.996567,77.60582,25.137949,33.275635,9.933916, 21:53:42.785
, 7.838113, 8.576340, 15.538803, 14.643964, 10.841846, 7.385398, 10.452730, 9.282067, 0.000, 0.000, 0.000,33.996567,77.60582,25.137949,33.275635,9.933916, 21:53:42.785
, 7.842532, 8.583354, 15.543930, 14.636664, 10.842735, 7.377113, 10.452643, 9.272039, 0.000, 0.000, 0.000,33.996567,77.60582,25.137949,33.275635,9.933916, 21:53:42.785
, 7.840075, 8.582546, 15.541335, 14.642017, 10.843962, 7.382227, 10.456765, 9.276794, 0.000, 0.000, 0.000,33.996567,77.60582,25.137949,33.275635,9.933916, 21:53:42.786
, 7.837744, 8.581759, 15.538729, 14.649445, 10.841054, 7.390617, 10.456519, 9.284476, 0.000, 0.000, 0.000,33.996567,77.60582,25.137949,33.275635,9.933916, 21:53:42.786
, 7.837245, 8.583403, 15.538901, 14.651199, 10.841716, 7.391389, 10.452366, 9.283137, 0.000, 0.000, 0.000,33.996567,77.60582,25.137949,33.275635,9.933916, 21:53:42.786
, 7.840228, 8.588419, 15.541965, 14.642719, 10.846580, 7.383020, 10.452008, 9.270831, 0.000, 0.000, 0.000,33.996567,77.60582,25.137949,33.275635,9.933916, 21:53:42.786
, 7.838893, 8.587867, 15.541067, 14.644185, 10.847451, 7.385785, 10.457105, 9.271457, -0.170, 0.332, 0.948,33.996567,77.60582,25.137949,33.275635,9.933916, 21:53:42.786
, 7.830544, 8.580001, 15.534272, 14.648316, 10.838652, 7.392759, 10.452125, 9.278030, 0.000, 0.000, 0.000,33.996567,77.60582,25.137949,33.275635,9.933916, 21:53:42.786
, 7.832277, 8.583506, 15.534538, 14.648325, 10.841850, 7.395028, 10.448229, 9.278155, 0.000, 0.000, 0.000,33.996567,77.60582,25.137949,33.275635,9.933916, 21:53:42.787
, 7.837395, 8.594281, 15.539089, 14.638899, 10.847954, 7.386896, 10.449065, 9.267104, 0.000, 0.000, 0.000,33.996567,77.60582,25.137949,33.275635,9.933916, 21:53:42.787
, 7.836718, 8.597956, 15.538092, 14.638271, 10.847315, 7.385052, 10.452449, 9.263967, 0.000, 0.000, 0.000,33.996567,77.60582,25.137949,33.275635,9.933916, 21:53:42.787
, 7.833658, 8.596034, 15.535280, 14.646668, 10.848245, 7.392741, 10.455075, 9.272603, 0.000, 0.000, 0.000,33.996567,77.60582,25.137949,33.275635,9.933916, 21:53:42.787
, 7.830388, 8.593616, 15.533259, 14.650010, 10.844219, 7.396966, 10.452304, 9.277071, 0.000, 0.000, 0.000,33.996567,77.60582,25.137949,33.275635,9.933916, 21:53:42.787
, 7.834157, 8.598709, 15.537752, 14.640840, 10.847876, 7.388827, 10.447923, 9.266197, 0.000, 0.000, 0.000,33.996567,77.60582,25.137949,33.275635,9.933916, 21:53:42.788
, 7.834646, 8.599885, 15.539925, 14.638345, 10.853358, 7.386369, 10.453214, 9.260958, 0.000, 0.000, 0.000,33.996567,77.60582,25.137949,33.275635,9.933916, 21:53:42.788
, 7.831282, 8.598273, 15.538136, 14.645493, 10.849898, 7.394257, 10.453034, 9.268814, -0.134, 0.354, 0.940,33.996567,77.60582,25.137949,33.275635,9.933916, 21:53:42.788
, 7.828942, 8.597305, 15.535969, 14.651103, 10.843372, 7.398821, 10.449601, 9.273584, 0.000, 0.000, 0.000,33.996567,77.60582,25.137949,33.275635,9.933916, 21:53:42.788
, 7.832807, 8.602663, 15.539246, 14.644178, 10.845683, 7.393335, 10.443946, 9.264872, 0.000, 0.000, 0.000,33.996567,77.60582,25.137949,33.275635,9.933916, 21:53:42.789
, 7.834425, 8.606061, 15.540215, 14.638819, 10.853857, 7.389791, 10.447592, 9.257460, 0.000, 0.000, 0.000,33.996567,77.60582,25.137949,33.275635,9.933916, 21:53:42.789
, 7.830641, 8.603814, 15.537102, 14.644020, 10.856492, 7.397643, 10.449986, 9.263070, 0.000, 0.000, 0.000,33.996567,77.60582,25.137949,33.275635,9.933916, 21:53:42.789
, 7.828222, 8.602037, 15.535861, 14.649715, 10.852228, 7.406409, 10.450243, 9.269807, 0.000, 0.000, 0.000,33.996567,77.60582,25.137949,33.275635,9.933916, 21:53:42.789
, 7.833372, 8.610471, 15.538903, 14.646575, 10.853104, 7.402804, 10.445958, 9.264447, 0.000, 0.000, 0.000,33.996567,77.60582,25.137949,33.275635,9.933916, 21:53:42.789
, 7.834769, 8.622311, 15.539147, 14.636805, 10.859552, 7.393635, 10.446096, 9.252145, 0.000, 0.000, 0.000,33.996567,77.60582,25.137949,33.275635,9.933916, 21:53:42.789
, 7.832047, 8.625538, 15.537115, 14.641512, 10.856919, 7.399806, 10.445373, 9.257583, 0.000, 0.000, 0.000,32.5325,73.8729,24.389137,31.317211,9.011768, 21:53:42.790
, 7.829756, 8.623565, 15.535254, 14.648671, 10.853108, 7.407967, 10.444257, 9.267185, 0.000, 0.000, 0.000,32.5325,73.8729,24.389137,31.317211,9.011768, 21:53:42.790
, 7.827753, 8.620857, 15.533110, 14.646443, 10.854812, 7.406751, 10.442164, 9.266119, -0.108, 0.348, 0.942,32.5325,73.8729,24.389137,31.317211,9.011768, 21:53:42.790
, 7.833971, 8.628352, 15.539429, 14.637104, 10.861459, 7.398324, 10.443352, 9.255385, 0.000, 0.000, 0.000,32.5325,73.8729,24.389137,31.317211,9.011768, 21:53:42.790
, 7.833971, 8.631930, 15.540051, 14.639384, 10.863147, 7.401338, 10.445310, 9.256463, 0.000, 0.000, 0.000,32.5325,73.8729,24.389137,31.317211,9.011768, 21:53:42.791
, 7.830017, 8.628748, 15.535834, 14.647618, 10.860559, 7.410457, 10.443624, 9.265010, 0.000, 0.000, 0.000,32.5325,73.8729,24.389137,31.317211,9.011768, 21:53:42.791
, 7.831074, 8.630819, 15.536199, 14.649286, 10.856133, 7.412031, 10.439185, 9.265100, 0.000, 0.000, 0.000,32.5325,73.8729,24.389137,31.317211,9.011768, 21:53:42.791
, 7.834146, 8.634244, 15.539858, 14.638251, 10.858173, 7.402359, 10.433184, 9.251619, 0.000, 0.000, 0.000,32.5325,73.8729,24.389137,31.317211,9.011768, 21:53:42.792
, 7.832205, 8.632532, 15.538371, 14.637864, 10.861676, 7.401481, 10.432703, 9.248888, 0.000, 0.000, 0.000,32.5325,73.8729,24.389137,31.317211,9.011768, 21:53:42.792
, 7.829496, 8.629725, 15.536451, 14.645113, 10.865254, 7.410555, 10.435491, 9.257571, 0.000, 0.000, 0.000,32.5325,73.8729,24.389137,31.317211,9.011768, 21:53:42.792
, 7.829405, 8.630353, 15.535551, 14.649266, 10.862002, 7.416065, 10.434744, 9.261726, 0.000, 0.000, 0.000,32.5325,73.8729,24.389137,31.317211,9.011768, 21:53:42.792
, 7.832065, 8.634821, 15.538439, 14.640835, 10.857950, 7.410748, 10.426512, 9.252055, -0.096, 0.342, 0.938,32.5325,73.8729,24.389137,31.317211,9.011768, 21:53:42.793
, 7.830462, 8.635360, 15.536836, 14.638331, 10.863093, 7.408968, 10.428434, 9.248309, 0.000, 0.000, 0.000,32.5325,73.8729,24.389137,31.317211,9.011768, 21:53:42.793
, 7.829127, 8.636370, 15.535685, 14.643721, 10.858746, 7.415582, 10.429080, 9.255024, 0.000, 0.000, 0.000,32.5325,73.8729,24.389137,31.317211,9.011768, 21:53:42.793
, 7.829720, 8.637547, 15.537717, 14.649246, 10.858207, 7.422938, 10.427884, 9.261847, 0.000, 0.000, 0.000,32.5325,73.8729,24.389137,31.317211,9.011768, 21:53:42.793
, 7.831702, 8.639369, 15.537296, 14.641099, 10.865705, 7.414916, 10.423760, 9.251157, 0.000, 0.000, 0.000,32.5325,73.8729,24.389137,31.317211,9.011768, 21:53:42.793
, 7.833084, 8.642170, 15.537496, 14.637283, 10.873567, 7.409896, 10.428928, 9.244638, 0.000, 0.000, 0.000,32.5325,73.8729,24.389137,31.317211,9.011768, 21:53:42.794
, 7.832440, 8.643008, 15.537663, 14.644203, 10.873008, 7.416888, 10.431530, 9.252105, 0.000, 0.000, 0.000,32.5325,73.8729,24.389137,31.317211,9.011768, 21:53:42.794
, 7.830115, 8.640779, 15.536315, 14.651054, 10.869195, 7.426070, 10.432357, 9.261047, 0.000, 0.000, 0.000,32.5325,73.8729,24.389137,31.317211,9.011768, 21:53:42.794
, 7.830681, 8.642295, 15.537911, 14.644020, 10.866332, 7.420681, 10.427869, 9.253110, 0.000, 0.000, 0.000,32.5325,73.8729,24.389137,31.317211,9.011768, 21:53:42.794
, 7.833131, 8.645286, 15.539495, 14.635703, 10.869988, 7.413696, 10.425202, 9.242078, 0.000, 0.000, 0.000,32.5325,73.8729,24.389137,31.317211,9.011768, 21:53:42.794
, 7.829977, 8.644620, 15.536375, 14.641914, 10.868540, 7.420308, 10.428960, 9.247822, -0.102, 0.328, 0.938,32.5325,73.8729,24.389137,31.317211,9.011768, 21:53:42.794
, 7.829512, 8.645956, 15.536746, 14.649734, 10.868254, 7.430173, 10.431500, 9.257010, 0.000, 0.000, 0.000,32.5325,73.8729,24.389137,31.317211,9.011768, 21:53:42.795
, 7.831269, 8.647157, 15.537551, 14.649060, 10.866768, 7.427840, 10.426648, 9.254313, 0.000, 0.000, 0.000,32.5325,73.8729,24.389137,31.317211,9.011768, 21:53:42.795
, 7.833967, 8.649667, 15.539697, 14.641168, 10.872936, 7.419498, 10.425815, 9.241912, 0.000, 0.000, 0.000,32.5325,73.8729,24.389137,31.317211,9.011768, 21:53:42.795
, 7.830055, 8.644788, 15.536365, 14.643358, 10.873272, 7.424662, 10.426879, 9.243021, 0.000, 0.000, 0.000,32.5325,73.8729,24.389137,31.317211,9.011768, 21:53:42.795
, 7.826003, 8.639294, 15.533085, 14.649170, 10.869137, 7.434876, 10.425457, 9.252093, 0.000, 0.000, 0.000,32.5325,73.8729,24.389137,31.317211,9.011768, 21:53:42.795
, 7.829329, 8.641651, 15.535137, 14.650218, 10.865353, 7.437787, 10.421031, 9.254337, 0.000, 0.000, 0.000,32.5325,73.8729,24.389137,31.317211,9.011768, 21:53:42.795
, 7.836302, 8.645974, 15.541546, 14.641311, 10.873444, 7.431675, 10.422884, 9.245135, 0.000, 0.000, 0.000,32.5325,73.8729,24.389137,31.317211,9.011768, 21:53:42.796
, 7.836805, 8.640831, 15.541471, 14.645115, 10.878350, 7.435469, 10.428123, 9.248877, 0.000, 0.000, 0.000,32.5325,73.8729,24.389137,31.317211,9.011768, 21:53:42.796
, 7.832596, 8.633969, 15.537556, 14.652237, 10.874743, 7.443110, 10.428401, 9.257348, 0.000, 0.000, 0.000,32.5325,73.8729,24.389137,31.317211,9.011768, 21:53:42.796
, 7.828987, 8.631606, 15.533772, 14.653119, 10.869421, 7.443754, 10.424442, 9.257406, -0.108, 0.296, 0.938,32.5325,73.8729,24.389137,31.317211,9.011768, 21:53:42.796
, 7.833399, 8.639467, 15.537175, 14.642013, 10.873741, 7.433971, 10.420564, 9.244181, 0.000, 0.000, 0.000,32.5325,73.8729,24.389137,31.317211,9.011768, 21:53:42.797
, 7.833200, 8.640227, 15.537138, 14.642413, 10.876591, 7.434670, 10.422788, 9.242745, 0.000, 0.000, 0.000,32.5325,73.8729,24.389137,31.317211,9.011768, 21:53:42.797
, 7.832684, 8.639803, 15.537169, 14.649950, 10.873650, 7.444624, 10.422511, 9.251533, 0.000, 0.000, 0.000,32.5325,73.8729,24.389137,31.317211,9.011768, 21:53:42.797
, 7.833692, 8.638245, 15.537855, 14.655343, 10.875842, 7.452177, 10.421959, 9.257091, 0.000, 0.000, 0.000,32.5325,73.8729,24.389137,31.317211,9.011768, 21:53:42.798
, 7.836959, 8.638507, 15.539948, 14.647145, 10.877309, 7.444975, 10.416127, 9.245490, 0.000, 0.000, 0.000,32.5325,73.8729,24.389137,31.317211,9.011768, 21:53:42.798
, 7.836481, 8.637727, 15.539384, 14.644373, 10.874982, 7.442387, 10.415613, 9.240696, 0.000, 0.000, 0.000,32.5325,73.8729,24.389137,31.317211,9.011768, 21:53:42.798
, 7.831953, 8.633759, 15.535852, 14.647889, 10.870431, 7.448245, 10.417212, 9.247782, 0.000, 0.000, 0.000,32.5325,73.8729,24.389137,31.317211,9.011768, 21:53:42.798
, 7.830969, 8.631620, 15.534116, 14.654409, 10.873167, 7.455554, 10.420056, 9.256812, 0.000, 0.000, 0.000,32.5325,73.8729,24.389137,31.317211,9.011768, 21:53:42.798
, 7.832775, 8.631812, 15.535593, 14.646861, 10.873829, 7.448768, 10.413732, 9.249084, -0.104, 0.284, 0.948,32.5325,73.8729,24.389137,31.317211,9.011768, 21:53:42.799
, 7.833672, 8.632856, 15.536925, 14.641872, 10.876551, 7.444195, 10.413832, 9.243385, 0.000, 0.000, 0.000,32.5325,73.8729,24.389137,31.317211,9.011768, 21:53:42.799
, 7.832315, 8.631070, 15.536080, 14.646128, 10.878222, 7.450934, 10.415738, 9.249583, 0.000, 0.000, 0.000,32.5325,73.8729,24.389137,31.317211,9.011768, 21:53:42.799
, 7.831081, 8.628851, 15.534554, 14.651760, 10.877237, 7.459745, 10.415149, 9.258303, 0.000, 0.000, 0.000,32.5325,73.8729,24.389137,31.317211,9.011768, 21:53:42.799
, 7.833131, 8.629738, 15.536465, 14.647896, 10.875277, 7.456059, 10.410021, 9.253819, 0.000, 0.000, 0.000,32.5325,73.8729,24.389137,31.317211,9.011768, 21:53:42.800
, 7.835659, 8.631017, 15.538119, 14.640276, 10.877810, 7.450570, 10.410094, 9.245589, 0.000, 0.000, 0.000,32.5325,73.8729,24.389137,31.317211,9.011768, 21:53:42.800
, 7.834143, 8.627321, 15.537050, 14.645620, 10.881554, 7.457617, 10.413489, 9.253371, 0.000, 0.000, 0.000,32.5325,73.8729,24.389137,31.317211,9.011768, 21:53:42.800
, 7.832053, 8.624957, 15.535146, 14.649055, 10.877206, 7.463487, 10.409455, 9.260538, 0.000, 0.000, 0.000,32.5325,73.8729,24.389137,31.317211,9.011768, 21:53:42.800
, 7.834329, 8.627630, 15.537506, 14.645741, 10.873947, 7.462939, 10.407719, 9.258195, 0.000, 0.000, 0.000,32.5325,73.8729,24.389137,31.317211,9.011768, 21:53:42.800
, 7.839570, 8.632626, 15.541809, 14.638289, 10.883759, 7.456332, 10.409321, 9.248273, 0.000, 0.000, 0.000,32.5325,73.8729,24.389137,31.317211,9.011768, 21:53:42.801
, 7.837527, 8.630006, 15.540071, 14.642234, 10.887707, 7.462490, 10.412238, 9.253662, -0.086, 0.282, 0.962,32.5325,73.8729,24.389137,31.317211,9.011768, 21:53:42.801
, 7.833519, 8.625194, 15.535666, 14.647326, 10.881484, 7.468558, 10.409735, 9.261043, 0.000, 0.000, 0.000,32.5325,73.8729,24.389137,31.317211,9.011768, 21:53:42.801
, 7.831988, 8.623051, 15.534337, 14.645149, 10.876765, 7.467633, 10.405052, 9.259952, 0.000, 0.000, 0.000,32.5325,73.8729,24.389137,31.317211,9.011768, 21:53:42.801
, 7.835062, 8.625368, 15.537750, 14.633915, 10.877378, 7.458026, 10.400418, 9.248441, 0.000, 0.000, 0.000,32.5325,73.8729,24.389137,31.317211,9.011768, 21:53:42.802
, 7.835084, 8.624568, 15.537513, 14.635895, 10.879292, 7.458826, 10.400984, 9.250743, 0.000, 0.000, 0.000,32.5325,73.8729,24.389137,31.317211,9.011768, 21:53:42.802
, 7.832234, 8.621855, 15.535582, 14.642342, 10.879302, 7.466256, 10.402694, 9.260755, 0.000, 0.000, 0.000,32.5325,73.8729,24.389137,31.317211,9.011768, 21:53:42.802
, 7.831756, 8.620564, 15.535023, 14.645401, 10.880208, 7.468732, 10.399824, 9.264941, 0.000, 0.000, 0.000,32.5325,73.8729,24.389137,31.317211,9.011768, 21:53:42.802
, 7.837016, 8.624586, 15.539540, 14.636606, 10.883046, 7.459336, 10.396811, 9.254659, 0.000, 0.000, 0.000,32.5325,73.8729,24.389137,31.317211,9.011768, 21:53:42.803
, 7.836917, 8.624969, 15.539053, 14.636452, 10.882810, 7.459349, 10.400215, 9.255828, 0.000, 0.000, 0.000,32.5325,73.8729,24.389137,31.317211,9.011768, 21:53:42.803
, 7.836135, 8.623475, 15.536365, 14.641984, 10.882030, 7.465744, 10.398449, 9.265227, -0.068, 0.286, 0.964,32.5325,73.8729,24.389137,31.317211,9.011768, 21:53:42.803
, 7.835885, 8.623236, 15.536295, 14.645229, 10.882896, 7.468529, 10.396605, 9.270823, 0.000, 0.000, 0.000,32.5325,73.8729,24.389137,31.317211,9.011768, 21:53:42.803
, 7.837706, 8.624476, 15.539554, 14.635969, 10.884781, 7.458578, 10.392772, 9.261215, 0.000, 0.000, 0.000,32.5325,73.8729,24.389137,31.317211,9.011768, 21:53:42.804
, 7.837337, 8.622871, 15.538589, 14.631803, 10.885017, 7.453835, 10.391035, 9.257060, 0.000, 0.000, 0.000,32.5325,73.8729,24.389137,31.317211,9.011768, 21:53:42.804
, 7.834883, 8.620145, 15.535808, 14.636094, 10.880771, 7.460107, 10.392363, 9.265326, 0.000, 0.000, 0.000,32.5325,73.8729,24.389137,31.317211,9.011768, 21:53:42.804
, 7.835379, 8.620666, 15.535939, 14.643117, 10.880277, 7.466647, 10.392394, 9.274469, 0.000, 0.000, 0.000,32.5325,73.8729,24.389137,31.317211,9.011768, 21:53:42.804
, 7.838654, 8.623452, 15.538327, 14.638124, 10.880476, 7.461669, 10.389292, 9.269449, 0.000, 0.000, 0.000,32.5325,73.8729,24.389137,31.317211,9.011768, 21:53:42.805
, 7.840842, 8.625022, 15.540222, 14.632080, 10.884560, 7.456142, 10.389055, 9.263048, 0.000, 0.000, 0.000,32.5325,73.8729,24.389137,31.317211,9.011768, 21:53:42.805
, 7.838247, 8.621720, 15.537694, 14.637431, 10.884521, 7.462349, 10.389781, 9.270266, 0.000, 0.000, 0.000,32.5325,73.8729,24.389137,31.317211,9.011768, 21:53:42.805
, 7.834584, 8.617808, 15.533467, 14.643132, 10.879309, 7.468603, 10.384631, 9.278077, 0.000, 0.000, 0.000,32.5325,73.8729,24.389137,31.317211,9.011768, 21:53:42.805
, 7.836068, 8.619801, 15.535052, 14.638208, 10.878625, 7.464396, 10.382166, 9.273596, -0.084, 0.290, 0.960,32.5325,73.8729,24.389137,31.317211,9.011768, 21:53:42.805
, 7.839067, 8.623387, 15.538423, 14.629042, 10.881935, 7.458028, 10.382450, 9.265352, 0.000, 0.000, 0.000,32.5325,73.8729,24.389137,31.317211,9.011768, 21:53:42.806
, 7.837615, 8.621354, 15.537050, 14.633030, 10.882119, 7.463270, 10.383029, 9.271893, 0.000, 0.000, 0.000,32.5325,73.8729,24.389137,31.317211,9.011768, 21:53:42.806
, 7.836546, 8.620135, 15.535640, 14.639143, 10.880811, 7.468866, 10.381536, 9.279968, 0.000, 0.000, 0.000,32.5325,73.8729,24.389137,31.317211,9.011768, 21:53:42.806
, 7.838019, 8.621222, 15.537554, 14.637353, 10.881160, 7.466196, 10.377575, 9.277721, 0.000, 0.000, 0.000,32.5325,73.8729,24.389137,31.317211,9.011768, 21:53:42.806
, 7.838430, 8.621037, 15.537983, 14.627847, 10.881316, 7.457005, 10.374511, 9.267422, 0.000, 0.000, 0.000,32.5325,73.8729,24.389137,31.317211,9.011768, 21:53:42.807
, 7.838381, 8.620276, 15.537393, 14.630450, 10.880060, 7.459982, 10.376469, 9.271096, 0.000, 0.000, 0.000,32.5325,73.8729,24.389137,31.317211,9.011768, 21:53:42.807
, 7.837738, 8.619333, 15.536601, 14.637250, 10.880787, 7.468721, 10.375409, 9.281307, 0.000, 0.000, 0.000,32.5325,73.8729,24.389137,31.317211,9.011768, 21:53:42.807
, 7.836714, 8.617945, 15.535593, 14.638385, 10.878849, 7.469131, 10.371531, 9.282051, 0.000, 0.000, 0.000,32.5325,73.8729,24.389137,31.317211,9.011768, 21:53:42.807
, 7.839814, 8.620769, 15.538754, 14.626561, 10.879313, 7.459944, 10.366961, 9.269326, -0.082, 0.282, 0.958,32.5325,73.8729,24.389137,31.317211,9.011768, 21:53:42.808
, 7.838028, 8.619912, 15.538095, 14.627424, 10.881908, 7.461888, 10.369839, 9.270529, 0.000, 0.000, 0.000,32.5325,73.8729,24.389137,31.317211,9.011768, 21:53:42.808
, 7.834255, 8.616201, 15.535099, 14.634742, 10.875603, 7.467619, 10.366692, 9.278593, 0.000, 0.000, 0.000,32.5325,73.8729,24.389137,31.317211,9.011768, 21:53:42.808
, 7.834604, 8.616399, 15.535142, 14.638491, 10.876819, 7.472208, 10.362764, 9.283325, 0.000, 0.000, 0.000,32.5325,73.8729,24.389137,31.317211,9.011768, 21:53:42.808
, 7.839760, 8.619843, 15.539158, 14.628383, 10.879870, 7.463998, 10.358439, 9.272715, 0.000, 0.000, 0.000,32.5325,73.8729,24.389137,31.317211,9.011768, 21:53:42.808
, 7.841908, 8.621249, 15.540618, 14.628347, 10.883141, 7.464524, 10.361319, 9.272134, 0.000, 0.000, 0.000,32.5325,73.8729,24.389137,31.317211,9.011768, 21:53:42.809
, 7.840659, 8.620759, 15.540133, 14.635837, 10.880671, 7.473739, 10.362244, 9.281452, 0.000, 0.000, 0.000,32.5325,73.8729,24.389137,31.317211,9.011768, 21:53:42.809
, 7.837438, 8.617206, 15.537082, 14.639635, 10.875290, 7.478791, 10.359669, 9.287997, 0.000, 0.000, 0.000,32.5325,73.8729,24.389137,31.317211,9.011768, 21:53:42.810
, 7.839702, 8.618361, 15.539824, 14.630066, 10.875366, 7.470487, 10.353627, 9.278548, 0.000, 0.000, 0.000,32.5325,73.8729,24.389137,31.317211,9.011768, 21:53:42.810
, 7.839074, 8.618097, 15.538673, 14.626393, 10.876900, 7.466531, 10.353885, 9.274393, 0.000, 0.000, 0.000,32.5325,73.8729,24.389137,31.317211,9.011768, 21:53:42.810
, 7.837393, 8.616865, 15.536849, 14.631834, 10.873766, 7.472550, 10.354405, 9.283189, -0.076, 0.264, 0.936,32.5325,73.8729,24.389137,31.317211,9.011768, 21:53:42.810
, 7.835424, 8.614867, 15.534104, 14.637980, 10.872087, 7.477669, 10.349915, 9.292040, 0.000, 0.000, 0.000,28.260166,45.01948,37.114418,28.413488,8.067627, 21:53:43.262
, 7.838638, 8.617038, 15.538012, 14.632654, 10.876144, 7.471705, 10.346050, 9.286953, 0.000, 0.000, 0.000,28.260166,45.01948,37.114418,28.413488,8.067627, 21:53:43.262
, 7.840337, 8.617031, 15.540200, 14.626195, 10.877248, 7.466082, 10.346290, 9.279867, 0.000, 0.000, 0.000,28.260166,45.01948,37.114418,28.413488,8.067627, 21:53:43.263
, 7.838940, 8.615326, 15.537880, 14.631184, 10.876028, 7.471140, 10.346929, 9.286036, 0.000, 0.000, 0.000,28.260166,45.01948,37.114418,28.413488,8.067627, 21:53:43.263
, 7.838289, 8.613585, 15.536874, 14.637877, 10.874646, 7.477714, 10.345994, 9.295027, 0.000, 0.000, 0.000,28.260166,45.01948,37.114418,28.413488,8.067627, 21:53:43.263
, 7.838687, 8.612469, 15.537569, 14.634921, 10.871797, 7.474168, 10.339590, 9.292731, 0.000, 0.000, 0.000,28.260166,45.01948,37.114418,28.413488,8.067627, 21:53:43.263
, 7.841638, 8.613917, 15.541096, 14.625676, 10.877881, 7.465217, 10.339277, 9.282755, 0.000, 0.000, 0.000,28.260166,45.01948,37.114418,28.413488,8.067627, 21:53:43.263
, 7.839262, 8.610649, 15.539474, 14.628857, 10.880163, 7.468934, 10.340813, 9.287595, 0.000, 0.000, 0.000,28.260166,45.01948,37.114418,28.413488,8.067627, 21:53:43.263
, 7.836571, 8.607089, 15.535929, 14.634976, 10.873942, 7.475282, 10.339003, 9.296166, 0.000, 0.000, 0.000,28.260166,45.01948,37.114418,28.413488,8.067627, 21:53:43.264
, 7.834724, 8.605980, 15.534710, 14.633825, 10.864912, 7.473371, 10.335263, 9.294468, -0.076, 0.258, 0.936,28.260166,45.01948,37.114418,28.413488,8.067627, 21:53:43.264
, 7.839043, 8.609293, 15.538479, 14.623776, 10.869139, 7.464633, 10.332675, 9.282660, 0.000, 0.000, 0.000,28.260166,45.01948,37.114418,28.413488,8.067627, 21:53:43.264
, 7.839738, 8.610115, 15.538747, 14.628063, 10.872715, 7.469899, 10.336007, 9.287360, 0.000, 0.000, 0.000,28.260166,45.01948,37.114418,28.413488,8.067627, 21:53:43.264
, 7.837062, 8.608544, 15.536420, 14.638079, 10.874016, 7.479879, 10.336913, 9.299964, 0.000, 0.000, 0.000,28.260166,45.01948,37.114418,28.413488,8.067627, 21:53:43.265
, 7.837936, 8.609308, 15.537538, 14.638166, 10.873882, 7.479812, 10.331361, 9.301381, 0.000, 0.000, 0.000,28.260166,45.01948,37.114418,28.413488,8.067627, 21:53:43.265
, 7.842134, 8.613421, 15.541608, 14.626794, 10.872412, 7.468538, 10.327911, 9.288585, 0.000, 0.000, 0.000,28.260166,45.01948,37.114418,28.413488,8.067627, 21:53:43.265
, 7.840981, 8.612098, 15.540578, 14.627213, 10.869085, 7.469895, 10.330113, 9.289333, 0.000, 0.000, 0.000,28.260166,45.01948,37.114418,28.413488,8.067627, 21:53:43.265
, 7.836553, 8.607556, 15.536326, 14.633059, 10.867818, 7.476017, 10.329387, 9.297682, 0.000, 0.000, 0.000,28.260166,45.01948,37.114418,28.413488,8.067627, 21:53:43.266
, 7.837393, 8.607999, 15.537066, 14.637310, 10.869666, 7.479741, 10.327811, 9.302878, 0.000, 0.000, 0.000,28.260166,45.01948,37.114418,28.413488,8.067627, 21:53:43.266
, 7.840694, 8.611421, 15.540678, 14.628296, 10.870910, 7.470984, 10.324476, 9.292780, -0.060, 0.282, 0.954,28.260166,45.01948,37.114418,28.413488,8.067627, 21:53:43.266
, 7.841410, 8.611790, 15.540546, 14.626530, 10.870952, 7.469466, 10.326007, 9.289970, 0.000, 0.000, 0.000,28.260166,45.01948,37.114418,28.413488,8.067627, 21:53:43.266
, 7.838795, 8.609288, 15.537667, 14.632355, 10.869308, 7.476147, 10.326077, 9.297847, 0.000, 0.000, 0.000,28.260166,45.01948,37.114418,28.413488,8.067627, 21:53:43.267
, 7.836803, 8.607203, 15.535477, 14.637388, 10.868189, 7.481149, 10.323571, 9.304700, 0.000, 0.000, 0.000,28.260166,45.01948,37.114418,28.413488,8.067627, 21:53:43.267
, 7.837981, 8.608691, 15.537012, 14.629923, 10.869242, 7.473621, 10.318553, 9.296151, 0.000, 0.000, 0.000,28.260166,45.01948,37.114418,28.413488,8.067627, 21:53:43.267
, 7.839108, 8.609890, 15.537265, 14.624169, 10.869020, 7.469032, 10.317545, 9.288851, 0.000, 0.000, 0.000,28.260166,45.01948,37.114418,28.413488,8.067627, 21:53:43.267
, 7.839168, 8.610679, 15.537281, 14.628667, 10.866908, 7.476310, 10.319782, 9.295849, 0.000, 0.000, 0.000,28.260166,45.01948,37.114418,28.413488,8.067627, 21:53:43.267
, 7.840303, 8.612181, 15.538349, 14.635309, 10.868220, 7.484725, 10.321526, 9.304703, 0.000, 0.000, 0.000,28.260166,45.01948,37.114418,28.413488,8.067627, 21:53:43.268
, 7.841821, 8.613600, 15.540432, 14.630685, 10.869910, 7.479039, 10.317775, 9.298826, 0.000, 0.000, 0.000,28.260166,45.01948,37.114418,28.413488,8.067627, 21:53:43.268
, 7.843804, 8.614917, 15.542323, 14.624086, 10.872948, 7.472590, 10.318137, 9.291226, 0.000, 0.000, 0.000,28.260166,45.01948,37.114418,28.413488,8.067627, 21:53:43.268
, 7.841816, 8.612534, 15.540667, 14.629427, 10.871821, 7.479698, 10.320200, 9.298718, -0.072, 0.298, 0.958,28.260166,45.01948,37.114418,28.413488,8.067627, 21:53:43.268
, 7.837639, 8.606865, 15.536780, 14.636861, 10.867903, 7.488290, 10.318769, 9.308951, 0.000, 0.000, 0.000,28.260166,45.01948,37.114418,28.413488,8.067627, 21:53:43.269
, 7.838218, 8.604526, 15.537138, 14.633188, 10.868111, 7.484119, 10.314326, 9.304879, 0.000, 0.000, 0.000,28.260166,45.01948,37.114418,28.413488,8.067627, 21:53:43.269
, 7.842116, 8.609438, 15.541403, 14.623441, 10.870504, 7.475237, 10.314158, 9.293549, 0.000, 0.000, 0.000,28.260166,45.01948,37.114418,28.413488,8.067627, 21:53:43.269
, 7.838864, 8.609939, 15.538754, 14.627556, 10.867861, 7.480279, 10.315446, 9.298766, 0.000, 0.000, 0.000,28.260166,45.01948,37.114418,28.413488,8.067627, 21:53:43.269
, 7.838705, 8.609293, 15.537305, 14.633765, 10.867825, 7.488379, 10.315690, 9.308040, 0.000, 0.000, 0.000,28.260166,45.01948,37.114418,28.413488,8.067627, 21:53:43.269
, 7.840938, 8.610118, 15.539550, 14.632847, 10.870581, 7.488476, 10.313558, 9.308211, 0.000, 0.000, 0.000,28.260166,45.01948,37.114418,28.413488,8.067627, 21:53:43.270
, 7.843471, 8.611421, 15.542298, 14.625267, 10.874363, 7.480027, 10.313323, 9.298733, 0.000, 0.000, 0.000,28.260166,45.01948,37.114418,28.413488,8.067627, 21:53:43.270
, 7.843068, 8.609827, 15.541718, 14.626827, 10.872608, 7.482926, 10.314925, 9.300856, 0.000, 0.000, 0.000,28.260166,45.01948,37.114418,28.413488,8.067627, 21:53:43.270
, 7.839264, 8.603912, 15.537540, 14.634002, 10.868486, 7.491558, 10.313707, 9.310986, -0.112, 0.310, 0.962,28.260166,45.01948,37.114418,28.413488,8.067627, 21:53:43.270
, 7.837867, 8.601675, 15.536042, 14.634572, 10.864521, 7.492168, 10.309501, 9.312564, 0.000, 0.000, 0.000,28.260166,45.01948,37.114418,28.413488,8.067627, 21:53:43.271
, 7.840750, 8.605108, 15.539020, 14.624329, 10.867286, 7.482765, 10.305991, 9.301356, 0.000, 0.000, 0.000,28.260166,45.01948,37.114418,28.413488,8.067627, 21:53:43.271
, 7.841408, 8.606588, 15.539976, 14.623667, 10.870444, 7.483981, 10.308741, 9.301910, 0.000, 0.000, 0.000,28.260166,45.01948,37.114418,28.413488,8.067627, 21:53:43.271
, 7.837485, 8.603539, 15.535846, 14.631557, 10.867970, 7.493141, 10.309105, 9.313138, 0.000, 0.000, 0.000,28.260166,45.01948,37.114418,28.413488,8.067627, 21:53:43.271
, 7.836434, 8.602252, 15.534728, 14.635144, 10.866600, 7.496990, 10.306695, 9.318869, 0.000, 0.000, 0.000,28.260166,45.01948,37.114418,28.413488,8.067627, 21:53:43.271
, 7.841208, 8.606320, 15.539411, 14.625151, 10.869220, 7.488181, 10.304230, 9.309472, 0.000, 0.000, 0.000,28.260166,45.01948,37.114418,28.413488,8.067627, 21:53:43.272
, 7.841857, 8.606224, 15.539570, 14.622804, 10.871133, 7.485579, 10.305898, 9.307145, 0.000, 0.000, 0.000,28.260166,45.01948,37.114418,28.413488,8.067627, 21:53:43.272
, 7.839771, 8.604789, 15.537607, 14.629948, 10.870867, 7.493771, 10.307543, 9.317099, 0.000, 0.000, 0.000,28.260166,45.01948,37.114418,28.413488,8.067627, 21:53:43.272
, 7.838120, 8.602967, 15.536371, 14.635756, 10.868897, 7.499643, 10.306327, 9.324625, 0.000, 0.000, 0.000,28.260166,45.01948,37.114418,28.413488,8.067627, 21:53:43.272
, 7.842078, 8.605951, 15.540734, 14.628635, 10.870131, 7.492533, 10.302468, 9.317172, -0.146, 0.330, 0.970,28.260166,45.01948,37.114418,28.413488,8.067627, 21:53:43.272
, 7.842514, 8.607424, 15.541362, 14.622294, 10.872221, 7.486086, 10.302672, 9.309687, 0.000, 0.000, 0.000,28.260166,45.01948,37.114418,28.413488,8.067627, 21:53:43.273
, 7.839161, 8.606671, 15.537270, 14.627779, 10.869899, 7.491525, 10.302438, 9.316719, 0.000, 0.000, 0.000,28.260166,45.01948,37.114418,28.413488,8.067627, 21:53:43.273
, 7.838408, 8.608054, 15.535415, 14.633624, 10.866821, 7.498284, 10.301809, 9.325029, 0.000, 0.000, 0.000,28.260166,45.01948,37.114418,28.413488,8.067627, 21:53:43.273
, 7.840648, 8.612161, 15.537254, 14.628879, 10.866504, 7.493129, 10.296883, 9.320210, 0.000, 0.000, 0.000,28.260166,45.01948,37.114418,28.413488,8.067627, 21:53:43.273
, 7.843555, 8.622936, 15.539637, 14.621711, 10.871133, 7.486375, 10.297864, 9.312942, 0.000, 0.000, 0.000,28.260166,45.01948,37.114418,28.413488,8.067627, 21:53:43.273
, 7.841208, 8.629119, 15.536952, 14.628057, 10.870153, 7.490917, 10.299297, 9.320470, 0.000, 0.000, 0.000,28.260166,45.01948,37.114418,28.413488,8.067627, 21:53:43.273
, 7.839995, 8.629872, 15.535913, 14.633175, 10.869662, 7.497088, 10.298902, 9.328047, 0.000, 0.000, 0.000,28.260166,45.01948,37.114418,28.413488,8.067627, 21:53:43.273
, 7.841738, 8.629912, 15.537461, 14.630214, 10.868525, 7.494598, 10.295030, 9.325006, 0.000, 0.000, 0.000,28.260166,45.01948,37.114418,28.413488,8.067627, 21:53:43.274
, 7.845701, 8.630804, 15.541260, 14.620480, 10.870963, 7.484745, 10.295048, 9.313274, -0.130, 0.354, 0.964,28.260166,45.01948,37.114418,28.413488,8.067627, 21:53:43.274
, 7.843891, 8.626555, 15.539106, 14.624567, 10.870583, 7.488576, 10.298175, 9.317513, 0.000, 0.000, 0.000,28.260166,45.01948,37.114418,28.413488,8.067627, 21:53:43.274
, 7.841873, 8.621607, 15.537080, 14.631608, 10.868428, 7.496645, 10.298133, 9.326652, 0.000, 0.000, 0.000,28.260166,45.01948,37.114418,28.413488,8.067627, 21:53:43.274
, 7.841676, 8.617530, 15.536552, 14.630951, 10.867255, 7.495251, 10.293747, 9.325597, 0.000, 0.000, 0.000,28.260166,45.01948,37.114418,28.413488,8.067627, 21:53:43.274
, 7.847136, 8.621486, 15.541099, 14.619843, 10.870847, 7.485177, 10.290504, 9.313091, 0.000, 0.000, 0.000,28.260166,45.01948,37.114418,28.413488,8.067627, 21:53:43.274
, 7.846508, 8.619391, 15.539829, 14.621548, 10.871390, 7.487635, 10.293474, 9.314886, 0.000, 0.000, 0.000,28.260166,45.01948,37.114418,28.413488,8.067627, 21:53:43.274
, 7.843109, 8.613585, 15.536253, 14.629183, 10.867637, 7.495760, 10.293334, 9.324396, 0.000, 0.000, 0.000,28.260166,45.01948,37.114418,28.413488,8.067627, 21:53:43.274
, 7.844302, 8.613417, 15.536554, 14.630962, 10.866750, 7.497613, 10.290982, 9.326263, 0.000, 0.000, 0.000,28.260166,45.01948,37.114418,28.413488,8.067627, 21:53:43.275
, 7.847930, 8.615907, 15.539540, 14.621666, 10.869970, 7.488444, 10.288054, 9.315179, 0.000, 0.000, 0.000,28.260166,45.01948,37.114418,28.413488,8.067627, 21:53:43.275
, 7.845558, 8.613528, 15.537942, 14.621894, 10.871041, 7.488876, 10.290305, 9.314850, 0.000, 0.000, 0.000,28.260166,45.01948,37.114418,28.413488,8.067627, 21:53:43.275
, 7.843705, 8.610411, 15.536076, 14.629151, 10.870467, 7.497242, 10.292024, 9.324224, -0.080, 0.352, 0.954,28.260166,45.01948,37.114418,28.413488,8.067627, 21:53:43.275
, 7.842366, 8.607728, 15.534795, 14.632377, 10.869074, 7.500895, 10.290913, 9.328185, 0.000, 0.000, 0.000,28.260166,45.01948,37.114418,28.413488,8.067627, 21:53:43.275
, 7.845223, 8.611575, 15.537268, 14.623061, 10.869454, 7.491022, 10.285768, 9.317271, 0.000, 0.000, 0.000,28.260166,45.01948,37.114418,28.413488,8.067627, 21:53:43.275
, 7.847007, 8.614222, 15.538604, 14.620401, 10.870875, 7.489560, 10.287612, 9.315322, 0.000, 0.000, 0.000,28.260166,45.01948,37.114418,28.413488,8.067627, 21:53:43.275
, 7.844582, 8.611687, 15.536007, 14.627571, 10.868962, 7.496431, 10.289534, 9.324055, 0.000, 0.000, 0.000,28.260166,45.01948,37.114418,28.413488,8.067627, 21:53:43.275
, 7.843258, 8.609528, 15.534467, 14.631881, 10.867929, 7.499292, 10.286633, 9.327408, 0.000, 0.000, 0.000,28.260166,45.01948,37.114418,28.413488,8.067627, 21:53:43.275
, 7.846332, 8.612151, 15.537732, 14.624297, 10.872617, 7.492034, 10.283756, 9.318328, 0.000, 0.000, 0.000,28.260166,45.01948,37.114418,28.413488,8.067627, 21:53:43.276
, 7.847631, 8.612844, 15.538888, 14.618635, 10.875138, 7.486619, 10.282269, 9.311254, 0.000, 0.000, 0.000,28.260166,45.01948,37.114418,28.413488,8.067627, 21:53:43.276
, 7.844553, 8.609890, 15.536107, 14.626185, 10.870872, 7.493346, 10.285503, 9.319354, 0.000, 0.000, 0.000,28.260166,45.01948,37.114418,28.413488,8.067627, 21:53:43.276
, 7.842742, 8.609076, 15.534690, 14.632486, 10.869561, 7.500345, 10.285683, 9.327217, 0.000, 0.000, 0.000,28.260166,45.01948,37.114418,28.413488,8.067627, 21:53:43.276
, 7.843906, 8.609711, 15.535048, 14.626839, 10.868355, 7.494113, 10.279536, 9.320440, -0.020, 0.332, 0.950,28.260166,45.01948,37.114418,28.413488,8.067627, 21:53:43.276
, 7.846477, 8.610996, 15.537019, 14.618597, 10.868967, 7.486497, 10.280032, 9.310966, 0.000, 0.000, 0.000,28.260166,45.01948,37.114418,28.413488,8.067627, 21:53:43.276
, 7.843111, 8.607290, 15.534372, 14.623620, 10.867340, 7.491808, 10.282824, 9.317162, 0.000, 0.000, 0.000,28.260166,45.01948,37.114418,28.413488,8.067627, 21:53:43.276
, 7.840451, 8.604845, 15.532135, 14.629941, 10.865333, 7.498934, 10.281554, 9.325354, 0.000, 0.000, 0.000,28.260166,45.01948,37.114418,28.413488,8.067627, 21:53:43.276
, 7.841327, 8.604536, 15.533013, 14.627453, 10.864365, 7.495060, 10.276569, 9.322473, 0.000, 0.000, 0.000,28.260166,45.01948,37.114418,28.413488,8.067627, 21:53:43.276
, 7.845391, 8.606668, 15.536505, 14.618184, 10.867743, 7.485320, 10.275353, 9.312002, 0.000, 0.000, 0.000,28.260166,45.01948,37.114418,28.413488,8.067627, 21:53:43.277
, 7.842431, 8.603698, 15.534560, 14.621396, 10.868936, 7.489101, 10.277153, 9.316026, 0.000, 0.000, 0.000,28.260166,45.01948,37.114418,28.413488,8.067627, 21:53:43.277
, 7.838296, 8.599755, 15.531511, 14.628269, 10.866527, 7.496116, 10.276210, 9.324697, 0.000, 0.000, 0.000,28.260166,45.01948,37.114418,28.413488,8.067627, 21:53:43.277
, 7.838542, 8.601045, 15.532497, 14.627645, 10.865632, 7.494924, 10.272841, 9.324539, 0.000, 0.000, 0.000,28.260166,45.01948,37.114418,28.413488,8.067627, 21:53:43.277
, 7.842729, 8.604780, 15.536297, 14.615828, 10.868716, 7.484709, 10.270698, 9.312789, 0.050, 0.288, 0.944,28.260166,45.01948,37.114418,28.413488,8.067627, 21:53:43.277
, 7.839186, 8.602590, 15.534941, 14.617435, 10.869626, 7.486960, 10.273791, 9.315500, 0.000, 0.000, 0.000,28.260166,45.01948,37.114418,28.413488,8.067627, 21:53:43.277
, 7.834443, 8.596673, 15.531380, 14.625119, 10.867695, 7.495224, 10.273507, 9.325977, 0.000, 0.000, 0.000,28.260166,45.01948,37.114418,28.413488,8.067627, 21:53:43.277
, 7.834702, 8.595023, 15.529601, 14.626798, 10.865276, 7.495859, 10.269446, 9.327769, 0.000, 0.000, 0.000,28.260166,45.01948,37.114418,28.413488,8.067627, 21:53:43.277
, 7.837927, 8.597478, 15.532777, 14.615852, 10.867968, 7.484481, 10.265797, 9.315322, 0.000, 0.000, 0.000,28.260166,45.01948,37.114418,28.413488,8.067627, 21:53:43.278
, 7.838341, 8.596505, 15.534370, 14.614491, 10.871148, 7.484993, 10.269576, 9.315013, 0.000, 0.000, 0.000,28.260166,45.01948,37.114418,28.413488,8.067627, 21:53:43.278
, 7.835509, 8.590881, 15.532721, 14.622976, 10.870359, 7.493183, 10.271462, 9.325217, 0.000, 0.000, 0.000,28.260166,45.01948,37.114418,28.413488,8.067627, 21:53:43.278
, 7.832123, 8.584762, 15.530721, 14.628429, 10.869779, 7.496840, 10.270017, 9.331424, 0.000, 0.000, 0.000,28.260166,45.01948,37.114418,28.413488,8.067627, 21:53:43.278
, 7.834269, 8.584778, 15.532667, 14.618340, 10.867959, 7.484944, 10.262716, 9.319394, 0.000, 0.000, 0.000,28.260166,45.01948,37.114418,28.413488,8.067627, 21:53:43.278
, 7.834787, 8.580309, 15.533269, 14.613564, 10.867377, 7.481131, 10.264468, 9.314573, 0.000, 0.000, 0.000,28.260166,45.01948,37.114418,28.413488,8.067627, 21:53:43.278
, 7.831537, 8.568943, 15.530157, 14.619780, 10.863940, 7.488369, 10.266161, 9.323190, 0.068, 0.250, 0.938,28.260166,45.01948,37.114418,28.413488,8.067627, 21:53:43.278
, 7.827717, 8.563693, 15.527506, 14.626834, 10.860748, 7.493664, 10.263266, 9.330725, 0.000, 0.000, 0.000,28.260166,45.01948,37.114418,28.413488,8.067627, 21:53:43.278
, 7.830089, 8.565852, 15.530946, 14.620269, 10.862966, 7.486370, 10.260800, 9.323252, 0.000, 0.000, 0.000,28.260166,45.01948,37.114418,28.413488,8.067627, 21:53:43.278
, 7.832596, 8.568289, 15.533790, 14.612868, 10.867878, 7.480608, 10.262354, 9.316310, 0.000, 0.000, 0.000,28.260166,45.01948,37.114418,28.413488,8.067627, 21:53:43.279
, 7.830400, 8.566002, 15.531818, 14.619028, 10.867713, 7.487727, 10.264954, 9.325043, 0.000, 0.000, 0.000,28.260166,45.01948,37.114418,28.413488,8.067627, 21:53:43.279
, 7.828084, 8.563657, 15.529435, 14.625987, 10.865724, 7.494091, 10.264974, 9.333371, 0.000, 0.000, 0.000,28.260166,45.01948,37.114418,28.413488,8.067627, 21:53:43.279
, 7.829443, 8.564402, 15.530423, 14.620790, 10.865042, 7.487691, 10.260157, 9.327135, 0.000, 0.000, 0.000,28.260166,45.01948,37.114418,28.413488,8.067627, 21:53:43.279
, 7.831139, 8.566154, 15.532298, 14.611825, 10.867735, 7.479193, 10.260135, 9.317680, 0.000, 0.000, 0.000,28.260166,45.01948,37.114418,28.413488,8.067627, 21:53:43.279
, 7.828562, 8.564014, 15.530618, 14.615258, 10.867691, 7.484267, 10.261692, 9.323212, 0.000, 0.000, 0.000,28.260166,45.01948,37.114418,28.413488,8.067627, 21:53:43.279
, 7.825321, 8.560885, 15.527609, 14.623599, 10.865236, 7.491493, 10.261328, 9.332540, 0.076, 0.236, 0.950,28.260166,45.01948,37.114418,28.413488,8.067627, 21:53:43.279
, 7.825980, 8.560731, 15.527813, 14.622616, 10.863934, 7.488746, 10.256905, 9.330955, 0.000, 0.000, 0.000,28.260166,45.01948,37.114418,28.413488,8.067627, 21:53:43.279
, 7.829932, 8.563505, 15.531717, 14.612026, 10.868192, 7.479164, 10.256578, 9.320129, 0.000, 0.000, 0.000,28.260166,45.01948,37.114418,28.413488,8.067627, 21:53:43.279
, 7.829952, 8.564006, 15.532097, 14.613943, 10.871417, 7.482349, 10.259835, 9.323380, 0.000, 0.000, 0.000,28.260166,45.01948,37.114418,28.413488,8.067627, 21:53:43.280
, 7.827136, 8.561270, 15.529527, 14.620821, 10.870194, 7.490130, 10.260313, 9.331880, 0.000, 0.000, 0.000,28.260166,45.01948,37.114418,28.413488,8.067627, 21:53:43.280
, 7.824411, 8.558555, 15.527334, 14.622953, 10.866567, 7.490602, 10.257229, 9.333326, 0.000, 0.000, 0.000,28.260166,45.01948,37.114418,28.413488,8.067627, 21:53:43.280
, 7.827677, 8.562404, 15.531038, 14.611975, 10.865988, 7.480690, 10.254567, 9.321893, 0.000, 0.000, 0.000,28.260166,45.01948,37.114418,28.413488,8.067627, 21:53:43.280
, 7.827683, 8.562915, 15.531471, 14.612502, 10.867415, 7.481578, 10.257566, 9.322899, 0.000, 0.000, 0.000,28.260166,45.01948,37.114418,28.413488,8.067627, 21:53:43.280
, 7.825153, 8.560468, 15.528800, 14.620564, 10.865489, 7.489466, 10.258443, 9.332703, 0.000, 0.000, 0.000,28.260166,45.01948,37.114418,28.413488,8.067627, 21:53:43.280
, 7.825974, 8.559325, 15.527770, 14.623302, 10.863072, 7.491080, 10.254481, 9.335497, 0.000, 0.000, 0.000,28.260166,45.01948,37.114418,28.413488,8.067627, 21:53:43.280
, 7.830144, 8.562296, 15.532042, 14.611628, 10.866723, 7.480407, 10.251018, 9.322825, 0.066, 0.236, 0.956,28.260166,45.01948,37.114418,28.413488,8.067627, 21:53:43.280
, 7.830091, 8.562519, 15.532562, 14.610495, 10.869085, 7.479291, 10.253565, 9.321062, 0.000, 0.000, 0.000,28.260166,45.01948,37.114418,28.413488,8.067627, 21:53:43.280
, 7.826931, 8.559209, 15.529746, 14.618682, 10.867029, 7.487199, 10.255246, 9.330505, 0.000, 0.000, 0.000,28.260166,45.01948,37.114418,28.413488,8.067627, 21:53:43.281
, 7.824458, 8.556755, 15.527750, 14.624252, 10.864067, 7.491158, 10.252874, 9.336181, 0.000, 0.000, 0.000,28.260166,45.01948,37.114418,28.413488,8.067627, 21:53:43.281
, 7.827259, 8.559082, 15.530656, 14.616027, 10.865699, 7.482537, 10.247649, 9.326981, 0.000, 0.000, 0.000,28.260166,45.01948,37.114418,28.413488,8.067627, 21:53:43.281
, 7.828540, 8.559022, 15.531856, 14.611015, 10.870127, 7.478625, 10.250246, 9.322213, 0.000, 0.000, 0.000,28.260166,45.01948,37.114418,28.413488,8.067627, 21:53:43.281
, 7.824371, 8.557151, 15.528492, 14.617019, 10.867472, 7.485110, 10.252769, 9.329920, 0.000, 0.000, 0.000,32.733818,23.273945,24.51109,21.902552,11.94505, 21:53:43.742
, 7.820399, 8.554057, 15.524784, 14.623201, 10.862578, 7.490452, 10.250861, 9.337119, 0.000, 0.000, 0.000,32.733818,23.273945,24.51109,21.902552,11.94505, 21:53:43.742
, 7.823008, 8.555970, 15.527399, 14.614891, 10.863524, 7.483073, 10.246954, 9.329180, 0.000, 0.000, 0.000,32.733818,23.273945,24.51109,21.902552,11.94505, 21:53:43.742
, 7.826432, 8.558129, 15.530007, 14.607414, 10.868565, 7.477003, 10.249260, 9.322309, 0.046, 0.236, 0.962,32.733818,23.273945,24.51109,21.902552,11.94505, 21:53:43.742
, 7.823756, 8.554167, 15.527750, 14.612969, 10.868024, 7.483395, 10.251552, 9.329611, 0.000, 0.000, 0.000,32.733818,23.273945,24.51109,21.902552,11.94505, 21:53:43.743
, 7.820902, 8.550159, 15.525385, 14.618961, 10.866261, 7.489750, 10.250941, 9.336685, 0.000, 0.000, 0.000,32.733818,23.273945,24.51109,21.902552,11.94505, 21:53:43.743
, 7.822069, 8.550143, 15.526624, 14.615330, 10.864599, 7.484895, 10.245646, 9.331849, 0.000, 0.000, 0.000,32.733818,23.273945,24.51109,21.902552,11.94505, 21:53:43.743
, 7.825193, 8.552935, 15.529688, 14.605749, 10.867237, 7.475945, 10.244848, 9.321616, 0.000, 0.000, 0.000,32.733818,23.273945,24.51109,21.902552,11.94505, 21:53:43.743
, 7.823750, 8.553876, 15.528459, 14.610262, 10.867427, 7.480639, 10.247112, 9.326733, 0.000, 0.000, 0.000,32.733818,23.273945,24.51109,21.902552,11.94505, 21:53:43.743
, 7.823823, 8.554072, 15.528286, 14.618517, 10.866090, 7.488503, 10.247470, 9.335752, 0.000, 0.000, 0.000,32.733818,23.273945,24.51109,21.902552,11.94505, 21:53:43.743
, 7.824977, 8.554335, 15.529049, 14.617913, 10.865851, 7.486806, 10.244424, 9.333945, 0.000, 0.000, 0.000,32.733818,23.273945,24.51109,21.902552,11.94505, 21:53:43.744
, 7.829143, 8.557638, 15.532857, 14.606852, 10.868571, 7.476938, 10.243020, 9.321877, 0.000, 0.000, 0.000,32.733818,23.273945,24.51109,21.902552,11.94505, 21:53:43.744
, 7.827317, 8.556357, 15.531514, 14.610783, 10.867655, 7.480427, 10.245874, 9.325735, 0.000, 0.000, 0.000,32.733818,23.273945,24.51109,21.902552,11.94505, 21:53:43.744
, 7.823428, 8.551525, 15.528485, 14.618354, 10.864431, 7.487859, 10.245114, 9.334330, 0.024, 0.228, 0.960,32.733818,23.273945,24.51109,21.902552,11.94505, 21:53:43.744
, 7.823931, 8.549030, 15.528552, 14.619201, 10.864968, 7.489023, 10.242944, 9.335369, 0.000, 0.000, 0.000,32.733818,23.273945,24.51109,21.902552,11.94505, 21:53:43.744
, 7.828462, 8.550097, 15.532844, 14.609308, 10.868453, 7.479187, 10.241292, 9.324318, 0.000, 0.000, 0.000,32.733818,23.273945,24.51109,21.902552,11.94505, 21:53:43.744
, 7.829235, 8.547846, 15.534232, 14.612003, 10.871469, 7.480592, 10.245214, 9.326362, 0.000, 0.000, 0.000,32.733818,23.273945,24.51109,21.902552,11.94505, 21:53:43.744
, 7.822688, 8.539019, 15.527803, 14.618760, 10.865808, 7.486826, 10.242792, 9.334424, 0.000, 0.000, 0.000,32.733818,23.273945,24.51109,21.902552,11.94505, 21:53:43.744
, 7.820681, 8.538107, 15.526290, 14.621943, 10.862789, 7.488981, 10.240188, 9.337919, 0.000, 0.000, 0.000,32.733818,23.273945,24.51109,21.902552,11.94505, 21:53:43.745
, 7.825976, 8.542294, 15.531894, 14.610729, 10.866843, 7.478911, 10.238073, 9.326162, 0.000, 0.000, 0.000,32.733818,23.273945,24.51109,21.902552,11.94505, 21:53:43.745
, 7.826108, 8.541527, 15.531318, 14.607218, 10.869646, 7.476985, 10.240963, 9.323062, 0.000, 0.000, 0.000,32.733818,23.273945,24.51109,21.902552,11.94505, 21:53:43.745
, 7.823482, 8.539421, 15.528807, 14.614688, 10.868059, 7.484578, 10.242598, 9.332325, 0.000, 0.000, 0.000,32.733818,23.273945,24.51109,21.902552,11.94505, 21:53:43.745
, 7.821056, 8.536158, 15.526880, 14.620323, 10.865017, 7.488576, 10.240565, 9.338002, 0.000, 0.000, 0.000,32.733818,23.273945,24.51109,21.902552,11.94505, 21:53:43.745
, 7.826001, 8.539256, 15.531425, 14.611485, 10.868752, 7.480869, 10.238559, 9.328945, -0.012, 0.216, 0.960,32.733818,23.273945,24.51109,21.902552,11.94505, 21:53:43.745
, 7.827663, 8.540487, 15.532025, 14.606201, 10.871591, 7.476384, 10.241277, 9.324110, 0.000, 0.000, 0.000,32.733818,23.273945,24.51109,21.902552,11.94505, 21:53:43.745
, 7.822152, 8.536122, 15.527176, 14.614212, 10.868095, 7.482530, 10.242383, 9.332656, 0.000, 0.000, 0.000,32.733818,23.273945,24.51109,21.902552,11.94505, 21:53:43.745
, 7.820149, 8.535400, 15.525682, 14.620244, 10.864664, 7.488174, 10.240848, 9.339230, 0.000, 0.000, 0.000,32.733818,23.273945,24.51109,21.902552,11.94505, 21:53:43.745
, 7.821590, 8.536467, 15.527665, 14.613081, 10.865020, 7.481446, 10.237416, 9.331618, 0.000, 0.000, 0.000,32.733818,23.273945,24.51109,21.902552,11.94505, 21:53:43.745
, 7.824172, 8.539209, 15.530037, 14.604079, 10.868887, 7.474012, 10.238780, 9.323071, 0.000, 0.000, 0.000,32.733818,23.273945,24.51109,21.902552,11.94505, 21:53:43.746
, 7.824074, 8.538092, 15.530050, 14.610367, 10.870007, 7.481357, 10.242823, 9.330928, 0.000, 0.000, 0.000,32.733818,23.273945,24.51109,21.902552,11.94505, 21:53:43.746
, 7.819005, 8.531976, 15.526789, 14.616570, 10.867286, 7.487454, 10.241603, 9.337879, 0.000, 0.000, 0.000,32.733818,23.273945,24.51109,21.902552,11.94505, 21:53:43.746
, 7.817712, 8.532834, 15.526004, 14.613798, 10.865675, 7.482378, 10.237226, 9.333368, 0.000, 0.000, 0.000,32.733818,23.273945,24.51109,21.902552,11.94505, 21:53:43.746
, 7.824885, 8.539710, 15.531335, 14.605360, 10.870596, 7.473634, 10.238225, 9.324484, -0.058, 0.240, 0.976,32.733818,23.273945,24.51109,21.902552,11.94505, 21:53:43.746
, 7.823202, 8.539146, 15.529804, 14.610499, 10.870617, 7.479296, 10.241708, 9.331181, 0.000, 0.000, 0.000,32.733818,23.273945,24.51109,21.902552,11.94505, 21:53:43.746
, 7.820142, 8.536896, 15.526910, 14.619143, 10.868135, 7.486991, 10.241706, 9.340897, 0.000, 0.000, 0.000,32.733818,23.273945,24.51109,21.902552,11.94505, 21:53:43.746
, 7.821604, 8.539153, 15.528358, 14.618213, 10.868220, 7.485367, 10.239417, 9.339685, 0.000, 0.000, 0.000,32.733818,23.273945,24.51109,21.902552,11.94505, 21:53:43.746
, 7.824644, 8.540973, 15.531657, 14.606903, 10.871632, 7.474984, 10.238824, 9.327930, 0.000, 0.000, 0.000,32.733818,23.273945,24.51109,21.902552,11.94505, 21:53:43.746
, 7.820044, 8.530289, 15.529049, 14.609480, 10.871412, 7.477546, 10.241136, 9.330545, 0.000, 0.000, 0.000,32.733818,23.273945,24.51109,21.902552,11.94505, 21:53:43.747
, 7.816485, 8.536212, 15.525517, 14.617820, 10.868593, 7.485869, 10.241350, 9.339952, 0.000, 0.000, 0.000,32.733818,23.273945,24.51109,21.902552,11.94505, 21:53:43.747
, 7.818521, 8.541489, 15.525401, 14.620131, 10.867327, 7.487110, 10.239361, 9.341366, 0.000, 0.000, 0.000,32.733818,23.273945,24.51109,21.902552,11.94505, 21:53:43.747
, 7.821805, 8.544689, 15.528749, 14.608583, 10.870315, 7.475523, 10.237617, 9.328400, 0.000, 0.000, 0.000,32.733818,23.273945,24.51109,21.902552,11.94505, 21:53:43.747
, 7.822196, 8.545443, 15.529368, 14.607969, 10.873475, 7.476799, 10.242979, 9.328313, 0.000, 0.000, 0.000,32.733818,23.273945,24.51109,21.902552,11.94505, 21:53:43.747
, 7.819221, 8.542320, 15.527015, 14.616266, 10.872009, 7.486505, 10.245121, 9.337819, -0.082, 0.274, 0.980,32.733818,23.273945,24.51109,21.902552,11.94505, 21:53:43.747
, 7.816895, 8.538885, 15.525535, 14.620886, 10.869658, 7.489614, 10.243536, 9.341089, 0.000, 0.000, 0.000,32.733818,23.273945,24.51109,21.902552,11.94505, 21:53:43.747
, 7.821030, 8.544712, 15.529370, 14.610890, 10.872643, 7.479309, 10.242729, 9.329188, 0.000, 0.000, 0.000,32.733818,23.273945,24.51109,21.902552,11.94505, 21:53:43.747
, 7.822753, 8.547280, 15.530340, 14.608398, 10.875411, 7.477139, 10.248804, 9.326699, 0.000, 0.000, 0.000,32.733818,23.273945,24.51109,21.902552,11.94505, 21:53:43.747
, 7.821063, 8.544649, 15.529201, 14.614636, 10.874821, 7.484159, 10.252901, 9.334750, 0.000, 0.000, 0.000,32.733818,23.273945,24.51109,21.902552,11.94505, 21:53:43.748
, 7.821733, 8.542792, 15.529111, 14.620613, 10.874919, 7.489341, 10.254663, 9.340704, 0.000, 0.000, 0.000,32.733818,23.273945,24.51109,21.902552,11.94505, 21:53:43.748
, 7.824735, 8.543653, 15.531804, 14.613785, 10.877422, 7.482510, 10.254860, 9.332611, 0.000, 0.000, 0.000,32.733818,23.273945,24.51109,21.902552,11.94505, 21:53:43.748
, 7.827985, 8.545411, 15.534846, 14.607533, 10.882541, 7.478189, 10.261556, 9.326039, 0.000, 0.000, 0.000,32.733818,23.273945,24.51109,21.902552,11.94505, 21:53:43.748
, 7.824315, 8.541891, 15.531255, 14.614199, 10.880637, 7.484766, 10.265448, 9.332794, 0.000, 0.000, 0.000,32.733818,23.273945,24.51109,21.902552,11.94505, 21:53:43.748
, 7.821752, 8.539146, 15.528297, 14.621045, 10.877503, 7.490331, 10.264283, 9.338473, -0.074, 0.286, 0.982,32.733818,23.273945,24.51109,21.902552,11.94505, 21:53:43.748
, 7.822690, 8.536178, 15.528881, 14.614846, 10.876960, 7.483268, 10.260163, 9.330126, 0.000, 0.000, 0.000,32.733818,23.273945,24.51109,21.902552,11.94505, 21:53:43.748
, 7.824776, 8.542280, 15.530064, 14.606228, 10.879401, 7.475550, 10.261129, 9.320916, 0.000, 0.000, 0.000,32.733818,23.273945,24.51109,21.902552,11.94505, 21:53:43.748
, 7.824650, 8.543679, 15.529884, 14.611932, 10.880777, 7.482016, 10.265975, 9.327901, 0.000, 0.000, 0.000,32.733818,23.273945,24.51109,21.902552,11.94505, 21:53:43.748
, 7.821246, 8.539260, 15.527374, 14.619111, 10.878638, 7.489251, 10.267384, 9.335780, 0.000, 0.000, 0.000,32.733818,23.273945,24.51109,21.902552,11.94505, 21:53:43.749
, 7.822444, 8.539870, 15.528244, 14.615783, 10.878427, 7.484978, 10.264728, 9.330979, 0.000, 0.000, 0.000,32.733818,23.273945,24.51109,21.902552,11.94505, 21:53:43.749
, 7.826823, 8.543525, 15.531549, 14.605235, 10.882074, 7.474754, 10.264297, 9.319057, 0.000, 0.000, 0.000,32.733818,23.273945,24.51109,21.902552,11.94505, 21:53:43.749
, 7.825462, 8.543505, 15.529176, 14.609969, 10.881245, 7.479323, 10.266853, 9.324100, 0.000, 0.000, 0.000,32.733818,23.273945,24.51109,21.902552,11.94505, 21:53:43.749
, 7.823291, 8.541051, 15.526163, 14.617955, 10.878838, 7.487027, 10.267021, 9.332477, 0.000, 0.000, 0.000,32.733818,23.273945,24.51109,21.902552,11.94505, 21:53:43.749
, 7.823734, 8.541038, 15.526268, 14.618088, 10.878372, 7.486131, 10.265155, 9.331259, 0.000, 0.000, 0.000,32.733818,23.273945,24.51109,21.902552,11.94505, 21:53:43.749
, 7.830203, 8.547483, 15.531872, 14.606554, 10.883710, 7.476636, 10.265311, 9.318972, -0.058, 0.308, 0.982,32.733818,23.273945,24.51109,21.902552,11.94505, 21:53:43.749
, 7.830543, 8.549747, 15.531852, 14.607697, 10.886113, 7.480203, 10.269160, 9.321609, 0.000, 0.000, 0.000,32.733818,23.273945,24.51109,21.902552,11.94505, 21:53:43.749
, 7.826783, 8.548360, 15.527915, 14.616042, 10.882783, 7.487944, 10.268952, 9.330462, 0.000, 0.000, 0.000,30.595076,21.94143,21.99744,21.0785,11.746864, 21:53:43.749
, 7.826745, 8.550935, 15.527216, 14.618443, 10.880959, 7.488876, 10.266384, 9.331317, 0.000, 0.000, 0.000,30.595076,21.94143,21.99744,21.0785,11.746864, 21:53:43.750
, 7.830958, 8.555336, 15.531192, 14.607511, 10.883688, 7.478681, 10.264084, 9.319211, 0.000, 0.000, 0.000,30.595076,21.94143,21.99744,21.0785,11.746864, 21:53:43.750
, 7.829384, 8.558427, 15.530023, 14.607209, 10.884182, 7.479522, 10.267189, 9.319640, 0.000, 0.000, 0.000,30.595076,21.94143,21.99744,21.0785,11.746864, 21:53:43.750
, 7.828030, 8.557815, 15.526867, 14.614580, 10.881785, 7.487383, 10.267385, 9.327926, 0.000, 0.000, 0.000,30.595076,21.94143,21.99744,21.0785,11.746864, 21:53:43.750
, 7.827988, 8.555223, 15.525045, 14.618865, 10.880062, 7.490396, 10.264996, 9.331612, 0.000, 0.000, 0.000,30.595076,21.94143,21.99744,21.0785,11.746864, 21:53:43.750
, 7.832273, 8.559247, 15.529469, 14.608728, 10.883542, 7.481138, 10.262998, 9.321240, 0.000, 0.000, 0.000,30.595076,21.94143,21.99744,21.0785,11.746864, 21:53:43.750
, 7.833875, 8.562055, 15.531145, 14.603715, 10.887056, 7.478118, 10.267013, 9.317222, -0.038, 0.282, 0.972,30.595076,21.94143,21.99744,21.0785,11.746864, 21:53:43.750
, 7.829852, 8.558617, 15.527196, 14.612616, 10.884336, 7.486015, 10.268164, 9.326430, 0.000, 0.000, 0.000,30.595076,21.94143,21.99744,21.0785,11.746864, 21:53:43.750
