%OpenBCI Raw EEG Data
%
%Sample Rate = 250.0 Hz
%First Column = SampleIndex
%Last Column = Timestamp 
%Other Columns = EEG data in microvolts followed by Accel Data (in G) interleaved with Aux Data
0, -60570.12, -63565.90, -112291.18, -108661.51, -78585.80, -72413.81, -98073.55, -103884.22, 0.014, 0.218, 0.450, 12:08:15.184
1, -60531.25, -63526.25, -112253.95, -108890.52, -78563.72, -72379.28, -98025.96, -103855.63, 0.000, 0.000, 0.000, 12:08:15.185
2, -60576.94, -63581.14, -112202.76, -108705.63, -78533.84, -72364.24, -98056.48, -103831.07, 0.000, 0.000, 0.000, 12:08:15.185
3, -60621.82, -63625.85, -112248.76, -108466.82, -78560.95, -72397.01, -98110.61, -103862.88, 0.000, 0.000, 0.000, 12:08:15.186
4, -60592.09, -63599.29, -112299.98, -108600.87, -78590.16, -72428.21, -98100.17, -103900.12, 0.000, 0.000, 0.000, 12:08:15.187
5, -60535.27, -63539.04, -112272.12, -108882.88, -78568.97, -72397.59, -98042.77, -103877.16, 0.000, 0.000, 0.000, 12:08:15.187
6, -60570.90, -63573.19, -112202.76, -108768.52, -78533.41, -72369.49, -98060.70, -103838.42, 0.024, 0.318, 0.676, 12:08:15.188
7, -60625.35, -63623.41, -112236.89, -108486.94, -78556.57, -72392.09, -98106.63, -103855.34, 0.000, 0.000, 0.000, 12:08:15.188
8, -60608.96, -63605.84, -112297.64, -108571.74, -78595.93, -72421.68, -98097.42, -103891.53, 0.000, 0.000, 0.000, 12:08:15.189
9, -60536.59, -63535.64, -112279.56, -108862.67, -78582.78, -72397.43, -98044.41, -103877.20, 0.000, 0.000, 0.000, 12:08:15.189
10, -60560.73, -63557.43, -112210.16, -108822.73, -78545.52, -72373.41, -98052.56, -103846.47, 0.000, 0.000, 0.000, 12:08:15.189
11, -60632.23, -63630.81, -112234.30, -108512.55, -78556.45, -72402.80, -98117.43, -103871.99, 0.000, 0.000, 0.000, 12:08:15.190
12, -60617.75, -63615.66, -112297.38, -108532.42, -78588.77, -72435.25, -98111.46, -103903.58, 0.000, 0.000, 0.000, 12:08:15.190
13, -60553.87, -63546.45, -112288.74, -108822.19, -78579.23, -72415.65, -98045.27, -103885.12, 0.000, 0.000, 0.000, 12:08:15.191
14, -60547.68, -63541.87, -112222.31, -108880.08, -78542.58, -72377.52, -98026.14, -103844.55, 0.000, 0.000, 0.000, 12:08:15.191
15, -60616.01, -63616.84, -112214.27, -108572.32, -78537.75, -72383.08, -98078.87, -103842.34, 0.000, 0.000, 0.000, 12:08:15.192
16, -60626.78, -63629.65, -112288.50, -108506.92, -78584.33, -72419.45, -98103.62, -103883.23, 0.028, 0.366, 0.794, 12:08:15.192
17, -60564.66, -63568.76, -112305.38, -108771.19, -78595.41, -72418.17, -98058.44, -103885.43, 0.000, 0.000, 0.000, 12:08:15.193
18, -60564.82, -63558.19, -112255.66, -108902.77, -78568.59, -72388.05, -98041.66, -103857.89, 0.000, 0.000, 0.000, 12:08:15.193
19, -60635.68, -63628.98, -112230.48, -108596.33, -78552.97, -72392.98, -98100.41, -103851.48, 0.000, 0.000, 0.000, 12:08:15.194
20, -60643.68, -63637.47, -112298.78, -108480.90, -78599.59, -72428.03, -98122.84, -103888.09, 0.000, 0.000, 0.000, 12:08:15.194
21, -60578.21, -63572.07, -112312.80, -108721.61, -78610.01, -72428.05, -98081.28, -103897.03, 0.000, 0.000, 0.000, 12:08:15.195
22, -60545.22, -63538.09, -112258.41, -108927.84, -78578.02, -72396.52, -98044.96, -103867.55, 0.000, 0.000, 0.000, 12:08:15.195
23, -60599.46, -63595.32, -112211.25, -108685.91, -78543.91, -72382.52, -98078.20, -103844.66, 0.000, 0.000, 0.000, 12:08:15.195
24, -60631.09, -63632.26, -112268.30, -108496.99, -78572.70, -72414.69, -98110.23, -103874.97, 0.000, 0.000, 0.000, 12:08:15.196
25, -60585.61, -63589.93, -112306.76, -108670.09, -78598.52, -72426.83, -98082.96, -103898.98, 0.022, 0.398, 0.852, 12:08:15.196
26, -60540.64, -63540.96, -112271.04, -108931.71, -78578.00, -72393.48, -98034.23, -103871.30, 0.000, 0.000, 0.000, 12:08:15.197
27, -60597.79, -63601.75, -112212.13, -108748.48, -78538.40, -72377.54, -98065.19, -103843.16, 0.000, 0.000, 0.000, 12:08:15.197
28, -60650.70, -63645.34, -112263.96, -108487.27, -78567.36, -72414.82, -98124.47, -103878.43, 0.000, 0.000, 0.000, 12:08:15.197
29, -60609.10, -63605.71, -112318.23, -108625.79, -78602.77, -72430.49, -98104.02, -103904.72, 0.000, 0.000, 0.000, 12:08:15.198
30, -60555.52, -63557.50, -112296.41, -108918.20, -78582.23, -72401.19, -98042.15, -103881.00, 0.000, 0.000, 0.000, 12:08:15.198
31, -60589.36, -63589.53, -112225.84, -108824.59, -78539.78, -72375.41, -98053.57, -103849.15, 0.000, 0.000, 0.000, 12:08:15.199
32, -60639.12, -63636.55, -112249.14, -108521.20, -78559.25, -72400.31, -98109.70, -103863.08, 0.000, 0.000, 0.000, 12:08:15.199
33, -60616.01, -63613.38, -112306.72, -108582.45, -78598.97, -72423.05, -98103.57, -103890.95, 0.000, 0.000, 0.000, 12:08:15.200
34, -60560.08, -63550.28, -112291.85, -108871.19, -78583.16, -72402.08, -98047.78, -103878.77, 0.000, 0.000, 0.000, 12:08:15.200
35, -60566.65, -63559.60, -112219.70, -108860.39, -78543.27, -72366.59, -98036.23, -103839.38, 0.024, 0.414, 0.874, 12:08:15.200
36, -60631.21, -63630.34, -112225.94, -108550.46, -78558.20, -72381.38, -98094.13, -103849.77, 0.000, 0.000, 0.000, 12:08:15.201
37, -60624.84, -63624.46, -112292.50, -108549.73, -78596.13, -72417.95, -98101.45, -103890.88, 0.000, 0.000, 0.000, 12:08:15.201
38, -60566.95, -63566.84, -112300.88, -108831.42, -78600.82, -72414.64, -98053.73, -103892.16, 0.000, 0.000, 0.000, 12:08:15.202
39, -60566.18, -63565.09, -112229.27, -108904.94, -78559.74, -72374.99, -98039.13, -103852.10, 0.000, 0.000, 0.000, 12:08:15.202
40, -60642.72, -63650.48, -112221.55, -108583.30, -78547.36, -72390.75, -98105.31, -103858.05, 0.000, 0.000, 0.000, 12:08:15.202
41, -60640.91, -63651.35, -112292.86, -108511.97, -78590.56, -72429.17, -98127.44, -103902.59, 0.000, 0.000, 0.000, 12:08:15.203
42, -60566.61, -63571.51, -112299.27, -108773.95, -78599.37, -72418.48, -98069.30, -103898.17, 0.000, 0.000, 0.000, 12:08:15.203
43, -60553.40, -63551.64, -112242.37, -108929.62, -78568.30, -72385.90, -98033.41, -103865.47, 0.000, 0.000, 0.000, 12:08:15.203
44, -60621.55, -63622.59, -112214.16, -108647.40, -78553.51, -72382.52, -98081.73, -103852.95, 0.026, 0.418, 0.888, 12:08:15.204
45, -60640.35, -63642.81, -112281.30, -108502.52, -78599.55, -72419.00, -98117.13, -103885.63, 0.000, 0.000, 0.000, 12:08:15.204
46, -60602.11, -63602.00, -112315.03, -108707.02, -78613.83, -72436.88, -98092.21, -103907.76, 0.000, 0.000, 0.000, 12:08:15.204
47, -60561.40, -63558.95, -112280.79, -108933.05, -78600.69, -72400.67, -98051.04, -103881.41, 0.000, 0.000, 0.000, 12:08:15.205
48, -60607.42, -63611.65, -112224.23, -108721.30, -78570.65, -72380.24, -98079.72, -103852.33, 0.000, 0.000, 0.000, 12:08:15.205
49, -60649.20, -63650.68, -112277.37, -108501.89, -78602.63, -72415.36, -98124.96, -103885.14, 0.000, 0.000, 0.000, 12:08:15.205
50, -60598.50, -63599.99, -112318.45, -108664.50, -78623.64, -72429.87, -98093.69, -103901.70, 0.000, 0.000, 0.000, 12:08:15.206
51, -60550.36, -63550.16, -112286.47, -108919.78, -78597.13, -72404.77, -98042.33, -103878.30, 0.000, 0.000, 0.000, 12:08:15.206
52, -60599.94, -63600.14, -112230.38, -108754.22, -78559.77, -72390.08, -98069.26, -103859.48, 0.000, 0.000, 0.000, 12:08:15.207
53, -60653.29, -63663.53, -112283.88, -108493.46, -78600.31, -72426.78, -98128.67, -103888.34, 0.000, 0.000, 0.000, 12:08:15.207
54, -60618.80, -63622.14, -112322.54, -108610.84, -78637.70, -72445.51, -98107.80, -103911.83, 0.024, 0.428, 0.898, 12:08:15.207
55, -60559.97, -63557.99, -112307.79, -108892.38, -78612.36, -72419.36, -98045.05, -103888.00, 0.000, 0.000, 0.000, 12:08:15.207
56, -60572.13, -63577.39, -112224.77, -108817.95, -78555.09, -72384.34, -98045.03, -103843.09, 0.000, 0.000, 0.000, 12:08:15.208
57, -60631.59, -63635.77, -112243.86, -108522.43, -78572.73, -72406.80, -98097.22, -103856.46, 0.000, 0.000, 0.000, 12:08:15.208
58, -60632.55, -63626.27, -112312.91, -108566.33, -78619.66, -72442.43, -98104.48, -103896.13, 0.000, 0.000, 0.000, 12:08:15.208
59, -60566.54, -63566.59, -112313.31, -108856.97, -78623.64, -72430.20, -98059.09, -103892.20, 0.000, 0.000, 0.000, 12:08:15.209
60, -60573.80, -63580.41, -112242.95, -108870.18, -78585.27, -72395.29, -98044.74, -103852.37, 0.000, 0.000, 0.000, 12:08:15.209
61, -60645.80, -63646.84, -112252.20, -108550.20, -78571.43, -72409.75, -98095.37, -103858.56, 0.000, 0.000, 0.000, 12:08:15.209
62, -60621.41, -63625.40, -112306.98, -108535.20, -78618.39, -72431.07, -98099.95, -103889.05, 0.000, 0.000, 0.000, 12:08:15.210
63, -60563.95, -63562.88, -112300.68, -108814.79, -78606.45, -72418.98, -98038.64, -103880.20, 0.000, 0.000, 0.000, 12:08:15.210
64, -60570.45, -63566.21, -112257.32, -108905.23, -78581.29, -72394.44, -98029.63, -103848.23, 0.022, 0.432, 0.902, 12:08:15.217
65, -60616.30, -63628.84, -112228.59, -108602.56, -78571.88, -72400.29, -98080.13, -103839.74, 0.000, 0.000, 0.000, 12:08:15.218
66, -60629.91, -63634.05, -112286.13, -108518.21, -78604.24, -72436.99, -98100.08, -103877.92, 0.000, 0.000, 0.000, 12:08:15.218
67, -60585.50, -63583.13, -112317.00, -108768.99, -78627.65, -72445.06, -98064.77, -103896.85, 0.000, 0.000, 0.000, 12:08:15.218
68, -60563.52, -63569.23, -112269.01, -108932.90, -78592.87, -72415.20, -98033.48, -103866.45, 0.000, 0.000, 0.000, 12:08:15.219
69, -60625.19, -63634.27, -112227.39, -108655.88, -78562.18, -72413.81, -98081.35, -103847.14, 0.000, 0.000, 0.000, 12:08:15.219
70, -60649.31, -63657.86, -112294.20, -108499.07, -78602.19, -72450.18, -98110.07, -103882.81, 0.000, 0.000, 0.000, 12:08:15.219
71, -60588.76, -63599.94, -112310.88, -108714.03, -78614.79, -72451.27, -98063.94, -103891.35, 0.000, 0.000, 0.000, 12:08:15.220
72, -60545.71, -63561.00, -112275.80, -108932.77, -78599.39, -72418.60, -98021.47, -103859.30, 0.000, 0.000, 0.000, 12:08:15.220
73, -60599.15, -63609.96, -112208.84, -108716.49, -78553.37, -72400.78, -98051.42, -103828.86, 0.026, 0.432, 0.906, 12:08:15.220
74, -60655.52, -63656.96, -112270.77, -108489.58, -78581.73, -72443.50, -98109.27, -103871.93, 0.000, 0.000, 0.000, 12:08:15.221
75, -60595.91, -63610.74, -112309.76, -108650.91, -78615.28, -72463.88, -98087.95, -103901.30, 0.000, 0.000, 0.000, 12:08:15.221
76, -60526.02, -63546.97, -112268.12, -108925.23, -78595.91, -72432.44, -98023.84, -103869.38, 0.000, 0.000, 0.000, 12:08:15.221
77, -60568.80, -63590.18, -112205.44, -108779.27, -78546.98, -72406.02, -98037.34, -103827.38, 0.000, 0.000, 0.000, 12:08:15.222
78, -60642.98, -63652.76, -112268.36, -108502.27, -78582.05, -72447.84, -98101.13, -103864.73, 0.000, 0.000, 0.000, 12:08:15.222
79, -60615.83, -63621.98, -112319.84, -108600.95, -78621.48, -72475.55, -98093.00, -103899.11, 0.000, 0.000, 0.000, 12:08:15.222
80, -60557.27, -63562.57, -112287.05, -108886.34, -78606.26, -72452.95, -98043.89, -103882.21, 0.000, 0.000, 0.000, 12:08:15.222
81, -60582.23, -63583.43, -112228.87, -108841.64, -78567.30, -72422.09, -98046.59, -103846.78, 0.000, 0.000, 0.000, 12:08:15.223
82, -60638.96, -63645.07, -112246.63, -108542.98, -78575.79, -72440.44, -98090.43, -103859.92, 0.000, 0.000, 0.000, 12:08:15.223
83, -60627.03, -63627.61, -112318.27, -108582.98, -78638.40, -72474.84, -98102.32, -103899.15, 0.036, 0.420, 0.896, 12:08:15.223
84, -60560.53, -63564.25, -112305.53, -108866.88, -78630.62, -72465.94, -98040.38, -103888.52, 0.000, 0.000, 0.000, 12:08:15.224
85, -60564.60, -63578.95, -112235.44, -108889.49, -78575.03, -72435.67, -98027.23, -103851.05, 0.000, 0.000, 0.000, 12:08:15.224
86, -60635.30, -63647.68, -112242.45, -108580.28, -78576.80, -72446.88, -98087.59, -103855.77, 0.000, 0.000, 0.000, 12:08:15.224
87, -60648.15, -63653.00, -112318.43, -108537.97, -78627.11, -72488.13, -98111.88, -103901.37, 0.000, 0.000, 0.000, 12:08:15.225
88, -60587.17, -63584.83, -112324.24, -108815.46, -78631.63, -72478.08, -98062.40, -103900.65, 0.000, 0.000, 0.000, 12:08:15.225
89, -60586.91, -63579.25, -112260.27, -108923.65, -78589.98, -72445.16, -98038.84, -103863.77, 0.000, 0.000, 0.000, 12:08:15.225
90, -60645.38, -63650.10, -112252.89, -108629.72, -78580.98, -72452.20, -98089.78, -103859.81, 0.000, 0.000, 0.000, 12:08:15.226
91, -60661.00, -63661.79, -112306.49, -108527.70, -78635.52, -72488.18, -98112.94, -103900.52, 0.000, 0.000, 0.000, 12:08:15.226
92, -60592.31, -63600.70, -112312.95, -108767.32, -78650.11, -72485.90, -98068.97, -103904.47, 0.038, 0.424, 0.894, 12:08:15.226
93, -60578.41, -63583.78, -112272.88, -108942.91, -78620.85, -72457.55, -98037.97, -103873.72, 0.000, 0.000, 0.000, 12:08:15.226
94, -60629.33, -63638.36, -112231.62, -108692.77, -78594.74, -72446.77, -98071.43, -103851.01, 0.000, 0.000, 0.000, 12:08:15.227
95, -60656.93, -63665.16, -112287.88, -108517.09, -78624.70, -72484.67, -98112.17, -103890.95, 0.000, 0.000, 0.000, 12:08:15.227
96, -60611.69, -63620.04, -112333.74, -108707.91, -78657.20, -72505.57, -98090.25, -103916.72, 0.000, 0.000, 0.000, 12:08:15.227
97, -60570.63, -63571.06, -112288.14, -108945.73, -78615.64, -72468.24, -98029.59, -103880.02, 0.000, 0.000, 0.000, 12:08:15.228
98, -60611.65, -63618.81, -112218.80, -108752.43, -78577.33, -72451.79, -98064.63, -103857.29, 0.000, 0.000, 0.000, 12:08:15.228
99, -60658.07, -63661.95, -112275.65, -108525.56, -78617.88, -72481.41, -98114.59, -103889.63, 0.000, 0.000, 0.000, 12:08:15.228
100, -60614.04, -63623.16, -112325.24, -108670.27, -78645.52, -72487.69, -98083.84, -103899.04, 0.000, 0.000, 0.000, 12:08:15.229
101, -60563.43, -63565.43, -112299.23, -108939.91, -78626.88, -72464.66, -98030.84, -103879.35, 0.000, 0.000, 0.000, 12:08:15.229
102, -60614.64, -63610.18, -112234.97, -108818.66, -78598.70, -72445.29, -98047.98, -103853.27, 0.040, 0.426, 0.902, 12:08:15.230
103, -60667.75, -63671.36, -112275.94, -108543.66, -78631.35, -72475.95, -98106.01, -103881.95, 0.000, 0.000, 0.000, 12:08:15.230
104, -60645.04, -63645.23, -112330.79, -108626.55, -78649.95, -72497.75, -98094.12, -103910.57, 0.000, 0.000, 0.000, 12:08:15.230
105, -60596.18, -63593.84, -112330.12, -108917.63, -78641.77, -72478.34, -98047.13, -103899.73, 0.000, 0.000, 0.000, 12:08:15.231
106, -60614.38, -63613.20, -112254.95, -108880.75, -78606.88, -72447.19, -98048.94, -103862.92, 0.000, 0.000, 0.000, 12:08:15.231
107, -60674.52, -63672.43, -112270.15, -108568.59, -78610.28, -72466.63, -98105.06, -103875.98, 0.000, 0.000, 0.000, 12:08:15.231
108, -60648.53, -63650.75, -112322.36, -108593.31, -78649.35, -72498.57, -98106.63, -103911.00, 0.000, 0.000, 0.000, 12:08:15.232
109, -60585.41, -63587.38, -112315.30, -108870.00, -78660.84, -72489.59, -98060.66, -103907.58, 0.000, 0.000, 0.000, 12:08:15.232
110, -60586.88, -63586.96, -112244.58, -108922.35, -78615.13, -72449.98, -98042.28, -103866.90, 0.000, 0.000, 0.000, 12:08:15.232
111, -60659.28, -63660.76, -112237.49, -108607.77, -78610.79, -72460.82, -98099.23, -103869.05, 0.040, 0.428, 0.902, 12:08:15.232
112, -60655.82, -63655.22, -112303.85, -108552.52, -78652.52, -72498.20, -98109.49, -103906.48, 0.000, 0.000, 0.000, 12:08:15.233
113, -60587.89, -63581.52, -112313.17, -108823.15, -78649.28, -72491.89, -98062.95, -103906.20, 0.000, 0.000, 0.000, 12:08:15.233
114, -60575.75, -63571.80, -112250.95, -108941.13, -78616.24, -72457.23, -98042.48, -103874.84, 0.000, 0.000, 0.000, 12:08:15.233
115, -60640.86, -63632.64, -112222.65, -108638.91, -78600.06, -72457.80, -98087.74, -103868.95, 0.000, 0.000, 0.000, 12:08:15.234
116, -60646.05, -63640.76, -112279.67, -108520.53, -78633.32, -72480.27, -98102.83, -103895.29, 0.000, 0.000, 0.000, 12:08:15.234
117, -60598.50, -63589.86, -112304.66, -108758.73, -78647.20, -72475.38, -98060.77, -103899.89, 0.000, 0.000, 0.000, 12:08:15.234
118, -60572.76, -63560.67, -112263.40, -108952.41, -78618.66, -72448.69, -98029.79, -103870.09, 0.000, 0.000, 0.000, 12:08:15.234
119, -60632.57, -63624.37, -112220.95, -108699.73, -78598.21, -72446.52, -98079.88, -103854.80, 0.000, 0.000, 0.000, 12:08:15.235
120, -60677.56, -63660.14, -112295.23, -108509.27, -78641.21, -72486.15, -98122.88, -103896.72, 0.000, 0.000, 0.000, 12:08:15.658
121, -60636.01, -63621.02, -112334.25, -108707.19, -78654.47, -72497.57, -98084.73, -103920.88, 0.036, 0.424, 0.902, 12:08:15.658
122, -60591.17, -63571.80, -112292.23, -108962.54, -78632.48, -72458.92, -98035.75, -103883.87, 0.000, 0.000, 0.000, 12:08:15.659
123, -60649.87, -63621.54, -112226.70, -108793.85, -78595.68, -72433.30, -98060.63, -103850.16, 0.000, 0.000, 0.000, 12:08:15.659
124, -60698.42, -63677.57, -112287.47, -108531.46, -78643.20, -72479.89, -98127.09, -103891.77, 0.000, 0.000, 0.000, 12:08:15.659
125, -60661.22, -63647.04, -112343.02, -108657.19, -78677.22, -72510.24, -98113.85, -103923.63, 0.000, 0.000, 0.000, 12:08:15.659
126, -60603.82, -63585.23, -112318.67, -108934.15, -78644.03, -72481.54, -98056.34, -103903.11, 0.000, 0.000, 0.000, 12:08:15.660
127, -60639.63, -63622.07, -112253.50, -108837.84, -78605.43, -72455.86, -98065.59, -103874.01, 0.000, 0.000, 0.000, 12:08:15.660
128, -60677.03, -63668.02, -112269.61, -108553.66, -78616.38, -72474.68, -98117.05, -103889.66, 0.000, 0.000, 0.000, 12:08:15.661
129, -60658.65, -63642.32, -112327.08, -108618.32, -78652.26, -72504.74, -98114.34, -103923.23, 0.000, 0.000, 0.000, 12:08:15.661
130, -60605.39, -63585.21, -112328.48, -108913.21, -78648.86, -72485.30, -98054.22, -103907.16, 0.000, 0.000, 0.000, 12:08:15.661
131, -60618.71, -63598.63, -112249.27, -108903.10, -78615.20, -72450.49, -98050.10, -103867.97, 0.028, 0.420, 0.902, 12:08:15.662
132, -60685.39, -63669.99, -112262.48, -108585.82, -78625.61, -72474.50, -98113.74, -103882.27, 0.000, 0.000, 0.000, 12:08:15.662
133, -60668.27, -63652.00, -112328.09, -108591.05, -78668.03, -72502.89, -98117.54, -103915.70, 0.000, 0.000, 0.000, 12:08:15.663
134, -60605.90, -63587.40, -112333.59, -108870.60, -78668.68, -72490.10, -98070.66, -103913.21, 0.000, 0.000, 0.000, 12:08:15.664
135, -60605.46, -63587.22, -112268.98, -108933.55, -78629.61, -72457.42, -98055.24, -103877.65, 0.000, 0.000, 0.000, 12:08:15.664
136, -60683.04, -63663.62, -112263.94, -108616.87, -78621.16, -72471.69, -98121.63, -103881.05, 0.000, 0.000, 0.000, 12:08:15.664
137, -60684.92, -63676.96, -112337.78, -108561.10, -78671.95, -72511.13, -98144.70, -103927.07, 0.000, 0.000, 0.000, 12:08:15.664
138, -60614.44, -63600.97, -112347.89, -108823.73, -78664.70, -72499.09, -98089.20, -103931.96, 0.000, 0.000, 0.000, 12:08:15.665
139, -60584.18, -63567.27, -112288.61, -108971.70, -78621.63, -72457.67, -98045.68, -103890.73, 0.000, 0.000, 0.000, 12:08:15.665
140, -60664.75, -63658.01, -112255.17, -108677.40, -78609.23, -72458.56, -98100.59, -103868.87, 0.032, 0.422, 0.902, 12:08:15.665
141, -60689.59, -63683.65, -112322.09, -108533.34, -78653.33, -72500.16, -98138.95, -103914.30, 0.000, 0.000, 0.000, 12:08:15.666
142, -60626.96, -63615.05, -112346.63, -108760.59, -78675.21, -72505.66, -98097.91, -103927.16, 0.000, 0.000, 0.000, 12:08:15.666
143, -60590.26, -63570.95, -112291.30, -108968.20, -78623.80, -72467.44, -98048.41, -103890.66, 0.000, 0.000, 0.000, 12:08:15.666
144, -60654.03, -63632.11, -112240.82, -108733.34, -78597.54, -72458.12, -98083.63, -103871.28, 0.000, 0.000, 0.000, 12:08:15.666
145, -60682.79, -63666.66, -112303.09, -108531.95, -78640.23, -72495.69, -98124.65, -103905.05, 0.000, 0.000, 0.000, 12:08:15.667
146, -60644.01, -63620.46, -112327.39, -108694.05, -78664.97, -72511.47, -98095.45, -103930.40, 0.000, 0.000, 0.000, 12:08:15.667
147, -60588.13, -63574.64, -112296.37, -108935.89, -78647.12, -72487.35, -98050.13, -103909.23, 0.000, 0.000, 0.000, 12:08:15.667
148, -60634.49, -63620.57, -112241.94, -108772.73, -78620.76, -72471.70, -98078.65, -103881.00, 0.000, 0.000, 0.000, 12:08:15.667
149, -60677.88, -63660.25, -112282.17, -108522.01, -78635.05, -72496.67, -98125.81, -103903.58, 0.000, 0.000, 0.000, 12:08:15.668
150, -60643.86, -63617.69, -112330.41, -108651.27, -78653.38, -72508.66, -98104.09, -103926.71, 0.024, 0.426, 0.900, 12:08:15.668
151, -60580.16, -63565.77, -112305.76, -108932.25, -78649.93, -72484.13, -98056.56, -103912.79, 0.000, 0.000, 0.000, 12:08:15.668
152, -60607.36, -63595.54, -112231.77, -108840.61, -78610.84, -72448.57, -98060.84, -103868.06, 0.000, 0.000, 0.000, 12:08:15.668
153, -60668.38, -63663.20, -112266.98, -108541.59, -78628.61, -72471.84, -98117.49, -103881.20, 0.000, 0.000, 0.000, 12:08:15.669
154, -60643.61, -63634.99, -112327.95, -108600.77, -78665.76, -72493.84, -98111.39, -103912.52, 0.000, 0.000, 0.000, 12:08:15.669
155, -60592.58, -63581.17, -112310.80, -108879.84, -78645.41, -72478.93, -98057.46, -103902.13, 0.000, 0.000, 0.000, 12:08:15.669
156, -60612.21, -63595.52, -112245.67, -108890.32, -78602.19, -72448.35, -98045.79, -103862.92, 0.000, 0.000, 0.000, 12:08:15.670
157, -60672.89, -63662.66, -112252.83, -108576.75, -78602.12, -72463.66, -98094.34, -103867.75, 0.000, 0.000, 0.000, 12:08:15.670
158, -60654.86, -63650.46, -112319.45, -108570.33, -78645.88, -72492.09, -98103.73, -103903.94, 0.000, 0.000, 0.000, 12:08:15.670
159, -60595.82, -63584.14, -112318.92, -108845.52, -78637.28, -72478.79, -98047.78, -103897.03, 0.026, 0.424, 0.896, 12:08:15.670
160, -60587.89, -63575.27, -112255.38, -108935.27, -78599.59, -72443.61, -98024.06, -103860.41, 0.000, 0.000, 0.000, 12:08:15.671
161, -60659.14, -63645.59, -112237.90, -108620.89, -78585.58, -72449.98, -98079.72, -103858.92, 0.000, 0.000, 0.000, 12:08:15.671
162, -60673.14, -63657.81, -112303.34, -108533.95, -78625.81, -72493.90, -98108.44, -103900.34, 0.000, 0.000, 0.000, 12:08:15.671
163, -60608.45, -63595.88, -112325.24, -108780.46, -78635.58, -72496.70, -98068.43, -103912.34, 0.000, 0.000, 0.000, 12:08:15.671
164, -60579.95, -63573.86, -112264.70, -108938.09, -78601.70, -72457.24, -98033.59, -103874.74, 0.000, 0.000, 0.000, 12:08:15.672
165, -60659.08, -63651.46, -112235.30, -108667.38, -78587.95, -72452.66, -98084.66, -103860.64, 0.000, 0.000, 0.000, 12:08:15.672
166, -60675.20, -63667.45, -112288.43, -108508.26, -78633.45, -72494.39, -98126.19, -103903.66, 0.000, 0.000, 0.000, 12:08:15.672
167, -60615.67, -63603.81, -112319.45, -108722.59, -78649.46, -72496.90, -98085.24, -103918.27, 0.000, 0.000, 0.000, 12:08:15.672
168, -60573.40, -63561.05, -112272.59, -108940.25, -78615.59, -72456.04, -98037.07, -103876.31, 0.000, 0.000, 0.000, 12:08:15.673
169, -60631.70, -63622.05, -112210.54, -108704.48, -78587.48, -72445.33, -98074.63, -103853.63, 0.036, 0.428, 0.898, 12:08:15.673
170, -60672.31, -63665.52, -112275.76, -108481.93, -78626.66, -72486.64, -98122.95, -103889.85, 0.000, 0.000, 0.000, 12:08:15.673
171, -60620.99, -63605.06, -112305.82, -108660.32, -78641.73, -72488.59, -98080.48, -103898.08, 0.000, 0.000, 0.000, 12:08:15.673
172, -60578.19, -63567.71, -112283.07, -108925.21, -78617.54, -72465.96, -98035.17, -103877.47, 0.000, 0.000, 0.000, 12:08:15.674
173, -60614.84, -63606.71, -112217.17, -108778.09, -78577.64, -72442.09, -98057.52, -103850.16, 0.000, 0.000, 0.000, 12:08:15.674
174, -60679.48, -63661.39, -112264.88, -108509.06, -78602.12, -72472.04, -98112.40, -103882.27, 0.000, 0.000, 0.000, 12:08:15.674
175, -60642.27, -63637.23, -112322.30, -108612.62, -78647.05, -72499.98, -98104.64, -103914.35, 0.000, 0.000, 0.000, 12:08:15.675
176, -60584.76, -63575.07, -112311.55, -108896.98, -78635.42, -72480.89, -98054.24, -103896.42, 0.000, 0.000, 0.000, 12:08:15.675
177, -60612.92, -63601.75, -112235.80, -108850.58, -78596.60, -72442.65, -98052.20, -103857.53, 0.000, 0.000, 0.000, 12:08:15.675
178, -60660.42, -63643.06, -112248.69, -108543.02, -78595.80, -72457.91, -98107.97, -103867.75, 0.036, 0.428, 0.896, 12:08:15.676
179, -60662.34, -63638.12, -112317.55, -108583.74, -78635.80, -72491.47, -98112.66, -103904.07, 0.000, 0.000, 0.000, 12:08:15.679
180, -60591.11, -63563.80, -112314.12, -108881.42, -78625.70, -72468.84, -98049.08, -103891.17, 0.000, 0.000, 0.000, 12:08:15.679
181, -60597.05, -63575.18, -112242.45, -108893.18, -78584.02, -72434.65, -98034.21, -103852.55, 0.000, 0.000, 0.000, 12:08:15.679
182, -60669.70, -63650.99, -112238.43, -108562.17, -78596.53, -72456.80, -98106.59, -103871.50, 0.000, 0.000, 0.000, 12:08:15.680
183, -60664.27, -63647.02, -112314.16, -108539.64, -78640.79, -72494.35, -98123.91, -103913.13, 0.000, 0.000, 0.000, 12:08:15.681
184, -60607.96, -63571.80, -112323.86, -108821.34, -78634.38, -72478.30, -98059.49, -103904.30, 0.000, 0.000, 0.000, 12:08:15.681
185, -60604.81, -63558.48, -112264.67, -108920.20, -78602.57, -72446.00, -98039.69, -103871.21, 0.000, 0.000, 0.000, 12:08:15.681
186, -60676.33, -63637.85, -112255.58, -108612.64, -78593.54, -72455.26, -98100.15, -103869.94, 0.000, 0.000, 0.000, 12:08:15.681
187, -60672.71, -63647.39, -112308.51, -108519.99, -78636.81, -72486.86, -98120.11, -103897.95, 0.000, 0.000, 0.000, 12:08:15.682
188, -60601.52, -63579.36, -112313.42, -108772.52, -78641.39, -72478.30, -98064.77, -103900.65, 0.032, 0.430, 0.896, 12:08:15.683
189, -60586.10, -63563.89, -112263.55, -108946.31, -78603.21, -72444.73, -98030.59, -103868.64, 0.000, 0.000, 0.000, 12:08:15.684
190, -60651.81, -63627.93, -112227.52, -108679.30, -78583.08, -72440.75, -98078.87, -103852.82, 0.000, 0.000, 0.000, 12:08:15.684
191, -60690.37, -63665.63, -112303.52, -108508.02, -78624.54, -72485.90, -98120.11, -103893.85, 0.000, 0.000, 0.000, 12:08:15.685
192, -60635.41, -63609.91, -112338.34, -108722.01, -78639.63, -72490.55, -98078.60, -103908.36, 0.000, 0.000, 0.000, 12:08:15.685
193, -60578.55, -63557.96, -112289.70, -108961.60, -78614.01, -72457.52, -98033.83, -103878.32, 0.000, 0.000, 0.000, 12:08:15.686
194, -60626.29, -63610.98, -112223.99, -108758.91, -78584.57, -72435.34, -98063.73, -103850.36, 0.000, 0.000, 0.000, 12:08:15.686
195, -60670.39, -63658.26, -112277.73, -108521.88, -78612.09, -72467.84, -98113.74, -103881.56, 0.000, 0.000, 0.000, 12:08:15.686
196, -60662.66, -63630.65, -112338.73, -108667.49, -78651.96, -72495.51, -98100.17, -103914.24, 0.000, 0.000, 0.000, 12:08:15.687
197, -60613.61, -63577.99, -112320.77, -108933.59, -78626.69, -72472.20, -98049.09, -103893.03, 0.000, 0.000, 0.000, 12:08:15.687
198, -60626.47, -63611.18, -112238.14, -108805.02, -78589.78, -72446.77, -98062.60, -103857.98, 0.032, 0.434, 0.898, 12:08:15.687
199, -60677.47, -63663.49, -112273.26, -108529.98, -78610.28, -72469.43, -98108.69, -103876.29, 0.000, 0.000, 0.000, 12:08:15.687
200, -60635.12, -63612.82, -112323.81, -108621.88, -78629.45, -72483.48, -98087.30, -103898.66, 0.000, 0.000, 0.000, 12:08:15.688
201, -60590.79, -63568.29, -112314.78, -108912.72, -78614.66, -72462.81, -98035.17, -103886.13, 0.000, 0.000, 0.000, 12:08:15.688
202, -60620.48, -63597.02, -112249.09, -108866.94, -78574.94, -72437.51, -98044.16, -103853.45, 0.000, 0.000, 0.000, 12:08:15.688
203, -60688.43, -63654.55, -112269.95, -108557.45, -78585.80, -72461.42, -98104.98, -103870.07, 0.000, 0.000, 0.000, 12:08:15.689
204, -60649.98, -63632.17, -112317.96, -108581.73, -78624.96, -72485.66, -98101.34, -103900.38, 0.000, 0.000, 0.000, 12:08:15.689
205, -60590.86, -63575.55, -112321.80, -108865.66, -78634.53, -72480.60, -98056.52, -103903.17, 0.000, 0.000, 0.000, 12:08:15.689
206, -60603.94, -63587.83, -112264.12, -108915.94, -78595.64, -72447.63, -98044.78, -103867.57, 0.000, 0.000, 0.000, 12:08:15.690
207, -60683.87, -63664.89, -112264.63, -108605.87, -78591.37, -72454.72, -98102.12, -103865.40, 0.034, 0.430, 0.898, 12:08:15.690
208, -60668.58, -63649.18, -112321.06, -108548.98, -78626.75, -72487.02, -98113.52, -103902.80, 0.000, 0.000, 0.000, 12:08:15.690
209, -60608.74, -63589.39, -112328.64, -108819.66, -78630.38, -72480.09, -98063.63, -103905.48, 0.000, 0.000, 0.000, 12:08:15.690
210, -60601.19, -63570.97, -112277.52, -108940.92, -78599.28, -72447.95, -98044.27, -103871.95, 0.000, 0.000, 0.000, 12:08:15.691
211, -60665.49, -63640.33, -112243.20, -108641.73, -78588.04, -72451.37, -98095.25, -103863.79, 0.000, 0.000, 0.000, 12:08:15.691
212, -60670.68, -63651.64, -112311.45, -108537.07, -78636.95, -72485.92, -98118.88, -103901.66, 0.000, 0.000, 0.000, 12:08:15.691
213, -60624.39, -63596.84, -112324.58, -108772.01, -78636.27, -72487.51, -98071.20, -103911.67, 0.000, 0.000, 0.000, 12:08:15.691
214, -60594.39, -63576.50, -112284.14, -108958.29, -78610.44, -72457.73, -98042.80, -103881.38, 0.000, 0.000, 0.000, 12:08:15.692
215, -60652.86, -63621.96, -112236.73, -108719.48, -78585.36, -72444.23, -98075.83, -103858.18, 0.000, 0.000, 0.000, 12:08:15.692
216, -60682.39, -63655.73, -112298.20, -108519.39, -78625.12, -72489.97, -98117.38, -103895.42, 0.000, 0.000, 0.000, 12:08:15.692
217, -60613.14, -63594.55, -112329.45, -108721.20, -78649.41, -72498.15, -98080.62, -103914.24, 0.040, 0.432, 0.906, 12:08:15.693
218, -60576.18, -63556.78, -112282.87, -108961.11, -78622.02, -72460.64, -98032.67, -103880.66, 0.000, 0.000, 0.000, 12:08:15.693
219, -60623.98, -63602.33, -112226.41, -108763.52, -78584.66, -72438.49, -98063.45, -103849.87, 0.000, 0.000, 0.000, 12:08:15.693
220, -60682.28, -63658.26, -112278.64, -108510.25, -78611.41, -72470.30, -98113.63, -103881.67, 0.000, 0.000, 0.000, 12:08:15.693
221, -60641.20, -63615.21, -112332.84, -108657.21, -78652.57, -72493.90, -98091.09, -103911.91, 0.000, 0.000, 0.000, 12:08:15.694
222, -60586.99, -63560.69, -112305.64, -108942.94, -78633.37, -72473.54, -98042.44, -103893.81, 0.000, 0.000, 0.000, 12:08:15.696
223, -60620.63, -63593.37, -112236.64, -108832.98, -78586.43, -72446.45, -98059.98, -103861.94, 0.000, 0.000, 0.000, 12:08:15.697
224, -60674.05, -63654.55, -112269.57, -108548.59, -78602.61, -72473.41, -98109.83, -103881.45, 0.000, 0.000, 0.000, 12:08:15.697
225, -60648.93, -63618.07, -112326.48, -108619.21, -78642.17, -72502.40, -98100.26, -103911.70, 0.000, 0.000, 0.000, 12:08:15.698
226, -60601.14, -63568.89, -112318.98, -108897.41, -78632.41, -72487.87, -98050.64, -103904.05, 0.032, 0.424, 0.894, 12:08:15.698
227, -60608.32, -63579.09, -112248.04, -108880.08, -78587.13, -72449.87, -98037.92, -103865.52, 0.000, 0.000, 0.000, 12:08:15.699
228, -60664.24, -63637.89, -112251.66, -108568.79, -78587.97, -72461.47, -98090.59, -103869.49, 0.000, 0.000, 0.000, 12:08:15.699
229, -60659.37, -63640.38, -112318.67, -108569.80, -78639.60, -72498.26, -98105.40, -103906.15, 0.000, 0.000, 0.000, 12:08:15.699
230, -60593.81, -63576.94, -112326.85, -108854.31, -78648.59, -72489.23, -98059.91, -103905.74, 0.000, 0.000, 0.000, 12:08:15.699
231, -60581.27, -63560.07, -112252.11, -108924.80, -78603.84, -72451.10, -98036.73, -103865.27, 0.000, 0.000, 0.000, 12:08:15.700
232, -60656.08, -63633.80, -112243.80, -108610.68, -78595.37, -72461.31, -98095.23, -103865.31, 0.000, 0.000, 0.000, 12:08:15.700
233, -60673.63, -63650.66, -112319.50, -108551.84, -78641.55, -72501.73, -98120.89, -103909.63, 0.000, 0.000, 0.000, 12:08:15.700
234, -60614.60, -63586.13, -112335.66, -108826.33, -78649.23, -72493.19, -98070.55, -103911.22, 0.000, 0.000, 0.000, 12:08:15.701
235, -60591.80, -63558.99, -112266.26, -108958.76, -78605.43, -72455.32, -98037.97, -103875.17, 0.000, 0.000, 0.000, 12:08:15.701
236, -60659.32, -63624.71, -112237.16, -108665.93, -78584.57, -72459.93, -98090.20, -103868.48, 0.026, 0.418, 0.898, 12:08:15.701
237, -60673.34, -63637.07, -112301.48, -108549.25, -78623.87, -72489.19, -98113.11, -103891.33, 0.000, 0.000, 0.000, 12:08:15.701
238, -60618.55, -63584.47, -112324.38, -108782.13, -78641.70, -72490.05, -98074.22, -103905.12, 0.000, 0.000, 0.000, 12:08:15.702
239, -60590.68, -63554.97, -112283.72, -108979.39, -78616.24, -72459.44, -98039.27, -103878.73, 0.000, 0.000, 0.000, 12:08:15.702
240, -60652.02, -63623.23, -112232.04, -108720.87, -78585.02, -72452.10, -98076.14, -103860.87, 0.000, 0.000, 0.000, 12:08:16.137
241, -60688.88, -63659.46, -112301.20, -108519.93, -78631.47, -72492.78, -98124.47, -103899.53, 0.000, 0.000, 0.000, 12:08:16.137
242, -60644.35, -63609.11, -112342.91, -108704.40, -78663.14, -72504.52, -98095.79, -103922.40, 0.000, 0.000, 0.000, 12:08:16.138
243, -60590.28, -63553.81, -112299.52, -108958.02, -78636.18, -72468.63, -98044.49, -103889.74, 0.000, 0.000, 0.000, 12:08:16.138
244, -60642.00, -63608.70, -112238.21, -108779.74, -78598.52, -72453.94, -98067.36, -103863.30, 0.000, 0.000, 0.000, 12:08:16.138
245, -60690.62, -63656.02, -112287.83, -108524.64, -78623.84, -72490.41, -98118.99, -103893.48, 0.032, 0.418, 0.898, 12:08:16.138
246, -60653.73, -63615.27, -112335.23, -108653.66, -78657.89, -72510.64, -98101.11, -103922.82, 0.000, 0.000, 0.000, 12:08:16.139
247, -60606.24, -63563.91, -112313.22, -108928.32, -78639.23, -72488.25, -98053.01, -103903.63, 0.000, 0.000, 0.000, 12:08:16.139
248, -60640.44, -63599.11, -112247.82, -108831.29, -78599.55, -72466.16, -98069.86, -103871.10, 0.000, 0.000, 0.000, 12:08:16.139
249, -60700.21, -63666.17, -112283.20, -108534.63, -78625.21, -72495.06, -98130.73, -103892.18, 0.000, 0.000, 0.000, 12:08:16.139
250, -60675.53, -63634.70, -112340.89, -108594.52, -78662.40, -72518.71, -98119.69, -103924.41, 0.000, 0.000, 0.000, 12:08:16.140
251, -60614.75, -63573.28, -112329.13, -108890.54, -78647.83, -72497.86, -98062.09, -103914.35, 0.000, 0.000, 0.000, 12:08:16.140
252, -60626.91, -63592.07, -112256.45, -108884.40, -78607.44, -72465.41, -98057.37, -103875.23, 0.000, 0.000, 0.000, 12:08:16.140
253, -60692.76, -63655.57, -112264.49, -108568.27, -78621.01, -72482.05, -98118.09, -103885.96, 0.000, 0.000, 0.000, 12:08:16.140
254, -60676.87, -63638.48, -112324.71, -108574.24, -78654.09, -72505.23, -98115.88, -103918.20, 0.000, 0.000, 0.000, 12:08:16.141
255, -60617.82, -63580.70, -112329.80, -108858.16, -78641.30, -72494.05, -98065.05, -103916.32, 0.038, 0.430, 0.890, 12:08:16.141
0, -60610.95, -63569.50, -112262.66, -108950.00, -78603.91, -72456.59, -98038.39, -103876.29, 0.000, 0.000, 0.000, 12:08:16.141
1, -60677.00, -63633.74, -112237.83, -108627.66, -78589.49, -72458.84, -98086.52, -103857.94, 0.000, 0.000, 0.000, 12:08:16.141
2, -60689.86, -63644.82, -112310.36, -108551.06, -78630.73, -72501.28, -98120.66, -103906.82, 0.000, 0.000, 0.000, 12:08:16.142
3, -60633.17, -63594.82, -112332.24, -108810.91, -78642.51, -72505.30, -98083.20, -103920.27, 0.000, 0.000, 0.000, 12:08:16.142
4, -60612.65, -63577.61, -112274.64, -108963.23, -78605.36, -72472.34, -98050.30, -103884.80, 0.000, 0.000, 0.000, 12:08:16.142
5, -60669.36, -63637.98, -112244.66, -108691.21, -78585.31, -72465.49, -98089.22, -103868.58, 0.000, 0.000, 0.000, 12:08:16.142
6, -60673.12, -63637.89, -112298.05, -108547.94, -78616.58, -72493.30, -98111.59, -103896.96, 0.000, 0.000, 0.000, 12:08:16.142
7, -60631.16, -63595.00, -112328.27, -108760.34, -78634.75, -72503.49, -98084.19, -103914.22, 0.000, 0.000, 0.000, 12:08:16.143
8, -60597.41, -63550.52, -112287.43, -108973.02, -78614.44, -72468.80, -98046.52, -103888.00, 0.000, 0.000, 0.000, 12:08:16.143
9, -60661.09, -63618.11, -112235.57, -108746.69, -78587.52, -72455.23, -98083.38, -103864.40, 0.034, 0.436, 0.902, 12:08:16.143
10, -60700.96, -63656.47, -112297.82, -108538.01, -78627.00, -72494.73, -98131.58, -103900.12, 0.000, 0.000, 0.000, 12:08:16.143
11, -60663.59, -63621.64, -112335.77, -108704.38, -78649.55, -72516.68, -98105.20, -103927.65, 0.000, 0.000, 0.000, 12:08:16.144
12, -60615.22, -63567.29, -112303.70, -108957.53, -78625.23, -72489.88, -98054.66, -103903.91, 0.000, 0.000, 0.000, 12:08:16.144
13, -60658.65, -63613.51, -112242.12, -108796.69, -78588.64, -72463.82, -98078.80, -103867.26, 0.000, 0.000, 0.000, 12:08:16.144
14, -60700.50, -63653.81, -112274.69, -108525.80, -78609.20, -72484.34, -98122.86, -103887.66, 0.000, 0.000, 0.000, 12:08:16.145
15, -60677.25, -63628.20, -112337.63, -108638.15, -78645.99, -72513.02, -98113.54, -103922.45, 0.000, 0.000, 0.000, 12:08:16.145
16, -60619.40, -63569.50, -112321.87, -108931.24, -78633.08, -72487.95, -98067.20, -103908.09, 0.000, 0.000, 0.000, 12:08:16.145
17, -60652.37, -63604.14, -112251.10, -108844.56, -78589.78, -72461.18, -98081.69, -103875.51, 0.000, 0.000, 0.000, 12:08:16.145
18, -60705.95, -63656.54, -112271.29, -108546.46, -78599.26, -72480.02, -98125.88, -103889.67, 0.028, 0.438, 0.900, 12:08:16.146
19, -60677.68, -63625.18, -112322.32, -108607.95, -78627.66, -72500.49, -98113.25, -103920.09, 0.000, 0.000, 0.000, 12:08:16.146
20, -60618.04, -63564.78, -112315.39, -108902.55, -78621.34, -72482.05, -98067.23, -103909.73, 0.000, 0.000, 0.000, 12:08:16.146
21, -60626.89, -63575.09, -112246.32, -108909.70, -78581.04, -72449.38, -98061.59, -103869.31, 0.000, 0.000, 0.000, 12:08:16.146
22, -60702.95, -63658.32, -112259.77, -108587.19, -78585.96, -72473.05, -98132.07, -103886.91, 0.000, 0.000, 0.000, 12:08:16.147
23, -60697.66, -63653.23, -112325.29, -108560.88, -78619.87, -72507.54, -98143.65, -103930.11, 0.000, 0.000, 0.000, 12:08:16.147
24, -60648.28, -63592.99, -112335.59, -108839.85, -78624.41, -72499.24, -98097.96, -103931.74, 0.000, 0.000, 0.000, 12:08:16.147
25, -60635.41, -63573.88, -112273.28, -108927.47, -78581.60, -72464.78, -98076.57, -103896.41, 0.000, 0.000, 0.000, 12:08:16.147
26, -60696.88, -63634.72, -112250.84, -108633.77, -78562.83, -72466.61, -98118.05, -103888.58, 0.000, 0.000, 0.000, 12:08:16.148
27, -60703.83, -63640.22, -112314.92, -108555.40, -78601.47, -72502.41, -98141.81, -103925.69, 0.000, 0.000, 0.000, 12:08:16.148
28, -60636.82, -63572.58, -112326.54, -108795.88, -78609.00, -72494.93, -98097.69, -103928.48, 0.032, 0.440, 0.904, 12:08:16.148
29, -60616.75, -63555.93, -112272.80, -108956.62, -78579.50, -72458.79, -98065.91, -103895.91, 0.000, 0.000, 0.000, 12:08:16.148
30, -60676.98, -63610.87, -112231.55, -108685.84, -78560.27, -72450.59, -98110.56, -103880.22, 0.000, 0.000, 0.000, 12:08:16.149
31, -60697.88, -63632.00, -112295.43, -108527.08, -78603.69, -72486.19, -98144.59, -103917.16, 0.000, 0.000, 0.000, 12:08:16.150
32, -60649.69, -63589.79, -112331.93, -108744.05, -78625.88, -72494.91, -98114.27, -103936.21, 0.000, 0.000, 0.000, 12:08:16.150
33, -60613.82, -63551.06, -112294.24, -108968.15, -78593.40, -72462.95, -98068.19, -103906.26, 0.000, 0.000, 0.000, 12:08:16.151
34, -60661.31, -63599.16, -112230.14, -108753.55, -78540.49, -72443.72, -98088.21, -103874.74, 0.000, 0.000, 0.000, 12:08:16.151
35, -60696.99, -63636.75, -112281.50, -108529.56, -78559.98, -72473.02, -98131.58, -103904.80, 0.000, 0.000, 0.000, 12:08:16.152
36, -60656.89, -63587.40, -112329.67, -108693.67, -78583.66, -72491.64, -98108.89, -103932.91, 0.000, 0.000, 0.000, 12:08:16.152
37, -60599.09, -63531.08, -112292.52, -108953.04, -78550.98, -72461.42, -98056.02, -103913.70, 0.028, 0.424, 0.904, 12:08:16.152
38, -60646.74, -63577.72, -112230.67, -108808.83, -78514.39, -72437.06, -98078.94, -103881.31, 0.000, 0.000, 0.000, 12:08:16.152
39, -60702.48, -63626.45, -112277.39, -108534.79, -78541.84, -72472.11, -98139.80, -103905.95, 0.000, 0.000, 0.000, 12:08:16.153
40, -60678.34, -63607.18, -112337.16, -108635.82, -78582.72, -72501.41, -98142.84, -103945.22, 0.000, 0.000, 0.000, 12:08:16.153
41, -60607.07, -63538.86, -112314.05, -108917.41, -78561.46, -72471.48, -98077.53, -103924.90, 0.000, 0.000, 0.000, 12:08:16.153
42, -60627.52, -63569.34, -112235.17, -108866.45, -78510.63, -72432.44, -98073.46, -103878.88, 0.000, 0.000, 0.000, 12:08:16.153
43, -60702.24, -63643.84, -112271.96, -108559.98, -78530.86, -72464.84, -98135.02, -103903.80, 0.000, 0.000, 0.000, 12:08:16.154
44, -60671.82, -63597.13, -112321.54, -108591.95, -78557.48, -72484.98, -98118.92, -103927.25, 0.000, 0.000, 0.000, 12:08:16.154
45, -60610.93, -63533.42, -112309.73, -108863.99, -78551.65, -72471.73, -98066.45, -103915.91, 0.000, 0.000, 0.000, 12:08:16.154
46, -60610.38, -63548.96, -112240.29, -108899.20, -78505.72, -72424.88, -98048.31, -103874.09, 0.000, 0.000, 0.000, 12:08:16.154
47, -60687.64, -63619.93, -112242.88, -108589.40, -78509.65, -72449.69, -98115.21, -103885.80, 0.032, 0.416, 0.906, 12:08:16.154
48, -60696.81, -63623.41, -112323.03, -108553.34, -78564.57, -72486.70, -98136.96, -103929.04, 0.000, 0.000, 0.000, 12:08:16.155
49, -60626.63, -63562.44, -112327.41, -108831.73, -78568.13, -72488.18, -98088.21, -103932.28, 0.000, 0.000, 0.000, 12:08:16.155
50, -60618.87, -63551.06, -112264.65, -108945.05, -78533.39, -72456.35, -98064.19, -103898.08, 0.000, 0.000, 0.000, 12:08:16.155
51, -60665.85, -63585.17, -112229.29, -108641.52, -78518.70, -72431.97, -98101.49, -103872.33, 0.000, 0.000, 0.000, 12:08:16.155
52, -60692.50, -63622.83, -112297.75, -108526.88, -78564.08, -72474.12, -98135.64, -103913.30, 0.000, 0.000, 0.000, 12:08:16.156
53, -60638.52, -63562.97, -112333.76, -108769.40, -78578.83, -72489.81, -98100.59, -103938.34, 0.000, 0.000, 0.000, 12:08:16.156
54, -60604.29, -63532.33, -112271.58, -108942.96, -78540.48, -72450.98, -98058.38, -103901.99, 0.000, 0.000, 0.000, 12:08:16.156
55, -60675.80, -63612.55, -112239.41, -108704.66, -78528.83, -72443.79, -98107.81, -103886.19, 0.000, 0.000, 0.000, 12:08:16.156
56, -60705.64, -63651.89, -112306.70, -108532.94, -78564.57, -72485.50, -98148.05, -103924.12, 0.026, 0.418, 0.904, 12:08:16.157
57, -60647.66, -63584.41, -112329.60, -108719.69, -78569.38, -72496.00, -98107.75, -103935.56, 0.000, 0.000, 0.000, 12:08:16.157
58, -60605.88, -63540.91, -112288.63, -108953.06, -78543.65, -72460.55, -98060.84, -103899.20, 0.000, 0.000, 0.000, 12:08:16.157
59, -60640.64, -63564.54, -112224.66, -108745.26, -78508.91, -72443.32, -98080.39, -103865.73, 0.000, 0.000, 0.000, 12:08:16.158
60, -60686.64, -63606.71, -112281.39, -108506.43, -78538.66, -72463.75, -98128.76, -103894.28, 0.000, 0.000, 0.000, 12:08:16.158
61, -60646.67, -63574.10, -112323.59, -108638.66, -78568.63, -72487.55, -98108.66, -103922.02, 0.000, 0.000, 0.000, 12:08:16.158
62, -60611.04, -63549.94, -112305.80, -108904.91, -78557.23, -72460.24, -98070.09, -103902.91, 0.000, 0.000, 0.000, 12:08:16.158
63, -60652.48, -63597.42, -112249.14, -108792.13, -78518.45, -72440.03, -98090.91, -103880.31, 0.000, 0.000, 0.000, 12:08:16.159
64, -60707.43, -63654.55, -112290.09, -108521.49, -78540.27, -72486.86, -98139.82, -103913.86, 0.000, 0.000, 0.000, 12:08:16.159
65, -60651.52, -63575.55, -112319.50, -108590.36, -78557.38, -72486.84, -98101.67, -103924.30, 0.000, 0.000, 0.000, 12:08:16.159
66, -60603.94, -63535.39, -112310.13, -108881.76, -78556.45, -72470.48, -98060.97, -103911.73, 0.030, 0.426, 0.900, 12:08:16.159
67, -60651.55, -63598.76, -112270.28, -108873.17, -78541.48, -72482.16, -98086.31, -103903.69, 0.000, 0.000, 0.000, 12:08:16.160
68, -60682.91, -63604.32, -112254.10, -108543.45, -78528.38, -72464.35, -98113.27, -103886.13, 0.000, 0.000, 0.000, 12:08:16.160
69, -60680.76, -63611.07, -112319.45, -108549.68, -78569.30, -72482.62, -98121.49, -103915.63, 0.000, 0.000, 0.000, 12:08:16.160
70, -60618.33, -63563.13, -112330.50, -108838.48, -78573.30, -72484.27, -98083.70, -103919.36, 0.000, 0.000, 0.000, 12:08:16.160
71, -60610.29, -63550.63, -112260.76, -108897.88, -78527.02, -72445.55, -98058.82, -103880.09, 0.000, 0.000, 0.000, 12:08:16.161
72, -60679.26, -63616.75, -112244.06, -108587.84, -78512.13, -72440.75, -98106.32, -103871.62, 0.000, 0.000, 0.000, 12:08:16.161
73, -60690.24, -63630.07, -112318.83, -108554.46, -78558.35, -72495.09, -98128.27, -103919.70, 0.000, 0.000, 0.000, 12:08:16.161
74, -60623.32, -63557.68, -112324.15, -108810.63, -78560.43, -72504.77, -98080.30, -103928.57, 0.000, 0.000, 0.000, 12:08:16.161
75, -60592.38, -63531.05, -112250.97, -108913.30, -78512.49, -72452.64, -98037.19, -103875.68, 0.000, 0.000, 0.000, 12:08:16.162
76, -60663.23, -63605.06, -112226.30, -108616.35, -78503.21, -72441.38, -98088.41, -103852.88, 0.032, 0.430, 0.908, 12:08:16.162
77, -60687.42, -63635.21, -112308.15, -108511.97, -78555.13, -72484.05, -98123.98, -103899.87, 0.000, 0.000, 0.000, 12:08:16.162
78, -60626.87, -63561.90, -112334.50, -108754.24, -78572.73, -72498.73, -98086.54, -103919.76, 0.000, 0.000, 0.000, 12:08:16.162
79, -60586.39, -63521.06, -112274.02, -108938.78, -78539.58, -72463.77, -98048.25, -103886.37, 0.000, 0.000, 0.000, 12:08:16.163
80, -60655.01, -63598.24, -112229.09, -108682.94, -78519.17, -72446.72, -98087.66, -103861.38, 0.000, 0.000, 0.000, 12:08:16.163
81, -60682.91, -63619.95, -112287.70, -108488.63, -78559.59, -72481.95, -98127.87, -103894.46, 0.000, 0.000, 0.000, 12:08:16.163
82, -60640.68, -63579.51, -112326.72, -108678.11, -78579.37, -72503.29, -98103.30, -103920.12, 0.000, 0.000, 0.000, 12:08:16.164
83, -60594.95, -63527.61, -112287.72, -108939.23, -78548.59, -72475.38, -98050.08, -103890.97, 0.000, 0.000, 0.000, 12:08:16.164
84, -60645.64, -63581.84, -112227.95, -108761.02, -78517.63, -72441.11, -98077.87, -103857.20, 0.000, 0.000, 0.000, 12:08:16.164
85, -60690.84, -63623.32, -112276.74, -108515.39, -78555.56, -72477.70, -98124.31, -103885.88, 0.032, 0.434, 0.900, 12:08:16.164
86, -60640.30, -63585.50, -112315.21, -108639.66, -78590.32, -72491.22, -98107.32, -103903.66, 0.000, 0.000, 0.000, 12:08:16.164
87, -60595.15, -63538.79, -112299.45, -108914.64, -78573.02, -72471.75, -98060.23, -103892.72, 0.000, 0.000, 0.000, 12:08:16.165
88, -60617.79, -63555.24, -112224.51, -108826.57, -78518.97, -72443.81, -98054.10, -103850.76, 0.000, 0.000, 0.000, 12:08:16.165
89, -60672.42, -63617.58, -112247.80, -108521.23, -78535.34, -72464.33, -98104.66, -103866.63, 0.000, 0.000, 0.000, 12:08:16.165
90, -60651.48, -63594.87, -112309.51, -108591.14, -78570.73, -72496.23, -98104.17, -103907.35, 0.000, 0.000, 0.000, 12:08:16.165
91, -60588.36, -63531.57, -112289.53, -108889.49, -78557.23, -72478.79, -98045.12, -103890.91, 0.000, 0.000, 0.000, 12:08:16.166
92, -60610.80, -63555.42, -112219.52, -108861.73, -78518.26, -72450.30, -98046.52, -103854.67, 0.000, 0.000, 0.000, 12:08:16.166
93, -60686.17, -63628.95, -112246.08, -108537.38, -78528.54, -72471.22, -98110.41, -103869.55, 0.000, 0.000, 0.000, 12:08:16.166
94, -60662.39, -63611.36, -112312.13, -108544.67, -78569.91, -72502.93, -98112.38, -103906.30, 0.000, 0.000, 0.000, 12:08:16.166
95, -60590.21, -63535.84, -112301.11, -108823.06, -78565.82, -72486.23, -98058.69, -103896.88, 0.030, 0.436, 0.902, 12:08:16.167
96, -60596.92, -63548.73, -112239.19, -108894.61, -78527.48, -72454.83, -98042.28, -103862.36, 0.000, 0.000, 0.000, 12:08:16.167
97, -60676.51, -63629.83, -112236.98, -108591.41, -78522.62, -72467.30, -98099.45, -103865.52, 0.000, 0.000, 0.000, 12:08:16.167
98, -60670.99, -63621.38, -112297.44, -108520.53, -78567.32, -72502.51, -98116.16, -103906.08, 0.000, 0.000, 0.000, 12:08:16.167
99, -60610.60, -63555.21, -112309.73, -108778.29, -78575.12, -72497.97, -98071.83, -103912.50, 0.000, 0.000, 0.000, 12:08:16.167
100, -60591.13, -63534.65, -112250.26, -108919.31, -78537.50, -72458.90, -98041.37, -103868.02, 0.000, 0.000, 0.000, 12:08:16.168
101, -60651.19, -63599.29, -112216.10, -108642.69, -78512.18, -72453.67, -98084.08, -103851.99, 0.000, 0.000, 0.000, 12:08:16.168
102, -60673.07, -63620.26, -112288.90, -108510.30, -78551.74, -72491.11, -98116.42, -103889.98, 0.000, 0.000, 0.000, 12:08:16.168
103, -60626.58, -63579.49, -112323.75, -108743.09, -78571.19, -72493.37, -98079.72, -103903.00, 0.000, 0.000, 0.000, 12:08:16.168
104, -60597.59, -63553.52, -112282.02, -108942.87, -78549.08, -72465.20, -98045.74, -103876.60, 0.032, 0.428, 0.900, 12:08:16.617
105, -60646.34, -63604.73, -112228.09, -108710.88, -78528.85, -72450.80, -98075.63, -103852.05, 0.000, 0.000, 0.000, 12:08:16.618
106, -60676.71, -63628.30, -112281.01, -108511.44, -78556.41, -72482.37, -98114.07, -103885.38, 0.000, 0.000, 0.000, 12:08:16.618
107, -60639.45, -63586.84, -112320.24, -108686.65, -78574.42, -72502.59, -98088.99, -103907.42, 0.000, 0.000, 0.000, 12:08:16.618
108, -60596.76, -63545.47, -112289.10, -108927.84, -78558.38, -72476.49, -98041.25, -103882.88, 0.000, 0.000, 0.000, 12:08:16.618
109, -60647.30, -63597.30, -112225.58, -108759.18, -78522.80, -72455.39, -98068.48, -103855.50, 0.000, 0.000, 0.000, 12:08:16.619
110, -60702.02, -63651.78, -112276.36, -108492.84, -78553.77, -72493.16, -98126.84, -103889.36, 0.000, 0.000, 0.000, 12:08:16.619
111, -60661.09, -63614.85, -112333.78, -108621.95, -78593.67, -72514.00, -98111.88, -103919.94, 0.000, 0.000, 0.000, 12:08:16.619
112, -60602.89, -63555.42, -112307.77, -108909.63, -78575.41, -72485.90, -98056.18, -103898.28, 0.000, 0.000, 0.000, 12:08:16.619
113, -60636.95, -63583.49, -112237.07, -108825.48, -78532.83, -72458.52, -98064.85, -103864.40, 0.000, 0.000, 0.000, 12:08:16.620
114, -60696.94, -63640.58, -112263.27, -108528.00, -78555.25, -72489.88, -98129.79, -103890.39, 0.034, 0.424, 0.894, 12:08:16.620
115, -60674.79, -63621.40, -112322.12, -108588.95, -78594.25, -72519.59, -98120.87, -103921.77, 0.000, 0.000, 0.000, 12:08:16.620
116, -60605.21, -63553.85, -112312.17, -108891.13, -78586.30, -72496.92, -98057.79, -103903.06, 0.000, 0.000, 0.000, 12:08:16.620
117, -60613.21, -63569.97, -112237.80, -108887.32, -78540.56, -72459.46, -98054.10, -103864.38, 0.000, 0.000, 0.000, 12:08:16.621
118, -60691.55, -63645.61, -112253.30, -108578.91, -78551.09, -72473.45, -98113.83, -103876.66, 0.000, 0.000, 0.000, 12:08:16.621
119, -60677.86, -63627.37, -112314.72, -108560.25, -78597.09, -72505.63, -98117.41, -103909.59, 0.000, 0.000, 0.000, 12:08:16.621
120, -60613.37, -63563.82, -112319.08, -108832.90, -78592.71, -72494.38, -98065.28, -103905.73, 0.000, 0.000, 0.000, 12:08:16.621
121, -60604.72, -63559.13, -112257.20, -108921.79, -78552.52, -72455.37, -98042.21, -103868.98, 0.000, 0.000, 0.000, 12:08:16.622
122, -60682.97, -63638.14, -112242.05, -108599.03, -78544.38, -72461.42, -98099.55, -103864.84, 0.000, 0.000, 0.000, 12:08:16.622
123, -60680.78, -63635.05, -112307.38, -108526.09, -78577.33, -72492.88, -98116.69, -103906.22, 0.036, 0.424, 0.894, 12:08:16.622
124, -60615.29, -63564.36, -112320.73, -108791.62, -78581.45, -72487.17, -98069.20, -103907.27, 0.000, 0.000, 0.000, 12:08:16.622
125, -60593.01, -63543.14, -112263.29, -108942.11, -78546.80, -72452.22, -98033.79, -103862.59, 0.000, 0.000, 0.000, 12:08:16.622
126, -60657.22, -63604.34, -112225.78, -108665.95, -78524.56, -72449.24, -98078.45, -103854.16, 0.000, 0.000, 0.000, 12:08:16.623
127, -60681.83, -63629.91, -112299.70, -108517.63, -78573.64, -72487.60, -98119.88, -103895.84, 0.000, 0.000, 0.000, 12:08:16.623
128, -60624.66, -63579.07, -112326.45, -108727.11, -78593.49, -72492.61, -98085.53, -103911.55, 0.000, 0.000, 0.000, 12:08:16.623
129, -60585.92, -63534.38, -112284.79, -108948.19, -78572.33, -72457.91, -98043.11, -103882.81, 0.000, 0.000, 0.000, 12:08:16.623
130, -60647.97, -63591.20, -112238.21, -108730.23, -78541.01, -72445.82, -98078.11, -103855.66, 0.000, 0.000, 0.000, 12:08:16.624
131, -60687.15, -63632.53, -112287.02, -108514.43, -78576.46, -72478.93, -98119.33, -103881.96, 0.000, 0.000, 0.000, 12:08:16.624
132, -60642.29, -63592.03, -112329.34, -108676.03, -78604.00, -72493.79, -98093.80, -103907.83, 0.000, 0.000, 0.000, 12:08:16.624
133, -60587.02, -63545.49, -112300.70, -108938.91, -78581.49, -72471.44, -98043.94, -103886.30, 0.036, 0.424, 0.900, 12:08:16.624
134, -60637.20, -63587.56, -112227.32, -108792.58, -78551.72, -72453.83, -98073.08, -103858.92, 0.000, 0.000, 0.000, 12:08:16.625
135, -60688.02, -63636.78, -112274.10, -108527.44, -78577.73, -72488.83, -98126.81, -103890.01, 0.000, 0.000, 0.000, 12:08:16.625
136, -60656.02, -63604.37, -112323.50, -108625.00, -78607.15, -72508.37, -98108.76, -103913.50, 0.000, 0.000, 0.000, 12:08:16.625
137, -60598.35, -63543.23, -112310.54, -108908.29, -78600.82, -72490.30, -98063.38, -103902.28, 0.000, 0.000, 0.000, 12:08:16.627
138, -60619.47, -63570.08, -112246.01, -108852.19, -78557.77, -72456.89, -98061.34, -103861.42, 0.000, 0.000, 0.000, 12:08:16.628
139, -60687.82, -63639.88, -112274.46, -108546.52, -78580.98, -72483.28, -98118.70, -103879.41, 0.000, 0.000, 0.000, 12:08:16.628
140, -60673.50, -63624.04, -112343.20, -108586.70, -78613.95, -72516.79, -98119.23, -103918.82, 0.000, 0.000, 0.000, 12:08:16.628
141, -60602.77, -63554.99, -112332.91, -108881.55, -78618.03, -72495.53, -98068.30, -103903.53, 0.000, 0.000, 0.000, 12:08:16.629
142, -60608.38, -63567.04, -112247.91, -108896.47, -78578.65, -72465.02, -98056.48, -103863.28, 0.000, 0.000, 0.000, 12:08:16.629
143, -60681.61, -63639.37, -112259.55, -108576.92, -78580.64, -72482.88, -98115.46, -103871.37, 0.036, 0.426, 0.900, 12:08:16.629
144, -60678.30, -63634.63, -112337.83, -108548.92, -78615.58, -72519.20, -98131.51, -103919.60, 0.000, 0.000, 0.000, 12:08:16.629
145, -60613.44, -63570.86, -112336.91, -108813.30, -78614.84, -72506.42, -98080.84, -103909.77, 0.000, 0.000, 0.000, 12:08:16.629
146, -60599.27, -63551.46, -112267.53, -108931.27, -78585.34, -72465.85, -98046.52, -103870.09, 0.000, 0.000, 0.000, 12:08:16.630
147, -60660.75, -63618.14, -112246.91, -108630.34, -78575.07, -72469.47, -98088.70, -103861.40, 0.000, 0.000, 0.000, 12:08:16.630
148, -60671.89, -63632.64, -112314.63, -108525.49, -78612.52, -72511.00, -98117.00, -103900.83, 0.000, 0.000, 0.000, 12:08:16.630
149, -60610.35, -63566.84, -112331.64, -108773.11, -78627.78, -72511.90, -98074.71, -103906.13, 0.000, 0.000, 0.000, 12:08:16.630
150, -60593.54, -63544.27, -112272.56, -108942.00, -78593.18, -72479.48, -98037.67, -103870.25, 0.000, 0.000, 0.000, 12:08:16.630
151, -60654.47, -63611.05, -112230.36, -108672.55, -78570.47, -72473.88, -98081.06, -103855.09, 0.000, 0.000, 0.000, 12:08:16.631
152, -60684.78, -63635.17, -112301.66, -108499.25, -78604.51, -72512.88, -98121.92, -103897.27, 0.032, 0.434, 0.898, 12:08:16.631
153, -60639.77, -63586.51, -112336.53, -108719.66, -78628.23, -72518.35, -98083.23, -103910.77, 0.000, 0.000, 0.000, 12:08:16.631
154, -60605.10, -63556.67, -112301.77, -108942.11, -78605.07, -72491.45, -98043.15, -103883.26, 0.000, 0.000, 0.000, 12:08:16.631
155, -60637.73, -63599.79, -112235.86, -108744.54, -78579.27, -72473.61, -98072.52, -103855.19, 0.000, 0.000, 0.000, 12:08:16.631
156, -60689.16, -63649.77, -112292.79, -108512.48, -78623.29, -72515.45, -98123.64, -103891.28, 0.000, 0.000, 0.000, 12:08:16.632
157, -60647.01, -63606.67, -112338.23, -108670.91, -78636.81, -72531.72, -98097.13, -103916.70, 0.000, 0.000, 0.000, 12:08:16.632
158, -60596.72, -63550.61, -112316.87, -108941.70, -78608.69, -72499.16, -98044.96, -103893.05, 0.000, 0.000, 0.000, 12:08:16.633
159, -60633.95, -63584.65, -112260.34, -108820.07, -78568.88, -72475.69, -98060.95, -103862.43, 0.000, 0.000, 0.000, 12:08:16.633
160, -60686.88, -63636.49, -112285.02, -108543.30, -78588.53, -72504.02, -98110.50, -103883.06, 0.000, 0.000, 0.000, 12:08:16.633
161, -60647.39, -63601.75, -112333.96, -108632.76, -78646.95, -72527.32, -98107.62, -103913.16, 0.000, 0.000, 0.000, 12:08:16.633
162, -60587.13, -63546.70, -112305.80, -108921.61, -78634.80, -72505.77, -98053.05, -103900.07, 0.028, 0.430, 0.904, 12:08:16.633
163, -60615.11, -63577.46, -112243.02, -108866.73, -78581.71, -72478.14, -98055.65, -103866.16, 0.000, 0.000, 0.000, 12:08:16.634
164, -60695.94, -63652.29, -112278.38, -108545.48, -78603.95, -72508.61, -98126.70, -103890.15, 0.000, 0.000, 0.000, 12:08:16.634
165, -60681.14, -63634.21, -112345.70, -108573.30, -78651.36, -72541.40, -98129.45, -103918.69, 0.000, 0.000, 0.000, 12:08:16.634
166, -60611.71, -63561.52, -112329.83, -108860.08, -78642.45, -72524.63, -98068.32, -103908.23, 0.000, 0.000, 0.000, 12:08:16.635
167, -60611.38, -63566.50, -112264.59, -108903.38, -78608.83, -72486.86, -98052.85, -103871.55, 0.000, 0.000, 0.000, 12:08:16.635
168, -60675.24, -63637.71, -112269.03, -108589.17, -78606.41, -72499.20, -98109.31, -103872.95, 0.000, 0.000, 0.000, 12:08:16.635
169, -60665.36, -63632.00, -112317.76, -108552.18, -78642.53, -72533.24, -98118.39, -103911.96, 0.000, 0.000, 0.000, 12:08:16.635
170, -60615.45, -63576.83, -112333.65, -108820.42, -78646.98, -72529.98, -98069.35, -103916.14, 0.000, 0.000, 0.000, 12:08:16.635
171, -60604.85, -63564.34, -112268.25, -108937.52, -78597.60, -72497.03, -98035.87, -103877.76, 0.032, 0.432, 0.898, 12:08:16.636
172, -60673.90, -63633.67, -112248.38, -108644.23, -78584.77, -72496.05, -98084.21, -103863.68, 0.000, 0.000, 0.000, 12:08:16.636
173, -60689.45, -63638.32, -112313.02, -108520.33, -78630.66, -72533.02, -98114.32, -103900.59, 0.000, 0.000, 0.000, 12:08:16.636
174, -60633.60, -63580.94, -112345.92, -108761.39, -78655.80, -72538.31, -98077.59, -103914.62, 0.000, 0.000, 0.000, 12:08:16.636
175, -60592.70, -63543.13, -112287.25, -108964.13, -78635.83, -72500.02, -98034.46, -103878.01, 0.000, 0.000, 0.000, 12:08:16.636
176, -60659.37, -63603.25, -112232.93, -108715.71, -78597.91, -72486.59, -98077.98, -103855.41, 0.000, 0.000, 0.000, 12:08:16.637
177, -60687.67, -63635.95, -112305.46, -108538.73, -78639.38, -72520.81, -98122.01, -103891.53, 0.000, 0.000, 0.000, 12:08:16.637
178, -60633.22, -63592.54, -112329.13, -108727.42, -78645.41, -72534.42, -98082.34, -103908.23, 0.000, 0.000, 0.000, 12:08:16.637
179, -60595.09, -63550.77, -112299.98, -108960.88, -78618.93, -72513.02, -98038.86, -103885.80, 0.000, 0.000, 0.000, 12:08:16.638
180, -60646.74, -63599.03, -112242.68, -108768.23, -78583.52, -72492.45, -98065.34, -103856.28, 0.000, 0.000, 0.000, 12:08:16.638
181, -60702.73, -63651.64, -112295.32, -108527.10, -78623.69, -72532.23, -98120.29, -103897.97, 0.040, 0.434, 0.896, 12:08:16.638
182, -60664.69, -63608.14, -112347.38, -108665.84, -78668.08, -72556.30, -98108.22, -103939.25, 0.000, 0.000, 0.000, 12:08:16.638
183, -60610.89, -63549.34, -112314.18, -108933.03, -78650.87, -72524.73, -98056.23, -103905.86, 0.000, 0.000, 0.000, 12:08:16.638
184, -60649.91, -63589.32, -112249.88, -108819.89, -78603.13, -72497.01, -98063.38, -103864.09, 0.000, 0.000, 0.000, 12:08:16.639
185, -60701.75, -63655.89, -112282.55, -108529.54, -78624.72, -72531.05, -98121.09, -103889.66, 0.000, 0.000, 0.000, 12:08:16.639
186, -60670.99, -63617.33, -112346.26, -108613.59, -78668.86, -72557.09, -98111.46, -103926.53, 0.000, 0.000, 0.000, 12:08:16.639
187, -60612.99, -63556.04, -112328.17, -108910.37, -78659.34, -72536.59, -98059.80, -103910.17, 0.000, 0.000, 0.000, 12:08:16.639
188, -60635.99, -63584.00, -112255.64, -108859.14, -78610.01, -72510.60, -98062.87, -103874.56, 0.000, 0.000, 0.000, 12:08:16.639
189, -60699.18, -63645.18, -112291.12, -108559.65, -78622.39, -72529.95, -98118.14, -103890.19, 0.000, 0.000, 0.000, 12:08:16.640
190, -60692.29, -63633.09, -112343.28, -108578.76, -78662.18, -72553.65, -98116.09, -103923.80, 0.040, 0.434, 0.900, 12:08:16.640
191, -60627.45, -63580.68, -112341.23, -108864.41, -78670.54, -72541.66, -98073.13, -103921.62, 0.000, 0.000, 0.000, 12:08:16.640
192, -60625.24, -63573.19, -112276.09, -108911.17, -78623.42, -72502.69, -98052.36, -103875.57, 0.000, 0.000, 0.000, 12:08:16.640
193, -60683.91, -63628.44, -112261.84, -108606.83, -78612.91, -72509.44, -98102.92, -103872.27, 0.000, 0.000, 0.000, 12:08:16.640
194, -60704.59, -63643.26, -112335.02, -108550.15, -78658.60, -72549.42, -98129.41, -103916.09, 0.000, 0.000, 0.000, 12:08:16.641
195, -60641.51, -63581.03, -112352.42, -108824.34, -78664.62, -72542.85, -98081.55, -103920.41, 0.000, 0.000, 0.000, 12:08:16.641
196, -60621.21, -63564.94, -112286.94, -108954.96, -78623.98, -72508.90, -98050.51, -103888.20, 0.000, 0.000, 0.000, 12:08:16.641
197, -60702.30, -63643.68, -112264.27, -108659.47, -78614.97, -72511.45, -98102.38, -103878.32, 0.000, 0.000, 0.000, 12:08:16.641
198, -60711.36, -63655.91, -112327.44, -108527.55, -78652.16, -72545.63, -98127.75, -103910.82, 0.000, 0.000, 0.000, 12:08:16.642
199, -60654.56, -63591.31, -112353.27, -108759.02, -78666.05, -72550.02, -98095.14, -103924.97, 0.000, 0.000, 0.000, 12:08:16.642
200, -60611.76, -63552.91, -112304.13, -108970.67, -78636.92, -72515.54, -98056.34, -103891.44, 0.034, 0.434, 0.896, 12:08:16.642
201, -60668.04, -63608.21, -112245.16, -108728.13, -78595.95, -72501.03, -98082.55, -103861.67, 0.000, 0.000, 0.000, 12:08:16.642
202, -60706.53, -63644.71, -112305.66, -108533.85, -78633.34, -72540.05, -98124.98, -103900.02, 0.000, 0.000, 0.000, 12:08:16.643
203, -60660.00, -63601.57, -112349.61, -108721.77, -78662.85, -72554.50, -98102.07, -103922.13, 0.000, 0.000, 0.000, 12:08:16.643
204, -60614.84, -63560.47, -112312.75, -108963.61, -78637.55, -72527.66, -98059.96, -103901.32, 0.000, 0.000, 0.000, 12:08:16.643
205, -60668.53, -63607.27, -112249.32, -108784.95, -78601.67, -72507.70, -98079.88, -103874.01, 0.000, 0.000, 0.000, 12:08:16.643
206, -60715.88, -63655.00, -112299.61, -108537.70, -78626.46, -72541.84, -98127.10, -103901.14, 0.000, 0.000, 0.000, 12:08:16.643
207, -60681.09, -63618.74, -112350.34, -108669.06, -78666.29, -72564.00, -98108.53, -103931.85, 0.000, 0.000, 0.000, 12:08:16.644
208, -60620.99, -63559.80, -112323.86, -108946.47, -78647.85, -72534.83, -98053.16, -103910.77, 0.000, 0.000, 0.000, 12:08:16.644
209, -60658.54, -63592.07, -112259.02, -108845.82, -78604.76, -72499.80, -98062.73, -103863.44, 0.000, 0.000, 0.000, 12:08:16.644
210, -60721.62, -63656.47, -112297.30, -108556.90, -78624.47, -72528.30, -98117.56, -103887.77, 0.040, 0.438, 0.894, 12:08:16.644
211, -60680.49, -63622.23, -112354.34, -108628.05, -78668.05, -72555.52, -98109.29, -103917.62, 0.000, 0.000, 0.000, 12:08:16.644
212, -60616.39, -63554.93, -112334.86, -108929.52, -78653.57, -72532.08, -98053.68, -103902.91, 0.000, 0.000, 0.000, 12:08:16.645
213, -60630.80, -63572.02, -112248.31, -108906.48, -78603.23, -72495.24, -98048.70, -103859.77, 0.000, 0.000, 0.000, 12:08:16.645
214, -60699.09, -63636.00, -112260.72, -108576.48, -78609.02, -72514.35, -98107.77, -103872.69, 0.000, 0.000, 0.000, 12:08:16.645
215, -60686.53, -63620.98, -112325.40, -108582.24, -78658.40, -72545.20, -98114.48, -103910.53, 0.000, 0.000, 0.000, 12:08:16.645
216, -60633.17, -63564.61, -112333.76, -108861.38, -78661.62, -72542.45, -98072.32, -103915.52, 0.000, 0.000, 0.000, 12:08:16.645
217, -60622.51, -63559.91, -112268.65, -108936.54, -78615.46, -72508.77, -98049.57, -103881.14, 0.000, 0.000, 0.000, 12:08:16.646
218, -60699.16, -63636.26, -112261.59, -108626.86, -78613.63, -72516.81, -98110.70, -103880.87, 0.000, 0.000, 0.000, 12:08:16.646
219, -60709.77, -63641.76, -112334.09, -108553.41, -78653.95, -72554.90, -98129.88, -103921.66, 0.032, 0.430, 0.896, 12:08:16.646
220, -60638.43, -63566.14, -112339.77, -108808.16, -78659.95, -72547.86, -98080.62, -103925.69, 0.000, 0.000, 0.000, 12:08:16.646
221, -60616.14, -63549.43, -112281.95, -108954.76, -78623.06, -72509.44, -98045.14, -103888.52, 0.000, 0.000, 0.000, 12:08:16.646
222, -60676.11, -63614.89, -112247.23, -108673.64, -78607.77, -72503.78, -98088.82, -103873.74, 0.000, 0.000, 0.000, 12:08:16.647
223, -60710.60, -63640.53, -112312.69, -108533.77, -78640.43, -72536.70, -98120.53, -103908.88, 0.000, 0.000, 0.000, 12:08:16.647
224, -60651.05, -63587.16, -112341.25, -108759.54, -78661.33, -72544.06, -98087.70, -103923.52, 0.000, 0.000, 0.000, 12:08:16.897
225, -60622.96, -63556.31, -112295.92, -108968.57, -78632.77, -72516.81, -98050.44, -103899.06, 0.000, 0.000, 0.000, 12:08:16.898
226, -60667.30, -63602.71, -112235.95, -108747.11, -78600.96, -72496.54, -98078.84, -103864.69, 0.000, 0.000, 0.000, 12:08:16.898
227, -60697.19, -63624.48, -112284.37, -108529.52, -78629.99, -72526.94, -98116.89, -103887.33, 0.000, 0.000, 0.000, 12:08:16.898
228, -60667.86, -63592.16, -112332.55, -108702.05, -78655.95, -72543.19, -98092.80, -103912.77, 0.000, 0.000, 0.000, 12:08:16.898
229, -60614.66, -63546.41, -112305.06, -108953.93, -78641.44, -72511.27, -98043.55, -103885.20, 0.032, 0.426, 0.888, 12:08:16.898
230, -60655.57, -63593.88, -112231.19, -108791.84, -78603.88, -72489.43, -98064.95, -103853.84, 0.000, 0.000, 0.000, 12:08:16.899
231, -60713.06, -63647.98, -112283.90, -108531.08, -78629.77, -72528.59, -98118.32, -103891.73, 0.000, 0.000, 0.000, 12:08:16.899
232, -60674.23, -63599.36, -112330.56, -108646.08, -78653.87, -72546.97, -98093.98, -103917.77, 0.000, 0.000, 0.000, 12:08:16.899
233, -60611.92, -63544.04, -112306.09, -108924.95, -78637.39, -72522.80, -98038.75, -103896.07, 0.000, 0.000, 0.000, 12:08:16.899
234, -60651.21, -63580.92, -112240.53, -108847.54, -78597.09, -72497.99, -98057.63, -103866.95, 0.000, 0.000, 0.000, 12:08:16.899
235, -60715.98, -63648.71, -112281.48, -108552.09, -78615.98, -72527.27, -98124.49, -103888.18, 0.000, 0.000, 0.000, 12:08:16.900
236, -60684.27, -63626.99, -112341.07, -108611.91, -78652.55, -72550.81, -98121.56, -103920.01, 0.000, 0.000, 0.000, 12:08:16.900
237, -60624.99, -63563.48, -112319.41, -108886.95, -78639.42, -72530.49, -98067.88, -103907.83, 0.000, 0.000, 0.000, 12:08:16.900
238, -60644.73, -63578.71, -112260.94, -108885.73, -78608.06, -72505.30, -98066.71, -103878.14, 0.030, 0.432, 0.884, 12:08:16.900
239, -60721.06, -63649.77, -112276.05, -108577.53, -78616.36, -72515.36, -98120.34, -103884.58, 0.000, 0.000, 0.000, 12:08:16.900
240, -60693.14, -63626.45, -112321.49, -108567.31, -78655.36, -72540.51, -98124.65, -103915.31, 0.000, 0.000, 0.000, 12:08:16.900
241, -60636.35, -63561.12, -112325.31, -108850.60, -78652.74, -72530.58, -98074.73, -103908.88, 0.000, 0.000, 0.000, 12:08:16.901
242, -60627.90, -63555.42, -112269.57, -108946.78, -78617.34, -72496.98, -98052.95, -103875.86, 0.000, 0.000, 0.000, 12:08:16.901
243, -60700.23, -63626.85, -112246.68, -108625.27, -78606.08, -72504.83, -98103.70, -103871.93, 0.000, 0.000, 0.000, 12:08:16.901
244, -60709.84, -63639.53, -112317.24, -108535.17, -78652.79, -72548.82, -98130.99, -103916.97, 0.000, 0.000, 0.000, 12:08:16.901
245, -60643.61, -63579.58, -112336.27, -108796.69, -78660.73, -72549.60, -98083.74, -103928.88, 0.000, 0.000, 0.000, 12:08:16.901
246, -60621.86, -63555.30, -112284.05, -108960.33, -78632.09, -72510.20, -98050.59, -103886.61, 0.000, 0.000, 0.000, 12:08:16.902
247, -60692.20, -63622.00, -112251.10, -108690.52, -78620.29, -72509.08, -98103.41, -103876.11, 0.000, 0.000, 0.000, 12:08:16.902
248, -60717.19, -63647.06, -112324.04, -108536.36, -78667.84, -72548.75, -98138.98, -103919.94, 0.030, 0.432, 0.892, 12:08:16.902
249, -60664.00, -63594.13, -112358.69, -108758.91, -78685.05, -72557.00, -98100.17, -103936.79, 0.000, 0.000, 0.000, 12:08:16.902
250, -60607.22, -63537.60, -112293.20, -108977.40, -78635.83, -72517.05, -98047.84, -103898.39, 0.000, 0.000, 0.000, 12:08:16.902
251, -60670.68, -63607.86, -112245.00, -108752.38, -78604.69, -72508.84, -98087.90, -103880.20, 0.000, 0.000, 0.000, 12:08:16.902
252, -60718.22, -63648.42, -112310.45, -108529.70, -78642.73, -72545.09, -98135.64, -103911.71, 0.000, 0.000, 0.000, 12:08:16.902
253, -60673.41, -63603.41, -112356.12, -108701.27, -78671.70, -72557.96, -98112.17, -103927.88, 0.000, 0.000, 0.000, 12:08:16.902
254, -60613.73, -63539.79, -112315.66, -108961.51, -78645.33, -72524.21, -98052.98, -103896.54, 0.000, 0.000, 0.000, 12:08:16.903
255, -60650.81, -63580.96, -112249.70, -108814.68, -78609.54, -72499.27, -98064.61, -103863.03, 0.000, 0.000, 0.000, 12:08:16.903
0, -60700.38, -63637.85, -112290.60, -108556.88, -78630.88, -72524.34, -98118.59, -103885.38, 0.000, 0.000, 0.000, 12:08:16.903
1, -60689.59, -63618.67, -112345.48, -108647.04, -78673.84, -72557.54, -98121.38, -103920.84, 0.032, 0.432, 0.894, 12:08:16.903
2, -60635.41, -63558.90, -112332.80, -108919.40, -78663.63, -72542.72, -98070.66, -103907.98, 0.000, 0.000, 0.000, 12:08:16.903
3, -60641.64, -63574.02, -112260.34, -108866.94, -78622.70, -72509.05, -98068.37, -103875.48, 0.000, 0.000, 0.000, 12:08:16.903
4, -60697.21, -63627.01, -112276.79, -108568.84, -78633.81, -72525.22, -98120.51, -103887.48, 0.000, 0.000, 0.000, 12:08:16.903
5, -60677.23, -63606.43, -112336.00, -108615.82, -78665.51, -72549.47, -98118.50, -103918.22, 0.000, 0.000, 0.000, 12:08:16.903
6, -60628.23, -63556.89, -112339.73, -108898.41, -78667.32, -72538.74, -98070.20, -103914.17, 0.000, 0.000, 0.000, 12:08:16.904
7, -60630.91, -63560.85, -112263.91, -108919.89, -78628.96, -72497.77, -98053.16, -103869.78, 0.000, 0.000, 0.000, 12:08:16.904
8, -60698.35, -63630.90, -112263.35, -108605.31, -78627.55, -72513.23, -98112.66, -103874.74, 0.000, 0.000, 0.000, 12:08:16.904
9, -60688.70, -63623.01, -112324.73, -108573.15, -78663.77, -72549.89, -98129.01, -103914.42, 0.000, 0.000, 0.000, 12:08:16.904
10, -60623.47, -63557.14, -112333.29, -108847.43, -78661.98, -72538.98, -98073.44, -103913.08, 0.000, 0.000, 0.000, 12:08:16.904
11, -60619.07, -63553.61, -112274.84, -108955.30, -78625.39, -72506.20, -98039.58, -103882.59, 0.040, 0.430, 0.898, 12:08:16.904
12, -60677.81, -63609.64, -112250.63, -108653.66, -78610.99, -72503.29, -98088.03, -103862.05, 0.000, 0.000, 0.000, 12:08:16.904
13, -60686.39, -63618.76, -112310.67, -108546.39, -78649.77, -72533.13, -98110.95, -103892.70, 0.000, 0.000, 0.000, 12:08:16.904
14, -60638.07, -63578.89, -112337.98, -108780.80, -78668.55, -72544.22, -98090.78, -103911.11, 0.000, 0.000, 0.000, 12:08:16.905
15, -60609.30, -63549.79, -112291.07, -108955.02, -78639.72, -72511.98, -98054.71, -103880.51, 0.000, 0.000, 0.000, 12:08:16.905
16, -60680.00, -63612.37, -112251.51, -108702.88, -78618.50, -72505.19, -98096.08, -103868.28, 0.000, 0.000, 0.000, 12:08:16.905
17, -60713.55, -63644.76, -112316.88, -108529.95, -78659.72, -72545.80, -98137.95, -103909.73, 0.000, 0.000, 0.000, 12:08:16.905
18, -60663.62, -63592.95, -112349.36, -108727.76, -78684.40, -72554.72, -98102.12, -103929.10, 0.000, 0.000, 0.000, 12:08:16.905
19, -60618.96, -63548.93, -112310.72, -108970.07, -78651.61, -72524.19, -98060.81, -103897.81, 0.000, 0.000, 0.000, 12:08:16.905
20, -60664.15, -63599.05, -112244.69, -108782.78, -78608.71, -72501.19, -98084.66, -103862.70, 0.000, 0.000, 0.000, 12:08:16.905
21, -60715.18, -63650.41, -112296.79, -108545.97, -78642.76, -72532.05, -98133.07, -103896.31, 0.038, 0.436, 0.910, 12:08:16.905
22, -60671.57, -63601.80, -112342.23, -108696.59, -78669.95, -72550.05, -98105.45, -103922.55, 0.000, 0.000, 0.000, 12:08:16.906
23, -60629.48, -63554.77, -112314.65, -108947.96, -78648.45, -72529.76, -98059.42, -103902.64, 0.000, 0.000, 0.000, 12:08:16.906
24, -60666.41, -63598.33, -112252.60, -108821.97, -78617.90, -72508.66, -98075.52, -103872.17, 0.000, 0.000, 0.000, 12:08:16.906
25, -60711.38, -63640.09, -112290.87, -108546.28, -78643.42, -72535.30, -98123.64, -103893.23, 0.000, 0.000, 0.000, 12:08:16.906
26, -60678.82, -63607.52, -112340.96, -108636.76, -78679.16, -72552.09, -98111.10, -103919.49, 0.000, 0.000, 0.000, 12:08:16.906
27, -60617.41, -63544.13, -112321.87, -108918.13, -78659.52, -72526.22, -98055.27, -103902.21, 0.000, 0.000, 0.000, 12:08:16.906
28, -60641.53, -63572.02, -112258.81, -108877.73, -78619.91, -72498.57, -98062.24, -103873.96, 0.000, 0.000, 0.000, 12:08:16.907
29, -60705.57, -63640.98, -112278.76, -108568.09, -78628.27, -72518.45, -98124.63, -103883.59, 0.000, 0.000, 0.000, 12:08:16.907
30, -60699.09, -63627.75, -112343.17, -108588.37, -78672.53, -72554.79, -98132.63, -103921.77, 0.038, 0.438, 0.904, 12:08:16.907
31, -60628.64, -63560.51, -112341.49, -108880.53, -78670.70, -72539.68, -98075.59, -103916.90, 0.000, 0.000, 0.000, 12:08:16.907
32, -60626.36, -63558.55, -112268.16, -108927.69, -78629.50, -72502.91, -98061.55, -103877.98, 0.000, 0.000, 0.000, 12:08:16.907
33, -60693.30, -63620.06, -112267.60, -108617.29, -78631.04, -72513.91, -98116.09, -103878.32, 0.000, 0.000, 0.000, 12:08:16.907
37, -60635.63, -63558.95, -112347.91, -108786.70, -78685.63, -72541.16, -98082.70, -103925.15, 0, 12:08:17.386
38, -60600.98, -63525.24, -112283.25, -108971.70, -78640.74, -72497.26, -98031.98, -103872.73, 0, 12:08:17.387
39, -60670.70, -63593.37, -112243.69, -108719.93, -78618.86, -72489.77, -98076.21, -103855.73, 0, 12:08:17.387
40, -60707.38, -63630.52, -112304.16, -108525.36, -78660.52, -72526.58, -98129.01, -103898.21, 0, 12:08:17.387
41, -60661.16, -63575.22, -112344.31, -108713.78, -78678.83, -72538.60, -98098.96, -103918.62, 0, 12:08:17.387
42, -60616.10, -63532.21, -112298.00, -108959.34, -78647.27, -72502.75, -98050.88, -103889.16, 0, 12:08:17.387
43, -60666.12, -63581.17, -112239.55, -108778.25, -78614.75, -72488.09, -98075.20, -103863.91, 0, 12:08:17.388
44, -60695.29, -63613.71, -112283.76, -108553.73, -78646.04, -72515.78, -98119.59, -103889.41, 0, 12:08:17.388
45, -60670.03, -63579.45, -112329.11, -108676.13, -78670.07, -72539.48, -98110.56, -103920.01, 0, 12:08:17.388
46, -60628.08, -63535.46, -112314.41, -108941.08, -78658.47, -72522.00, -98065.82, -103907.65, 0, 12:08:17.388
47, -60672.29, -63586.89, -112258.08, -108842.89, -78635.36, -72499.53, -98082.29, -103879.30, 0, 12:08:17.388
48, -60710.46, -63627.08, -112285.41, -108555.65, -78649.84, -72518.22, -98129.63, -103893.30, 0, 12:08:17.389
49, -60684.22, -63598.91, -112336.66, -108626.70, -78680.80, -72543.19, -98122.12, -103925.66, 0, 12:08:17.389
50, -60630.18, -63535.48, -112327.81, -108917.52, -78671.52, -72523.90, -98073.73, -103918.09, 0, 12:08:17.389
51, -60646.43, -63551.26, -112254.23, -108897.96, -78625.23, -72485.03, -98063.65, -103867.48, 0, 12:08:17.389
52, -60706.38, -63612.77, -112263.53, -108590.23, -78630.69, -72501.75, -98118.27, -103874.12, 0, 12:08:17.389
53, -60706.24, -63611.09, -112329.45, -108588.17, -78675.61, -72544.46, -98133.66, -103916.20, 0, 12:08:17.389
54, -60642.76, -63552.60, -112336.33, -108872.37, -78676.55, -72536.37, -98080.57, -103916.63, 0, 12:08:17.390
55, -60631.32, -63549.18, -112267.04, -108936.19, -78630.04, -72493.14, -98057.88, -103876.02, 0, 12:08:17.390
56, -60693.14, -63604.73, -112255.30, -108635.35, -78621.41, -72494.91, -98108.30, -103873.20, 0, 12:08:17.390
57, -60695.98, -63608.97, -112317.52, -108577.20, -78657.66, -72529.24, -98128.60, -103909.68, 0, 12:08:17.390
58, -60648.66, -63557.34, -112337.59, -108819.60, -78668.28, -72532.10, -98100.88, -103922.94, 0, 12:08:17.390
59, -60628.14, -63529.60, -112283.80, -108961.98, -78641.81, -72494.98, -98067.85, -103891.17, 0, 12:08:17.390
60, -60697.59, -63602.07, -112256.40, -108674.22, -78628.12, -72493.32, -98110.09, -103877.09, 0, 12:08:17.390
61, -60711.76, -63615.10, -112321.24, -108548.94, -78663.32, -72525.93, -98132.56, -103910.20, 0, 12:08:17.390
62, -60659.08, -63559.78, -112345.38, -108776.26, -78680.55, -72532.50, -98099.50, -103923.67, 0, 12:08:17.391
63, -60635.16, -63535.34, -112303.52, -108980.82, -78660.26, -72502.04, -98068.37, -103899.42, 0, 12:08:17.391
64, -60688.52, -63591.67, -112251.59, -108739.87, -78632.30, -72489.37, -98100.84, -103880.04, 0, 12:08:17.391
65, -60705.35, -63603.61, -112295.74, -108541.32, -78659.72, -72516.99, -98129.79, -103904.47, 0, 12:08:17.391
66, -60664.11, -63564.69, -112334.79, -108722.34, -78684.15, -72531.54, -98105.23, -103927.54, 0, 12:08:17.391
67, -60623.29, -63524.13, -112301.66, -108958.72, -78655.32, -72501.73, -98067.31, -103904.98, 0, 12:08:17.391
68, -60675.57, -63575.78, -112244.18, -108790.02, -78605.80, -72477.07, -98092.23, -103875.80, 0, 12:08:17.391
69, -60730.38, -63621.64, -112298.87, -108541.66, -78625.97, -72511.34, -98149.77, -103906.41, 0, 12:08:17.391
70, -60687.69, -63573.12, -112341.20, -108671.72, -78647.41, -72526.18, -98126.88, -103926.71, 0, 12:08:17.392
71, -60636.48, -63523.48, -112318.77, -108942.82, -78625.73, -72506.46, -98080.13, -103915.54, 0, 12:08:17.392
72, -60667.86, -63562.70, -112249.38, -108851.94, -78582.85, -72474.66, -98084.55, -103881.27, 0, 12:08:17.392
73, -60725.33, -63624.44, -112282.53, -108560.92, -78606.70, -72498.35, -98142.62, -103904.67, 0, 12:08:17.392
74, -60700.12, -63596.05, -112343.87, -108622.34, -78646.80, -72521.55, -98136.91, -103934.40, 0, 12:08:17.392
75, -60644.33, -63542.23, -112339.23, -108906.16, -78630.73, -72501.88, -98090.29, -103916.97, 0, 12:08:17.392
76, -60647.79, -63548.45, -112272.27, -108905.56, -78584.98, -72465.63, -98086.80, -103880.49, 0, 12:08:17.392
77, -60707.20, -63601.13, -112268.36, -108599.10, -78572.70, -72476.98, -98134.66, -103884.29, 0, 12:08:17.392
78, -60712.03, -63601.15, -112338.39, -108586.78, -78615.06, -72513.86, -98151.47, -103927.59, 0, 12:08:17.393
79, -60662.68, -63551.02, -112351.45, -108868.10, -78618.95, -72509.41, -98103.75, -103931.52, 0, 12:08:17.393
80, -60650.00, -63539.84, -112283.85, -108954.29, -78585.09, -72472.45, -98078.78, -103893.07, 0, 12:08:17.393
81, -60714.62, -63606.16, -112264.25, -108634.59, -78569.84, -72480.60, -98139.73, -103891.95, 0, 12:08:17.393
82, -60716.79, -63610.52, -112334.45, -108553.73, -78604.20, -72518.76, -98160.16, -103930.63, 0, 12:08:17.393
83, -60655.77, -63546.61, -112345.70, -108809.90, -78599.37, -72511.80, -98106.41, -103930.38, 0, 12:08:17.393
84, -60631.94, -63524.04, -112293.62, -108972.40, -78565.75, -72475.88, -98073.20, -103895.51, 0, 12:08:17.394
85, -60707.87, -63602.09, -112262.84, -108693.94, -78553.73, -72474.27, -98128.94, -103888.63, 0, 12:08:17.394
86, -60728.68, -63620.35, -112328.66, -108551.06, -78605.45, -72511.09, -98164.73, -103927.61, 0, 12:08:17.394
87, -60684.40, -63572.18, -112357.66, -108762.63, -78627.60, -72524.28, -98136.56, -103944.41, 0, 12:08:17.394
88, -60645.06, -63530.23, -112312.80, -108968.20, -78593.49, -72488.56, -98093.13, -103914.46, 0, 12:08:17.395
89, -60698.17, -63586.15, -112261.14, -108755.47, -78558.71, -72466.01, -98113.11, -103886.79, 0, 12:08:17.395
90, -60732.62, -63620.71, -112315.73, -108543.89, -78595.33, -72505.95, -98161.55, -103920.79, 0, 12:08:17.395
91, -60687.53, -63574.59, -112353.41, -108718.26, -78618.84, -72519.95, -98134.75, -103939.88, 0, 12:08:17.395
92, -60642.88, -63529.18, -112328.15, -108976.17, -78598.61, -72494.15, -98092.48, -103920.74, 0, 12:08:17.395
93, -60681.96, -63568.40, -112262.66, -108825.39, -78562.29, -72468.47, -98108.15, -103884.11, 0, 12:08:17.396
94, -60730.31, -63617.98, -112303.92, -108559.02, -78584.98, -72496.45, -98158.71, -103907.47, 0, 12:08:17.396
95, -60703.07, -63584.86, -112354.52, -108657.80, -78611.46, -72522.34, -98152.09, -103940.41, 0, 12:08:17.396
96, -60647.16, -63534.32, -112343.91, -108942.09, -78598.19, -72502.22, -98102.97, -103932.84, 0, 12:08:17.396
97, -60663.68, -63552.36, -112269.77, -108879.08, -78551.63, -72463.55, -98101.60, -103884.00, 0, 12:08:17.399
98, -60743.32, -63629.85, -112302.23, -108577.88, -78570.00, -72492.70, -98169.13, -103909.44, 0, 12:08:17.399
99, -60722.36, -63603.27, -112358.80, -108618.61, -78607.91, -72521.35, -98165.41, -103938.78, 0, 12:08:17.399
100, -60656.04, -63539.35, -112347.17, -108901.63, -78597.88, -72497.52, -98109.54, -103927.00, 0, 12:08:17.399
101, -60674.61, -63553.81, -112284.77, -108925.86, -78564.13, -72467.91, -98101.45, -103893.61, 0, 12:08:17.400
102, -60741.55, -63623.21, -112292.45, -108630.10, -78568.52, -72480.91, -98149.79, -103895.95, 0, 12:08:17.400
103, -60727.12, -63603.99, -112345.09, -108607.34, -78596.40, -72505.10, -98148.20, -103925.48, 0, 12:08:17.400
104, -60670.25, -63553.65, -112352.36, -108884.46, -78593.60, -72509.66, -98107.34, -103933.24, 0, 12:08:17.400
105, -60652.11, -63534.23, -112286.38, -108981.23, -78553.59, -72474.59, -98079.38, -103895.80, 0, 12:08:17.400
106, -60713.53, -63598.91, -112261.32, -108663.94, -78544.19, -72470.99, -98129.16, -103885.85, 0, 12:08:17.400
107, -60736.13, -63616.10, -112334.43, -108567.91, -78587.39, -72516.86, -98164.63, -103931.65, 0, 12:08:17.401
108, -60675.62, -63561.88, -112357.03, -108825.63, -78598.21, -72526.06, -98125.07, -103945.47, 0, 12:08:17.401
109, -60635.39, -63520.35, -112292.68, -109001.77, -78563.07, -72485.54, -98082.96, -103908.95, 0, 12:08:17.401
110, -60700.32, -63592.70, -112244.69, -108728.07, -78534.23, -72472.00, -98123.62, -103884.67, 0, 12:08:17.401
111, -60725.82, -63623.95, -112310.85, -108563.67, -78573.35, -72512.84, -98160.99, -103920.32, 0, 12:08:17.401
112, -60683.78, -63571.82, -112348.72, -108764.55, -78600.76, -72525.46, -98129.01, -103938.94, 0, 12:08:17.401
113, -60641.87, -63524.44, -112313.51, -108991.55, -78585.02, -72495.73, -98086.05, -103910.62, 0, 12:08:17.402
114, -60695.47, -63590.89, -112254.50, -108780.62, -78546.62, -72463.68, -98110.88, -103878.32, 0, 12:08:17.402
115, -60748.24, -63636.66, -112317.38, -108549.27, -78575.74, -72516.86, -98164.79, -103920.52, 0, 12:08:17.402
116, -60686.37, -63573.34, -112346.10, -108693.71, -78589.22, -72512.12, -98125.88, -103929.39, 0, 12:08:17.402
117, -60646.09, -63548.27, -112323.23, -108977.40, -78574.74, -72495.47, -98084.59, -103917.81, 0, 12:08:17.402
118, -60686.59, -63576.20, -112264.00, -108839.58, -78537.91, -72478.50, -98104.46, -103884.52, 0, 12:08:17.402
119, -60732.91, -63617.46, -112296.50, -108546.91, -78555.56, -72493.27, -98152.34, -103899.53, 0, 12:08:17.402
120, -60717.24, -63616.71, -112361.97, -108659.42, -78602.32, -72534.49, -98154.46, -103946.27, 0, 12:08:17.403
121, -60641.75, -63531.55, -112328.55, -108942.66, -78579.66, -72499.42, -98079.72, -103911.11, 0, 12:08:17.403
122, -60673.38, -63560.58, -112261.68, -108890.68, -78546.64, -72469.70, -98091.19, -103873.20, 0, 12:08:17.403
123, -60730.22, -63613.44, -112283.85, -108580.95, -78555.41, -72505.75, -98150.84, -103898.62, 0, 12:08:17.403
124, -60719.00, -63608.37, -112347.84, -108613.42, -78590.07, -72525.30, -98150.28, -103936.28, 0, 12:08:17.403
125, -60661.87, -63554.14, -112354.66, -108902.73, -78597.16, -72520.55, -98106.52, -103934.91, 0, 12:08:17.403
126, -60660.04, -63556.16, -112279.88, -108947.45, -78550.42, -72482.50, -98088.82, -103888.55, 0, 12:08:17.403
127, -60727.72, -63627.28, -112270.38, -108624.80, -78540.56, -72483.64, -98136.70, -103883.62, 0, 12:08:17.403
128, -60735.77, -63633.47, -112346.77, -108576.68, -78592.11, -72543.97, -98160.50, -103937.55, 0, 12:08:17.404
129, -60663.46, -63549.58, -112351.46, -108842.64, -78588.38, -72511.41, -98098.72, -103920.63, 0, 12:08:17.404
130, -60657.69, -63538.77, -112289.73, -108948.92, -78551.13, -72473.92, -98075.90, -103880.66, 0, 12:08:17.404
131, -60725.66, -63616.55, -112278.64, -108667.63, -78547.80, -72489.03, -98131.22, -103882.55, 0, 12:08:17.404
132, -60728.39, -63613.69, -112345.02, -108566.30, -78591.68, -72525.24, -98152.92, -103913.84, 0, 12:08:17.404
133, -60678.70, -63570.35, -112368.72, -108810.70, -78605.63, -72521.95, -98112.55, -103922.42, 0, 12:08:17.404
134, -60648.95, -63552.49, -112307.50, -108986.97, -78568.59, -72493.68, -98079.02, -103894.64, 0, 12:08:17.404
135, -60693.61, -63591.02, -112253.95, -108739.09, -78535.40, -72480.70, -98113.29, -103874.74, 0, 12:08:17.404
136, -60720.03, -63607.43, -112309.45, -108564.52, -78567.66, -72508.85, -98146.33, -103901.21, 0, 12:08:17.405
137, -60675.24, -63568.38, -112348.11, -108760.70, -78591.23, -72524.45, -98114.74, -103922.58, 0, 12:08:17.405
138, -60634.27, -63526.38, -112315.50, -108988.58, -78573.55, -72491.98, -98072.12, -103888.71, 0, 12:08:17.405
139, -60701.77, -63602.71, -112264.49, -108792.58, -78553.86, -72484.16, -98112.02, -103874.21, 0, 12:08:17.405
140, -60749.98, -63647.28, -112324.87, -108550.35, -78579.77, -72522.11, -98161.52, -103909.61, 0, 12:08:17.405
141, -60687.93, -63568.92, -112354.21, -108676.97, -78588.10, -72528.28, -98125.30, -103924.59, 0, 12:08:17.405
142, -60635.90, -63517.38, -112327.16, -108955.36, -78571.05, -72497.75, -98074.29, -103904.49, 0, 12:08:17.405
143, -60685.14, -63578.35, -112280.14, -108854.47, -78545.01, -72480.76, -98100.51, -103878.81, 0, 12:08:17.405
144, -60733.69, -63628.66, -112309.84, -108571.43, -78565.66, -72520.23, -98156.63, -103903.55, 0, 12:08:17.405
145, -60707.02, -63605.44, -112359.49, -108642.30, -78596.15, -72534.20, -98140.72, -103926.31, 0, 12:08:17.406
146, -60638.67, -63530.38, -112337.63, -108929.08, -78580.51, -72510.11, -98079.41, -103909.88, 0, 12:08:17.406
147, -60660.55, -63550.34, -112268.27, -108905.63, -78540.83, -72476.31, -98080.59, -103872.22, 0, 12:08:17.406
148, -60733.53, -63621.51, -112293.75, -108594.74, -78564.19, -72510.98, -98150.17, -103892.96, 0, 12:08:17.406
149, -60718.00, -63606.67, -112358.02, -108617.43, -78606.59, -72540.35, -98153.30, -103931.45, 0, 12:08:17.406
150, -60648.39, -63531.77, -112343.46, -108892.11, -78595.30, -72521.53, -98094.94, -103920.43, 0, 12:08:17.406
151, -60640.77, -63527.90, -112271.22, -108943.38, -78558.58, -72474.10, -98076.63, -103877.98, 0, 12:08:17.406
152, -60713.77, -63606.07, -112257.81, -108626.03, -78558.04, -72481.59, -98130.68, -103876.24, 0, 12:08:17.407
153, -60717.21, -63614.25, -112330.59, -108583.48, -78605.31, -72530.52, -98154.58, -103920.32, 0, 12:08:17.407
154, -60672.00, -63567.62, -112351.87, -108836.30, -78616.18, -72549.52, -98120.35, -103938.58, 0, 12:08:17.407
155, -60642.52, -63536.60, -112289.51, -108955.38, -78576.37, -72502.33, -98078.89, -103893.68, 0, 12:08:17.407
156, -60700.61, -63594.53, -112255.22, -108672.93, -78554.64, -72485.14, -98115.37, -103869.47, 0, 12:08:17.407
157, -60713.39, -63608.46, -112315.55, -108556.16, -78588.53, -72520.59, -98140.12, -103903.35, 0, 12:08:17.865
158, -60665.00, -63556.33, -112343.06, -108779.23, -78603.73, -72535.92, -98110.12, -103920.68, 0, 12:08:17.865
159, -60635.39, -63521.73, -112305.46, -108976.91, -78581.47, -72507.18, -98077.87, -103896.38, 0, 12:08:17.865
160, -60696.88, -63582.38, -112261.30, -108732.76, -78554.40, -72491.06, -98114.59, -103876.82, 0, 12:08:17.865
161, -60729.98, -63624.55, -112326.59, -108544.11, -78593.07, -72534.91, -98159.29, -103918.04, 0, 12:08:17.865
162, -60683.20, -63575.13, -112363.09, -108719.15, -78620.96, -72553.70, -98133.23, -103940.10, 0, 12:08:17.866
163, -60640.57, -63543.14, -112327.88, -108958.80, -78603.57, -72529.69, -98089.71, -103914.80, 0, 12:08:17.866
164, -60690.48, -63601.53, -112276.79, -108779.66, -78577.71, -72518.84, -98119.51, -103893.50, 0, 12:08:17.866
165, -60733.98, -63632.87, -112328.06, -108547.51, -78607.84, -72552.27, -98158.22, -103913.68, 0, 12:08:17.866
166, -60688.16, -63588.50, -112363.02, -108674.05, -78631.16, -72547.03, -98126.30, -103923.67, 0, 12:08:17.866
167, -60627.99, -63528.48, -112333.67, -108949.17, -78615.46, -72520.70, -98071.13, -103909.14, 0, 12:08:17.866
168, -60669.61, -63568.20, -112268.54, -108851.36, -78579.61, -72493.99, -98083.84, -103877.20, 0, 12:08:17.866
169, -60724.23, -63625.78, -112298.83, -108561.66, -78602.61, -72517.82, -98144.05, -103898.08, 0, 12:08:17.867
170, -60696.29, -63594.42, -112351.53, -108638.41, -78637.70, -72547.75, -98139.76, -103931.00, 0, 12:08:17.867
171, -60643.97, -63548.00, -112340.84, -108912.96, -78624.27, -72534.25, -98092.28, -103916.50, 0, 12:08:17.867
172, -60647.68, -63548.22, -112270.53, -108896.71, -78581.66, -72496.92, -98082.83, -103874.09, 0, 12:08:17.867
173, -60709.55, -63612.55, -112274.53, -108586.88, -78585.27, -72508.79, -98136.38, -103878.81, 0, 12:08:17.867
174, -60698.89, -63605.08, -112334.79, -108584.70, -78621.55, -72542.16, -98141.12, -103916.25, 0, 12:08:17.867
175, -60638.43, -63547.82, -112340.47, -108870.78, -78621.32, -72535.23, -98087.14, -103916.43, 0, 12:08:17.868
176, -60628.19, -63535.43, -112273.16, -108951.95, -78576.93, -72499.58, -98065.05, -103876.45, 0, 12:08:17.868
177, -60706.53, -63616.68, -112261.72, -108630.08, -78564.19, -72508.09, -98125.36, -103872.11, 0, 12:08:17.868
178, -60706.62, -63612.79, -112334.52, -108567.76, -78612.00, -72542.85, -98144.14, -103912.81, 0, 12:08:17.868
179, -60647.90, -63555.55, -112347.58, -108832.25, -78623.94, -72543.86, -98100.59, -103921.82, 0, 12:08:17.868
180, -60631.59, -63543.59, -112289.86, -108971.92, -78591.62, -72511.23, -98066.98, -103881.98, 0, 12:08:17.868
181, -60692.61, -63606.87, -112255.02, -108685.78, -78574.07, -72503.65, -98110.27, -103868.77, 0, 12:08:17.868
182, -60715.65, -63629.36, -112321.76, -108548.41, -78622.19, -72546.48, -98149.73, -103913.73, 0, 12:08:17.869
183, -60668.49, -63580.23, -112354.77, -108770.29, -78640.88, -72554.56, -98115.35, -103932.73, 0, 12:08:17.869
184, -60626.64, -63534.99, -112311.08, -108986.59, -78606.10, -72518.53, -98069.26, -103900.83, 0, 12:08:17.869
185, -60680.71, -63591.14, -112255.91, -108764.03, -78574.47, -72503.87, -98099.84, -103874.25, 0, 12:08:17.869
186, -60716.90, -63620.80, -112314.63, -108560.99, -78610.55, -72540.39, -98141.08, -103908.70, 0, 12:08:17.869
187, -60667.19, -63571.85, -112345.92, -108728.07, -78627.78, -72549.55, -98108.82, -103926.91, 0, 12:08:17.869
188, -60634.94, -63538.07, -112321.58, -108964.93, -78611.80, -72526.00, -98075.49, -103914.48, 0, 12:08:17.869
189, -60668.40, -63563.69, -112258.66, -108801.41, -78578.80, -72499.58, -98092.23, -103871.21, 0, 12:08:17.869
190, -60716.21, -63623.55, -112302.47, -108549.88, -78610.66, -72528.75, -98140.94, -103896.36, 0, 12:08:17.870
191, -60685.01, -63597.30, -112354.59, -108670.06, -78639.88, -72551.50, -98131.22, -103927.59, 0, 12:08:17.870
192, -60635.12, -63544.87, -112333.74, -108946.29, -78622.68, -72528.23, -98071.16, -103907.58, 0, 12:08:17.870
193, -60664.06, -63572.36, -112267.47, -108866.36, -78589.16, -72497.91, -98080.91, -103873.34, 0, 12:08:17.870
194, -60714.38, -63627.05, -112293.48, -108583.54, -78600.38, -72516.30, -98135.38, -103885.54, 0, 12:08:17.870
195, -60701.21, -63606.45, -112349.27, -108640.90, -78631.78, -72545.45, -98133.52, -103918.15, 0, 12:08:17.870
196, -60644.84, -63547.44, -112347.59, -108930.35, -78630.44, -72531.54, -98085.28, -103911.76, 0, 12:08:17.870
197, -60649.96, -63555.30, -112276.36, -108944.97, -78587.52, -72493.34, -98068.74, -103873.23, 0, 12:08:17.871
198, -60723.34, -63627.19, -112294.80, -108624.00, -78604.53, -72523.98, -98144.72, -103892.23, 0, 12:08:17.871
199, -60733.35, -63632.42, -112374.27, -108610.30, -78665.95, -72568.83, -98167.70, -103941.69, 0, 12:08:17.871
200, -60671.48, -63560.18, -112364.49, -108882.01, -78654.06, -72544.53, -98102.18, -103927.74, 0, 12:08:17.871
201, -60657.38, -63545.80, -112292.05, -108964.84, -78609.90, -72499.83, -98072.61, -103884.38, 0, 12:08:17.871
202, -60715.92, -63598.87, -112277.19, -108669.57, -78601.70, -72501.19, -98120.66, -103874.41, 0, 12:08:17.871
203, -60733.09, -63611.21, -112346.28, -108575.25, -78640.30, -72536.77, -98153.70, -103915.36, 0, 12:08:17.871
204, -60681.32, -63558.23, -112370.04, -108819.33, -78656.14, -72541.24, -98122.16, -103929.26, 0, 12:08:17.871
205, -60656.35, -63529.91, -112317.34, -108979.34, -78619.80, -72507.42, -98093.84, -103899.47, 0, 12:08:17.872
206, -60711.18, -63584.77, -112272.54, -108716.04, -78588.09, -72494.10, -98131.28, -103878.63, 0, 12:08:17.872
207, -60732.41, -63603.05, -112334.45, -108548.34, -78629.70, -72531.19, -98158.84, -103909.84, 0, 12:08:17.872
208, -60667.68, -63533.40, -112358.80, -108753.88, -78647.20, -72537.22, -98114.23, -103920.16, 0, 12:08:17.872
209, -60629.13, -63493.95, -112314.98, -108975.68, -78626.75, -72504.56, -98073.44, -103890.19, 0, 12:08:17.872
210, -60690.73, -63558.99, -112263.80, -108746.24, -78595.39, -72489.81, -98111.95, -103869.20, 0, 12:08:17.872
211, -60739.32, -63601.42, -112329.38, -108522.55, -78631.67, -72530.07, -98167.34, -103914.04, 0, 12:08:17.873
212, -60691.22, -63553.59, -112368.77, -108699.19, -78663.30, -72547.21, -98145.41, -103943.37, 0, 12:08:17.873
213, -60636.19, -63494.51, -112325.94, -108952.73, -78635.47, -72509.41, -98087.92, -103905.34, 0, 12:08:17.873
214, -60680.94, -63546.03, -112266.86, -108792.77, -78593.89, -72486.13, -98107.93, -103870.54, 0, 12:08:17.873
215, -60722.07, -63588.41, -112318.83, -108542.34, -78622.84, -72518.24, -98162.38, -103897.48, 0, 12:08:17.873
216, -60691.22, -63548.76, -112355.55, -108651.18, -78653.08, -72533.84, -98141.41, -103921.41, 0, 12:08:17.873
217, -60639.54, -63491.47, -112342.37, -108934.93, -78645.10, -72510.42, -98089.09, -103905.12, 0, 12:08:17.874
218, -60667.08, -63518.80, -112271.45, -108878.61, -78607.71, -72484.70, -98092.33, -103871.21, 0, 12:08:17.874
219, -60729.26, -63578.80, -112289.86, -108573.91, -78615.42, -72511.94, -98154.20, -103888.67, 0, 12:08:17.874
220, -60704.92, -63557.27, -112349.84, -108610.34, -78650.11, -72540.15, -98157.26, -103924.23, 0, 12:08:17.874
221, -60630.94, -63488.81, -112344.94, -108904.38, -78637.16, -72518.27, -98090.76, -103915.16, 0, 12:08:17.874
222, -60635.56, -63496.92, -112271.83, -108933.91, -78597.94, -72481.72, -98076.32, -103876.53, 0, 12:08:17.874
223, -60707.47, -63567.60, -112270.62, -108611.01, -78589.60, -72499.49, -98140.31, -103884.34, 0, 12:08:17.875
224, -60696.88, -63556.73, -112332.94, -108586.31, -78622.02, -72529.44, -98150.95, -103919.78, 0, 12:08:17.875
225, -60644.13, -63506.00, -112347.87, -108852.74, -78630.46, -72527.30, -98112.15, -103924.45, 0, 12:08:17.875
226, -60640.32, -63500.54, -112297.40, -108958.20, -78597.16, -72496.95, -98091.39, -103893.45, 0, 12:08:17.875
227, -60696.25, -63558.55, -112270.04, -108667.05, -78583.32, -72491.22, -98136.02, -103877.59, 0, 12:08:17.875
228, -60715.98, -63568.49, -112334.56, -108559.29, -78629.84, -72528.05, -98167.49, -103920.07, 0, 12:08:17.875
229, -60656.26, -63508.48, -112362.22, -108802.48, -78651.12, -72529.66, -98130.99, -103934.13, 0, 12:08:17.875
230, -60628.08, -63482.11, -112305.53, -108981.00, -78612.83, -72485.99, -98085.13, -103896.29, 0, 12:08:17.875
231, -60695.85, -63555.21, -112265.92, -108721.27, -78592.06, -72480.24, -98124.52, -103879.17, 0, 12:08:17.876
232, -60724.48, -63584.61, -112331.19, -108551.34, -78635.58, -72519.65, -98165.93, -103908.49, 0, 12:08:17.876
233, -60674.61, -63531.10, -112366.62, -108747.07, -78665.66, -72533.66, -98136.65, -103931.45, 0, 12:08:17.876
234, -60622.45, -63480.02, -112317.67, -108991.10, -78631.16, -72498.17, -98087.92, -103899.13, 0, 12:08:17.876
235, -60679.62, -63540.96, -112262.62, -108780.51, -78584.13, -72486.21, -98122.97, -103875.52, 0, 12:08:17.876
236, -60721.13, -63582.04, -112325.16, -108549.95, -78621.34, -72528.75, -98170.34, -103913.01, 0, 12:08:17.876
237, -60672.15, -63531.03, -112365.99, -108709.60, -78653.44, -72545.40, -98143.06, -103938.65, 0, 12:08:17.876
238, -60629.13, -63482.91, -112340.63, -108976.30, -78639.45, -72519.54, -98095.73, -103916.09, 0, 12:08:17.876
239, -60663.95, -63521.69, -112280.48, -108851.96, -78600.45, -72495.60, -98110.90, -103884.58, 0, 12:08:17.876
240, -60709.28, -63568.07, -112314.65, -108579.05, -78626.98, -72521.93, -98163.83, -103905.27, 0, 12:08:17.877
241, -60686.41, -63541.07, -112365.32, -108675.67, -78669.69, -72548.22, -98152.52, -103935.74, 0, 12:08:17.877
242, -60641.60, -63488.05, -112355.63, -108955.27, -78659.88, -72533.78, -98095.23, -103922.29, 0, 12:08:17.877
243, -60662.88, -63517.53, -112295.27, -108913.54, -78615.24, -72506.76, -98097.55, -103891.59, 0, 12:08:17.877
244, -60723.92, -63579.40, -112313.13, -108614.59, -78630.84, -72529.27, -98160.01, -103907.47, 0, 12:08:17.877
245, -60703.78, -63553.54, -112367.45, -108638.64, -78664.39, -72549.87, -98155.09, -103931.38, 0, 12:08:17.877
246, -60653.73, -63501.50, -112378.66, -108920.41, -78665.46, -72538.16, -98112.40, -103926.09, 0, 12:08:17.878
247, -60647.86, -63501.24, -112307.59, -108958.29, -78619.42, -72506.58, -98092.52, -103886.34, 0, 12:08:17.878
248, -60712.63, -63564.38, -112295.63, -108639.40, -78614.55, -72516.70, -98141.55, -103885.52, 0, 12:08:17.878
249, -60713.06, -63566.77, -112364.18, -108592.05, -78647.65, -72550.67, -98152.90, -103924.55, 0, 12:08:17.878
250, -60651.79, -63503.09, -112375.20, -108851.96, -78657.44, -72543.34, -98106.19, -103927.07, 0, 12:08:17.878
251, -60639.61, -63488.81, -112312.80, -108970.49, -78618.37, -72510.66, -98081.04, -103892.49, 0, 12:08:17.879
252, -60699.49, -63555.20, -112288.45, -108677.28, -78620.85, -72515.96, -98137.77, -103889.85, 0, 12:08:17.879
253, -60722.73, -63580.56, -112358.80, -108556.52, -78655.16, -72553.89, -98164.77, -103926.51, 0, 12:08:17.879
254, -60681.50, -63527.95, -112401.91, -108790.02, -78677.27, -72563.28, -98131.13, -103942.00, 0, 12:08:17.879
255, -60634.65, -63481.50, -112332.69, -108983.99, -78651.14, -72524.81, -98086.94, -103901.88, 0, 12:08:17.880
0, -60689.99, -63543.23, -112271.04, -108737.88, -78616.02, -72510.22, -98116.94, -103874.56, 0, 12:08:17.880
1, -60721.29, -63573.75, -112346.39, -108547.98, -78642.38, -72551.41, -98157.48, -103912.90, 0, 12:08:17.880
2, -60665.83, -63517.38, -112371.52, -108745.03, -78665.45, -72560.73, -98123.82, -103929.10, 0, 12:08:17.880
3, -60638.58, -63477.66, -112334.25, -108984.62, -78657.26, -72533.80, -98085.64, -103907.65, 0, 12:08:17.880
4, -60689.25, -63531.01, -112272.49, -108797.76, -78617.36, -72515.80, -98111.77, -103877.70, 0, 12:08:17.880
5, -60739.99, -63592.54, -112346.57, -108553.57, -78661.53, -72554.25, -98168.16, -103909.63, 0, 12:08:17.880
6, -60693.01, -63553.32, -112384.21, -108695.44, -78680.40, -72574.88, -98140.85, -103935.48, 0, 12:08:17.880
7, -60645.36, -63502.45, -112356.12, -108958.56, -78668.44, -72553.73, -98091.27, -103917.88, 0, 12:08:17.881
8, -60660.42, -63528.30, -112284.23, -108855.61, -78624.05, -72524.48, -98095.70, -103879.51, 0, 12:08:17.881
9, -60728.52, -63592.81, -112321.11, -108567.80, -78631.83, -72552.38, -98152.61, -103902.30, 0, 12:08:17.881
10, -60711.47, -63570.62, -112387.18, -108640.12, -78688.51, -72585.43, -98150.98, -103937.93, 0, 12:08:17.881
11, -60667.53, -63518.58, -112381.10, -108922.98, -78683.16, -72584.83, -98108.69, -103941.95, 0, 12:08:17.881
12, -60664.75, -63525.78, -112319.37, -108914.02, -78639.13, -72550.66, -98106.05, -103904.02, 0, 12:08:17.881
13, -60731.81, -63597.75, -112321.87, -108611.55, -78633.37, -72557.54, -98149.14, -103898.26, 0, 12:08:17.881
14, -60708.12, -63580.92, -112365.01, -108619.93, -78666.45, -72584.80, -98147.45, -103931.83, 0, 12:08:17.882
15, -60634.92, -63511.65, -112358.35, -108896.48, -78668.41, -72568.09, -98095.09, -103924.92, 0, 12:08:17.882
16, -60629.35, -63508.43, -112285.91, -108963.14, -78623.38, -72528.59, -98070.09, -103880.49, 0, 12:08:17.882
17, -60716.32, -63588.72, -112289.02, -108652.74, -78606.48, -72539.74, -98124.69, -103881.31, 0, 12:08:17.882
18, -60717.59, -63593.26, -112354.99, -108585.60, -78658.09, -72580.11, -98143.40, -103920.45, 0, 12:08:17.882
19, -60654.16, -63534.29, -112367.24, -108842.15, -78680.35, -72581.12, -98100.88, -103926.78, 0, 12:08:17.882
20, -60636.13, -63515.96, -112309.40, -108989.25, -78640.07, -72543.91, -98069.37, -103890.28, 0, 12:08:17.883
21, -60696.32, -63579.78, -112277.55, -108709.52, -78617.03, -72539.08, -98105.96, -103869.80, 0, 12:08:18.338
22, -60727.54, -63603.92, -112351.17, -108568.01, -78659.01, -72580.38, -98139.16, -103907.49, 0, 12:08:18.338
23, -60686.93, -63558.75, -112383.59, -108780.93, -78672.69, -72591.58, -98112.20, -103926.87, 0, 12:08:18.338
24, -60643.68, -63512.28, -112324.44, -108992.04, -78635.16, -72552.58, -98061.62, -103892.85, 0, 12:08:18.339
25, -60699.09, -63569.52, -112267.71, -108754.04, -78608.71, -72541.09, -98099.16, -103870.43, 0, 12:08:18.339
26, -60739.90, -63602.36, -112341.00, -108550.82, -78651.74, -72584.98, -98150.66, -103910.80, 0, 12:08:18.339
27, -60682.44, -63548.00, -112372.14, -108738.82, -78683.93, -72590.62, -98112.66, -103922.51, 0, 12:08:18.339
28, -60626.96, -63499.16, -112322.98, -108984.51, -78662.67, -72559.99, -98068.30, -103898.15, 0, 12:08:18.339
29, -60673.34, -63540.48, -112260.16, -108809.18, -78617.30, -72542.52, -98095.41, -103873.56, 0, 12:08:18.339
30, -60715.16, -63581.64, -112310.09, -108557.68, -78651.83, -72573.81, -98145.48, -103903.40, 0, 12:08:18.339
31, -60672.55, -63545.18, -112347.11, -108683.72, -78691.51, -72595.27, -98126.63, -103932.08, 0, 12:08:18.340
32, -60628.41, -63501.73, -112340.11, -108958.83, -78679.79, -72578.55, -98080.44, -103913.97, 0, 12:08:18.340
33, -60661.00, -63533.09, -112271.71, -108858.87, -78626.64, -72550.72, -98084.91, -103877.54, 0, 12:08:18.340
34, -60723.70, -63592.75, -112298.20, -108563.31, -78643.54, -72575.64, -98147.94, -103896.54, 0, 12:08:18.340
35, -60691.98, -63565.57, -112350.66, -108630.41, -78685.47, -72603.31, -98140.38, -103927.05, 0, 12:08:18.340
36, -60639.21, -63511.61, -112337.12, -108915.20, -78674.36, -72587.13, -98083.50, -103913.50, 0, 12:08:18.340
37, -60654.74, -63518.94, -112271.09, -108907.98, -78627.60, -72553.80, -98079.49, -103880.09, 0, 12:08:18.340
38, -60709.68, -63588.90, -112280.25, -108583.48, -78640.95, -72577.12, -98149.32, -103895.55, 0, 12:08:18.341
39, -60706.38, -63577.43, -112354.13, -108577.23, -78682.20, -72612.37, -98153.08, -103935.02, 0, 12:08:18.341
40, -60635.63, -63504.05, -112355.78, -108872.20, -78680.80, -72597.59, -98085.98, -103928.03, 0, 12:08:18.341
41, -60630.42, -63504.12, -112273.57, -108958.18, -78638.51, -72556.62, -98061.91, -103886.05, 0, 12:08:18.341
42, -60703.45, -63568.45, -112258.50, -108654.15, -78626.04, -72561.96, -98117.98, -103881.23, 0, 12:08:18.341
43, -60715.47, -63578.06, -112332.71, -108572.97, -78666.23, -72601.23, -98143.40, -103927.45, 0, 12:08:18.341
44, -60655.57, -63524.80, -112361.59, -108817.99, -78681.52, -72607.90, -98108.38, -103941.48, 0, 12:08:18.341
45, -60634.00, -63499.05, -112301.58, -108970.65, -78651.20, -72571.02, -98075.34, -103898.08, 0, 12:08:18.342
46, -60689.97, -63562.32, -112260.56, -108699.03, -78626.30, -72565.70, -98121.52, -103885.14, 0, 12:08:18.342
47, -60715.00, -63584.14, -112330.01, -108559.47, -78665.46, -72603.85, -98151.71, -103924.23, 0, 12:08:18.342
48, -60656.87, -63532.89, -112360.13, -108774.49, -78674.31, -72608.90, -98109.96, -103934.38, 0, 12:08:18.342
49, -60630.45, -63497.88, -112319.61, -108994.63, -78641.19, -72574.30, -98062.28, -103898.68, 0, 12:08:18.342
50, -60684.18, -63551.24, -112267.58, -108773.38, -78614.50, -72561.83, -98100.73, -103871.05, 0, 12:08:18.342
51, -60718.33, -63591.61, -112329.29, -108573.64, -78656.66, -72597.08, -98145.37, -103904.85, 0, 12:08:18.342
52, -60675.29, -63551.57, -112366.95, -108740.36, -78679.13, -72609.55, -98118.25, -103924.23, 0, 12:08:18.343
53, -60631.09, -63500.84, -112333.78, -108986.45, -78655.36, -72582.13, -98073.22, -103900.13, 0, 12:08:18.343
54, -60682.79, -63551.68, -112283.41, -108831.34, -78618.95, -72561.88, -98093.06, -103872.20, 0, 12:08:18.343
55, -60739.28, -63598.11, -112321.73, -108572.74, -78651.14, -72592.20, -98147.76, -103902.57, 0, 12:08:18.343
56, -60702.38, -63563.75, -112370.27, -108677.84, -78679.99, -72609.51, -98129.63, -103926.13, 0, 12:08:18.344
57, -60653.98, -63514.36, -112363.94, -108964.62, -78672.28, -72595.80, -98085.04, -103917.10, 0, 12:08:18.344
58, -60675.42, -63533.54, -112287.98, -108900.31, -78630.64, -72564.65, -98086.80, -103881.61, 0, 12:08:18.344
59, -60728.66, -63593.01, -112305.20, -108581.93, -78639.05, -72588.12, -98147.60, -103899.27, 0, 12:08:18.344
60, -60707.20, -63572.72, -112361.68, -108628.16, -78680.51, -72615.49, -98142.53, -103930.78, 0, 12:08:18.345
61, -60648.98, -63509.75, -112353.23, -108908.31, -78672.84, -72600.16, -98089.71, -103921.33, 0, 12:08:18.345
62, -60657.52, -63513.64, -112286.31, -108931.13, -78632.52, -72562.27, -98076.01, -103882.01, 0, 12:08:18.345
63, -60720.64, -63586.46, -112285.39, -108608.38, -78627.73, -72579.73, -98134.70, -103891.48, 0, 12:08:18.345
64, -60729.22, -63583.47, -112361.45, -108583.90, -78673.65, -72616.21, -98151.85, -103920.56, 0, 12:08:18.345
65, -60656.64, -63511.90, -112365.45, -108864.77, -78680.24, -72605.64, -98097.20, -103919.85, 0, 12:08:18.345
66, -60649.98, -63510.82, -112299.38, -108964.48, -78639.00, -72569.34, -98073.22, -103886.41, 0, 12:08:18.345
67, -60714.53, -63575.27, -112284.37, -108664.74, -78622.55, -72573.02, -98129.20, -103879.39, 0, 12:08:18.346
68, -60720.46, -63582.08, -112348.31, -108560.38, -78665.76, -72609.13, -98153.62, -103914.66, 0, 12:08:18.346
69, -60668.15, -63529.27, -112373.86, -108810.55, -78673.66, -72614.36, -98111.50, -103928.95, 0, 12:08:18.346
70, -60652.04, -63510.27, -112315.97, -108976.91, -78653.93, -72582.64, -98073.77, -103895.53, 0, 12:08:18.346
71, -60707.94, -63569.27, -112271.00, -108713.05, -78635.58, -72571.02, -98107.86, -103874.74, 0, 12:08:18.346
72, -60722.47, -63577.07, -112331.23, -108545.48, -78659.59, -72603.54, -98145.97, -103908.25, 0, 12:08:18.346
73, -60672.60, -63527.86, -112365.32, -108755.41, -78678.23, -72615.25, -98116.04, -103927.05, 0, 12:08:18.346
74, -60636.48, -63489.91, -112323.70, -108989.25, -78653.71, -72584.83, -98074.34, -103901.01, 0, 12:08:18.347
75, -60703.65, -63559.62, -112270.44, -108777.53, -78622.26, -72565.72, -98110.81, -103877.63, 0, 12:08:18.347
76, -60743.39, -63601.42, -112334.41, -108555.53, -78658.65, -72600.95, -98160.19, -103912.95, 0, 12:08:18.347
77, -60685.10, -63543.75, -112361.81, -108707.75, -78680.57, -72612.10, -98128.45, -103929.91, 0, 12:08:18.347
78, -60628.01, -63488.36, -112328.11, -108967.99, -78655.96, -72580.18, -98072.90, -103902.88, 0, 12:08:18.347
79, -60668.06, -63528.82, -112269.63, -108837.48, -78614.97, -72563.41, -98091.43, -103879.04, 0, 12:08:18.347
80, -60727.50, -63584.83, -112308.95, -108561.30, -78637.19, -72593.86, -98149.61, -103901.43, 0, 12:08:18.347
81, -60696.29, -63552.13, -112355.48, -108656.09, -78662.36, -72613.71, -98133.85, -103924.32, 0, 12:08:18.347
82, -60645.87, -63507.61, -112348.38, -108932.03, -78655.16, -72600.79, -98091.01, -103917.39, 0, 12:08:18.347
83, -60678.48, -63541.13, -112295.18, -108883.77, -78623.66, -72577.90, -98095.81, -103888.38, 0, 12:08:18.347
84, -60726.98, -63588.41, -112301.24, -108588.93, -78632.59, -72590.80, -98141.95, -103894.34, 0, 12:08:18.348
85, -60711.98, -63564.38, -112359.51, -108623.10, -78669.17, -72614.09, -98138.59, -103926.24, 0, 12:08:18.348
86, -60661.87, -63511.23, -112358.39, -108912.20, -78668.44, -72606.64, -98090.20, -103929.04, 0, 12:08:18.348
87, -60647.37, -63502.78, -112284.61, -108954.40, -78625.66, -72566.03, -98071.45, -103876.60, 0, 12:08:18.348
88, -60715.41, -63571.91, -112279.54, -108638.44, -78618.03, -72574.46, -98127.06, -103875.17, 0, 12:08:18.348
89, -60728.55, -63582.98, -112356.92, -108594.77, -78666.90, -72616.05, -98154.09, -103919.76, 0, 12:08:18.348
90, -60672.29, -63528.02, -112373.86, -108861.80, -78682.07, -72616.03, -98114.86, -103928.27, 0, 12:08:18.348
91, -60645.89, -63499.34, -112310.88, -108985.41, -78647.54, -72578.48, -98084.91, -103894.75, 0, 12:08:18.348
92, -60716.07, -63564.43, -112281.57, -108689.98, -78632.85, -72571.59, -98132.58, -103880.78, 0, 12:08:18.348
93, -60734.47, -63585.10, -112350.88, -108571.63, -78674.98, -72614.16, -98170.78, -103922.51, 0, 12:08:18.348
94, -60674.52, -63522.40, -112375.31, -108812.71, -78682.70, -72622.65, -98133.41, -103941.11, 0, 12:08:18.349
95, -60636.35, -63488.14, -112317.80, -108998.52, -78640.92, -72579.40, -98081.46, -103901.45, 0, 12:08:18.349
96, -60692.74, -63553.63, -112264.34, -108740.36, -78605.31, -72559.84, -98106.14, -103867.44, 0, 12:08:18.349
97, -60750.99, -63605.39, -112327.50, -108552.07, -78645.91, -72602.80, -98150.30, -103905.92, 0, 12:08:18.349
98, -60715.25, -63569.07, -112373.70, -108747.98, -78666.49, -72615.96, -98119.53, -103926.51, 0, 12:08:18.349
99, -60674.12, -63533.85, -112341.63, -109000.45, -78634.59, -72580.05, -98072.39, -103899.82, 0, 12:08:18.349
100, -60715.94, -63586.06, -112276.59, -108813.70, -78602.48, -72555.01, -98096.88, -103867.13, 0, 12:08:18.349
101, -60760.46, -63631.75, -112322.38, -108576.79, -78630.62, -72586.98, -98135.87, -103891.82, 0, 12:08:18.349
102, -60725.73, -63597.17, -112371.02, -108718.63, -78662.29, -72609.51, -98116.82, -103919.65, 0, 12:08:18.350
103, -60676.47, -63548.67, -112340.06, -108985.23, -78639.58, -72585.63, -98070.48, -103902.20, 0, 12:08:18.350
104, -60714.24, -63591.98, -112269.61, -108862.40, -78603.98, -72563.51, -98089.80, -103873.29, 0, 12:08:18.350
105, -60774.48, -63647.89, -112309.84, -108588.33, -78622.28, -72584.31, -98138.26, -103889.81, 0, 12:08:18.350
106, -60729.55, -63611.79, -112355.60, -108661.41, -78652.92, -72605.19, -98126.37, -103915.00, 0, 12:08:18.351
107, -60669.29, -63550.50, -112344.05, -108947.83, -78653.51, -72587.55, -98072.57, -103902.05, 0, 12:08:18.351
108, -60674.72, -63551.95, -112268.12, -108915.63, -78605.34, -72550.70, -98065.64, -103854.74, 0, 12:08:18.351
109, -60748.17, -63627.28, -112283.27, -108604.48, -78612.89, -72574.70, -98130.73, -103873.94, 0, 12:08:18.351
110, -60727.63, -63605.17, -112341.74, -108619.66, -78650.89, -72601.97, -98127.38, -103907.76, 0, 12:08:18.351
111, -60669.18, -63543.79, -112334.68, -108903.15, -78651.36, -72594.30, -98081.22, -103906.69, 0, 12:08:18.351
112, -60677.00, -63548.11, -112277.08, -108960.93, -78613.14, -72565.07, -98070.60, -103876.29, 0, 12:08:18.351
113, -60739.70, -63616.55, -112269.39, -108646.95, -78607.38, -72577.68, -98128.22, -103879.88, 0, 12:08:18.351
114, -60736.35, -63612.77, -112332.91, -108586.60, -78643.02, -72608.66, -98140.92, -103920.56, 0, 12:08:18.351
115, -60682.73, -63556.89, -112349.19, -108839.63, -78651.34, -72607.96, -98102.41, -103923.23, 0, 12:08:18.352
116, -60674.16, -63542.12, -112296.14, -108968.75, -78619.60, -72572.73, -98080.68, -103887.40, 0, 12:08:18.352
117, -60740.62, -63614.94, -112273.97, -108682.13, -78609.00, -72571.51, -98132.27, -103877.09, 0, 12:08:18.352
118, -60763.35, -63631.04, -112343.10, -108557.75, -78647.52, -72608.43, -98159.36, -103915.38, 0, 12:08:18.352
119, -60713.59, -63579.38, -112374.80, -108788.48, -78666.29, -72616.13, -98124.63, -103931.49, 0, 12:08:18.352
120, -60668.80, -63530.94, -112329.27, -109014.57, -78637.23, -72575.89, -98076.79, -103897.45, 0, 12:08:18.352
121, -60719.09, -63587.05, -112273.63, -108775.25, -78606.52, -72565.00, -98118.99, -103875.64, 0, 12:08:18.352
122, -60745.78, -63619.28, -112333.29, -108583.59, -78648.74, -72606.76, -98171.30, -103915.02, 0, 12:08:18.352
123, -60698.42, -63568.40, -112371.65, -108773.62, -78675.16, -72622.07, -98142.28, -103934.85, 0, 12:08:18.352
124, -60664.55, -63537.56, -112344.38, -109011.58, -78653.59, -72600.72, -98100.04, -103915.47, 0, 12:08:18.352
125, -60711.34, -63587.47, -112283.13, -108835.40, -78610.77, -72576.91, -98111.57, -103884.87, 0, 12:08:18.353
126, -60750.41, -63622.52, -112321.89, -108579.80, -78627.45, -72603.11, -98158.11, -103907.60, 0, 12:08:18.353
127, -60728.97, -63596.32, -112378.02, -108707.73, -78667.81, -72628.28, -98152.45, -103942.47, 0, 12:08:18.353
128, -60674.34, -63544.96, -112354.26, -108984.46, -78657.62, -72602.06, -98101.45, -103925.30, 0, 12:08:18.353
129, -60704.45, -63566.17, -112280.19, -108889.72, -78612.52, -72570.73, -98104.35, -103887.59, 0, 12:08:18.353
130, -60757.20, -63624.57, -112310.12, -108594.13, -78630.15, -72593.30, -98159.34, -103904.67, 0, 12:08:18.353
131, -60721.39, -63592.48, -112362.75, -108662.31, -78662.54, -72621.11, -98143.34, -103937.71, 0, 12:08:18.353
132, -60662.16, -63531.05, -112348.73, -108950.49, -78652.63, -72602.29, -98084.39, -103922.84, 0, 12:08:18.353
133, -60671.30, -63541.58, -112282.35, -108949.93, -78610.84, -72561.74, -98080.21, -103875.35, 0, 12:08:18.354
134, -60741.11, -63612.37, -112294.49, -108637.61, -78615.42, -72580.49, -98142.53, -103888.42, 0, 12:08:18.354
135, -60733.69, -63600.12, -112358.57, -108639.13, -78654.42, -72620.21, -98149.34, -103929.87, 0, 12:08:18.354
136, -60672.54, -63533.63, -112361.43, -108921.32, -78651.65, -72611.56, -98102.54, -103930.67, 0, 12:08:18.354
137, -60666.25, -63530.96, -112290.96, -108981.96, -78612.20, -72576.60, -98086.31, -103892.85, 0, 12:08:18.354
138, -60734.45, -63601.62, -112281.10, -108672.10, -78609.80, -72583.31, -98139.00, -103893.88, 0, 12:08:18.354
139, -60748.57, -63608.08, -112350.05, -108600.98, -78651.74, -72618.29, -98161.77, -103929.71, 0, 12:08:18.354
140, -60686.48, -63555.08, -112367.34, -108866.49, -78657.95, -72611.80, -98115.21, -103931.38, 0, 12:08:18.355
141, -60663.66, -63525.91, -112305.29, -109014.69, -78618.62, -72571.84, -98081.82, -103895.13, 0, 12:08:18.817
142, -60729.04, -63591.34, -112269.37, -108727.24, -78598.09, -72569.30, -98129.32, -103883.48, 0, 12:08:18.817
143, -60743.70, -63607.30, -112327.19, -108585.44, -78637.13, -72606.29, -98163.83, -103921.80, 0, 12:08:18.818
144, -60697.97, -63553.18, -112360.59, -108799.33, -78656.93, -72620.73, -98137.07, -103945.48, 0, 12:08:18.818
145, -60651.14, -63507.29, -112309.29, -109011.84, -78616.38, -72580.27, -98085.55, -103910.30, 0, 12:08:18.818
146, -60723.99, -63586.89, -112267.47, -108782.94, -78595.91, -72572.89, -98135.40, -103895.30, 0, 12:08:18.818
147, -60763.53, -63616.39, -112332.24, -108566.24, -78637.70, -72612.92, -98184.75, -103932.41, 0, 12:08:18.818
148, -60706.31, -63555.82, -112364.92, -108746.91, -78661.84, -72618.34, -98151.80, -103945.66, 0, 12:08:18.818
149, -60665.05, -63517.04, -112332.64, -109005.92, -78647.88, -72587.00, -98105.80, -103925.33, 0, 12:08:18.819
150, -60700.21, -63555.75, -112265.90, -108854.20, -78604.63, -72556.38, -98112.73, -103888.29, 0, 12:08:18.819
151, -60748.44, -63606.76, -112306.20, -108590.72, -78617.30, -72588.23, -98158.73, -103910.77, 0, 12:08:18.819
152, -60721.02, -63577.37, -112360.34, -108696.77, -78652.68, -72613.02, -98149.99, -103941.95, 0, 12:08:18.819
153, -60671.44, -63529.49, -112348.18, -108976.48, -78643.94, -72594.24, -98104.84, -103934.60, 0, 12:08:18.819
154, -60697.70, -63553.03, -112279.94, -108901.23, -78606.37, -72560.69, -98109.16, -103893.97, 0, 12:08:18.819
155, -60750.61, -63601.71, -112298.70, -108595.45, -78615.46, -72578.99, -98158.15, -103900.76, 0, 12:08:18.820
156, -60737.93, -63595.32, -112361.34, -108634.44, -78656.84, -72618.24, -98164.48, -103945.71, 0, 12:08:18.820
157, -60676.13, -63529.27, -112360.18, -108933.62, -78651.27, -72595.36, -98106.43, -103933.09, 0, 12:08:18.820
158, -60677.68, -63533.16, -112282.04, -108951.74, -78606.70, -72550.90, -98095.23, -103885.48, 0, 12:08:18.820
159, -60742.03, -63601.15, -112290.51, -108640.94, -78617.14, -72562.12, -98159.91, -103899.64, 0, 12:08:18.820
160, -60732.62, -63586.66, -112351.76, -108626.91, -78660.68, -72595.58, -98166.80, -103940.88, 0, 12:08:18.820
161, -60679.60, -63527.75, -112362.33, -108911.30, -78665.20, -72590.39, -98120.24, -103941.45, 0, 12:08:18.820
162, -60671.39, -63520.41, -112300.44, -108991.15, -78618.88, -72550.56, -98096.88, -103898.59, 0, 12:08:18.821
163, -60743.12, -63595.65, -112287.74, -108687.70, -78606.70, -72556.53, -98149.97, -103897.01, 0, 12:08:18.821
164, -60748.98, -63600.79, -112355.29, -108601.98, -78640.56, -72593.26, -98170.16, -103935.02, 0, 12:08:18.821
165, -60693.34, -63543.46, -112375.91, -108845.99, -78650.06, -72596.27, -98133.03, -103949.02, 0, 12:08:18.821
166, -60675.84, -63524.24, -112322.25, -109003.53, -78622.59, -72560.91, -98103.63, -103915.65, 0, 12:08:18.821
167, -60743.50, -63590.22, -112292.52, -108723.42, -78595.44, -72554.32, -98151.65, -103901.81, 0, 12:08:18.821
168, -60765.94, -63606.16, -112358.23, -108583.45, -78631.02, -72588.90, -98185.71, -103941.46, 0, 12:08:18.821
169, -60718.73, -63563.13, -112389.51, -108801.23, -78655.56, -72599.70, -98155.11, -103957.83, 0, 12:08:18.821
170, -60679.93, -63522.23, -112340.87, -109013.74, -78628.56, -72566.73, -98115.68, -103927.77, 0, 12:08:18.821
171, -60731.23, -63576.65, -112289.73, -108797.65, -78594.32, -72550.88, -98152.50, -103905.01, 0, 12:08:18.821
172, -60766.95, -63611.50, -112343.15, -108586.27, -78624.02, -72580.74, -98189.45, -103934.24, 0, 12:08:18.822
173, -60727.41, -63567.02, -112382.47, -108742.55, -78641.97, -72597.70, -98159.65, -103956.98, 0, 12:08:18.822
174, -60672.40, -63508.14, -112348.94, -109004.73, -78621.07, -72568.89, -98106.81, -103933.24, 0, 12:08:18.823
175, -60713.80, -63561.39, -112285.44, -108866.34, -78582.80, -72541.29, -98123.04, -103900.80, 0, 12:08:18.823
176, -60761.79, -63605.46, -112322.45, -108598.59, -78604.31, -72567.87, -98174.47, -103922.06, 0, 12:08:18.823
177, -60730.09, -63562.01, -112371.98, -108701.76, -78635.98, -72593.63, -98161.51, -103956.84, 0, 12:08:18.823
178, -60683.44, -63518.38, -112359.33, -108972.28, -78622.80, -72580.09, -98117.31, -103947.30, 0, 12:08:18.823
179, -60699.67, -63535.75, -112290.02, -108915.09, -78581.84, -72543.55, -98117.27, -103901.12, 0, 12:08:18.823
180, -60755.26, -63593.64, -112310.78, -108621.67, -78594.09, -72564.40, -98175.34, -103919.60, 0, 12:08:18.823
181, -60741.24, -63578.44, -112371.42, -108664.55, -78627.60, -72592.67, -98176.62, -103949.96, 0, 12:08:18.824
182, -60679.62, -63516.88, -112366.75, -108947.30, -78617.43, -72574.63, -98121.80, -103941.24, 0, 12:08:18.824
183, -60688.00, -63525.82, -112296.37, -108964.59, -78573.76, -72541.89, -98114.19, -103908.25, 0, 12:08:18.824
184, -60752.93, -63593.15, -112302.09, -108652.72, -78578.18, -72555.70, -98170.45, -103913.75, 0, 12:08:18.824
185, -60758.57, -63597.46, -112370.46, -108623.91, -78622.62, -72588.52, -98191.55, -103952.66, 0, 12:08:18.824
186, -60707.45, -63544.82, -112386.29, -108894.41, -78632.41, -72588.52, -98148.88, -103960.27, 0, 12:08:18.824
187, -60686.62, -63519.68, -112316.20, -109001.20, -78590.66, -72549.09, -98116.94, -103918.48, 0, 12:08:18.824
188, -60757.05, -63588.18, -112292.32, -108709.52, -78575.27, -72546.48, -98169.53, -103912.63, 0, 12:08:18.824
189, -60776.65, -63613.24, -112365.81, -108614.21, -78611.24, -72590.84, -98200.30, -103955.52, 0, 12:08:18.824
190, -60701.75, -63533.56, -112379.54, -108862.20, -78610.05, -72587.42, -98144.88, -103956.35, 0, 12:08:18.825
191, -60674.90, -63504.12, -112319.59, -109029.39, -78575.14, -72551.01, -98108.76, -103918.58, 0, 12:08:18.825
192, -60736.57, -63573.63, -112284.70, -108770.42, -78553.70, -72544.80, -98153.52, -103900.83, 0, 12:08:18.825
193, -60768.18, -63604.59, -112348.45, -108609.89, -78594.03, -72583.69, -98196.02, -103941.51, 0, 12:08:18.825
194, -60720.48, -63554.37, -112385.06, -108799.77, -78615.91, -72592.49, -98165.28, -103960.91, 0, 12:08:18.825
195, -60677.47, -63509.11, -112348.11, -109039.12, -78592.84, -72561.13, -98119.98, -103933.28, 0, 12:08:18.826
196, -60730.67, -63558.84, -112289.95, -108839.67, -78566.18, -72542.61, -98152.81, -103904.52, 0, 12:08:18.826
197, -60768.78, -63604.10, -112337.83, -108609.83, -78595.50, -72576.76, -98196.38, -103932.84, 0, 12:08:18.826
198, -60720.32, -63560.76, -112372.97, -108754.55, -78614.52, -72590.23, -98165.20, -103957.34, 0, 12:08:18.826
199, -60674.84, -63514.74, -112346.44, -109022.15, -78602.84, -72567.55, -98117.61, -103939.72, 0, 12:08:18.826
200, -60721.95, -63558.68, -112288.21, -108897.36, -78564.39, -72546.41, -98140.77, -103909.03, 0, 12:08:18.827
201, -60771.42, -63610.58, -112326.43, -108625.54, -78583.79, -72569.88, -98192.57, -103924.63, 0, 12:08:18.827
202, -60735.86, -63571.40, -112369.30, -108706.30, -78608.06, -72594.84, -98174.13, -103951.99, 0, 12:08:18.827
203, -60685.86, -63517.35, -112358.21, -108982.32, -78597.94, -72578.48, -98124.76, -103943.27, 0, 12:08:18.827
204, -60713.30, -63549.18, -112295.79, -108944.50, -78564.61, -72550.16, -98136.94, -103914.51, 0, 12:08:18.827
205, -60768.94, -63607.34, -112313.17, -108638.48, -78574.41, -72568.04, -98187.90, -103925.46, 0, 12:08:18.827
206, -60760.55, -63600.30, -112376.54, -108653.75, -78619.60, -72601.15, -98194.02, -103962.07, 0, 12:08:18.828
207, -60696.45, -63541.45, -112383.54, -108955.25, -78623.69, -72594.20, -98147.47, -103962.45, 0, 12:08:18.828
208, -60684.56, -63530.41, -112303.84, -109002.46, -78569.02, -72557.25, -98121.74, -103915.70, 0, 12:08:18.828
209, -60744.51, -63589.73, -112291.59, -108674.67, -78557.75, -72559.66, -98171.56, -103908.59, 0, 12:08:18.828
210, -60752.08, -63582.48, -112360.41, -108627.40, -78605.30, -72600.59, -98190.23, -103950.78, 0, 12:08:18.828
211, -60704.03, -63539.12, -112377.21, -108893.25, -78620.11, -72600.90, -98153.81, -103960.77, 0, 12:08:18.828
212, -60691.78, -63541.69, -112326.61, -109010.70, -78593.60, -72572.49, -98133.97, -103930.29, 0, 12:08:18.829
213, -60758.05, -63611.09, -112305.24, -108727.29, -78587.28, -72577.74, -98185.87, -103925.46, 0, 12:08:18.829
214, -60753.61, -63596.61, -112352.90, -108605.09, -78607.15, -72589.50, -98195.57, -103944.52, 0, 12:08:18.829
215, -60698.98, -63537.91, -112379.05, -108836.48, -78619.06, -72603.05, -98162.76, -103961.34, 0, 12:08:18.829
216, -60671.66, -63522.07, -112329.85, -109024.63, -78585.65, -72568.42, -98125.20, -103929.55, 0, 12:08:18.829
217, -60736.21, -63595.54, -112286.91, -108777.11, -78561.88, -72567.55, -98166.53, -103916.19, 0, 12:08:18.829
218, -60754.66, -63597.55, -112342.37, -108581.87, -78596.82, -72598.28, -98202.85, -103949.38, 0, 12:08:18.829
219, -60714.38, -63573.19, -112386.78, -108789.55, -78625.90, -72609.66, -98174.05, -103970.34, 0, 12:08:18.830
