%OpenBCI Raw EEG Data
%
%Sample Rate = 250.0 Hz
%First Column = SampleIndex
%5 Columns before Timestamp are Frequency Power factors DELTA THETA ALPHA BETA GAMMA
%Last Column = Timestamp 
%Other Columns = EEG data in microvolts followed by Accel Data (in G) interleaved with Aux Data
80001.742188, 99122.273438, 187500.015625, 187500.015625, 109371.460938, 81505.390625, 88258.898438, 142981.875000, 0, 1, 1, 0, 1,0.0,0.0,0.0,0.0,0.0, 12:55:04.426
79883.429688, 99000.812500, 187500.015625, 187500.015625, 109261.781250, 81553.171875, 88229.195313, 142872.875000, 0, 1, 1, 0, 1,0.0,0.0,0.0,0.0,0.0, 12:55:04.428
79970.156250, 99096.343750, 187500.015625, 187500.015625, 109322.734375, 81492.757813, 88194.640625, 142962.562500, 0, 1, 1, 0, 1,0.0,0.0,0.0,0.0,0.0, 12:55:04.429
80102.773438, 99231.617188, 187500.015625, 187500.015625, 109458.031250, 81441.390625, 88232.125000, 143095.546875, 0, 1, 1, 0, 1,0.0,0.0,0.0,0.0,0.0, 12:55:04.429
80024.765625, 99149.828125, 187500.015625, 187500.015625, 109418.445313, 81496.382813, 88278.257813, 143025.140625, 0, 1, 1, 0, 1,0.0,0.0,0.0,0.0,0.0, 12:55:04.430
79859.406250, 98986.015625, 187500.015625, 187500.015625, 109259.796875, 81550.718750, 88240.484375, 142871.093750, 0, 1, 1, 0, 1,0.0,0.0,0.0,0.0,0.0, 12:55:04.431
79896.710938, 99031.453125, 187500.015625, 187500.015625, 109257.515625, 81502.664063, 88164.148438, 142903.218750, 0, 1, 1, 0, 1,0.0,0.0,0.0,0.0,0.0, 12:55:04.432
80050.625000, 99188.140625, 187500.015625, 187500.015625, 109398.820313, 81436.320313, 88167.148438, 143052.296875, 0, 1, 1, 0, 1,0.0,0.0,0.0,0.0,0.0, 12:55:04.433
80014.929688, 99147.328125, 187500.015625, 187500.015625, 109395.335938, 81469.671875, 88225.062500, 143019.593750, 0, 1, 1, 0, 1,0.0,0.0,0.0,0.0,0.0, 12:55:04.433
79875.453125, 99002.804688, 187500.015625, 187500.015625, 109279.125000, 81545.796875, 88242.585938, 142885.906250, 0, 1, 1, 0, 1,0.0,0.0,0.0,0.0,0.0, 12:55:04.434
79884.484375, 99016.703125, 187500.015625, 187500.015625, 109260.820313, 81515.648438, 88194.484375, 142888.343750, 0, 1, 1, 0, 1,0.0,0.0,0.0,0.0,0.0, 12:55:04.435
80058.562500, 99194.781250, 187500.015625, 187500.015625, 109405.460938, 81442.242188, 88191.843750, 143050.734375, 0, 1, 1, 0, 1,0.0,0.0,0.0,0.0,0.0, 12:55:04.436
80039.179688, 99171.601563, 187500.015625, 187500.015625, 109413.195313, 81457.601563, 88226.156250, 143031.781250, 0, 1, 1, 0, 1,0.0,0.0,0.0,0.0,0.0, 12:55:04.437
79888.867188, 99018.156250, 187500.015625, 187500.015625, 109280.515625, 81531.695313, 88219.625000, 142880.765625, 0, 1, 1, 0, 1,0.0,0.0,0.0,0.0,0.0, 12:55:04.437
79876.640625, 99005.796875, 187500.015625, 187500.015625, 109238.070313, 81531.984375, 88176.156250, 142865.812500, 0, 1, 1, 0, 1,0.0,0.0,0.0,0.0,0.0, 12:55:04.438
80056.835938, 99187.359375, 187500.015625, 187500.015625, 109394.773438, 81456.992188, 88186.476563, 143034.812500, 0, 1, 1, 0, 1,0.0,0.0,0.0,0.0,0.0, 12:55:04.439
80119.648438, 99249.992188, 187500.015625, 187500.015625, 109480.921875, 81464.664063, 88264.039063, 143106.250000, 0, 1, 1, 0, 1,0.0,0.0,0.0,0.0,0.0, 12:55:04.440
79943.492188, 99072.765625, 187500.015625, 187500.015625, 109330.960938, 81534.109375, 88261.265625, 142942.828125, 0, 1, 1, 0, 1,0.0,0.0,0.0,0.0,0.0, 12:55:04.441
79841.437500, 98973.742188, 187500.015625, 187500.015625, 109221.171875, 81533.125000, 88181.093750, 142843.312500, 0, 1, 1, 0, 1,0.0,0.0,0.0,0.0,0.0, 12:55:04.441
79988.820313, 99123.570313, 187500.015625, 187500.015625, 109330.960938, 81453.195313, 88151.726563, 142975.656250, 0, 1, 1, 0, 1,0.0,0.0,0.0,0.0,0.0, 12:55:04.442
80084.640625, 99217.914063, 187500.015625, 187500.015625, 109439.007813, 81442.445313, 88221.820313, 143076.265625, 0, 1, 1, 0, 1,0.0,0.0,0.0,0.0,0.0, 12:55:04.443
79953.664063, 99083.804688, 187500.015625, 187500.015625, 109338.093750, 81517.546875, 88251.210938, 142964.718750, 0, 1, 1, 0, 1,0.0,0.0,0.0,0.0,0.0, 12:55:04.443
79844.359375, 98973.500000, 187500.015625, 187500.015625, 109225.351563, 81540.523438, 88203.601563, 142846.812500, 0, 1, 1, 0, 1,0.0,0.0,0.0,0.0,0.0, 12:55:04.444
79940.203125, 99074.750000, 187500.015625, 187500.015625, 109288.359375, 81465.000000, 88152.101563, 142932.265625, 0, 1, 1, 0, 1,0.0,0.0,0.0,0.0,0.0, 12:55:04.445
80051.898438, 99188.140625, 187500.015625, 187500.015625, 109411.070313, 81420.632813, 88191.218750, 143049.218750, 0, 1, 1, 0, 1,0.0,0.0,0.0,0.0,0.0, 12:55:04.446
79969.507813, 99101.195313, 187500.015625, 187500.015625, 109352.578125, 81495.664063, 88247.609375, 142980.281250, 0, 1, 1, 0, 1,0.0,0.0,0.0,0.0,0.0, 12:55:04.446
79847.023438, 98976.781250, 187500.015625, 187500.015625, 109217.054688, 81544.640625, 88209.500000, 142850.937500, 0, 1, 1, 0, 1,0.0,0.0,0.0,0.0,0.0, 12:55:04.447
79941.703125, 99076.117188, 187500.015625, 187500.015625, 109287.460938, 81491.687500, 88186.437500, 142942.078125, 0, 1, 1, 0, 1,0.0,0.0,0.0,0.0,0.0, 12:55:04.448
80107.132813, 99242.835938, 187500.015625, 187500.015625, 109453.984375, 81453.601563, 88243.273438, 143118.125000, 0, 1, 1, 0, 1,0.0,0.0,0.0,0.0,0.0, 12:55:04.448
80029.343750, 99162.593750, 187500.015625, 187500.015625, 109400.367188, 81502.859375, 88271.078125, 143039.062500, 0, 1, 1, 0, 1,0.0,0.0,0.0,0.0,0.0, 12:55:04.449
79854.085938, 98982.773438, 187500.015625, 187500.015625, 109239.140625, 81552.929688, 88226.179688, 142865.812500, 0, 1, 1, 0, 1,0.0,0.0,0.0,0.0,0.0, 12:55:04.450
79889.648438, 99022.273438, 187500.015625, 187500.015625, 109247.343750, 81502.125000, 88170.609375, 142894.968750, 0, 1, 1, 0, 1,0.0,0.0,0.0,0.0,0.0, 12:55:04.450
80065.015625, 99199.359375, 187500.015625, 187500.015625, 109402.195313, 81438.554688, 88201.945313, 143069.234375, 0, 1, 1, 0, 1,0.0,0.0,0.0,0.0,0.0, 12:55:04.451
80052.968750, 99187.296875, 187500.015625, 187500.015625, 109424.484375, 81479.992188, 88276.359375, 143075.656250, 0, 1, 1, 0, 1,0.0,0.0,0.0,0.0,0.0, 12:55:04.452
79882.539063, 99014.578125, 187500.015625, 187500.015625, 109279.218750, 81549.796875, 88257.671875, 142913.109375, 0, 1, 1, 0, 1,0.0,0.0,0.0,0.0,0.0, 12:55:04.452
79842.710938, 98977.273438, 187500.015625, 187500.015625, 109208.023438, 81504.492188, 88164.867188, 142857.687500, 0, 1, 1, 0, 1,0.0,0.0,0.0,0.0,0.0, 12:55:04.453
80060.054688, 99197.460938, 187500.015625, 187500.015625, 109400.945313, 81438.960938, 88205.320313, 143062.671875, 0, 1, 1, 0, 1,0.0,0.0,0.0,0.0,0.0, 12:55:04.454
80088.664063, 99221.578125, 187500.015625, 187500.015625, 109446.320313, 81471.593750, 88279.437500, 143100.375000, 0, 1, 1, 0, 1,0.0,0.0,0.0,0.0,0.0, 12:55:04.454
79909.539063, 99040.304688, 187500.015625, 187500.015625, 109290.726563, 81544.835938, 88262.382813, 142937.656250, 0, 1, 1, 0, 1,0.0,0.0,0.0,0.0,0.0, 12:55:04.455
79866.265625, 99001.304688, 187500.015625, 187500.015625, 109231.320313, 81535.070313, 88206.906250, 142893.609375, 0, 1, 1, 0, 1,0.0,0.0,0.0,0.0,0.0, 12:55:04.456
80001.093750, 99139.304688, 187500.015625, 187500.015625, 109348.437500, 81456.367188, 88195.757813, 143029.187500, 0, 1, 1, 0, 1,0.0,0.0,0.0,0.0,0.0, 12:55:04.457
80065.085938, 99203.562500, 187500.015625, 187500.015625, 109426.718750, 81451.562500, 88254.500000, 143097.468750, 0, 1, 1, 0, 1,0.0,0.0,0.0,0.0,0.0, 12:55:04.458
79930.101563, 99066.367188, 187500.015625, 187500.015625, 109318.554688, 81525.953125, 88266.390625, 142963.343750, 0, 1, 1, 0, 1,0.0,0.0,0.0,0.0,0.0, 12:55:04.459
79846.796875, 98980.609375, 187500.015625, 187500.015625, 109223.468750, 81537.640625, 88203.375000, 142872.484375, 0, 1, 1, 0, 1,0.0,0.0,0.0,0.0,0.0, 12:55:04.459
79982.789063, 99122.203125, 187500.015625, 187500.015625, 109326.109375, 81458.335938, 88175.796875, 143002.015625, 0, 1, 1, 0, 1,0.0,0.0,0.0,0.0,0.0, 12:55:04.460
80076.593750, 99216.398438, 187500.015625, 187500.015625, 109431.320313, 81425.210938, 88229.460938, 143091.500000, 0, 1, 1, 0, 1,0.0,0.0,0.0,0.0,0.0, 12:55:04.460
79945.859375, 99084.968750, 187500.015625, 187500.015625, 109332.234375, 81483.820313, 88252.890625, 142969.593750, 0, 1, 1, 0, 1,0.0,0.0,0.0,0.0,0.0, 12:55:04.461
79837.882813, 98978.570313, 187500.015625, 187500.015625, 109224.765625, 81520.359375, 88217.257813, 142874.015625, 0, 1, 1, 0, 1,0.0,0.0,0.0,0.0,0.0, 12:55:04.461
79951.117188, 99092.093750, 187500.015625, 187500.015625, 109299.046875, 81455.562500, 88184.359375, 142974.203125, 0, 1, 1, 0, 1,0.0,0.0,0.0,0.0,0.0, 12:55:04.462
80080.148438, 99223.164063, 187500.015625, 187500.015625, 109434.515625, 81417.703125, 88231.429688, 143106.906250, 0, 1, 1, 0, 1,0.0,0.0,0.0,0.0,0.0, 12:55:04.462
79988.820313, 99132.531250, 187500.015625, 187500.015625, 109383.218750, 81484.937500, 88279.750000, 143035.843750, 0, 1, 1, 0, 1,0.0,0.0,0.0,0.0,0.0, 12:55:04.469
79820.648438, 98965.382813, 187500.015625, 187500.015625, 109220.054688, 81521.523438, 88223.382813, 142867.890625, 0, 1, 1, 0, 1,0.0,0.0,0.0,0.0,0.0, 12:55:04.470
79888.062500, 99039.187500, 187500.015625, 187500.015625, 109253.203125, 81456.640625, 88166.070313, 142924.328125, 0, 1, 1, 0, 1,0.0,0.0,0.0,0.0,0.0, 12:55:04.470
80062.851563, 99213.039063, 187500.015625, 187500.015625, 109425.953125, 81405.898438, 88220.742188, 143098.718750, 0, 1, 1, 0, 1,0.0,0.0,0.0,0.0,0.0, 12:55:04.471
80031.960938, 99175.109375, 187500.015625, 187500.015625, 109425.328125, 81471.945313, 88295.085938, 143076.531250, 0, 1, 1, 0, 1,0.0,0.0,0.0,0.0,0.0, 12:55:04.471
79871.812500, 99013.734375, 187500.015625, 187500.015625, 109274.257813, 81541.015625, 88262.812500, 142917.562500, 0, 1, 1, 0, 1,0.0,0.0,0.0,0.0,0.0, 12:55:04.471
79876.617188, 99023.968750, 187500.015625, 187500.015625, 109249.804688, 81488.421875, 88181.695313, 142918.531250, 0, 1, 1, 0, 1,0.0,0.0,0.0,0.0,0.0, 12:55:04.472
80049.726563, 99201.796875, 187500.015625, 187500.015625, 109413.726563, 81420.804688, 88206.257813, 143093.453125, 0, 1, 1, 0, 1,0.0,0.0,0.0,0.0,0.0, 12:55:04.472
80043.960938, 99190.085938, 187500.015625, 187500.015625, 109436.640625, 81454.359375, 88274.679688, 143088.078125, 0, 1, 1, 0, 1,5.89991E-6,7.815226E-6,9.6067515E-6,3.0234132E-5,3.8412614E-5, 12:55:04.473
79886.945313, 99026.515625, 187500.015625, 187500.015625, 109300.492188, 81527.289063, 88271.750000, 142931.375000, 0, 1, 1, 0, 1,5.89991E-6,7.815226E-6,9.6067515E-6,3.0234132E-5,3.8412614E-5, 12:55:04.473
79852.070313, 98996.898438, 187500.015625, 187500.015625, 109237.195313, 81490.187500, 88191.195313, 142886.781250, 0, 1, 1, 0, 1,5.89991E-6,7.815226E-6,9.6067515E-6,3.0234132E-5,3.8412614E-5, 12:55:04.473
80027.937500, 99183.093750, 187500.015625, 187500.015625, 109387.468750, 81410.210938, 88191.554688, 143054.687500, 0, 1, 1, 0, 1,5.89991E-6,7.815226E-6,9.6067515E-6,3.0234132E-5,3.8412614E-5, 12:55:04.474
80059.500000, 99211.726563, 187500.015625, 187500.015625, 109444.304688, 81426.484375, 88257.960938, 143098.484375, 0, 1, 1, 0, 1,5.89991E-6,7.815226E-6,9.6067515E-6,3.0234132E-5,3.8412614E-5, 12:55:04.474
79903.171875, 99047.101563, 187500.015625, 187500.015625, 109323.179688, 81513.031250, 88275.664063, 142957.375000, 0, 1, 1, 0, 1,5.89991E-6,7.815226E-6,9.6067515E-6,3.0234132E-5,3.8412614E-5, 12:55:04.475
79817.273438, 98961.648438, 187500.015625, 187500.015625, 109216.632813, 81504.898438, 88195.601563, 142864.125000, 0, 1, 1, 0, 1,5.89991E-6,7.815226E-6,9.6067515E-6,3.0234132E-5,3.8412614E-5, 12:55:04.476
80006.140625, 99157.140625, 187500.015625, 187500.015625, 109369.742188, 81427.335938, 88193.250000, 143043.812500, 0, 1, 1, 0, 1,5.89991E-6,7.815226E-6,9.6067515E-6,3.0234132E-5,3.8412614E-5, 12:55:04.477
80088.109375, 99235.617188, 187500.015625, 187500.015625, 109478.546875, 81431.359375, 88275.953125, 143135.171875, 0, 1, 1, 0, 1,5.89991E-6,7.815226E-6,9.6067515E-6,3.0234132E-5,3.8412614E-5, 12:55:04.477
79931.648438, 99076.429688, 187500.015625, 187500.015625, 109348.281250, 81503.132813, 88285.210938, 142986.000000, 0, 1, 1, 0, 1,5.89991E-6,7.815226E-6,9.6067515E-6,3.0234132E-5,3.8412614E-5, 12:55:04.478
79824.984375, 98967.171875, 187500.015625, 187500.015625, 109237.578125, 81517.304688, 88222.648438, 142878.312500, 0, 1, 1, 0, 1,5.89991E-6,7.815226E-6,9.6067515E-6,3.0234132E-5,3.8412614E-5, 12:55:04.478
79962.601563, 99107.382813, 187500.015625, 187500.015625, 109348.437500, 81444.968750, 88201.273438, 143011.000000, 0, 1, 1, 0, 1,5.89991E-6,7.815226E-6,9.6067515E-6,3.0234132E-5,3.8412614E-5, 12:55:04.478
80075.281250, 99222.429688, 187500.015625, 187500.015625, 109471.375000, 81427.875000, 88266.234375, 143133.500000, 0, 1, 1, 0, 1,5.89991E-6,7.815226E-6,9.6067515E-6,3.0234132E-5,3.8412614E-5, 12:55:04.479
79958.804688, 99104.906250, 187500.015625, 187500.015625, 109389.906250, 81498.054688, 88299.085938, 143030.390625, 0, 1, 1, 0, 1,5.89991E-6,7.815226E-6,9.6067515E-6,3.0234132E-5,3.8412614E-5, 12:55:04.479
79810.835938, 98954.054688, 187500.015625, 187500.015625, 109242.203125, 81517.906250, 88239.164063, 142878.812500, 0, 1, 1, 0, 1,5.89991E-6,7.815226E-6,9.6067515E-6,3.0234132E-5,3.8412614E-5, 12:55:04.479
79905.718750, 99055.531250, 187500.015625, 187500.015625, 109312.718750, 81442.601563, 88197.609375, 142969.890625, 0, 1, 1, 0, 1,5.89991E-6,7.815226E-6,9.6067515E-6,3.0234132E-5,3.8412614E-5, 12:55:04.480
80037.390625, 99187.335938, 187500.015625, 187500.015625, 109460.554688, 81398.476563, 88251.476563, 143114.609375, 0, 1, 1, 0, 1,5.89991E-6,7.815226E-6,9.6067515E-6,3.0234132E-5,3.8412614E-5, 12:55:04.480
79957.460938, 99103.968750, 187500.015625, 187500.015625, 109424.882813, 81466.515625, 88316.609375, 143054.359375, 0, 1, 1, 0, 1,5.89991E-6,7.815226E-6,9.6067515E-6,3.0234132E-5,3.8412614E-5, 12:55:04.481
79799.773438, 98947.078125, 187500.015625, 187500.015625, 109266.859375, 81512.273438, 88265.179688, 142899.859375, 0, 1, 1, 0, 1,5.89991E-6,7.815226E-6,9.6067515E-6,3.0234132E-5,3.8412614E-5, 12:55:04.481
79817.695313, 98967.578125, 187500.015625, 187500.015625, 109272.960938, 81444.054688, 88192.625000, 142921.906250, 0, 1, 1, 0, 1,5.89991E-6,7.815226E-6,9.6067515E-6,3.0234132E-5,3.8412614E-5, 12:55:04.482
79989.203125, 99137.937500, 187500.015625, 187500.015625, 109437.890625, 81382.968750, 88231.921875, 143097.187500, 0, 1, 1, 0, 1,5.89991E-6,7.815226E-6,9.6067515E-6,3.0234132E-5,3.8412614E-5, 12:55:04.482
79957.687500, 99100.164063, 187500.015625, 187500.015625, 109444.640625, 81434.312500, 88306.773438, 143071.765625, 0, 1, 1, 0, 1,5.89991E-6,7.815226E-6,9.6067515E-6,3.0234132E-5,3.8412614E-5, 12:55:04.483
79779.898438, 98920.812500, 187500.015625, 187500.015625, 109291.843750, 81496.960938, 88283.734375, 142901.828125, 0, 1, 1, 0, 1,5.89991E-6,7.815226E-6,9.6067515E-6,3.0234132E-5,3.8412614E-5, 12:55:04.483
79785.578125, 98931.031250, 187500.015625, 187500.015625, 109278.125000, 81455.898438, 88233.062500, 142906.906250, 0, 1, 1, 0, 1,5.89991E-6,7.815226E-6,9.6067515E-6,3.0234132E-5,3.8412614E-5, 12:55:04.483
79984.101563, 99133.359375, 187500.015625, 187500.015625, 109431.390625, 81384.976563, 88248.773438, 143085.625000, 0, 1, 1, 0, 1,5.89991E-6,7.815226E-6,9.6067515E-6,3.0234132E-5,3.8412614E-5, 12:55:04.484
79986.765625, 99131.593750, 187500.015625, 187500.015625, 109472.718750, 81421.476563, 88330.203125, 143101.968750, 0, 1, 1, 0, 1,5.89991E-6,7.815226E-6,9.6067515E-6,3.0234132E-5,3.8412614E-5, 12:55:04.484
79821.453125, 98962.992188, 187500.015625, 187500.015625, 109327.515625, 81506.101563, 88324.281250, 142945.750000, 0, 1, 1, 0, 1,5.89991E-6,7.815226E-6,9.6067515E-6,3.0234132E-5,3.8412614E-5, 12:55:04.485
79772.437500, 98917.687500, 187500.015625, 187500.015625, 109249.507813, 81474.250000, 88244.687500, 142888.531250, 0, 1, 1, 0, 1,5.89991E-6,7.815226E-6,9.6067515E-6,3.0234132E-5,3.8412614E-5, 12:55:04.485
79950.601563, 99099.382813, 187500.015625, 187500.015625, 109404.273438, 81391.414063, 88262.609375, 143056.125000, 0, 1, 1, 0, 1,5.89991E-6,7.815226E-6,9.6067515E-6,3.0234132E-5,3.8412614E-5, 12:55:04.485
79985.000000, 99130.007813, 187500.015625, 187500.015625, 109466.750000, 81399.218750, 88341.156250, 143095.062500, 0, 1, 1, 0, 1,5.89991E-6,7.815226E-6,9.6067515E-6,3.0234132E-5,3.8412614E-5, 12:55:04.486
79817.250000, 98961.007813, 187500.015625, 187500.015625, 109322.398438, 81475.500000, 88347.750000, 142936.062500, 0, 1, 1, 0, 1,5.89991E-6,7.815226E-6,9.6067515E-6,3.0234132E-5,3.8412614E-5, 12:55:04.486
79747.289063, 98896.656250, 187500.015625, 187500.015625, 109240.054688, 81477.468750, 88290.703125, 142868.656250, 0, 1, 1, 0, 1,5.89991E-6,7.815226E-6,9.6067515E-6,3.0234132E-5,3.8412614E-5, 12:55:04.486
79913.562500, 99067.312500, 187500.015625, 187500.015625, 109379.171875, 81400.781250, 88280.734375, 143026.546875, 0, 1, 1, 0, 1,5.89991E-6,7.815226E-6,9.6067515E-6,3.0234132E-5,3.8412614E-5, 12:55:04.487
79991.820313, 99140.843750, 187500.015625, 187500.015625, 109475.289063, 81389.445313, 88347.460938, 143107.546875, 0, 1, 1, 0, 1,5.89991E-6,7.815226E-6,9.6067515E-6,3.0234132E-5,3.8412614E-5, 12:55:04.487
79840.648438, 98988.093750, 187500.015625, 187500.015625, 109360.531250, 81464.414063, 88376.359375, 142976.812500, 0, 1, 1, 0, 1,5.89991E-6,7.815226E-6,9.6067515E-6,3.0234132E-5,3.8412614E-5, 12:55:04.488
79746.078125, 98891.960938, 187500.015625, 187500.015625, 109261.562500, 81489.000000, 88333.015625, 142874.828125, 0, 1, 1, 0, 1,5.89991E-6,7.815226E-6,9.6067515E-6,3.0234132E-5,3.8412614E-5, 12:55:04.488
79859.515625, 99010.000000, 187500.015625, 187500.015625, 109341.289063, 81407.328125, 88290.171875, 142972.953125, 0, 1, 1, 0, 1,5.89991E-6,7.815226E-6,9.6067515E-6,3.0234132E-5,3.8412614E-5, 12:55:04.489
80003.281250, 99155.085938, 187500.015625, 187500.015625, 109491.718750, 81376.687500, 88366.031250, 143122.484375, 0, 1, 1, 0, 1,5.89991E-6,7.815226E-6,9.6067515E-6,3.0234132E-5,3.8412614E-5, 12:55:04.489
79877.625000, 99022.937500, 187500.015625, 187500.015625, 109408.570313, 81446.578125, 88409.726563, 143007.500000, 0, 1, 1, 0, 1,5.89991E-6,7.815226E-6,9.6067515E-6,3.0234132E-5,3.8412614E-5, 12:55:04.490
79739.445313, 98882.414063, 187500.015625, 187500.015625, 109264.531250, 81488.335938, 88363.726563, 142866.562500, 0, 1, 1, 0, 1,5.89991E-6,7.815226E-6,9.6067515E-6,3.0234132E-5,3.8412614E-5, 12:55:04.491
79831.421875, 98979.687500, 187500.015625, 187500.015625, 109319.453125, 81421.054688, 88315.179688, 142948.093750, 0, 1, 1, 0, 1,5.89991E-6,7.815226E-6,9.6067515E-6,3.0234132E-5,3.8412614E-5, 12:55:04.491
79981.804688, 99134.140625, 187500.015625, 187500.015625, 109470.812500, 81369.109375, 88363.507813, 143105.390625, 0, 1, 1, 0, 1,5.89991E-6,7.815226E-6,9.6067515E-6,3.0234132E-5,3.8412614E-5, 12:55:04.491
79899.640625, 99052.023438, 187500.015625, 187500.015625, 109428.390625, 81429.570313, 88420.882813, 143039.968750, 0, 1, 1, 0, 1,5.89991E-6,7.815226E-6,9.6067515E-6,3.0234132E-5,3.8412614E-5, 12:55:04.492
79747.000000, 98890.906250, 187500.015625, 187500.015625, 109265.406250, 81483.171875, 88371.820313, 142870.421875, 0, 1, 1, 0, 1,5.89991E-6,7.815226E-6,9.6067515E-6,3.0234132E-5,3.8412614E-5, 12:55:04.492
79805.898438, 98950.859375, 187500.015625, 187500.015625, 109296.382813, 81433.570313, 88321.867188, 142915.218750, 0, 1, 1, 0, 1,5.89991E-6,7.815226E-6,9.6067515E-6,3.0234132E-5,3.8412614E-5, 12:55:04.492
79991.210938, 99139.195313, 187500.015625, 187500.015625, 109468.984375, 81375.859375, 88364.625000, 143097.031250, 0, 1, 1, 0, 1,5.89991E-6,7.815226E-6,9.6067515E-6,3.0234132E-5,3.8412614E-5, 12:55:04.493
79953.460938, 99095.898438, 187500.015625, 187500.015625, 109465.250000, 81420.695313, 88434.875000, 143068.187500, 0, 1, 1, 0, 1,5.89991E-6,7.815226E-6,9.6067515E-6,3.0234132E-5,3.8412614E-5, 12:55:04.493
79795.773438, 98934.296875, 187500.015625, 187500.015625, 109323.539063, 81497.851563, 88428.125000, 142913.859375, 0, 1, 1, 0, 1,5.89991E-6,7.815226E-6,9.6067515E-6,3.0234132E-5,3.8412614E-5, 12:55:04.494
79819.867188, 98964.578125, 187500.015625, 187500.015625, 109314.820313, 81475.484375, 88380.984375, 142928.734375, 0, 1, 1, 0, 1,5.89991E-6,7.815226E-6,9.6067515E-6,3.0234132E-5,3.8412614E-5, 12:55:04.494
79988.375000, 99137.960938, 187500.015625, 187500.015625, 109468.804688, 81403.867188, 88396.429688, 143096.312500, 0, 1, 1, 0, 1,5.89991E-6,7.815226E-6,9.6067515E-6,3.0234132E-5,3.8412614E-5, 12:55:04.495
80004.578125, 99152.671875, 187500.015625, 187500.015625, 109520.726563, 81427.914063, 88478.703125, 143125.296875, 0, 1, 1, 0, 1,5.89991E-6,7.815226E-6,9.6067515E-6,3.0234132E-5,3.8412614E-5, 12:55:04.495
79835.601563, 98980.070313, 187500.015625, 187500.015625, 109377.695313, 81505.992188, 88479.914063, 142964.437500, 0, 1, 1, 0, 1,5.89991E-6,7.815226E-6,9.6067515E-6,3.0234132E-5,3.8412614E-5, 12:55:04.495
79765.859375, 98911.226563, 187500.015625, 187500.015625, 109290.015625, 81483.843750, 88407.132813, 142889.593750, 0, 1, 1, 0, 1,5.89991E-6,7.815226E-6,9.6067515E-6,3.0234132E-5,3.8412614E-5, 12:55:04.496
79925.164063, 99074.148438, 187500.015625, 187500.015625, 109414.421875, 81395.796875, 88384.625000, 143040.125000, 0, 1, 1, 0, 1,5.89991E-6,7.815226E-6,9.6067515E-6,3.0234132E-5,3.8412614E-5, 12:55:04.497
79998.742188, 99142.078125, 187500.015625, 187500.015625, 109503.984375, 81400.828125, 88458.296875, 143123.515625, 0, 1, 1, 0, 1,5.89991E-6,7.815226E-6,9.6067515E-6,3.0234132E-5,3.8412614E-5, 12:55:04.497
79855.382813, 98996.453125, 187500.015625, 187500.015625, 109386.101563, 81483.820313, 88480.296875, 142981.437500, 0, 1, 1, 0, 1,5.89991E-6,7.815226E-6,9.6067515E-6,3.0234132E-5,3.8412614E-5, 12:55:04.497
79793.062500, 98938.273438, 187500.015625, 187500.015625, 109312.632813, 81498.484375, 88441.421875, 142917.890625, 0, 1, 1, 0, 1,5.89991E-6,7.815226E-6,9.6067515E-6,3.0234132E-5,3.8412614E-5, 12:55:04.498
79931.601563, 99082.750000, 187500.015625, 187500.015625, 109425.507813, 81419.781250, 88433.000000, 143060.703125, 0, 1, 1, 0, 1,5.89991E-6,7.815226E-6,9.6067515E-6,3.0234132E-5,3.8412614E-5, 12:55:04.498
80033.007813, 99179.539063, 187500.015625, 187500.015625, 109542.632813, 81401.296875, 88501.015625, 143162.562500, 0, 1, 1, 0, 1,5.89991E-6,7.815226E-6,9.6067515E-6,3.0234132E-5,3.8412614E-5, 12:55:04.498
79892.062500, 99028.484375, 187500.015625, 187500.015625, 109427.343750, 81472.375000, 88516.390625, 143018.500000, 0, 1, 1, 0, 1,5.89991E-6,7.815226E-6,9.6067515E-6,3.0234132E-5,3.8412614E-5, 12:55:04.499
79757.976563, 98892.359375, 187500.015625, 187500.015625, 109284.085938, 81491.820313, 88442.070313, 142878.937500, 0, 1, 1, 0, 1,5.89991E-6,7.815226E-6,9.6067515E-6,3.0234132E-5,3.8412614E-5, 12:55:04.499
79867.179688, 99009.414063, 187500.015625, 187500.015625, 109360.734375, 81409.632813, 88391.734375, 142972.234375, 0, 1, 1, 0, 1,5.89991E-6,7.815226E-6,9.6067515E-6,3.0234132E-5,3.8412614E-5, 12:55:04.499
79994.031250, 99139.351563, 187500.015625, 187500.015625, 109491.289063, 81368.015625, 88447.460938, 143104.781250, 0, 1, 1, 0, 1,0.0,0.0,0.0,0.0,0.0, 12:55:04.904
79916.359375, 99056.242188, 187500.015625, 187500.015625, 109448.132813, 81445.085938, 88518.312500, 143039.531250, 0, 1, 1, 0, 1,0.0,0.0,0.0,0.0,0.0, 12:55:04.905
79788.882813, 98924.125000, 187500.015625, 187500.015625, 109324.476563, 81504.492188, 88494.109375, 142904.234375, 0, 1, 1, 0, 1,0.0,0.0,0.0,0.0,0.0, 12:55:04.905
79841.078125, 98979.937500, 187500.015625, 187500.015625, 109350.164063, 81439.921875, 88436.664063, 142952.968750, 0, 1, 1, 0, 1,0.0,0.0,0.0,0.0,0.0, 12:55:04.906
80006.992188, 99147.398438, 187500.015625, 187500.015625, 109514.398438, 81384.218750, 88483.156250, 143119.718750, 0, 1, 1, 0, 1,0.0,0.0,0.0,0.0,0.0, 12:55:04.906
79958.421875, 99095.046875, 187500.015625, 187500.015625, 109506.265625, 81446.445313, 88559.890625, 143074.187500, 0, 1, 1, 0, 1,0.0,0.0,0.0,0.0,0.0, 12:55:04.906
79809.562500, 98945.445313, 187500.015625, 187500.015625, 109359.835938, 81515.132813, 88540.601563, 142926.796875, 0, 1, 1, 0, 1,0.0,0.0,0.0,0.0,0.0, 12:55:04.907
79830.726563, 98971.890625, 187500.015625, 187500.015625, 109355.656250, 81471.593750, 88479.937500, 142945.390625, 0, 1, 1, 0, 1,0.0,0.0,0.0,0.0,0.0, 12:55:04.907
79986.164063, 99131.007813, 187500.015625, 187500.015625, 109491.242188, 81399.375000, 88491.601563, 143100.718750, 0, 1, 1, 0, 1,0.0,0.0,0.0,0.0,0.0, 12:55:04.908
79976.929688, 99114.937500, 187500.015625, 187500.015625, 109508.054688, 81441.281250, 88565.679688, 143096.515625, 0, 1, 1, 0, 1,0.0,0.0,0.0,0.0,0.0, 12:55:04.908
79824.718750, 98959.281250, 187500.015625, 187500.015625, 109374.750000, 81521.835938, 88565.226563, 142951.718750, 0, 1, 1, 0, 1,0.0,0.0,0.0,0.0,0.0, 12:55:04.908
79814.921875, 98954.570313, 187500.015625, 187500.015625, 109336.148438, 81497.632813, 88496.945313, 142933.859375, 0, 1, 1, 0, 1,0.0,0.0,0.0,0.0,0.0, 12:55:04.909
79986.359375, 99132.265625, 187500.015625, 187500.015625, 109479.445313, 81421.726563, 88494.398438, 143097.218750, 0, 1, 1, 0, 1,0.0,0.0,0.0,0.0,0.0, 12:55:04.909
79992.289063, 99135.593750, 187500.015625, 187500.015625, 109515.968750, 81438.468750, 88553.000000, 143114.062500, 0, 1, 1, 0, 1,0.0,0.0,0.0,0.0,0.0, 12:55:04.909
79825.851563, 98962.367188, 187500.015625, 187500.015625, 109380.585938, 81523.070313, 88559.820313, 142958.750000, 0, 1, 1, 0, 1,0.0,0.0,0.0,0.0,0.0, 12:55:04.910
79772.281250, 98904.859375, 187500.015625, 187500.015625, 109299.445313, 81511.023438, 88486.796875, 142888.031250, 0, 1, 1, 0, 1,0.0,0.0,0.0,0.0,0.0, 12:55:04.910
79922.882813, 99058.570313, 187500.015625, 187500.015625, 109419.250000, 81421.343750, 88459.414063, 143035.093750, 0, 1, 1, 0, 1,0.0,0.0,0.0,0.0,0.0, 12:55:04.911
80003.843750, 99145.539063, 187500.015625, 187500.015625, 109528.328125, 81422.953125, 88541.625000, 143124.250000, 0, 1, 1, 0, 1,0.0,0.0,0.0,0.0,0.0, 12:55:04.911
79856.992188, 98997.703125, 187500.015625, 187500.015625, 109414.468750, 81512.046875, 88574.437500, 142982.718750, 0, 1, 1, 0, 1,0.0,0.0,0.0,0.0,0.0, 12:55:04.911
79749.906250, 98891.648438, 187500.015625, 187500.015625, 109284.804688, 81514.101563, 88500.250000, 142864.546875, 0, 1, 1, 0, 1,0.0,0.0,0.0,0.0,0.0, 12:55:04.912
79921.187500, 99066.906250, 187500.015625, 187500.015625, 109413.820313, 81430.351563, 88483.179688, 143018.500000, 0, 1, 1, 0, 1,0.0,0.0,0.0,0.0,0.0, 12:55:04.912
80046.867188, 99191.609375, 187500.015625, 187500.015625, 109545.921875, 81410.882813, 88556.757813, 143139.046875, 0, 1, 1, 0, 1,0.0,0.0,0.0,0.0,0.0, 12:55:04.912
79918.390625, 99056.710938, 187500.015625, 187500.015625, 109454.210938, 81488.179688, 88593.570313, 143020.140625, 0, 1, 1, 0, 1,0.0,0.0,0.0,0.0,0.0, 12:55:04.912
79782.695313, 98923.523438, 187500.015625, 187500.015625, 109324.546875, 81521.812500, 88540.039063, 142886.671875, 0, 1, 1, 0, 1,0.0,0.0,0.0,0.0,0.0, 12:55:04.913
79887.476563, 99037.132813, 187500.015625, 187500.015625, 109387.757813, 81448.320313, 88494.554688, 142980.781250, 0, 1, 1, 0, 1,0.0,0.0,0.0,0.0,0.0, 12:55:04.913
80025.257813, 99174.773438, 187500.015625, 187500.015625, 109533.289063, 81405.117188, 88550.945313, 143120.578125, 0, 1, 1, 0, 1,0.0,0.0,0.0,0.0,0.0, 12:55:04.913
79935.710938, 99078.734375, 187500.015625, 187500.015625, 109480.070313, 81472.375000, 88599.000000, 143042.125000, 0, 1, 1, 0, 1,0.0,0.0,0.0,0.0,0.0, 12:55:04.914
79793.062500, 98933.984375, 187500.015625, 187500.015625, 109337.039063, 81530.421875, 88562.437500, 142896.734375, 0, 1, 1, 0, 1,0.0,0.0,0.0,0.0,0.0, 12:55:04.914
79842.664063, 98991.468750, 187500.015625, 187500.015625, 109343.296875, 81469.648438, 88487.914063, 142937.187500, 0, 1, 1, 0, 1,0.0,0.0,0.0,0.0,0.0, 12:55:04.914
79995.210938, 99149.226563, 187500.015625, 187500.015625, 109483.132813, 81401.789063, 88509.460938, 143089.843750, 0, 1, 1, 0, 1,0.0,0.0,0.0,0.0,0.0, 12:55:04.915
79948.703125, 99097.328125, 187500.015625, 187500.015625, 109471.242188, 81451.453125, 88576.117188, 143053.781250, 0, 1, 1, 0, 1,0.0,0.0,0.0,0.0,0.0, 12:55:04.915
79793.195313, 98936.414063, 187500.015625, 187500.015625, 109335.453125, 81528.187500, 88565.453125, 142913.671875, 0, 1, 1, 0, 1,0.0,0.0,0.0,0.0,0.0, 12:55:04.915
79821.406250, 98960.601563, 187500.015625, 187500.015625, 109334.492188, 81480.625000, 88513.062500, 142922.125000, 0, 1, 1, 0, 1,0.0,0.0,0.0,0.0,0.0, 12:55:04.915
80006.234375, 99143.507813, 187500.015625, 187500.015625, 109510.492188, 81409.406250, 88552.531250, 143096.562500, 0, 1, 1, 0, 1,0.0,0.0,0.0,0.0,0.0, 12:55:04.916
79997.765625, 99135.015625, 187500.015625, 187500.015625, 109526.539063, 81443.093750, 88621.843750, 143101.875000, 0, 1, 1, 0, 1,0.0,0.0,0.0,0.0,0.0, 12:55:04.916
79827.507813, 98964.382813, 187500.015625, 187500.015625, 109379.953125, 81520.656250, 88608.328125, 142942.531250, 0, 1, 1, 0, 1,0.0,0.0,0.0,0.0,0.0, 12:55:04.916
79804.914063, 98940.015625, 187500.015625, 187500.015625, 109333.351563, 81502.593750, 88543.570313, 142914.015625, 0, 1, 1, 0, 1,0.0,0.0,0.0,0.0,0.0, 12:55:04.917
79998.187500, 99135.820313, 187500.015625, 187500.015625, 109494.734375, 81429.164063, 88554.140625, 143100.796875, 0, 1, 1, 0, 1,0.0,0.0,0.0,0.0,0.0, 12:55:04.917
80044.726563, 99176.898438, 187500.015625, 187500.015625, 109574.820313, 81448.968750, 88649.382813, 143152.703125, 0, 1, 1, 0, 1,0.0,0.0,0.0,0.0,0.0, 12:55:04.917
79878.023438, 99004.414063, 187500.015625, 187500.015625, 109441.132813, 81528.476563, 88661.453125, 142989.781250, 0, 1, 1, 0, 1,0.0,0.0,0.0,0.0,0.0, 12:55:04.917
79795.859375, 98927.140625, 187500.015625, 187500.015625, 109343.859375, 81519.312500, 88591.070313, 142901.156250, 0, 1, 1, 0, 1,0.0,0.0,0.0,0.0,0.0, 12:55:04.918
79955.179688, 99092.093750, 187500.015625, 187500.015625, 109466.304688, 81433.054688, 88570.953125, 143046.734375, 0, 1, 1, 0, 1,0.0,0.0,0.0,0.0,0.0, 12:55:04.918
80055.921875, 99194.218750, 187500.015625, 187500.015625, 109581.257813, 81428.968750, 88650.281250, 143153.546875, 0, 1, 1, 0, 1,0.0,0.0,0.0,0.0,0.0, 12:55:04.918
79912.421875, 99048.648438, 187500.015625, 187500.015625, 109473.609375, 81518.015625, 88678.015625, 143022.968750, 0, 1, 1, 0, 1,0.0,0.0,0.0,0.0,0.0, 12:55:04.918
79777.710938, 98916.570313, 187500.015625, 187500.015625, 109334.937500, 81532.726563, 88603.671875, 142892.500000, 0, 1, 1, 0, 1,0.0,0.0,0.0,0.0,0.0, 12:55:04.918
79898.945313, 99049.203125, 187500.015625, 187500.015625, 109418.179688, 81447.585938, 88556.960938, 143010.921875, 0, 1, 1, 0, 1,0.0,0.0,0.0,0.0,0.0, 12:55:04.919
80032.140625, 99178.531250, 187500.015625, 187500.015625, 109555.773438, 81421.523438, 88626.765625, 143140.671875, 0, 1, 1, 0, 1,0.0,0.0,0.0,0.0,0.0, 12:55:04.919
79945.859375, 99086.757813, 187500.015625, 187500.015625, 109500.210938, 81504.289063, 88686.421875, 143059.781250, 0, 1, 1, 0, 1,0.0,0.0,0.0,0.0,0.0, 12:55:04.919
79781.757813, 98923.046875, 187500.015625, 187500.015625, 109340.617188, 81539.359375, 88619.546875, 142893.375000, 0, 1, 1, 0, 1,0.0,0.0,0.0,0.0,0.0, 12:55:04.919
79870.156250, 99015.187500, 187500.015625, 187500.015625, 109392.695313, 81460.640625, 88560.203125, 142971.875000, 0, 1, 1, 0, 1,0.0,0.0,0.0,0.0,0.0, 12:55:04.920
80035.875000, 99178.085938, 187500.015625, 187500.015625, 109556.648438, 81415.914063, 88620.664063, 143138.984375, 0, 1, 1, 0, 1,0.0,0.0,0.0,0.0,0.0, 12:55:04.920
79952.789063, 99091.671875, 187500.015625, 187500.015625, 109516.859375, 81484.781250, 88677.726563, 143067.718750, 0, 1, 1, 0, 1,0.0,0.0,0.0,0.0,0.0, 12:55:04.920
79779.203125, 98912.453125, 187500.015625, 187500.015625, 109344.078125, 81537.171875, 88619.812500, 142890.500000, 0, 1, 1, 0, 1,0.0,0.0,0.0,0.0,0.0, 12:55:04.920
79846.062500, 98980.468750, 187500.015625, 187500.015625, 109382.148438, 81481.359375, 88566.351563, 142952.515625, 0, 1, 1, 0, 1,0.0,0.0,0.0,0.0,0.0, 12:55:04.920
80039.132813, 99175.312500, 187500.015625, 187500.015625, 109568.109375, 81424.539063, 88628.617188, 143149.593750, 0, 1, 1, 0, 1,0.0,0.0,0.0,0.0,0.0, 12:55:04.921
79989.562500, 99121.648438, 187500.015625, 187500.015625, 109555.171875, 81475.953125, 88693.218750, 143110.078125, 0, 1, 1, 0, 1,0.0,0.0,0.0,0.0,0.0, 12:55:04.921
79816.289063, 98942.609375, 187500.015625, 187500.015625, 109394.531250, 81544.617188, 88661.031250, 142939.671875, 0, 1, 1, 0, 1,0.0,0.0,0.0,0.0,0.0, 12:55:04.921
79833.945313, 98958.679688, 187500.015625, 187500.015625, 109384.046875, 81509.390625, 88594.734375, 142943.671875, 0, 1, 1, 0, 1,0.0,0.0,0.0,0.0,0.0, 12:55:04.921
80023.914063, 99154.773438, 187500.015625, 187500.015625, 109558.476563, 81435.046875, 88630.632813, 143133.906250, 0, 1, 1, 0, 1,0.0,0.0,0.0,0.0,0.0, 12:55:04.921
80037.078125, 99162.437500, 187500.015625, 187500.015625, 109598.179688, 81469.890625, 88716.281250, 143150.000000, 0, 1, 1, 0, 1,0.0,0.0,0.0,0.0,0.0, 12:55:04.922
79854.328125, 98974.390625, 187500.015625, 187500.015625, 109434.515625, 81550.156250, 88695.273438, 142976.812500, 0, 1, 1, 0, 1,0.0,0.0,0.0,0.0,0.0, 12:55:04.922
79789.375000, 98907.335938, 187500.015625, 187500.015625, 109341.507813, 81521.101563, 88601.414063, 142902.156250, 0, 1, 1, 0, 1,0.0,0.0,0.0,0.0,0.0, 12:55:04.922
79979.117188, 99101.304688, 187500.015625, 187500.015625, 109494.734375, 81429.773438, 88596.007813, 143065.843750, 0, 1, 1, 0, 1,0.0,0.0,0.0,0.0,0.0, 12:55:04.923
80043.765625, 99163.218750, 187500.015625, 187500.015625, 109587.000000, 81444.476563, 88682.601563, 143134.109375, 0, 1, 1, 0, 1,0.0,0.0,0.0,0.0,0.0, 12:55:04.925
79879.453125, 98993.546875, 187500.015625, 187500.015625, 109467.421875, 81536.679688, 88704.507813, 142989.890625, 0, 1, 1, 0, 1,0.0,0.0,0.0,0.0,0.0, 12:55:04.925
79788.703125, 98908.453125, 187500.015625, 187500.015625, 109353.890625, 81537.843750, 88626.539063, 142896.125000, 0, 1, 1, 0, 1,0.0,0.0,0.0,0.0,0.0, 12:55:04.925
79962.203125, 99090.625000, 187500.015625, 187500.015625, 109483.734375, 81455.429688, 88607.343750, 143056.093750, 0, 1, 1, 0, 1,0.0,0.0,0.0,0.0,0.0, 12:55:04.926
80054.492188, 99179.359375, 187500.015625, 187500.015625, 109588.718750, 81444.523438, 88676.632813, 143153.515625, 0, 1, 1, 0, 1,0.0,0.0,0.0,0.0,0.0, 12:55:04.926
79918.007813, 99038.945313, 187500.015625, 187500.015625, 109480.851563, 81522.171875, 88706.023438, 143024.093750, 0, 1, 1, 0, 1,0.0,0.0,0.0,0.0,0.0, 12:55:04.926
79804.617188, 98925.171875, 187500.015625, 187500.015625, 109365.335938, 81545.734375, 88650.632813, 142907.375000, 0, 1, 1, 0, 1,0.0,0.0,0.0,0.0,0.0, 12:55:04.926
79914.812500, 99044.781250, 187500.015625, 187500.015625, 109445.242188, 81463.140625, 88603.226563, 143011.687500, 0, 1, 1, 0, 1,0.0,0.0,0.0,0.0,0.0, 12:55:04.926
80041.726563, 99170.953125, 187500.015625, 187500.015625, 109584.921875, 81428.500000, 88667.781250, 143146.437500, 0, 1, 1, 0, 1,0.0,0.0,0.0,0.0,0.0, 12:55:04.926
79938.640625, 99059.281250, 187500.015625, 187500.015625, 109515.007813, 81503.312500, 88717.242188, 143051.625000, 0, 1, 1, 0, 1,0.0,0.0,0.0,0.0,0.0, 12:55:04.927
79808.820313, 98930.585938, 187500.015625, 187500.015625, 109383.445313, 81548.820313, 88673.882813, 142918.234375, 0, 1, 1, 0, 1,0.0,0.0,0.0,0.0,0.0, 12:55:04.927
79897.406250, 99025.468750, 187500.015625, 187500.015625, 109439.054688, 81485.937500, 88627.148438, 143002.015625, 0, 1, 1, 0, 1,0.0,0.0,0.0,0.0,0.0, 12:55:04.927
80058.937500, 99182.976563, 187500.015625, 187500.015625, 109597.171875, 81438.445313, 88680.343750, 143162.562500, 0, 1, 1, 0, 1,0.0,0.0,0.0,0.0,0.0, 12:55:04.927
80014.929688, 99132.914063, 187500.015625, 187500.015625, 109586.890625, 81514.953125, 88759.578125, 143134.312500, 0, 1, 1, 0, 1,0.0,0.0,0.0,0.0,0.0, 12:55:04.927
79819.531250, 98932.101563, 187500.015625, 187500.015625, 109408.234375, 81574.429688, 88708.687500, 142938.890625, 0, 1, 1, 0, 1,0.0,0.0,0.0,0.0,0.0, 12:55:04.927
79850.015625, 98967.062500, 187500.015625, 187500.015625, 109403.203125, 81509.296875, 88634.812500, 142956.875000, 0, 1, 1, 0, 1,0.0,0.0,0.0,0.0,0.0, 12:55:04.928
80056.570313, 99176.539063, 187500.015625, 187500.015625, 109595.585938, 81445.171875, 88683.226563, 143158.875000, 0, 1, 1, 0, 1,0.0,0.0,0.0,0.0,0.0, 12:55:04.928
80036.539063, 99149.671875, 187500.015625, 187500.015625, 109604.500000, 81494.054688, 88754.976563, 143144.953125, 0, 1, 1, 0, 1,0.0,0.0,0.0,0.0,0.0, 12:55:04.928
79845.164063, 98957.695313, 187500.015625, 187500.015625, 109431.523438, 81567.414063, 88717.710938, 142959.187500, 0, 1, 1, 0, 1,0.0,0.0,0.0,0.0,0.0, 12:55:04.928
79824.804688, 98941.203125, 187500.015625, 187500.015625, 109389.789063, 81529.640625, 88640.171875, 142931.734375, 0, 1, 1, 0, 1,0.0,0.0,0.0,0.0,0.0, 12:55:04.928
80019.601563, 99135.664063, 187500.015625, 187500.015625, 109564.023438, 81453.914063, 88662.257813, 143120.515625, 0, 1, 1, 0, 1,0.0,0.0,0.0,0.0,0.0, 12:55:04.929
80050.468750, 99160.648438, 187500.015625, 187500.015625, 109612.171875, 81483.351563, 88737.585938, 143152.687500, 0, 1, 1, 0, 1,0.0,0.0,0.0,0.0,0.0, 12:55:04.929
79882.585938, 98987.804688, 187500.015625, 187500.015625, 109471.664063, 81567.437500, 88744.312500, 142996.328125, 0, 1, 1, 0, 1,0.0,0.0,0.0,0.0,0.0, 12:55:04.929
79839.890625, 98946.812500, 187500.015625, 187500.015625, 109406.914063, 81555.296875, 88678.445313, 142943.515625, 0, 1, 1, 0, 1,0.0,0.0,0.0,0.0,0.0, 12:55:04.929
80009.718750, 99124.257813, 187500.015625, 187500.015625, 109548.601563, 81471.570313, 88668.921875, 143108.640625, 0, 1, 1, 0, 1,0.0,0.0,0.0,0.0,0.0, 12:55:04.929
80077.203125, 99188.257813, 187500.015625, 187500.015625, 109632.578125, 81472.820313, 88744.335938, 143184.796875, 0, 1, 1, 0, 1,0.0,0.0,0.0,0.0,0.0, 12:55:04.930
79931.867188, 99032.570313, 187500.015625, 187500.015625, 109516.031250, 81557.757813, 88767.539063, 143037.953125, 0, 1, 1, 0, 1,0.0,0.0,0.0,0.0,0.0, 12:55:04.931
79827.328125, 98930.648438, 187500.015625, 187500.015625, 109397.164063, 81559.546875, 88691.851563, 142917.734375, 0, 1, 1, 0, 1,0.0,0.0,0.0,0.0,0.0, 12:55:04.932
79972.750000, 99085.367188, 187500.015625, 187500.015625, 109500.726563, 81470.851563, 88651.593750, 143055.718750, 0, 1, 1, 0, 1,0.0,0.0,0.0,0.0,0.0, 12:55:04.932
80093.382813, 99202.984375, 187500.015625, 187500.015625, 109637.937500, 81459.320313, 88730.789063, 143179.218750, 0, 1, 1, 0, 1,0.0,0.0,0.0,0.0,0.0, 12:55:04.932
79962.828125, 99068.445313, 187500.015625, 187500.015625, 109546.453125, 81547.054688, 88772.523438, 143066.109375, 0, 1, 1, 0, 1,0.0,0.0,0.0,0.0,0.0, 12:55:04.932
79837.101563, 98944.265625, 187500.015625, 187500.015625, 109412.812500, 81575.570313, 88707.765625, 142931.843750, 0, 1, 1, 0, 1,0.0,0.0,0.0,0.0,0.0, 12:55:04.933
79934.195313, 99054.140625, 187500.015625, 187500.015625, 109476.875000, 81496.601563, 88646.054688, 143027.890625, 0, 1, 1, 0, 1,0.0,0.0,0.0,0.0,0.0, 12:55:04.933
80064.976563, 99174.890625, 187500.015625, 187500.015625, 109618.742188, 81451.406250, 88703.320313, 143166.062500, 0, 1, 1, 0, 1,0.0,0.0,0.0,0.0,0.0, 12:55:04.933
79998.320313, 99096.257813, 187500.015625, 187500.015625, 109573.187500, 81527.851563, 88763.335938, 143111.984375, 0, 1, 1, 0, 1,0.0,0.0,0.0,0.0,0.0, 12:55:04.933
79836.382813, 98935.414063, 187500.015625, 187500.015625, 109425.843750, 81580.289063, 88718.562500, 142941.171875, 0, 1, 1, 0, 1,0.0,0.0,0.0,0.0,0.0, 12:55:04.933
79895.617188, 98998.687500, 187500.015625, 187500.015625, 109448.976563, 81511.421875, 88652.515625, 142994.593750, 0, 1, 1, 0, 1,0.0,0.0,0.0,0.0,0.0, 12:55:04.934
80073.804688, 99178.109375, 187500.015625, 187500.015625, 109619.921875, 81458.382813, 88708.953125, 143174.515625, 0, 1, 1, 0, 1,0.0,0.0,0.0,0.0,0.0, 12:55:04.934
80013.585938, 99113.375000, 187500.015625, 187500.015625, 109593.906250, 81514.687500, 88763.671875, 143126.281250, 0, 1, 1, 0, 1,0.0,0.0,0.0,0.0,0.0, 12:55:04.934
79842.414063, 98938.789063, 187500.015625, 187500.015625, 109440.531250, 81581.562500, 88731.078125, 142962.734375, 0, 1, 1, 0, 1,0.0,0.0,0.0,0.0,0.0, 12:55:04.934
79873.265625, 98973.367188, 187500.015625, 187500.015625, 109434.765625, 81534.242188, 88662.906250, 142992.156250, 0, 1, 1, 0, 1,0.0,0.0,0.0,0.0,0.0, 12:55:04.934
80049.953125, 99159.171875, 187500.015625, 187500.015625, 109595.609375, 81464.171875, 88686.710938, 143171.437500, 0, 1, 1, 0, 1,0.0,0.0,0.0,0.0,0.0, 12:55:04.934
80024.023438, 99128.578125, 187500.015625, 187500.015625, 109606.937500, 81497.140625, 88751.265625, 143128.718750, 0, 1, 1, 0, 1,0.0,0.0,0.0,0.0,0.0, 12:55:04.935
79849.953125, 98950.812500, 187500.015625, 187500.015625, 109454.164063, 81575.210938, 88729.289063, 142965.312500, 0, 1, 1, 0, 1,0.0,0.0,0.0,0.0,0.0, 12:55:04.935
79843.421875, 98950.273438, 187500.015625, 187500.015625, 109421.820313, 81542.132813, 88661.367188, 142951.453125, 0, 1, 1, 0, 1,0.0,0.0,0.0,0.0,0.0, 12:55:04.935
80016.757813, 99130.250000, 187500.015625, 187500.015625, 109573.882813, 81457.710938, 88665.523438, 143127.796875, 0, 1, 1, 0, 1,0.0,0.0,0.0,0.0,0.0, 12:55:04.935
80068.640625, 99176.046875, 187500.015625, 187500.015625, 109641.718750, 81479.078125, 88746.304688, 143181.453125, 0, 1, 1, 0, 1,0.0,0.0,0.0,0.0,0.0, 12:55:04.936
79884.257813, 98981.054688, 187500.015625, 187500.015625, 109481.320313, 81569.539063, 88744.554688, 143008.843750, 0, 1, 1, 0, 1,0.0,0.0,0.0,0.0,0.0, 12:55:04.936
79810.007813, 98909.640625, 187500.015625, 187500.015625, 109392.046875, 81562.093750, 88670.085938, 142939.265625, 0, 1, 1, 0, 1,0.0,0.0,0.0,0.0,0.0, 12:55:04.936
79994.296875, 99099.406250, 187500.015625, 187500.015625, 109541.046875, 81477.070313, 88664.140625, 143112.671875, 0, 1, 1, 0, 1,0.0,0.0,0.0,0.0,0.0, 12:55:04.936
80066.335938, 99174.617188, 187500.015625, 187500.015625, 109631.750000, 81470.632813, 88730.429688, 143177.796875, 0, 1, 1, 0, 1,0.0,0.0,0.0,0.0,0.0, 12:55:04.936
79916.695313, 99020.257813, 187500.015625, 187500.015625, 109518.203125, 81558.140625, 88755.710938, 143045.109375, 0, 1, 1, 0, 1,0.0,0.0,0.0,0.0,0.0, 12:55:04.937
79809.445313, 98904.562500, 187500.015625, 187500.015625, 109391.757813, 81573.984375, 88681.523438, 142928.843750, 0, 1, 1, 0, 1,0.0,0.0,0.0,0.0,0.0, 12:55:04.937
79971.968750, 99071.804688, 187500.015625, 187500.015625, 109518.093750, 81498.929688, 88666.750000, 143080.890625, 0, 1, 1, 0, 1,0.0,0.0,0.0,0.0,0.0, 12:55:04.937
80109.859375, 99211.585938, 187500.015625, 187500.015625, 109676.968750, 81480.312500, 88758.687500, 143229.265625, 0, 1, 1, 0, 1,0.0,0.0,0.0,0.0,0.0, 12:55:04.937
79981.671875, 99077.234375, 187500.015625, 187500.015625, 109587.515625, 81559.656250, 88797.468750, 143113.781250, 0, 1, 1, 0, 1,0.0,0.0,0.0,0.0,0.0, 12:55:04.940
79837.992188, 98934.093750, 187500.015625, 187500.015625, 109439.812500, 81596.382813, 88734.726563, 142968.031250, 0, 1, 1, 0, 1,0.0,0.0,0.0,0.0,0.0, 12:55:04.940
79925.500000, 99027.367188, 187500.015625, 187500.015625, 109497.390625, 81518.242188, 88679.757813, 143046.171875, 0, 1, 1, 0, 1,0.0,0.0,0.0,0.0,0.0, 12:55:05.384
80060.234375, 99175.757813, 187500.015625, 187500.015625, 109649.515625, 81470.382813, 88736.023438, 143198.406250, 0, 1, 1, 0, 1,0.0,0.0,0.0,0.0,0.0, 12:55:05.384
79983.570313, 99080.046875, 187500.015625, 187500.015625, 109596.187500, 81541.062500, 88789.734375, 143123.406250, 0, 1, 1, 0, 1,0.0,0.0,0.0,0.0,0.0, 12:55:05.384
79827.867188, 98913.195313, 187500.015625, 187500.015625, 109431.117188, 81596.539063, 88733.718750, 142958.718750, 0, 1, 1, 0, 1,0.0,0.0,0.0,0.0,0.0, 12:55:05.384
79885.734375, 98980.203125, 187500.015625, 187500.015625, 109458.679688, 81532.210938, 88672.476563, 143009.937500, 0, 1, 1, 0, 1,0.0,0.0,0.0,0.0,0.0, 12:55:05.384
80057.062500, 99154.523438, 187500.015625, 187500.015625, 109626.179688, 81469.671875, 88719.593750, 143184.203125, 0, 1, 1, 0, 1,0.0,0.0,0.0,0.0,0.0, 12:55:05.385
80012.468750, 99103.671875, 187500.015625, 187500.015625, 109613.890625, 81524.992188, 88783.960938, 143147.968750, 0, 1, 1, 0, 1,0.0,0.0,0.0,0.0,0.0, 12:55:05.385
79823.914063, 98912.390625, 187500.015625, 187500.015625, 109439.187500, 81589.406250, 88743.375000, 142957.078125, 0, 1, 1, 0, 1,0.0,0.0,0.0,0.0,0.0, 12:55:05.385
79845.929688, 98940.125000, 187500.015625, 187500.015625, 109423.273438, 81540.632813, 88667.687500, 142965.390625, 0, 1, 1, 0, 1,0.0,0.0,0.0,0.0,0.0, 12:55:05.385
80036.406250, 99134.523438, 187500.015625, 187500.015625, 109596.812500, 81462.960938, 88695.203125, 143157.078125, 0, 1, 1, 0, 1,0.0,0.0,0.0,0.0,0.0, 12:55:05.385
80040.117188, 99134.656250, 187500.015625, 187500.015625, 109632.617188, 81502.328125, 88776.882813, 143173.359375, 0, 1, 1, 0, 1,0.0,0.0,0.0,0.0,0.0, 12:55:05.386
79863.984375, 98955.148438, 187500.015625, 187500.015625, 109478.437500, 81587.195313, 88767.179688, 143004.734375, 0, 1, 1, 0, 1,0.0,0.0,0.0,0.0,0.0, 12:55:05.386
79839.000000, 98933.492188, 187500.015625, 187500.015625, 109427.765625, 81564.554688, 88697.375000, 142970.562500, 0, 1, 1, 0, 1,0.0,0.0,0.0,0.0,0.0, 12:55:05.386
80025.921875, 99124.218750, 187500.015625, 187500.015625, 109587.515625, 81480.976563, 88704.773438, 143147.453125, 0, 1, 1, 0, 1,0.0,0.0,0.0,0.0,0.0, 12:55:05.386
80070.140625, 99164.648438, 187500.015625, 187500.015625, 109654.726563, 81492.000000, 88781.281250, 143198.375000, 0, 1, 1, 0, 1,0.0,0.0,0.0,0.0,0.0, 12:55:05.386
79859.296875, 98948.937500, 187500.015625, 187500.015625, 109478.664063, 81570.164063, 88760.382813, 143000.468750, 0, 1, 1, 0, 1,0.0,0.0,0.0,0.0,0.0, 12:55:05.386
79791.726563, 98883.484375, 187500.015625, 187500.015625, 109391.289063, 81569.757813, 88687.515625, 142929.500000, 0, 1, 1, 0, 1,0.0,0.0,0.0,0.0,0.0, 12:55:05.387
79980.976563, 99075.468750, 187500.015625, 187500.015625, 109549.117188, 81491.484375, 88686.937500, 143109.125000, 0, 1, 1, 0, 1,0.0,0.0,0.0,0.0,0.0, 12:55:05.387
80073.757813, 99165.765625, 187500.015625, 187500.015625, 109659.953125, 81486.429688, 88764.984375, 143205.296875, 0, 1, 1, 0, 1,0.0,0.0,0.0,0.0,0.0, 12:55:05.387
79915.820313, 99002.937500, 187500.015625, 187500.015625, 109538.046875, 81573.742188, 88782.890625, 143056.843750, 0, 1, 1, 0, 1,0.0,0.0,0.0,0.0,0.0, 12:55:05.387
79801.960938, 98887.445313, 187500.015625, 187500.015625, 109411.828125, 81594.976563, 88713.445313, 142937.765625, 0, 1, 1, 0, 1,0.0,0.0,0.0,0.0,0.0, 12:55:05.387
79947.585938, 99041.406250, 187500.015625, 187500.015625, 109519.898438, 81513.906250, 88683.625000, 143074.703125, 0, 1, 1, 0, 1,0.0,0.0,0.0,0.0,0.0, 12:55:05.388
80073.242188, 99167.601563, 187500.015625, 187500.015625, 109656.132813, 81482.968750, 88753.453125, 143203.906250, 0, 1, 1, 0, 1,0.0,0.0,0.0,0.0,0.0, 12:55:05.388
79965.015625, 99054.929688, 187500.015625, 187500.015625, 109576.671875, 81561.554688, 88799.765625, 143103.812500, 0, 1, 1, 0, 1,0.0,0.0,0.0,0.0,0.0, 12:55:05.389
79804.601563, 98893.007813, 187500.015625, 187500.015625, 109417.531250, 81602.375000, 88738.281250, 142941.750000, 0, 1, 1, 0, 1,0.0,0.0,0.0,0.0,0.0, 12:55:05.389
79905.515625, 98997.148438, 187500.015625, 187500.015625, 109474.835938, 81528.031250, 88683.382813, 143031.921875, 0, 1, 1, 0, 1,0.0,0.0,0.0,0.0,0.0, 12:55:05.389
80087.437500, 99178.242188, 187500.015625, 187500.015625, 109655.554688, 81479.726563, 88748.671875, 143210.343750, 0, 1, 1, 0, 1,0.0,0.0,0.0,0.0,0.0, 12:55:05.390
80002.140625, 99085.812500, 187500.015625, 187500.015625, 109609.640625, 81547.921875, 88810.476563, 143133.234375, 0, 1, 1, 0, 1,0.0,0.0,0.0,0.0,0.0, 12:55:05.390
79831.242188, 98913.328125, 187500.015625, 187500.015625, 109445.179688, 81611.554688, 88767.398438, 142969.000000, 0, 1, 1, 0, 1,0.0,0.0,0.0,0.0,0.0, 12:55:05.390
79877.468750, 98967.437500, 187500.015625, 187500.015625, 109468.804688, 81558.273438, 88715.906250, 143018.125000, 0, 1, 1, 0, 1,0.0,0.0,0.0,0.0,0.0, 12:55:05.390
80061.781250, 99155.125000, 187500.015625, 187500.015625, 109639.125000, 81490.296875, 88753.968750, 143205.765625, 0, 1, 1, 0, 1,0.0,0.0,0.0,0.0,0.0, 12:55:05.391
80029.390625, 99114.203125, 187500.015625, 187500.015625, 109633.562500, 81537.148438, 88809.492188, 143167.015625, 0, 1, 1, 0, 1,0.0,0.0,0.0,0.0,0.0, 12:55:05.391
79835.289063, 98913.710938, 187500.015625, 187500.015625, 109445.828125, 81600.937500, 88760.203125, 142955.265625, 0, 1, 1, 0, 1,0.0,0.0,0.0,0.0,0.0, 12:55:05.391
79850.460938, 98928.304688, 187500.015625, 187500.015625, 109431.882813, 81559.882813, 88706.515625, 142966.171875, 0, 1, 1, 0, 1,0.0,0.0,0.0,0.0,0.0, 12:55:05.392
80040.742188, 99118.296875, 187500.015625, 187500.015625, 109614.226563, 81481.921875, 88749.054688, 143176.890625, 0, 1, 1, 0, 1,0.0,0.0,0.0,0.0,0.0, 12:55:05.392
80072.640625, 99146.054688, 187500.015625, 187500.015625, 109657.992188, 81509.007813, 88814.765625, 143190.765625, 0, 1, 1, 0, 1,0.0,0.0,0.0,0.0,0.0, 12:55:05.392
79878.984375, 98944.398438, 187500.015625, 187500.015625, 109483.914063, 81590.125000, 88784.453125, 142995.843750, 0, 1, 1, 0, 1,0.0,0.0,0.0,0.0,0.0, 12:55:05.392
79826.367188, 98892.476563, 187500.015625, 187500.015625, 109403.179688, 81564.218750, 88702.578125, 142932.156250, 0, 1, 1, 0, 1,0.0,0.0,0.0,0.0,0.0, 12:55:05.393
80026.484375, 99097.546875, 187500.015625, 187500.015625, 109577.437500, 81478.250000, 88726.679688, 143133.375000, 0, 1, 1, 0, 1,0.0,0.0,0.0,0.0,0.0, 12:55:05.393
80082.187500, 99144.398438, 187500.015625, 187500.015625, 109669.054688, 81487.687500, 88817.625000, 143203.906250, 0, 1, 1, 0, 1,0.0,0.0,0.0,0.0,0.0, 12:55:05.393
79894.992188, 98946.851563, 187500.015625, 187500.015625, 109510.218750, 81576.421875, 88811.593750, 143026.437500, 0, 1, 1, 0, 1,0.0,0.0,0.0,0.0,0.0, 12:55:05.393
79810.078125, 98861.093750, 187500.015625, 187500.015625, 109407.781250, 81582.945313, 88739.375000, 142934.500000, 0, 1, 1, 0, 1,0.0,0.0,0.0,0.0,0.0, 12:55:05.393
79989.914063, 99043.328125, 187500.015625, 187500.015625, 109556.671875, 81495.015625, 88728.218750, 143121.093750, 0, 1, 1, 0, 1,0.0,0.0,0.0,0.0,0.0, 12:55:05.394
80100.289063, 99151.664063, 187500.015625, 187500.015625, 109687.335938, 81476.640625, 88807.414063, 143232.859375, 0, 1, 1, 0, 1,0.0,0.0,0.0,0.0,0.0, 12:55:05.394
79937.281250, 98983.085938, 187500.015625, 187500.015625, 109566.414063, 81565.312500, 88837.476563, 143084.546875, 0, 1, 1, 0, 1,0.0,0.0,0.0,0.0,0.0, 12:55:05.394
79793.914063, 98837.085938, 187500.015625, 187500.015625, 109417.820313, 81601.343750, 88770.242188, 142943.578125, 0, 1, 1, 0, 1,0.0,0.0,0.0,0.0,0.0, 12:55:05.394
79952.656250, 99002.710938, 187500.015625, 187500.015625, 109527.835938, 81515.375000, 88733.203125, 143080.031250, 0, 1, 1, 0, 1,0.0,0.0,0.0,0.0,0.0, 12:55:05.394
80107.687500, 99158.679688, 187500.015625, 187500.015625, 109691.335938, 81471.632813, 88805.960938, 143237.734375, 0, 1, 1, 0, 1,0.0,0.0,0.0,0.0,0.0, 12:55:05.394
79970.671875, 99015.296875, 187500.015625, 187500.015625, 109595.718750, 81554.742188, 88853.703125, 143120.812500, 0, 1, 1, 0, 1,0.0,0.0,0.0,0.0,0.0, 12:55:05.395
79822.031250, 98863.414063, 187500.015625, 187500.015625, 109450.585938, 81624.054688, 88820.781250, 142980.640625, 0, 1, 1, 0, 1,0.0,0.0,0.0,0.0,0.0, 12:55:05.395
79910.750000, 98959.015625, 187500.015625, 187500.015625, 109500.164063, 81548.390625, 88757.859375, 143052.593750, 0, 1, 1, 0, 1,0.0,0.0,0.0,0.0,0.0, 12:55:05.395
80127.539063, 99181.796875, 187500.015625, 187500.015625, 109710.851563, 81482.140625, 88828.312500, 143265.718750, 0, 1, 1, 0, 1,0.0,0.0,0.0,0.0,0.0, 12:55:05.396
80041.929688, 99089.148438, 187500.015625, 187500.015625, 109673.437500, 81553.554688, 88905.648438, 143195.750000, 0, 1, 1, 0, 1,0.0,0.0,0.0,0.0,0.0, 12:55:05.397
79805.781250, 98850.453125, 187500.015625, 187500.015625, 109453.046875, 81620.875000, 88836.265625, 142960.203125, 0, 1, 1, 0, 1,0.0,0.0,0.0,0.0,0.0, 12:55:05.397
79847.242188, 98901.859375, 187500.015625, 187500.015625, 109445.070313, 81557.312500, 88745.632813, 142992.750000, 0, 1, 1, 0, 1,0.0,0.0,0.0,0.0,0.0, 12:55:05.398
80089.023438, 99145.273438, 187500.015625, 187500.015625, 109656.960938, 81477.781250, 88783.562500, 143230.437500, 0, 1, 1, 0, 1,0.0,0.0,0.0,0.0,0.0, 12:55:05.398
80068.773438, 99117.820313, 187500.015625, 187500.015625, 109681.656250, 81537.437500, 88877.750000, 143225.375000, 0, 1, 1, 0, 1,0.0,0.0,0.0,0.0,0.0, 12:55:05.398
79840.117188, 98885.859375, 187500.015625, 187500.015625, 109477.632813, 81628.054688, 88842.078125, 142998.437500, 0, 1, 1, 0, 1,0.0,0.0,0.0,0.0,0.0, 12:55:05.398
79813.296875, 98864.984375, 187500.015625, 187500.015625, 109410.843750, 81583.687500, 88744.203125, 142960.281250, 0, 1, 1, 0, 1,0.0,0.0,0.0,0.0,0.0, 12:55:05.398
80051.007813, 99106.578125, 187500.015625, 187500.015625, 109621.828125, 81486.007813, 88770.218750, 143192.625000, 0, 1, 1, 0, 1,0.0,0.0,0.0,0.0,0.0, 12:55:05.398
80092.828125, 99144.132813, 187500.015625, 187500.015625, 109705.304688, 81516.765625, 88877.929688, 143249.109375, 0, 1, 1, 0, 1,0.0,0.0,0.0,0.0,0.0, 12:55:05.399
79898.679688, 98944.554688, 187500.015625, 187500.015625, 109539.570313, 81621.414063, 88885.242188, 143058.687500, 0, 1, 1, 0, 1,0.0,0.0,0.0,0.0,0.0, 12:55:05.399
79822.304688, 98871.015625, 187500.015625, 187500.015625, 109438.296875, 81615.109375, 88802.156250, 142980.187500, 0, 1, 1, 0, 1,0.0,0.0,0.0,0.0,0.0, 12:55:05.399
80026.640625, 99085.796875, 187500.015625, 187500.015625, 109607.046875, 81509.570313, 88791.343750, 143182.906250, 0, 1, 1, 0, 1,0.0,0.0,0.0,0.0,0.0, 12:55:05.399
80110.976563, 99168.562500, 187500.015625, 187500.015625, 109723.148438, 81510.195313, 88889.843750, 143280.640625, 0, 1, 1, 0, 1,0.0,0.0,0.0,0.0,0.0, 12:55:05.399
79919.578125, 98970.460938, 187500.015625, 187500.015625, 109566.992188, 81614.242188, 88908.398438, 143102.703125, 0, 1, 1, 0, 1,0.0,0.0,0.0,0.0,0.0, 12:55:05.399
79798.226563, 98851.281250, 187500.015625, 187500.015625, 109431.789063, 81632.031250, 88829.789063, 142975.156250, 0, 1, 1, 0, 1,0.0,0.0,0.0,0.0,0.0, 12:55:05.399
79968.906250, 99031.437500, 187500.015625, 187500.015625, 109548.601563, 81525.953125, 88786.515625, 143132.046875, 0, 1, 1, 0, 1,0.0,0.0,0.0,0.0,0.0, 12:55:05.400
80112.429688, 99175.515625, 187500.015625, 187500.015625, 109703.898438, 81502.992188, 88870.312500, 143281.812500, 0, 1, 1, 0, 1,0.0,0.0,0.0,0.0,0.0, 12:55:05.400
79942.328125, 99002.085938, 187500.015625, 187500.015625, 109579.984375, 81601.585938, 88903.210938, 143129.218750, 0, 1, 1, 0, 1,0.0,0.0,0.0,0.0,0.0, 12:55:05.400
79771.273438, 98830.226563, 187500.015625, 187500.015625, 109405.101563, 81644.460938, 88826.187500, 142958.046875, 0, 1, 1, 0, 1,0.0,0.0,0.0,0.0,0.0, 12:55:05.400
79916.695313, 98983.531250, 187500.015625, 187500.015625, 109502.351563, 81550.156250, 88767.023438, 143089.875000, 0, 1, 1, 0, 1,0.0,0.0,0.0,0.0,0.0, 12:55:05.400
80098.164063, 99166.882813, 187500.015625, 187500.015625, 109692.343750, 81498.343750, 88843.820313, 143272.703125, 0, 1, 1, 0, 1,0.0,0.0,0.0,0.0,0.0, 12:55:05.400
79983.367188, 99048.242188, 187500.015625, 187500.015625, 109622.429688, 81584.601563, 88906.453125, 143171.546875, 0, 1, 1, 0, 1,0.0,0.0,0.0,0.0,0.0, 12:55:05.401
79802.945313, 98862.164063, 187500.015625, 187500.015625, 109453.445313, 81661.132813, 88863.312500, 142991.968750, 0, 1, 1, 0, 1,0.0,0.0,0.0,0.0,0.0, 12:55:05.401
79875.320313, 98940.085938, 187500.015625, 187500.015625, 109483.179688, 81584.359375, 88783.945313, 143048.500000, 0, 1, 1, 0, 1,0.0,0.0,0.0,0.0,0.0, 12:55:05.401
80089.132813, 99157.562500, 187500.015625, 187500.015625, 109682.148438, 81503.039063, 88828.937500, 143252.578125, 0, 1, 1, 0, 1,0.0,0.0,0.0,0.0,0.0, 12:55:05.401
80024.765625, 99084.382813, 187500.015625, 187500.015625, 109649.320313, 81566.117188, 88899.523438, 143193.187500, 0, 1, 1, 0, 1,0.0,0.0,0.0,0.0,0.0, 12:55:05.401
79805.359375, 98861.695313, 187500.015625, 187500.015625, 109449.984375, 81654.562500, 88863.515625, 142979.390625, 0, 1, 1, 0, 1,0.0,0.0,0.0,0.0,0.0, 12:55:05.401
79834.796875, 98896.945313, 187500.015625, 187500.015625, 109438.609375, 81596.718750, 88779.515625, 142997.843750, 0, 1, 1, 0, 1,0.0,0.0,0.0,0.0,0.0, 12:55:05.402
80066.093750, 99136.289063, 187500.015625, 187500.015625, 109648.914063, 81500.070313, 88810.320313, 143222.734375, 0, 1, 1, 0, 1,0.0,0.0,0.0,0.0,0.0, 12:55:05.402
80055.515625, 99121.914063, 187500.015625, 187500.015625, 109674.554688, 81545.109375, 88900.867188, 143220.156250, 0, 1, 1, 0, 1,0.0,0.0,0.0,0.0,0.0, 12:55:05.402
79828.203125, 98889.812500, 187500.015625, 187500.015625, 109473.406250, 81642.625000, 88876.859375, 142998.765625, 0, 1, 1, 0, 1,0.0,0.0,0.0,0.0,0.0, 12:55:05.403
79799.210938, 98865.851563, 187500.015625, 187500.015625, 109406.062500, 81609.500000, 88783.632813, 142954.796875, 0, 1, 1, 0, 1,0.0,0.0,0.0,0.0,0.0, 12:55:05.404
80038.484375, 99111.968750, 187500.015625, 187500.015625, 109608.078125, 81506.773438, 88791.789063, 143189.265625, 0, 1, 1, 0, 1,0.0,0.0,0.0,0.0,0.0, 12:55:05.404
80078.515625, 99146.187500, 187500.015625, 187500.015625, 109678.484375, 81528.007813, 88883.429688, 143236.984375, 0, 1, 1, 0, 1,0.0,0.0,0.0,0.0,0.0, 12:55:05.405
79857.171875, 98919.562500, 187500.015625, 187500.015625, 109491.960938, 81632.414063, 88878.109375, 143023.984375, 0, 1, 1, 0, 1,0.0,0.0,0.0,0.0,0.0, 12:55:05.405
79774.445313, 98837.554688, 187500.015625, 187500.015625, 109385.812500, 81631.226563, 88793.687500, 142935.843750, 0, 1, 1, 0, 1,0.0,0.0,0.0,0.0,0.0, 12:55:05.405
80000.710938, 99070.593750, 187500.015625, 187500.015625, 109563.617188, 81524.250000, 88777.523438, 143152.250000, 0, 1, 1, 0, 1,0.0,0.0,0.0,0.0,0.0, 12:55:05.405
80108.875000, 99175.890625, 187500.015625, 187500.015625, 109692.750000, 81518.867188, 88880.054688, 143265.765625, 0, 1, 1, 0, 1,0.0,0.0,0.0,0.0,0.0, 12:55:05.406
79904.062500, 98964.851563, 187500.015625, 187500.015625, 109527.570313, 81620.898438, 88903.500000, 143073.093750, 0, 1, 1, 0, 1,0.0,0.0,0.0,0.0,0.0, 12:55:05.406
79778.515625, 98839.343750, 187500.015625, 187500.015625, 109378.593750, 81648.281250, 88822.429688, 142938.328125, 0, 1, 1, 0, 1,0.0,0.0,0.0,0.0,0.0, 12:55:05.406
79969.710938, 99038.992188, 187500.015625, 187500.015625, 109518.312500, 81550.046875, 88792.257813, 143120.093750, 0, 1, 1, 0, 1,0.0,0.0,0.0,0.0,0.0, 12:55:05.407
80105.320313, 99172.296875, 187500.015625, 187500.015625, 109671.710938, 81508.335938, 88869.351563, 143256.015625, 0, 1, 1, 0, 1,0.0,0.0,0.0,0.0,0.0, 12:55:05.407
79970.601563, 99031.656250, 187500.015625, 187500.015625, 109584.453125, 81606.687500, 88935.039063, 143131.718750, 0, 1, 1, 0, 1,0.0,0.0,0.0,0.0,0.0, 12:55:05.407
79817.851563, 98875.265625, 187500.015625, 187500.015625, 109426.984375, 81669.023438, 88892.507813, 142976.890625, 0, 1, 1, 0, 1,0.0,0.0,0.0,0.0,0.0, 12:55:05.407
79942.328125, 99006.085938, 187500.015625, 187500.015625, 109491.734375, 81582.281250, 88818.789063, 143088.734375, 0, 1, 1, 0, 1,0.0,0.0,0.0,0.0,0.0, 12:55:05.407
80122.195313, 99185.664063, 187500.015625, 187500.015625, 109674.281250, 81515.492188, 88875.960938, 143265.718750, 0, 1, 1, 0, 1,0.0,0.0,0.0,0.0,0.0, 12:55:05.408
80022.460938, 99079.554688, 187500.015625, 187500.015625, 109622.804688, 81601.257813, 88956.296875, 143184.156250, 0, 1, 1, 0, 1,0.0,0.0,0.0,0.0,0.0, 12:55:05.408
79798.093750, 98851.414063, 187500.015625, 187500.015625, 109401.500000, 81670.546875, 88873.015625, 142954.375000, 0, 1, 1, 0, 1,0.0,0.0,0.0,0.0,0.0, 12:55:05.408
79877.937500, 98938.921875, 187500.015625, 187500.015625, 109428.640625, 81598.484375, 88791.164063, 143024.515625, 0, 1, 1, 0, 1,0.0,0.0,0.0,0.0,0.0, 12:55:05.408
80116.335938, 99180.140625, 187500.015625, 187500.015625, 109651.554688, 81520.187500, 88850.218750, 143259.718750, 0, 1, 1, 0, 1,0.0,0.0,0.0,0.0,0.0, 12:55:05.408
80036.093750, 99095.250000, 187500.015625, 187500.015625, 109619.453125, 81576.625000, 88921.960938, 143191.343750, 0, 1, 1, 0, 1,0.0,0.0,0.0,0.0,0.0, 12:55:05.408
79821.070313, 98878.125000, 187500.015625, 187500.015625, 109430.492188, 81668.554688, 88896.882813, 142981.734375, 0, 1, 1, 0, 1,0.0,0.0,0.0,0.0,0.0, 12:55:05.408
79822.679688, 98884.875000, 187500.015625, 187500.015625, 109387.890625, 81614.351563, 88802.289063, 142971.078125, 0, 1, 1, 0, 1,0.0,0.0,0.0,0.0,0.0, 12:55:05.409
80081.562500, 99150.992188, 187500.015625, 187500.015625, 109611.859375, 81517.164063, 88834.570313, 143222.531250, 0, 1, 1, 0, 1,0.0,0.0,0.0,0.0,0.0, 12:55:05.409
80094.882813, 99158.281250, 187500.015625, 187500.015625, 109666.750000, 81566.359375, 88941.320313, 143242.687500, 0, 1, 1, 0, 1,0.0,0.0,0.0,0.0,0.0, 12:55:05.409
79852.523438, 98913.750000, 187500.015625, 187500.015625, 109452.710938, 81666.546875, 88916.156250, 143007.468750, 0, 1, 1, 0, 1,0.0,0.0,0.0,0.0,0.0, 12:55:05.409
79800.617188, 98865.539063, 187500.015625, 187500.015625, 109367.437500, 81644.460938, 88821.429688, 142946.859375, 0, 1, 1, 0, 1,0.0,0.0,0.0,0.0,0.0, 12:55:05.409
80020.117188, 99090.015625, 187500.015625, 187500.015625, 109541.023438, 81529.750000, 88806.117188, 143152.953125, 0, 1, 1, 0, 1,0.0,0.0,0.0,0.0,0.0, 12:55:05.409
80097.382813, 99160.093750, 187500.015625, 187500.015625, 109648.828125, 81541.750000, 88909.226563, 143239.546875, 0, 1, 1, 0, 1,0.0,0.0,0.0,0.0,0.0, 12:55:05.410
79895.234375, 98949.742188, 187500.015625, 187500.015625, 109485.187500, 81655.812500, 88929.429688, 143050.359375, 0, 1, 1, 0, 1,0.0,0.0,0.0,0.0,0.0, 12:55:05.410
79786.312500, 98844.195313, 187500.015625, 187500.015625, 109362.117188, 81661.421875, 88842.703125, 142937.515625, 0, 1, 1, 0, 1,0.0,0.0,0.0,0.0,0.0, 12:55:05.410
79966.625000, 99032.734375, 187500.015625, 187500.015625, 109499.757813, 81544.054688, 88796.796875, 143111.390625, 0, 1, 1, 0, 1,0.0,0.0,0.0,0.0,0.0, 12:55:05.410
80102.125000, 99167.671875, 187500.015625, 187500.015625, 109656.515625, 81532.007813, 88903.343750, 143256.921875, 0, 1, 1, 0, 1,0.0,0.0,0.0,0.0,0.0, 12:55:05.411
79961.953125, 99021.265625, 187500.015625, 187500.015625, 109557.226563, 81648.195313, 88969.593750, 143124.187500, 0, 1, 1, 0, 1,0.0,0.0,0.0,0.0,0.0, 12:55:05.412
79818.906250, 98877.875000, 187500.015625, 187500.015625, 109400.609375, 81689.992188, 88891.031250, 142971.828125, 0, 1, 1, 0, 1,0.0,0.0,0.0,0.0,0.0, 12:55:05.413
79958.046875, 99028.328125, 187500.015625, 187500.015625, 109495.914063, 81575.617188, 88826.296875, 143095.375000, 0, 1, 1, 0, 1,0.0,0.0,0.0,0.0,0.0, 12:55:05.413
80100.179688, 99175.132813, 187500.015625, 187500.015625, 109645.179688, 81512.359375, 88889.351563, 143240.125000, 0, 1, 1, 0, 1,0.0,0.0,0.0,0.0,0.0, 12:55:05.414
79972.367188, 99044.109375, 187500.015625, 187500.015625, 109554.078125, 81607.203125, 88948.359375, 143118.593750, 0, 1, 1, 0, 1,0.0,0.0,0.0,0.0,0.0, 12:55:05.414
79783.875000, 98855.546875, 187500.015625, 187500.015625, 109381.992188, 81666.742188, 88895.140625, 142932.406250, 0, 1, 1, 0, 1,0.0,0.0,0.0,0.0,0.0, 12:55:05.864
79898.296875, 98976.429688, 187500.015625, 187500.015625, 109446.945313, 81577.898438, 88827.257813, 143037.546875, 0, 1, 1, 0, 1,0.0,0.0,0.0,0.0,0.0, 12:55:05.865
80107.445313, 99185.351563, 187500.015625, 187500.015625, 109635.171875, 81508.898438, 88865.617188, 143237.656250, 0, 1, 1, 0, 1,0.0,0.0,0.0,0.0,0.0, 12:55:05.865
80016.023438, 99087.757813, 187500.015625, 187500.015625, 109592.320313, 81584.023438, 88935.554688, 143163.515625, 0, 1, 1, 0, 1,0.0,0.0,0.0,0.0,0.0, 12:55:05.866
79797.578125, 98863.726563, 187500.015625, 187500.015625, 109398.281250, 81667.546875, 88897.023438, 142951.968750, 0, 1, 1, 0, 1,0.0,0.0,0.0,0.0,0.0, 12:55:05.866
79847.382813, 98918.601563, 187500.015625, 187500.015625, 109399.085938, 81599.062500, 88805.109375, 142990.046875, 0, 1, 1, 0, 1,0.0,0.0,0.0,0.0,0.0, 12:55:05.867
80075.414063, 99148.312500, 187500.015625, 187500.015625, 109610.359375, 81508.515625, 88847.000000, 143216.453125, 0, 1, 1, 0, 1,0.0,0.0,0.0,0.0,0.0, 12:55:05.867
80039.382813, 99106.718750, 187500.015625, 187500.015625, 109619.656250, 81568.351563, 88942.750000, 143196.359375, 0, 1, 1, 0, 1,0.0,0.0,0.0,0.0,0.0, 12:55:05.867
79822.148438, 98885.765625, 187500.015625, 187500.015625, 109424.500000, 81665.781250, 88920.914063, 142984.375000, 0, 1, 1, 0, 1,0.0,0.0,0.0,0.0,0.0, 12:55:05.868
79829.296875, 98896.296875, 187500.015625, 187500.015625, 109398.015625, 81628.140625, 88842.906250, 142979.859375, 0, 1, 1, 0, 1,0.0,0.0,0.0,0.0,0.0, 12:55:05.868
80047.984375, 99117.578125, 187500.015625, 187500.015625, 109588.500000, 81520.187500, 88847.132813, 143186.250000, 0, 1, 1, 0, 1,0.0,0.0,0.0,0.0,0.0, 12:55:05.868
80053.062500, 99116.351563, 187500.015625, 187500.015625, 109628.796875, 81545.242188, 88924.085938, 143205.343750, 0, 1, 1, 0, 1,0.0,0.0,0.0,0.0,0.0, 12:55:05.868
79853.546875, 98912.812500, 187500.015625, 187500.015625, 109466.703125, 81657.445313, 88937.875000, 143022.812500, 0, 1, 1, 0, 1,0.0,0.0,0.0,0.0,0.0, 12:55:05.869
79794.742188, 98858.765625, 187500.015625, 187500.015625, 109381.226563, 81643.367188, 88853.609375, 142960.046875, 0, 1, 1, 0, 1,0.0,0.0,0.0,0.0,0.0, 12:55:05.869
80014.460938, 99085.101563, 187500.015625, 187500.015625, 109558.054688, 81532.585938, 88837.671875, 143152.718750, 0, 1, 1, 0, 1,0.0,0.0,0.0,0.0,0.0, 12:55:05.869
80083.593750, 99148.804688, 187500.015625, 187500.015625, 109648.046875, 81533.703125, 88915.835938, 143221.140625, 0, 1, 1, 0, 1,0.0,0.0,0.0,0.0,0.0, 12:55:05.869
79907.281250, 98970.367188, 187500.015625, 187500.015625, 109512.656250, 81647.031250, 88944.117188, 143058.203125, 0, 1, 1, 0, 1,0.0,0.0,0.0,0.0,0.0, 12:55:05.869
79778.804688, 98843.968750, 187500.015625, 187500.015625, 109370.593750, 81658.562500, 88858.710938, 142928.875000, 0, 1, 1, 0, 1,0.0,0.0,0.0,0.0,0.0, 12:55:05.870
79973.781250, 99043.351563, 187500.015625, 187500.015625, 109523.898438, 81555.117188, 88839.085938, 143114.109375, 0, 1, 1, 0, 1,0.0,0.0,0.0,0.0,0.0, 12:55:05.870
80098.187500, 99165.007813, 187500.015625, 187500.015625, 109654.257813, 81525.304688, 88914.585938, 143236.281250, 0, 1, 1, 0, 1,0.0,0.0,0.0,0.0,0.0, 12:55:05.870
79950.312500, 99014.312500, 187500.015625, 187500.015625, 109540.171875, 81628.992188, 88949.593750, 143098.343750, 0, 1, 1, 0, 1,0.0,0.0,0.0,0.0,0.0, 12:55:05.870
79811.351563, 98876.875000, 187500.015625, 187500.015625, 109400.031250, 81676.843750, 88891.968750, 142962.828125, 0, 1, 1, 0, 1,0.0,0.0,0.0,0.0,0.0, 12:55:05.870
79941.570313, 99011.968750, 187500.015625, 187500.015625, 109485.476563, 81580.984375, 88837.250000, 143079.875000, 0, 1, 1, 0, 1,0.0,0.0,0.0,0.0,0.0, 12:55:05.871
80107.375000, 99175.601563, 187500.015625, 187500.015625, 109644.828125, 81526.085938, 88895.703125, 143236.968750, 0, 1, 1, 0, 1,0.0,0.0,0.0,0.0,0.0, 12:55:05.871
79994.679688, 99056.023438, 187500.015625, 187500.015625, 109570.460938, 81617.593750, 88957.007813, 143137.921875, 0, 1, 1, 0, 1,0.0,0.0,0.0,0.0,0.0, 12:55:05.871
79808.578125, 98868.265625, 187500.015625, 187500.015625, 109394.843750, 81682.164063, 88907.054688, 142961.531250, 0, 1, 1, 0, 1,0.0,0.0,0.0,0.0,0.0, 12:55:05.871
79879.234375, 98945.851563, 187500.015625, 187500.015625, 109424.859375, 81596.070313, 88829.226563, 143022.125000, 0, 1, 1, 0, 1,0.0,0.0,0.0,0.0,0.0, 12:55:05.871
80085.539063, 99156.671875, 187500.015625, 187500.015625, 109623.726563, 81524.609375, 88887.539063, 143230.328125, 0, 1, 1, 0, 1,0.0,0.0,0.0,0.0,0.0, 12:55:05.871
80016.492188, 99079.375000, 187500.015625, 187500.015625, 109594.937500, 81596.023438, 88966.351563, 143172.468750, 0, 1, 1, 0, 1,0.0,0.0,0.0,0.0,0.0, 12:55:05.871
79828.781250, 98890.843750, 187500.015625, 187500.015625, 109421.734375, 81677.203125, 88934.812500, 142990.625000, 0, 1, 1, 0, 1,0.0,0.0,0.0,0.0,0.0, 12:55:05.872
79869.328125, 98938.273438, 187500.015625, 187500.015625, 109427.429688, 81620.765625, 88864.921875, 143019.515625, 0, 1, 1, 0, 1,0.0,0.0,0.0,0.0,0.0, 12:55:05.872
80070.585938, 99142.453125, 187500.015625, 187500.015625, 109613.445313, 81530.109375, 88897.468750, 143215.953125, 0, 1, 1, 0, 1,0.0,0.0,0.0,0.0,0.0, 12:55:05.872
80052.929688, 99116.882813, 187500.015625, 187500.015625, 109628.460938, 81576.468750, 88977.171875, 143204.890625, 0, 1, 1, 0, 1,0.0,0.0,0.0,0.0,0.0, 12:55:05.873
79849.281250, 98908.453125, 187500.015625, 187500.015625, 109446.812500, 81675.101563, 88960.429688, 143007.437500, 0, 1, 1, 0, 1,0.0,0.0,0.0,0.0,0.0, 12:55:05.873
79825.679688, 98889.945313, 187500.015625, 187500.015625, 109383.312500, 81636.750000, 88869.390625, 142973.062500, 0, 1, 1, 0, 1,0.0,0.0,0.0,0.0,0.0, 12:55:05.873
80053.328125, 99121.468750, 187500.015625, 187500.015625, 109567.710938, 81547.226563, 88880.992188, 143183.546875, 0, 1, 1, 0, 1,0.0,0.0,0.0,0.0,0.0, 12:55:05.874
80060.773438, 99124.843750, 187500.015625, 187500.015625, 109609.664063, 81562.898438, 88956.382813, 143196.562500, 0, 1, 1, 0, 1,0.0,0.0,0.0,0.0,0.0, 12:55:05.874
79876.726563, 98936.617188, 187500.015625, 187500.015625, 109457.468750, 81660.664063, 88971.945313, 143024.421875, 0, 1, 1, 0, 1,0.0,0.0,0.0,0.0,0.0, 12:55:05.874
79804.531250, 98869.179688, 187500.015625, 187500.015625, 109360.601563, 81647.632813, 88892.679688, 142944.468750, 0, 1, 1, 0, 1,0.0,0.0,0.0,0.0,0.0, 12:55:05.875
79983.500000, 99057.718750, 187500.015625, 187500.015625, 109509.664063, 81542.421875, 88881.281250, 143115.390625, 0, 1, 1, 0, 1,0.0,0.0,0.0,0.0,0.0, 12:55:05.875
80099.171875, 99165.523438, 187500.015625, 187500.015625, 109649.921875, 81550.203125, 89002.046875, 143236.656250, 0, 1, 1, 0, 1,0.0,0.0,0.0,0.0,0.0, 12:55:05.875
79936.335938, 98991.445313, 187500.015625, 187500.015625, 109533.648438, 81664.781250, 89052.226563, 143095.328125, 0, 1, 1, 0, 1,0.0,0.0,0.0,0.0,0.0, 12:55:05.875
79806.742188, 98871.484375, 187500.015625, 187500.015625, 109382.664063, 81676.890625, 88963.289063, 142953.953125, 0, 1, 1, 0, 1,0.0,0.0,0.0,0.0,0.0, 12:55:05.876
79959.382813, 99035.101563, 187500.015625, 187500.015625, 109491.468750, 81571.820313, 88928.445313, 143087.171875, 0, 1, 1, 0, 1,0.0,0.0,0.0,0.0,0.0, 12:55:05.876
80077.156250, 99150.812500, 187500.015625, 187500.015625, 109624.507813, 81534.578125, 89004.195313, 143215.421875, 0, 1, 1, 0, 1,0.0,0.0,0.0,0.0,0.0, 12:55:05.876
79928.562500, 99000.320313, 187500.015625, 187500.015625, 109512.835938, 81624.296875, 89031.578125, 143083.375000, 0, 1, 1, 0, 1,0.0,0.0,0.0,0.0,0.0, 12:55:05.876
79765.375000, 98837.398438, 187500.015625, 187500.015625, 109347.835938, 81658.539063, 88959.562500, 142912.890625, 0, 1, 1, 0, 1,0.0,0.0,0.0,0.0,0.0, 12:55:05.876
79876.906250, 98957.804688, 187500.015625, 187500.015625, 109417.304688, 81565.242188, 88905.382813, 143012.796875, 0, 1, 1, 0, 1,0.0,0.0,0.0,0.0,0.0, 12:55:05.877
80062.046875, 99145.476563, 187500.015625, 187500.015625, 109603.609375, 81515.289063, 88985.507813, 143198.718750, 0, 1, 1, 0, 1,0.0,0.0,0.0,0.0,0.0, 12:55:05.877
79967.875000, 99050.812500, 187500.015625, 187500.015625, 109557.765625, 81601.320313, 89063.476563, 143121.703125, 0, 1, 1, 0, 1,0.0,0.0,0.0,0.0,0.0, 12:55:05.877
79760.007813, 98843.031250, 187500.015625, 187500.015625, 109368.687500, 81664.531250, 89009.828125, 142926.343750, 0, 1, 1, 0, 1,0.0,0.0,0.0,0.0,0.0, 12:55:05.877
79812.601563, 98902.914063, 187500.015625, 187500.015625, 109379.757813, 81584.335938, 88929.382813, 142971.343750, 0, 1, 1, 0, 1,0.0,0.0,0.0,0.0,0.0, 12:55:05.877
80018.664063, 99115.390625, 187500.015625, 187500.015625, 109579.890625, 81511.179688, 88992.710938, 143183.109375, 0, 1, 1, 0, 1,0.0,0.0,0.0,0.0,0.0, 12:55:05.877
79969.710938, 99064.312500, 187500.015625, 187500.015625, 109568.851563, 81576.625000, 89079.882813, 143147.765625, 0, 1, 1, 0, 1,0.0,0.0,0.0,0.0,0.0, 12:55:05.878
79761.773438, 98853.695313, 187500.015625, 187500.015625, 109379.578125, 81656.101563, 89043.890625, 142943.671875, 0, 1, 1, 0, 1,0.0,0.0,0.0,0.0,0.0, 12:55:05.878
79768.835938, 98867.281250, 187500.015625, 187500.015625, 109366.632813, 81598.882813, 88974.046875, 142950.671875, 0, 1, 1, 0, 1,0.0,0.0,0.0,0.0,0.0, 12:55:05.878
79969.242188, 99070.281250, 187500.015625, 187500.015625, 109558.281250, 81508.132813, 89015.843750, 143148.390625, 0, 1, 1, 0, 1,0.0,0.0,0.0,0.0,0.0, 12:55:05.878
79958.804688, 99052.687500, 187500.015625, 187500.015625, 109567.445313, 81543.007813, 89079.093750, 143143.218750, 0, 1, 1, 0, 1,0.0,0.0,0.0,0.0,0.0, 12:55:05.878
79772.750000, 98862.140625, 187500.015625, 187500.015625, 109398.125000, 81639.367188, 89067.515625, 142966.453125, 0, 1, 1, 0, 1,0.0,0.0,0.0,0.0,0.0, 12:55:05.878
79745.679688, 98837.375000, 187500.015625, 187500.015625, 109349.000000, 81619.250000, 88999.906250, 142933.234375, 0, 1, 1, 0, 1,0.0,0.0,0.0,0.0,0.0, 12:55:05.878
79940.968750, 99036.710938, 187500.015625, 187500.015625, 109523.523438, 81521.906250, 89012.156250, 143120.625000, 0, 1, 1, 0, 1,0.0,0.0,0.0,0.0,0.0, 12:55:05.879
79968.906250, 99062.078125, 187500.015625, 187500.015625, 109580.671875, 81525.835938, 89096.867188, 143157.984375, 0, 1, 1, 0, 1,0.0,0.0,0.0,0.0,0.0, 12:55:05.879
79812.039063, 98900.031250, 187500.015625, 187500.015625, 109442.273438, 81623.312500, 89115.890625, 143004.718750, 0, 1, 1, 0, 1,0.0,0.0,0.0,0.0,0.0, 12:55:05.879
79745.367188, 98833.578125, 187500.015625, 187500.015625, 109353.757813, 81629.882813, 89054.976563, 142928.375000, 0, 1, 1, 0, 1,0.0,0.0,0.0,0.0,0.0, 12:55:05.879
79903.929688, 98996.500000, 187500.015625, 187500.015625, 109480.984375, 81529.859375, 89035.132813, 143077.843750, 0, 1, 1, 0, 1,0.0,0.0,0.0,0.0,0.0, 12:55:05.879
80000.468750, 99088.210938, 187500.015625, 187500.015625, 109592.812500, 81512.828125, 89110.500000, 143174.250000, 0, 1, 1, 0, 1,0.0,0.0,0.0,0.0,0.0, 12:55:05.879
79849.148438, 98932.593750, 187500.015625, 187500.015625, 109479.531250, 81606.531250, 89148.812500, 143031.171875, 0, 1, 1, 0, 1,0.0,0.0,0.0,0.0,0.0, 12:55:05.880
79706.343750, 98789.765625, 187500.015625, 187500.015625, 109333.601563, 81629.039063, 89074.625000, 142888.656250, 0, 1, 1, 0, 1,0.0,0.0,0.0,0.0,0.0, 12:55:05.880
79856.390625, 98946.718750, 187500.015625, 187500.015625, 109438.273438, 81534.000000, 89032.742188, 143027.375000, 0, 1, 1, 0, 1,0.0,0.0,0.0,0.0,0.0, 12:55:05.880
80012.023438, 99100.476563, 187500.015625, 187500.015625, 109598.468750, 81497.203125, 89116.625000, 143182.500000, 0, 1, 1, 0, 1,0.0,0.0,0.0,0.0,0.0, 12:55:05.880
79880.593750, 98963.148438, 187500.015625, 187500.015625, 109514.890625, 81590.078125, 89177.023438, 143071.406250, 0, 1, 1, 0, 1,0.0,0.0,0.0,0.0,0.0, 12:55:05.880
79707.414063, 98787.843750, 187500.015625, 187500.015625, 109353.937500, 81637.773438, 89114.281250, 142899.171875, 0, 1, 1, 0, 1,0.0,0.0,0.0,0.0,0.0, 12:55:05.880
79838.882813, 98922.265625, 187500.015625, 187500.015625, 109440.617188, 81563.140625, 89071.343750, 143013.156250, 0, 1, 1, 0, 1,0.0,0.0,0.0,0.0,0.0, 12:55:05.881
80019.484375, 99101.976563, 187500.015625, 187500.015625, 109616.437500, 81506.437500, 89139.937500, 143194.359375, 0, 1, 1, 0, 1,0.0,0.0,0.0,0.0,0.0, 12:55:05.881
79918.414063, 98994.554688, 187500.015625, 187500.015625, 109546.546875, 81574.320313, 89193.695313, 143100.468750, 0, 1, 1, 0, 1,0.0,0.0,0.0,0.0,0.0, 12:55:05.881
79737.343750, 98815.179688, 187500.015625, 187500.015625, 109379.132813, 81639.992188, 89153.882813, 142924.765625, 0, 1, 1, 0, 1,0.0,0.0,0.0,0.0,0.0, 12:55:05.882
79768.585938, 98854.406250, 187500.015625, 187500.015625, 109387.507813, 81568.445313, 89080.390625, 142948.156250, 0, 1, 1, 0, 1,0.0,0.0,0.0,0.0,0.0, 12:55:05.882
79962.710938, 99051.148438, 187500.015625, 187500.015625, 109573.570313, 81488.804688, 89131.351563, 143142.265625, 0, 1, 1, 0, 1,0.0,0.0,0.0,0.0,0.0, 12:55:05.882
79944.539063, 99024.351563, 187500.015625, 187500.015625, 109585.101563, 81558.742188, 89233.367188, 143127.578125, 0, 1, 1, 0, 1,0.0,0.0,0.0,0.0,0.0, 12:55:05.882
79716.914063, 98791.804688, 187500.015625, 187500.015625, 109394.257813, 81653.828125, 89216.804688, 142908.781250, 0, 1, 1, 0, 1,0.0,0.0,0.0,0.0,0.0, 12:55:05.883
79697.179688, 98778.992188, 187500.015625, 187500.015625, 109328.953125, 81599.062500, 89117.656250, 142875.750000, 0, 1, 1, 0, 1,0.0,0.0,0.0,0.0,0.0, 12:55:05.883
79955.984375, 99044.312500, 187500.015625, 187500.015625, 109547.039063, 81496.382813, 89138.734375, 143129.859375, 0, 1, 1, 0, 1,0.0,0.0,0.0,0.0,0.0, 12:55:05.883
79996.289063, 99079.000000, 187500.015625, 187500.015625, 109622.921875, 81537.570313, 89248.656250, 143175.593750, 0, 1, 1, 0, 1,0.0,0.0,0.0,0.0,0.0, 12:55:05.883
79773.414063, 98850.226563, 187500.015625, 187500.015625, 109429.375000, 81646.046875, 89244.585938, 142965.906250, 0, 1, 1, 0, 1,0.0,0.0,0.0,0.0,0.0, 12:55:05.883
79713.093750, 98791.734375, 187500.015625, 187500.015625, 109344.906250, 81625.304688, 89158.851563, 142895.015625, 0, 1, 1, 0, 1,0.0,0.0,0.0,0.0,0.0, 12:55:05.883
79958.335938, 99043.570313, 187500.015625, 187500.015625, 109560.156250, 81515.085938, 89166.984375, 143130.671875, 0, 1, 1, 0, 1,0.0,0.0,0.0,0.0,0.0, 12:55:05.884
80049.507813, 99129.625000, 187500.015625, 187500.015625, 109674.257813, 81536.117188, 89270.046875, 143230.234375, 0, 1, 1, 0, 1,0.0,0.0,0.0,0.0,0.0, 12:55:05.884
79860.726563, 98935.007813, 187500.015625, 187500.015625, 109523.968750, 81656.375000, 89296.265625, 143056.078125, 0, 1, 1, 0, 1,0.0,0.0,0.0,0.0,0.0, 12:55:05.884
79719.820313, 98793.632813, 187500.015625, 187500.015625, 109372.554688, 81656.890625, 89197.781250, 142913.234375, 0, 1, 1, 0, 1,0.0,0.0,0.0,0.0,0.0, 12:55:05.884
79922.148438, 99002.015625, 187500.015625, 187500.015625, 109533.695313, 81542.734375, 89171.031250, 143100.937500, 0, 1, 1, 0, 1,0.0,0.0,0.0,0.0,0.0, 12:55:05.884
80033.640625, 99111.703125, 187500.015625, 187500.015625, 109667.867188, 81522.148438, 89261.890625, 143221.687500, 0, 1, 1, 0, 1,0.0,0.0,0.0,0.0,0.0, 12:55:05.884
79869.867188, 98941.515625, 187500.015625, 187500.015625, 109545.406250, 81620.835938, 89301.765625, 143066.406250, 0, 1, 1, 0, 1,0.0,0.0,0.0,0.0,0.0, 12:55:05.884
79718.250000, 98789.140625, 187500.015625, 187500.015625, 109392.828125, 81660.421875, 89236.476563, 142916.421875, 0, 1, 1, 0, 1,0.0,0.0,0.0,0.0,0.0, 12:55:05.885
79867.500000, 98946.562500, 187500.015625, 187500.015625, 109487.375000, 81555.968750, 89160.007813, 143048.000000, 0, 1, 1, 0, 1,0.0,0.0,0.0,0.0,0.0, 12:55:05.885
80029.281250, 99109.664063, 187500.015625, 187500.015625, 109652.867188, 81505.343750, 89234.914063, 143214.312500, 0, 1, 1, 0, 1,0.0,0.0,0.0,0.0,0.0, 12:55:05.885
79899.304688, 98974.664063, 187500.015625, 187500.015625, 109571.015625, 81597.945313, 89304.734375, 143100.781250, 0, 1, 1, 0, 1,0.0,0.0,0.0,0.0,0.0, 12:55:05.885
79731.734375, 98806.398438, 187500.015625, 187500.015625, 109409.570313, 81670.968750, 89261.554688, 142941.437500, 0, 1, 1, 0, 1,0.0,0.0,0.0,0.0,0.0, 12:55:05.885
79831.867188, 98912.703125, 187500.015625, 187500.015625, 109469.007813, 81591.445313, 89195.390625, 143023.843750, 0, 1, 1, 0, 1,0.0,0.0,0.0,0.0,0.0, 12:55:05.885
80046.351563, 99128.351563, 187500.015625, 187500.015625, 109686.289063, 81518.281250, 89262.937500, 143234.093750, 0, 1, 1, 0, 1,0.0,0.0,0.0,0.0,0.0, 12:55:05.885
79970.000000, 99042.585938, 187500.015625, 187500.015625, 109634.898438, 81593.609375, 89327.671875, 143159.390625, 0, 1, 1, 0, 1,0.0,0.0,0.0,0.0,0.0, 12:55:05.886
79747.578125, 98816.343750, 187500.015625, 187500.015625, 109412.945313, 81674.031250, 89264.054688, 142948.281250, 0, 1, 1, 0, 1,0.0,0.0,0.0,0.0,0.0, 12:55:05.886
79807.367188, 98883.890625, 187500.015625, 187500.015625, 109428.414063, 81610.929688, 89178.742188, 142998.093750, 0, 1, 1, 0, 1,0.0,0.0,0.0,0.0,0.0, 12:55:05.886
80048.453125, 99124.328125, 187500.015625, 187500.015625, 109655.015625, 81526.265625, 89225.632813, 143226.328125, 0, 1, 1, 0, 1,0.0,0.0,0.0,0.0,0.0, 12:55:05.886
79997.046875, 99065.187500, 187500.015625, 187500.015625, 109656.289063, 81576.000000, 89312.289063, 143182.343750, 0, 1, 1, 0, 1,0.0,0.0,0.0,0.0,0.0, 12:55:05.886
79770.734375, 98836.304688, 187500.015625, 187500.015625, 109462.609375, 81668.757813, 89293.742188, 142972.593750, 0, 1, 1, 0, 1,0.0,0.0,0.0,0.0,0.0, 12:55:05.886
79762.890625, 98832.437500, 187500.015625, 187500.015625, 109407.070313, 81627.179688, 89198.968750, 142952.343750, 0, 1, 1, 0, 1,0.0,0.0,0.0,0.0,0.0, 12:55:05.887
80000.265625, 99075.156250, 187500.015625, 187500.015625, 109609.617188, 81521.773438, 89205.789063, 143180.218750, 0, 1, 1, 0, 1,0.0,0.0,0.0,0.0,0.0, 12:55:05.887
80040.703125, 99110.625000, 187500.015625, 187500.015625, 109685.843750, 81555.632813, 89314.593750, 143236.921875, 0, 1, 1, 0, 1,0.0,0.0,0.0,0.0,0.0, 12:55:05.887
79838.843750, 98904.093750, 187500.015625, 187500.015625, 109518.671875, 81666.546875, 89325.234375, 143038.796875, 0, 1, 1, 0, 1,0.0,0.0,0.0,0.0,0.0, 12:55:05.887
79742.664063, 98813.351563, 187500.015625, 187500.015625, 109397.570313, 81654.382813, 89218.664063, 142933.078125, 0, 1, 1, 0, 1,0.0,0.0,0.0,0.0,0.0, 12:55:05.887
79964.570313, 99040.820313, 187500.015625, 187500.015625, 109573.320313, 81536.765625, 89192.304688, 143139.656250, 0, 1, 1, 0, 1,0.0,0.0,0.0,0.0,0.0, 12:55:05.887
80042.625000, 99113.914063, 187500.015625, 187500.015625, 109685.726563, 81533.101563, 89283.257813, 143227.828125, 0, 1, 1, 0, 1,0.0,0.0,0.0,0.0,0.0, 12:55:05.888
79858.312500, 98924.703125, 187500.015625, 187500.015625, 109537.359375, 81639.789063, 89316.023438, 143057.578125, 0, 1, 1, 0, 1,0.0,0.0,0.0,0.0,0.0, 12:55:05.889
79731.375000, 98800.140625, 187500.015625, 187500.015625, 109409.281250, 81660.375000, 89247.453125, 142933.906250, 0, 1, 1, 0, 1,0.0,0.0,0.0,0.0,0.0, 12:55:05.889
79902.945313, 98978.640625, 187500.015625, 187500.015625, 109539.101563, 81551.921875, 89206.281250, 143090.859375, 0, 1, 1, 0, 1,0.0,0.0,0.0,0.0,0.0, 12:55:05.890
80061.085938, 99135.460938, 187500.015625, 187500.015625, 109708.726563, 81525.835938, 89310.593750, 143248.656250, 0, 1, 1, 0, 1,0.0,0.0,0.0,0.0,0.0, 12:55:05.890
79909.585938, 98976.429688, 187500.015625, 187500.015625, 109587.984375, 81633.375000, 89353.710938, 143107.984375, 0, 1, 1, 0, 1,0.0,0.0,0.0,0.0,0.0, 12:55:05.891
79737.210938, 98802.195313, 187500.015625, 187500.015625, 109405.437500, 81671.617188, 89272.726563, 142932.468750, 0, 1, 1, 0, 1,0.0,0.0,0.0,0.0,0.0, 12:55:05.891
79883.187500, 98955.906250, 187500.015625, 187500.015625, 109511.343750, 81577.023438, 89226.976563, 143069.843750, 0, 1, 1, 0, 1,0.0,0.0,0.0,0.0,0.0, 12:55:05.891
80045.304688, 99115.054688, 187500.015625, 187500.015625, 109686.242188, 81520.515625, 89299.421875, 143235.890625, 0, 1, 1, 0, 1,0.0,0.0,0.0,0.0,0.0, 12:55:05.892
79941.703125, 99008.007813, 187500.015625, 187500.015625, 109612.640625, 81609.101563, 89361.179688, 143146.171875, 0, 1, 1, 0, 1,0.033988476,0.09193106,0.0810164,0.142125,0.090887606, 12:55:06.348
79735.796875, 98801.500000, 187500.015625, 187500.015625, 109409.414063, 81678.570313, 89287.726563, 142942.906250, 0, 1, 1, 0, 1,0.033988476,0.09193106,0.0810164,0.142125,0.090887606, 12:55:06.348
79815.617188, 98889.500000, 187500.015625, 187500.015625, 109437.578125, 81593.718750, 89194.093750, 143003.781250, 0, 1, 1, 0, 1,0.033988476,0.09193106,0.0810164,0.142125,0.090887606, 12:55:06.348
80043.492188, 99123.437500, 187500.015625, 187500.015625, 109666.414063, 81515.578125, 89261.265625, 143242.359375, 0, 1, 1, 0, 1,0.033988476,0.09193106,0.0810164,0.142125,0.090887606, 12:55:06.349
79969.976563, 99044.312500, 187500.015625, 187500.015625, 109643.101563, 81591.148438, 89347.609375, 143184.890625, 0, 1, 1, 0, 1,0.033988476,0.09193106,0.0810164,0.142125,0.090887606, 12:55:06.349
79762.421875, 98828.593750, 187500.015625, 187500.015625, 109456.867188, 81684.382813, 89324.343750, 142982.578125, 0, 1, 1, 0, 1,0.033988476,0.09193106,0.0810164,0.142125,0.090887606, 12:55:06.349
79766.648438, 98835.921875, 187500.015625, 187500.015625, 109412.500000, 81620.210938, 89219.015625, 142975.140625, 0, 1, 1, 0, 1,0.033988476,0.09193106,0.0810164,0.142125,0.090887606, 12:55:06.349
80016.445313, 99091.226563, 187500.015625, 187500.015625, 109633.382813, 81517.234375, 89250.000000, 143206.640625, 0, 1, 1, 0, 1,0.033988476,0.09193106,0.0810164,0.142125,0.090887606, 12:55:06.349
80030.578125, 99102.648438, 187500.015625, 187500.015625, 109687.562500, 81575.507813, 89358.648438, 143231.718750, 0, 1, 1, 0, 1,0.033988476,0.09193106,0.0810164,0.142125,0.090887606, 12:55:06.350
79788.843750, 98857.898438, 187500.015625, 187500.015625, 109473.343750, 81676.843750, 89345.195313, 143004.218750, 0, 1, 1, 0, 1,0.033988476,0.09193106,0.0810164,0.142125,0.090887606, 12:55:06.350
79742.843750, 98818.242188, 187500.015625, 187500.015625, 109389.703125, 81643.234375, 89243.937500, 142949.843750, 0, 1, 1, 0, 1,0.033988476,0.09193106,0.0810164,0.142125,0.090887606, 12:55:06.350
80003.617188, 99082.710938, 187500.015625, 187500.015625, 109617.867188, 81543.539063, 89266.335938, 143198.687500, 0, 1, 1, 0, 1,0.033988476,0.09193106,0.0810164,0.142125,0.090887606, 12:55:06.350
80040.546875, 99112.820313, 187500.015625, 187500.015625, 109685.304688, 81569.960938, 89366.093750, 143241.500000, 0, 1, 1, 0, 1,0.033988476,0.09193106,0.0810164,0.142125,0.090887606, 12:55:06.350
79847.359375, 98916.726563, 187500.015625, 187500.015625, 109533.265625, 81684.914063, 89387.554688, 143064.687500, 0, 1, 1, 0, 1,0.033988476,0.09193106,0.0810164,0.142125,0.090887606, 12:55:06.350
79752.992188, 98830.421875, 187500.015625, 187500.015625, 109411.742188, 81682.812500, 89296.828125, 142961.437500, 0, 1, 1, 0, 1,0.033988476,0.09193106,0.0810164,0.142125,0.090887606, 12:55:06.351
79938.843750, 99028.171875, 187500.015625, 187500.015625, 109543.617188, 81560.148438, 89255.851563, 143131.875000, 0, 1, 1, 0, 1,0.033988476,0.09193106,0.0810164,0.142125,0.090887606, 12:55:06.351
80063.140625, 99147.570313, 187500.015625, 187500.015625, 109678.601563, 81550.070313, 89355.140625, 143253.671875, 0, 1, 1, 0, 1,0.033988476,0.09193106,0.0810164,0.142125,0.090887606, 12:55:06.351
79872.906250, 98953.648438, 187500.015625, 187500.015625, 109537.914063, 81656.171875, 89386.570313, 143078.765625, 0, 1, 1, 0, 1,0.033988476,0.09193106,0.0810164,0.142125,0.090887606, 12:55:06.351
79730.414063, 98812.968750, 187500.015625, 187500.015625, 109382.929688, 81684.695313, 89306.015625, 142938.781250, 0, 1, 1, 0, 1,0.033988476,0.09193106,0.0810164,0.142125,0.090887606, 12:55:06.352
79900.242188, 98991.828125, 187500.015625, 187500.015625, 109503.023438, 81575.929688, 89258.781250, 143098.812500, 0, 1, 1, 0, 1,0.033988476,0.09193106,0.0810164,0.142125,0.090887606, 12:55:06.352
80060.210938, 99153.835938, 187500.015625, 187500.015625, 109679.851563, 81538.828125, 89348.031250, 143259.406250, 0, 1, 1, 0, 1,0.033988476,0.09193106,0.0810164,0.142125,0.090887606, 12:55:06.352
79923.890625, 99006.085938, 187500.015625, 187500.015625, 109579.132813, 81639.500000, 89401.140625, 143125.296875, 0, 1, 1, 0, 1,0.033988476,0.09193106,0.0810164,0.142125,0.090887606, 12:55:06.352
79757.101563, 98836.210938, 187500.015625, 187500.015625, 109413.953125, 81699.179688, 89344.546875, 142957.421875, 0, 1, 1, 0, 1,0.033988476,0.09193106,0.0810164,0.142125,0.090887606, 12:55:06.353
79873.734375, 98964.242188, 187500.015625, 187500.015625, 109485.500000, 81609.523438, 89278.453125, 143072.968750, 0, 1, 1, 0, 1,0.033988476,0.09193106,0.0810164,0.142125,0.090887606, 12:55:06.353
80065.156250, 99156.828125, 187500.015625, 187500.015625, 109681.257813, 81547.632813, 89354.828125, 143267.875000, 0, 1, 1, 0, 1,0.033988476,0.09193106,0.0810164,0.142125,0.090887606, 12:55:06.353
79959.273438, 99042.835938, 187500.015625, 187500.015625, 109614.984375, 81625.859375, 89420.453125, 143166.218750, 0, 1, 1, 0, 1,0.033988476,0.09193106,0.0810164,0.142125,0.090887606, 12:55:06.353
79747.039063, 98825.976563, 187500.015625, 187500.015625, 109414.710938, 81696.453125, 89362.648438, 142958.125000, 0, 1, 1, 0, 1,0.033988476,0.09193106,0.0810164,0.142125,0.090887606, 12:55:06.354
79816.085938, 98902.796875, 187500.015625, 187500.015625, 109441.515625, 81623.492188, 89282.164063, 143028.656250, 0, 1, 1, 0, 1,0.033988476,0.09193106,0.0810164,0.142125,0.090887606, 12:55:06.354
80027.734375, 99118.960938, 187500.015625, 187500.015625, 109641.609375, 81535.671875, 89317.476563, 143229.734375, 0, 1, 1, 0, 1,0.033988476,0.09193106,0.0810164,0.142125,0.090887606, 12:55:06.354
79969.781250, 99057.093750, 187500.015625, 187500.015625, 109628.531250, 81600.312500, 89396.578125, 143184.171875, 0, 1, 1, 0, 1,0.033988476,0.09193106,0.0810164,0.142125,0.090887606, 12:55:06.354
79756.367188, 98840.796875, 187500.015625, 187500.015625, 109442.921875, 81693.320313, 89374.609375, 142991.796875, 0, 1, 1, 0, 1,0.033988476,0.09193106,0.0810164,0.142125,0.090887606, 12:55:06.354
79763.492188, 98852.976563, 187500.015625, 187500.015625, 109410.468750, 81638.515625, 89281.046875, 142971.671875, 0, 1, 1, 0, 1,0.033988476,0.09193106,0.0810164,0.142125,0.090887606, 12:55:06.355
80012.578125, 99105.484375, 187500.015625, 187500.015625, 109624.125000, 81537.820313, 89306.640625, 143197.921875, 0, 1, 1, 0, 1,0.033988476,0.09193106,0.0810164,0.142125,0.090887606, 12:55:06.355
80007.773438, 99094.492188, 187500.015625, 187500.015625, 109652.890625, 81576.757813, 89390.859375, 143208.875000, 0, 1, 1, 0, 1,0.033988476,0.09193106,0.0810164,0.142125,0.090887606, 12:55:06.356
79816.218750, 98900.140625, 187500.015625, 187500.015625, 109492.968750, 81684.492188, 89393.023438, 143025.921875, 0, 1, 1, 0, 1,0.033988476,0.09193106,0.0810164,0.142125,0.090887606, 12:55:06.356
79772.546875, 98859.125000, 187500.015625, 187500.015625, 109429.687500, 81673.562500, 89319.890625, 142977.640625, 0, 1, 1, 0, 1,0.033988476,0.09193106,0.0810164,0.142125,0.090887606, 12:55:06.356
79991.343750, 99085.546875, 187500.015625, 187500.015625, 109621.757813, 81567.367188, 89315.398438, 143194.328125, 0, 1, 1, 0, 1,0.033988476,0.09193106,0.0810164,0.142125,0.090887606, 12:55:06.357
80058.000000, 99145.695313, 187500.015625, 187500.015625, 109709.039063, 81579.773438, 89415.109375, 143270.187500, 0, 1, 1, 0, 1,0.033988476,0.09193106,0.0810164,0.142125,0.090887606, 12:55:06.357
79865.929688, 98949.914063, 187500.015625, 187500.015625, 109549.585938, 81691.171875, 89427.179688, 143089.734375, 0, 1, 1, 0, 1,0.033988476,0.09193106,0.0810164,0.142125,0.090887606, 12:55:06.357
79741.476563, 98830.828125, 187500.015625, 187500.015625, 109411.695313, 81693.296875, 89315.507813, 142955.468750, 0, 1, 1, 0, 1,0.033988476,0.09193106,0.0810164,0.142125,0.090887606, 12:55:06.358
79941.148438, 99040.109375, 187500.015625, 187500.015625, 109570.773438, 81578.343750, 89283.281250, 143147.359375, 0, 1, 1, 0, 1,0.033988476,0.09193106,0.0810164,0.142125,0.090887606, 12:55:06.358
80042.960938, 99140.890625, 187500.015625, 187500.015625, 109700.859375, 81563.234375, 89375.437500, 143260.640625, 0, 1, 1, 0, 1,0.033988476,0.09193106,0.0810164,0.142125,0.090887606, 12:55:06.358
79887.343750, 98978.078125, 187500.015625, 187500.015625, 109578.953125, 81666.523438, 89410.640625, 143107.515625, 0, 1, 1, 0, 1,0.033988476,0.09193106,0.0810164,0.142125,0.090887606, 12:55:06.359
79747.445313, 98835.742188, 187500.015625, 187500.015625, 109415.226563, 81705.101563, 89323.515625, 142961.062500, 0, 1, 1, 0, 1,0.033988476,0.09193106,0.0810164,0.142125,0.090887606, 12:55:06.359
79902.117188, 98995.289063, 187500.015625, 187500.015625, 109529.492188, 81605.343750, 89274.382813, 143105.750000, 0, 1, 1, 0, 1,0.033988476,0.09193106,0.0810164,0.142125,0.090887606, 12:55:06.360
80076.507813, 99168.851563, 187500.015625, 187500.015625, 109707.210938, 81557.195313, 89343.359375, 143272.015625, 0, 1, 1, 0, 1,0.033988476,0.09193106,0.0810164,0.142125,0.090887606, 12:55:06.360
79934.281250, 99020.820313, 187500.015625, 187500.015625, 109614.562500, 81646.804688, 89395.734375, 143145.218750, 0, 1, 1, 0, 1,0.033988476,0.09193106,0.0810164,0.142125,0.090887606, 12:55:06.360
79740.382813, 98824.726563, 187500.015625, 187500.015625, 109431.703125, 81701.546875, 89330.218750, 142958.265625, 0, 1, 1, 0, 1,0.033988476,0.09193106,0.0810164,0.142125,0.090887606, 12:55:06.361
79859.695313, 98952.914063, 187500.015625, 187500.015625, 109509.375000, 81624.726563, 89270.296875, 143079.500000, 0, 1, 1, 0, 1,0.033988476,0.09193106,0.0810164,0.142125,0.090887606, 12:55:06.361
80058.421875, 99153.476563, 187500.015625, 187500.015625, 109704.054688, 81557.914063, 89324.968750, 143271.812500, 0, 1, 1, 0, 1,0.033988476,0.09193106,0.0810164,0.142125,0.090887606, 12:55:06.361
79974.851563, 99063.148438, 187500.015625, 187500.015625, 109665.140625, 81636.343750, 89399.507813, 143199.703125, 0, 1, 1, 0, 1,0.033988476,0.09193106,0.0810164,0.142125,0.090887606, 12:55:06.362
79775.851563, 98858.429688, 187500.015625, 187500.015625, 109466.679688, 81714.757813, 89338.937500, 142991.687500, 0, 1, 1, 0, 1,0.03028626,0.07848221,0.070182055,0.12537795,0.07965225, 12:55:06.362
79818.789063, 98910.445313, 187500.015625, 187500.015625, 109475.171875, 81648.101563, 89254.515625, 143026.453125, 0, 1, 1, 0, 1,0.03028626,0.07848221,0.070182055,0.12537795,0.07965225, 12:55:06.362
80046.335938, 99140.328125, 187500.015625, 187500.015625, 109690.554688, 81553.890625, 89309.343750, 143252.640625, 0, 1, 1, 0, 1,0.03028626,0.07848221,0.070182055,0.12537795,0.07965225, 12:55:06.363
80011.640625, 99097.546875, 187500.015625, 187500.015625, 109692.726563, 81612.406250, 89402.929688, 143232.343750, 0, 1, 1, 0, 1,0.03028626,0.07848221,0.070182055,0.12537795,0.07965225, 12:55:06.363
79796.820313, 98882.640625, 187500.015625, 187500.015625, 109501.820313, 81709.390625, 89366.984375, 143031.609375, 0, 1, 1, 0, 1,0.03028626,0.07848221,0.070182055,0.12537795,0.07965225, 12:55:06.363
79772.750000, 98865.250000, 187500.015625, 187500.015625, 109452.781250, 81666.585938, 89270.000000, 143000.828125, 0, 1, 1, 0, 1,0.03028626,0.07848221,0.070182055,0.12537795,0.07965225, 12:55:06.363
80036.320313, 99133.421875, 187500.015625, 187500.015625, 109678.687500, 81567.773438, 89298.414063, 143248.125000, 0, 1, 1, 0, 1,0.03028626,0.07848221,0.070182055,0.12537795,0.07965225, 12:55:06.364
80080.929688, 99171.601563, 187500.015625, 187500.015625, 109743.867188, 81610.062500, 89393.984375, 143300.359375, 0, 1, 1, 0, 1,0.03028626,0.07848221,0.070182055,0.12537795,0.07965225, 12:55:06.364
79808.890625, 98896.609375, 187500.015625, 187500.015625, 109509.375000, 81697.632813, 89344.773438, 143036.812500, 0, 1, 1, 0, 1,0.03028626,0.07848221,0.070182055,0.12537795,0.07965225, 12:55:06.364
79746.867188, 98839.343750, 187500.015625, 187500.015625, 109427.343750, 81676.867188, 89259.093750, 142967.203125, 0, 1, 1, 0, 1,0.03028626,0.07848221,0.070182055,0.12537795,0.07965225, 12:55:06.364
79999.171875, 99098.734375, 187500.015625, 187500.015625, 109648.468750, 81577.070313, 89275.929688, 143208.265625, 0, 1, 1, 0, 1,0.03028626,0.07848221,0.070182055,0.12537795,0.07965225, 12:55:06.365
80082.164063, 99181.906250, 187500.015625, 187500.015625, 109767.312500, 81589.500000, 89390.125000, 143306.468750, 0, 1, 1, 0, 1,0.03028626,0.07848221,0.070182055,0.12537795,0.07965225, 12:55:06.365
79877.109375, 98969.453125, 187500.015625, 187500.015625, 109583.828125, 81693.921875, 89377.023438, 143106.031250, 0, 1, 1, 0, 1,0.03028626,0.07848221,0.070182055,0.12537795,0.07965225, 12:55:06.365
79749.210938, 98844.375000, 187500.015625, 187500.015625, 109433.109375, 81703.289063, 89268.773438, 142976.531250, 0, 1, 1, 0, 1,0.03028626,0.07848221,0.070182055,0.12537795,0.07965225, 12:55:06.365
79920.984375, 99022.937500, 187500.015625, 187500.015625, 109579.515625, 81589.187500, 89231.046875, 143143.859375, 0, 1, 1, 0, 1,0.03028626,0.07848221,0.070182055,0.12537795,0.07965225, 12:55:06.366
80069.023438, 99167.242188, 187500.015625, 187500.015625, 109742.546875, 81570.679688, 89317.750000, 143291.500000, 0, 1, 1, 0, 1,0.03028626,0.07848221,0.070182055,0.12537795,0.07965225, 12:55:06.366
79897.023438, 98983.156250, 187500.015625, 187500.015625, 109608.367188, 81670.945313, 89348.367188, 143129.250000, 0, 1, 1, 0, 1,0.03028626,0.07848221,0.070182055,0.12537795,0.07965225, 12:55:06.366
79736.203125, 98822.335938, 187500.015625, 187500.015625, 109435.078125, 81704.187500, 89265.976563, 142961.156250, 0, 1, 1, 0, 1,0.03028626,0.07848221,0.070182055,0.12537795,0.07965225, 12:55:06.367
79891.750000, 98988.070313, 187500.015625, 187500.015625, 109533.734375, 81607.046875, 89201.273438, 143104.843750, 0, 1, 1, 0, 1,0.03028626,0.07848221,0.070182055,0.12537795,0.07965225, 12:55:06.367
80078.140625, 99176.296875, 187500.015625, 187500.015625, 109738.921875, 81560.906250, 89297.984375, 143286.187500, 0, 1, 1, 0, 1,0.03028626,0.07848221,0.070182055,0.12537795,0.07965225, 12:55:06.367
79936.585938, 99029.039063, 187500.015625, 187500.015625, 109650.414063, 81642.335938, 89350.312500, 143158.218750, 0, 1, 1, 0, 1,0.03028626,0.07848221,0.070182055,0.12537795,0.07965225, 12:55:06.367
79737.812500, 98829.976563, 187500.015625, 187500.015625, 109461.000000, 81700.609375, 89284.554688, 142960.328125, 0, 1, 1, 0, 1,0.03028626,0.07848221,0.070182055,0.12537795,0.07965225, 12:55:06.368
79849.414063, 98940.125000, 187500.015625, 187500.015625, 109530.335938, 81620.765625, 89218.906250, 143063.359375, 0, 1, 1, 0, 1,0.03028626,0.07848221,0.070182055,0.12537795,0.07965225, 12:55:06.368
80065.867188, 99152.851563, 187500.015625, 187500.015625, 109733.117188, 81550.359375, 89277.781250, 143276.265625, 0, 1, 1, 0, 1,0.03028626,0.07848221,0.070182055,0.12537795,0.07965225, 12:55:06.368
79972.523438, 99058.812500, 187500.015625, 187500.015625, 109683.492188, 81623.562500, 89350.914063, 143201.234375, 0, 1, 1, 0, 1,0.03028626,0.07848221,0.070182055,0.12537795,0.07965225, 12:55:06.368
79766.578125, 98852.867188, 187500.015625, 187500.015625, 109492.968750, 81706.664063, 89306.500000, 143002.546875, 0, 1, 1, 0, 1,0.03028626,0.07848221,0.070182055,0.12537795,0.07965225, 12:55:06.369
79803.968750, 98893.281250, 187500.015625, 187500.015625, 109487.914063, 81644.078125, 89211.601563, 143026.062500, 0, 1, 1, 0, 1,0.03028626,0.07848221,0.070182055,0.12537795,0.07965225, 12:55:06.369
80022.390625, 99116.390625, 187500.015625, 187500.015625, 109693.375000, 81544.484375, 89248.031250, 143239.812500, 0, 1, 1, 0, 1,0.03028626,0.07848221,0.070182055,0.12537795,0.07965225, 12:55:06.369
80024.921875, 99114.851563, 187500.015625, 187500.015625, 109737.000000, 81601.007813, 89348.101563, 143251.187500, 0, 1, 1, 0, 1,0.03028626,0.07848221,0.070182055,0.12537795,0.07965225, 12:55:06.369
79803.031250, 98886.039063, 187500.015625, 187500.015625, 109540.734375, 81698.531250, 89306.210938, 143043.765625, 0, 1, 1, 0, 1,0.03028626,0.07848221,0.070182055,0.12537795,0.07965225, 12:55:06.370
79782.625000, 98868.757813, 187500.015625, 187500.015625, 109489.460938, 81669.875000, 89223.085938, 143009.203125, 0, 1, 1, 0, 1,0.03028626,0.07848221,0.070182055,0.12537795,0.07965225, 12:55:06.370
79985.132813, 99082.265625, 187500.015625, 187500.015625, 109657.992188, 81563.968750, 89213.453125, 143211.843750, 0, 1, 1, 0, 1,0.03028626,0.07848221,0.070182055,0.12537795,0.07965225, 12:55:06.370
80010.703125, 99108.414063, 187500.015625, 187500.015625, 109718.382813, 81580.554688, 89299.796875, 143244.453125, 0, 1, 1, 0, 1,0.03028626,0.07848221,0.070182055,0.12537795,0.07965225, 12:55:06.371
79815.078125, 98907.492188, 187500.015625, 187500.015625, 109559.773438, 81681.453125, 89318.687500, 143055.109375, 0, 1, 1, 0, 1,0.03028626,0.07848221,0.070182055,0.12537795,0.07965225, 12:55:06.371
79740.445313, 98829.843750, 187500.015625, 187500.015625, 109457.140625, 81679.125000, 89214.796875, 142968.062500, 0, 1, 1, 0, 1,0.03028626,0.07848221,0.070182055,0.12537795,0.07965225, 12:55:06.371
79956.007813, 99051.015625, 187500.015625, 187500.015625, 109622.765625, 81571.500000, 89184.843750, 143174.968750, 0, 1, 1, 0, 1,0.03028626,0.07848221,0.070182055,0.12537795,0.07965225, 12:55:06.371
80014.148438, 99113.953125, 187500.015625, 187500.015625, 109709.554688, 81557.062500, 89258.601563, 143246.781250, 0, 1, 1, 0, 1,0.03028626,0.07848221,0.070182055,0.12537795,0.07965225, 12:55:06.372
79835.039063, 98927.250000, 187500.015625, 187500.015625, 109575.265625, 81658.476563, 89289.804688, 143080.906250, 0, 1, 1, 0, 1,0.03028626,0.07848221,0.070182055,0.12537795,0.07965225, 12:55:06.372
79705.671875, 98796.828125, 187500.015625, 187500.015625, 109448.265625, 81680.468750, 89223.554688, 142954.468750, 0, 1, 1, 0, 1,0.03028626,0.07848221,0.070182055,0.12537795,0.07965225, 12:55:06.373
79892.796875, 98996.031250, 187500.015625, 187500.015625, 109587.718750, 81573.875000, 89184.507813, 143121.593750, 0, 1, 1, 0, 1,0.03028626,0.07848221,0.070182055,0.12537795,0.07965225, 12:55:06.373
80059.945313, 99157.875000, 187500.015625, 187500.015625, 109763.554688, 81549.843750, 89274.789063, 143290.921875, 0, 1, 1, 0, 1,0.03028626,0.07848221,0.070182055,0.12537795,0.07965225, 12:55:06.373
79900.484375, 98981.164063, 187500.015625, 187500.015625, 109652.046875, 81651.453125, 89313.585938, 143151.578125, 0, 1, 1, 0, 1,0.03028626,0.07848221,0.070182055,0.12537795,0.07965225, 12:55:06.375
79704.640625, 98792.648438, 187500.015625, 187500.015625, 109459.531250, 81692.875000, 89233.390625, 142957.687500, 0, 1, 1, 0, 1,0.03028626,0.07848221,0.070182055,0.12537795,0.07965225, 12:55:06.375
79823.039063, 98916.476563, 187500.015625, 187500.015625, 109530.335938, 81589.046875, 89151.382813, 143052.718750, 0, 1, 1, 0, 1,0.03028626,0.07848221,0.070182055,0.12537795,0.07965225, 12:55:06.375
80010.773438, 99098.179688, 187500.015625, 187500.015625, 109724.507813, 81526.062500, 89220.273438, 143246.203125, 0, 1, 1, 0, 1,0.03028626,0.07848221,0.070182055,0.12537795,0.07965225, 12:55:06.376
79904.507813, 98993.234375, 187500.015625, 187500.015625, 109659.289063, 81612.070313, 89290.945313, 143159.812500, 0, 1, 1, 0, 1,0.03028626,0.07848221,0.070182055,0.12537795,0.07965225, 12:55:06.376
79713.898438, 98801.617188, 187500.015625, 187500.015625, 109475.132813, 81684.718750, 89238.242188, 142976.109375, 0, 1, 1, 0, 1,0.03028626,0.07848221,0.070182055,0.12537795,0.07965225, 12:55:06.376
79774.695313, 98872.085938, 187500.015625, 187500.015625, 109493.968750, 81603.265625, 89146.953125, 143022.078125, 0, 1, 1, 0, 1,0.03028626,0.07848221,0.070182055,0.12537795,0.07965225, 12:55:06.377
79984.171875, 99087.539063, 187500.015625, 187500.015625, 109695.742188, 81521.570313, 89190.835938, 143233.859375, 0, 1, 1, 0, 1,0.03028626,0.07848221,0.070182055,0.12537795,0.07965225, 12:55:06.377
79944.742188, 99038.296875, 187500.015625, 187500.015625, 109697.351563, 81591.664063, 89274.851563, 143201.546875, 0, 1, 1, 0, 1,0.03028626,0.07848221,0.070182055,0.12537795,0.07965225, 12:55:06.377
79739.039063, 98826.914063, 187500.015625, 187500.015625, 109512.437500, 81680.851563, 89244.570313, 143000.562500, 0, 1, 1, 0, 1,0.03028626,0.07848221,0.070182055,0.12537795,0.07965225, 12:55:06.377
79741.093750, 98837.289063, 187500.015625, 187500.015625, 109478.546875, 81626.492188, 89155.765625, 142997.578125, 0, 1, 1, 0, 1,0.03028626,0.07848221,0.070182055,0.12537795,0.07965225, 12:55:06.377
79972.414063, 99078.531250, 187500.015625, 187500.015625, 109689.640625, 81531.226563, 89186.500000, 143229.453125, 0, 1, 1, 0, 1,0.03028626,0.07848221,0.070182055,0.12537795,0.07965225, 12:55:06.378
79969.734375, 99074.617188, 187500.015625, 187500.015625, 109728.148438, 81578.343750, 89277.734375, 143243.625000, 0, 1, 1, 0, 1,0.03028626,0.07848221,0.070182055,0.12537795,0.07965225, 12:55:06.378
79755.070313, 98847.656250, 187500.015625, 187500.015625, 109528.664063, 81676.671875, 89244.968750, 143027.562500, 0, 1, 1, 0, 1,0.03028626,0.07848221,0.070182055,0.12537795,0.07965225, 12:55:06.378
79728.867188, 98817.796875, 187500.015625, 187500.015625, 109459.039063, 81647.742188, 89155.742188, 142976.531250, 0, 1, 1, 0, 1,0.03028626,0.07848221,0.070182055,0.12537795,0.07965225, 12:55:06.378
79961.617188, 99055.773438, 187500.015625, 187500.015625, 109644.445313, 81536.945313, 89143.804688, 143184.578125, 0, 1, 1, 0, 1,0.03028626,0.07848221,0.070182055,0.12537795,0.07965225, 12:55:06.379
80018.210938, 99111.226563, 187500.015625, 187500.015625, 109730.031250, 81555.835938, 89238.304688, 143245.640625, 0, 1, 1, 0, 1,0.03028626,0.07848221,0.070182055,0.12537795,0.07965225, 12:55:06.379
79827.148438, 98910.398438, 187500.015625, 187500.015625, 109571.312500, 81661.203125, 89249.437500, 143058.484375, 0, 1, 1, 0, 1,0.03028626,0.07848221,0.070182055,0.12537795,0.07965225, 12:55:06.379
79753.632813, 98836.101563, 187500.015625, 187500.015625, 109464.218750, 81667.195313, 89169.820313, 142971.625000, 0, 1, 1, 0, 1,0.03028626,0.07848221,0.070182055,0.12537795,0.07965225, 12:55:06.379
79954.218750, 99045.070313, 187500.015625, 187500.015625, 109618.562500, 81557.843750, 89135.937500, 143158.656250, 0, 1, 1, 0, 1,0.03028626,0.07848221,0.070182055,0.12537795,0.07965225, 12:55:06.380
80064.929688, 99152.578125, 187500.015625, 187500.015625, 109751.351563, 81549.625000, 89226.039063, 143276.468750, 0, 1, 1, 0, 1,0.03028626,0.07848221,0.070182055,0.12537795,0.07965225, 12:55:06.380
79888.062500, 98966.570313, 187500.015625, 187500.015625, 109614.648438, 81660.578125, 89261.484375, 143119.375000, 0, 1, 1, 0, 1,0.03028626,0.07848221,0.070182055,0.12537795,0.07965225, 12:55:06.380
79760.140625, 98840.328125, 187500.015625, 187500.015625, 109464.492188, 81691.218750, 89176.304688, 142976.859375, 0, 1, 1, 0, 1,0.03028626,0.07848221,0.070182055,0.12537795,0.07965225, 12:55:06.380
79949.015625, 99034.500000, 187500.015625, 187500.015625, 109597.062500, 81588.578125, 89124.914063, 143134.546875, 0, 1, 1, 0, 1,0.03028626,0.07848221,0.070182055,0.12537795,0.07965225, 12:55:06.380
80118.375000, 99200.500000, 187500.015625, 187500.015625, 109777.835938, 81555.500000, 89210.234375, 143302.343750, 0, 1, 1, 0, 1,0.03028626,0.07848221,0.070182055,0.12537795,0.07965225, 12:55:06.381
79974.695313, 99045.203125, 187500.015625, 187500.015625, 109676.671875, 81653.492188, 89262.562500, 143171.656250, 0, 1, 1, 0, 1,0.03028626,0.07848221,0.070182055,0.12537795,0.07965225, 12:55:06.381
79800.953125, 98868.242188, 187500.015625, 187500.015625, 109498.507813, 81710.085938, 89193.515625, 142998.046875, 0, 1, 1, 0, 1,0.03028626,0.07848221,0.070182055,0.12537795,0.07965225, 12:55:06.381
79907.843750, 98983.625000, 187500.015625, 187500.015625, 109559.773438, 81616.562500, 89113.945313, 143098.484375, 0, 1, 1, 0, 1,0.03028626,0.07848221,0.070182055,0.12537795,0.07965225, 12:55:06.381
80089.023438, 99166.750000, 187500.015625, 187500.015625, 109747.375000, 81548.796875, 89168.992188, 143287.656250, 0, 1, 1, 0, 1,0.03028626,0.07848221,0.070182055,0.12537795,0.07965225, 12:55:06.381
79982.898438, 99055.929688, 187500.015625, 187500.015625, 109685.773438, 81624.992188, 89229.257813, 143190.484375, 0, 1, 1, 0, 1,0.029512746,0.02863031,0.028247435,0.073266916,0.03550127, 12:55:06.825
79782.359375, 98851.593750, 187500.015625, 187500.015625, 109490.507813, 81699.687500, 89178.742188, 142988.328125, 0, 1, 1, 0, 1,0.029512746,0.02863031,0.028247435,0.073266916,0.03550127, 12:55:06.825
79857.953125, 98931.523438, 187500.015625, 187500.015625, 109527.140625, 81635.539063, 89109.453125, 143060.015625, 0, 1, 1, 0, 1,0.029512746,0.02863031,0.028247435,0.073266916,0.03550127, 12:55:06.825
80084.132813, 99161.093750, 187500.015625, 187500.015625, 109741.117188, 81552.750000, 89156.281250, 143287.734375, 0, 1, 1, 0, 1,0.029512746,0.02863031,0.028247435,0.073266916,0.03550127, 12:55:06.825
80037.593750, 99107.789063, 187500.015625, 187500.015625, 109746.210938, 81622.015625, 89255.406250, 143265.328125, 0, 1, 1, 0, 1,0.029512746,0.02863031,0.028247435,0.073266916,0.03550127, 12:55:06.826
79804.132813, 98869.609375, 187500.015625, 187500.015625, 109534.476563, 81705.210938, 89204.000000, 143017.390625, 0, 1, 1, 0, 1,0.029512746,0.02863031,0.028247435,0.073266916,0.03550127, 12:55:06.826
79799.632813, 98873.046875, 187500.015625, 187500.015625, 109488.656250, 81653.468750, 89091.414063, 142999.234375, 0, 1, 1, 0, 1,0.029512746,0.02863031,0.028247435,0.073266916,0.03550127, 12:55:06.826
80048.921875, 99128.796875, 187500.015625, 187500.015625, 109709.062500, 81558.539063, 89127.781250, 143256.734375, 0, 1, 1, 0, 1,0.029512746,0.02863031,0.028247435,0.073266916,0.03550127, 12:55:06.826
80074.828125, 99148.132813, 187500.015625, 187500.015625, 109773.187500, 81602.281250, 89244.570313, 143284.562500, 0, 1, 1, 0, 1,0.029512746,0.02863031,0.028247435,0.073266916,0.03550127, 12:55:06.826
79869.421875, 98937.132813, 187500.015625, 187500.015625, 109588.273438, 81707.601563, 89228.828125, 143077.796875, 0, 1, 1, 0, 1,0.029512746,0.02863031,0.028247435,0.073266916,0.03550127, 12:55:06.827
79812.578125, 98883.976563, 187500.015625, 187500.015625, 109497.992188, 81686.367188, 89114.078125, 143003.015625, 0, 1, 1, 0, 1,0.029512746,0.02863031,0.028247435,0.073266916,0.03550127, 12:55:06.827
80038.039063, 99118.273438, 187500.015625, 187500.015625, 109694.023438, 81578.257813, 89109.671875, 143220.937500, 0, 1, 1, 0, 1,0.029512746,0.02863031,0.028247435,0.073266916,0.03550127, 12:55:06.827
80086.367188, 99161.429688, 187500.015625, 187500.015625, 109771.828125, 81586.460938, 89194.343750, 143286.234375, 0, 1, 1, 0, 1,0.029512746,0.02863031,0.028247435,0.073266916,0.03550127, 12:55:06.827
79889.179688, 98955.593750, 187500.015625, 187500.015625, 109600.453125, 81689.273438, 89189.421875, 143098.546875, 0, 1, 1, 0, 1,0.029512746,0.02863031,0.028247435,0.073266916,0.03550127, 12:55:06.827
79786.492188, 98856.218750, 187500.015625, 187500.015625, 109484.789063, 81702.062500, 89111.796875, 142993.359375, 0, 1, 1, 0, 1,0.029512746,0.02863031,0.028247435,0.073266916,0.03550127, 12:55:06.828
79980.062500, 99054.812500, 187500.015625, 187500.015625, 109639.523438, 81594.257813, 89084.039063, 143180.671875, 0, 1, 1, 0, 1,0.029512746,0.02863031,0.028247435,0.073266916,0.03550127, 12:55:06.828
80108.312500, 99182.015625, 187500.015625, 187500.015625, 109793.125000, 81578.812500, 89182.164063, 143316.453125, 0, 1, 1, 0, 1,0.029512746,0.02863031,0.028247435,0.073266916,0.03550127, 12:55:06.828
79946.265625, 99014.937500, 187500.015625, 187500.015625, 109666.531250, 81686.210938, 89211.351563, 143167.203125, 0, 1, 1, 0, 1,0.029512746,0.02863031,0.028247435,0.073266916,0.03550127, 12:55:06.828
79791.812500, 98859.437500, 187500.015625, 187500.015625, 109501.726563, 81723.429688, 89132.406250, 143003.843750, 0, 1, 1, 0, 1,0.029512746,0.02863031,0.028247435,0.073266916,0.03550127, 12:55:06.828
79939.539063, 99021.484375, 187500.015625, 187500.015625, 109605.929688, 81619.539063, 89074.468750, 143137.859375, 0, 1, 1, 0, 1,0.029512746,0.02863031,0.028247435,0.073266916,0.03550127, 12:55:06.829
80112.250000, 99192.765625, 187500.015625, 187500.015625, 109785.328125, 81575.234375, 89150.531250, 143313.812500, 0, 1, 1, 0, 1,0.029512746,0.02863031,0.028247435,0.073266916,0.03550127, 12:55:06.829
79979.593750, 99052.578125, 187500.015625, 187500.015625, 109695.671875, 81669.406250, 89203.882813, 143195.890625, 0, 1, 1, 0, 1,0.029512746,0.02863031,0.028247435,0.073266916,0.03550127, 12:55:06.829
79790.562500, 98858.187500, 187500.015625, 187500.015625, 109514.960938, 81729.484375, 89143.445313, 143012.671875, 0, 1, 1, 0, 1,0.029512746,0.02863031,0.028247435,0.073266916,0.03550127, 12:55:06.829
79893.335938, 98969.765625, 187500.015625, 187500.015625, 109572.312500, 81647.765625, 89074.718750, 143110.390625, 0, 1, 1, 0, 1,0.029512746,0.02863031,0.028247435,0.073266916,0.03550127, 12:55:06.829
80089.539063, 99169.703125, 187500.015625, 187500.015625, 109759.664063, 81574.656250, 89125.078125, 143305.875000, 0, 1, 1, 0, 1,0.029512746,0.02863031,0.028247435,0.073266916,0.03550127, 12:55:06.830
79999.078125, 99074.125000, 187500.015625, 187500.015625, 109720.710938, 81649.351563, 89199.593750, 143227.140625, 0, 1, 1, 0, 1,0.029512746,0.02863031,0.028247435,0.073266916,0.03550127, 12:55:06.830
79783.070313, 98855.773438, 187500.015625, 187500.015625, 109524.796875, 81730.046875, 89150.687500, 143016.921875, 0, 1, 1, 0, 1,0.029512746,0.02863031,0.028247435,0.073266916,0.03550127, 12:55:06.830
79836.765625, 98912.546875, 187500.015625, 187500.015625, 109528.390625, 81664.976563, 89061.843750, 143056.437500, 0, 1, 1, 0, 1,0.029512746,0.02863031,0.028247435,0.073266916,0.03550127, 12:55:06.830
80103.242188, 99180.859375, 187500.015625, 187500.015625, 109771.875000, 81584.515625, 89116.242188, 143313.875000, 0, 1, 1, 0, 1,0.029512746,0.02863031,0.028247435,0.073266916,0.03550127, 12:55:06.831
80079.148438, 99151.820313, 187500.015625, 187500.015625, 109792.343750, 81651.367188, 89219.710938, 143305.546875, 0, 1, 1, 0, 1,0.029512746,0.02863031,0.028247435,0.073266916,0.03550127, 12:55:06.831
79840.960938, 98908.789063, 187500.015625, 187500.015625, 109577.414063, 81745.335938, 89180.460938, 143061.234375, 0, 1, 1, 0, 1,0.029512746,0.02863031,0.028247435,0.073266916,0.03550127, 12:55:06.831
79807.773438, 98886.195313, 187500.015625, 187500.015625, 109502.804688, 81693.765625, 89069.218750, 143011.500000, 0, 1, 1, 0, 1,0.029512746,0.02863031,0.028247435,0.073266916,0.03550127, 12:55:06.831
80069.984375, 99153.164063, 187500.015625, 187500.015625, 109721.828125, 81590.523438, 89087.187500, 143268.171875, 0, 1, 1, 0, 1,0.029512746,0.02863031,0.028247435,0.073266916,0.03550127, 12:55:06.831
80086.500000, 99166.414063, 187500.015625, 187500.015625, 109774.195313, 81621.039063, 89173.648438, 143289.937500, 0, 1, 1, 0, 1,0.029512746,0.02863031,0.028247435,0.073266916,0.03550127, 12:55:06.831
79882.609375, 98960.156250, 187500.015625, 187500.015625, 109604.078125, 81725.148438, 89179.679688, 143095.734375, 0, 1, 1, 0, 1,0.029512746,0.02863031,0.028247435,0.073266916,0.03550127, 12:55:06.832
79805.203125, 98881.406250, 187500.015625, 187500.015625, 109507.828125, 81715.648438, 89097.468750, 143019.203125, 0, 1, 1, 0, 1,0.029512746,0.02863031,0.028247435,0.073266916,0.03550127, 12:55:06.832
80017.546875, 99103.140625, 187500.015625, 187500.015625, 109673.281250, 81599.867188, 89071.609375, 143213.640625, 0, 1, 1, 0, 1,0.029512746,0.02863031,0.028247435,0.073266916,0.03550127, 12:55:06.832
80087.617188, 99175.179688, 187500.015625, 187500.015625, 109768.875000, 81602.078125, 89156.007813, 143301.453125, 0, 1, 1, 0, 1,0.029512746,0.02863031,0.028247435,0.073266916,0.03550127, 12:55:06.832
79917.695313, 98999.875000, 187500.015625, 187500.015625, 109635.484375, 81712.656250, 89178.406250, 143130.265625, 0, 1, 1, 0, 1,0.029512746,0.02863031,0.028247435,0.073266916,0.03550127, 12:55:06.832
79787.726563, 98868.375000, 187500.015625, 187500.015625, 109496.718750, 81722.625000, 89088.484375, 142987.703125, 0, 1, 1, 0, 1,0.029512746,0.02863031,0.028247435,0.073266916,0.03550127, 12:55:06.832
79974.468750, 99065.031250, 187500.015625, 187500.015625, 109638.656250, 81612.632813, 89051.804688, 143170.875000, 0, 1, 1, 0, 1,0.029512746,0.02863031,0.028247435,0.073266916,0.03550127, 12:55:06.832
80100.289063, 99186.328125, 187500.015625, 187500.015625, 109778.843750, 81590.031250, 89134.867188, 143310.796875, 0, 1, 1, 0, 1,0.029512746,0.02863031,0.028247435,0.073266916,0.03550127, 12:55:06.832
79950.109375, 99026.406250, 187500.015625, 187500.015625, 109670.281250, 81694.078125, 89182.695313, 143170.312500, 0, 1, 1, 0, 1,0.029512746,0.02863031,0.028247435,0.073266916,0.03550127, 12:55:06.833
79805.492188, 98881.234375, 187500.015625, 187500.015625, 109523.117188, 81741.085938, 89124.960938, 143014.656250, 0, 1, 1, 0, 1,0.029512746,0.02863031,0.028247435,0.073266916,0.03550127, 12:55:06.833
79954.492188, 99036.757813, 187500.015625, 187500.015625, 109625.062500, 81645.757813, 89060.343750, 143140.187500, 0, 1, 1, 0, 1,0.029512746,0.02863031,0.028247435,0.073266916,0.03550127, 12:55:06.833
80128.562500, 99208.976563, 187500.015625, 187500.015625, 109801.687500, 81591.890625, 89120.406250, 143319.843750, 0, 1, 1, 0, 1,0.029512746,0.02863031,0.028247435,0.073266916,0.03550127, 12:55:06.833
80013.812500, 99088.921875, 187500.015625, 187500.015625, 109726.476563, 81680.578125, 89185.492188, 143222.281250, 0, 1, 1, 0, 1,0.029512746,0.02863031,0.028247435,0.073266916,0.03550127, 12:55:06.833
79821.585938, 98893.101563, 187500.015625, 187500.015625, 109539.343750, 81750.968750, 89134.617188, 143029.078125, 0, 1, 1, 0, 1,0.029512746,0.02863031,0.028247435,0.073266916,0.03550127, 12:55:06.833
79896.242188, 98977.835938, 187500.015625, 187500.015625, 109565.054688, 81665.515625, 89043.179688, 143089.875000, 0, 1, 1, 0, 1,0.029512746,0.02863031,0.028247435,0.073266916,0.03550127, 12:55:06.833
80114.210938, 99197.460938, 187500.015625, 187500.015625, 109774.218750, 81587.976563, 89093.851563, 143305.750000, 0, 1, 1, 0, 1,0.029512746,0.02863031,0.028247435,0.073266916,0.03550127, 12:55:06.834
80035.625000, 99116.882813, 187500.015625, 187500.015625, 109743.304688, 81659.101563, 89179.679688, 143247.343750, 0, 1, 1, 0, 1,0.029512746,0.02863031,0.028247435,0.073266916,0.03550127, 12:55:06.834
79823.375000, 98902.820313, 187500.015625, 187500.015625, 109542.054688, 81741.843750, 89136.765625, 143038.171875, 0, 1, 1, 0, 1,0.029512746,0.02863031,0.028247435,0.073266916,0.03550127, 12:55:06.834
79850.796875, 98932.195313, 187500.015625, 187500.015625, 109525.578125, 81683.843750, 89041.453125, 143051.578125, 0, 1, 1, 0, 1,0.029512746,0.02863031,0.028247435,0.073266916,0.03550127, 12:55:06.834
80094.593750, 99180.875000, 187500.015625, 187500.015625, 109756.539063, 81594.281250, 89076.257813, 143297.203125, 0, 1, 1, 0, 1,0.029512746,0.02863031,0.028247435,0.073266916,0.03550127, 12:55:06.834
80062.648438, 99143.125000, 187500.015625, 187500.015625, 109764.007813, 81644.125000, 89156.140625, 143278.656250, 0, 1, 1, 0, 1,0.029512746,0.02863031,0.028247435,0.073266916,0.03550127, 12:55:06.834
79853.210938, 98931.500000, 187500.015625, 187500.015625, 109581.750000, 81741.507813, 89146.734375, 143076.625000, 0, 1, 1, 0, 1,0.029512746,0.02863031,0.028247435,0.073266916,0.03550127, 12:55:06.834
79804.304688, 98887.421875, 187500.015625, 187500.015625, 109505.304688, 81700.476563, 89047.578125, 143002.671875, 0, 1, 1, 0, 1,0.029512746,0.02863031,0.028247435,0.073266916,0.03550127, 12:55:06.834
80020.671875, 99110.289063, 187500.015625, 187500.015625, 109693.976563, 81584.851563, 89048.187500, 143220.515625, 0, 1, 1, 0, 1,0.029512746,0.02863031,0.028247435,0.073266916,0.03550127, 12:55:06.834
80079.570313, 99162.414063, 187500.015625, 187500.015625, 109786.984375, 81611.335938, 89161.773438, 143290.953125, 0, 1, 1, 0, 1,0.029512746,0.02863031,0.028247435,0.073266916,0.03550127, 12:55:06.835
79886.789063, 98963.398438, 187500.015625, 187500.015625, 109605.734375, 81724.437500, 89147.492188, 143098.875000, 0, 1, 1, 0, 1,0.029512746,0.02863031,0.028247435,0.073266916,0.03550127, 12:55:06.835
79796.554688, 98874.476563, 187500.015625, 187500.015625, 109501.546875, 81722.804688, 89059.781250, 143001.062500, 0, 1, 1, 0, 1,0.029512746,0.02863031,0.028247435,0.073266916,0.03550127, 12:55:06.835
80025.031250, 99108.437500, 187500.015625, 187500.015625, 109694.179688, 81616.695313, 89054.976563, 143218.625000, 0, 1, 1, 0, 1,0.029512746,0.02863031,0.028247435,0.073266916,0.03550127, 12:55:06.835
80110.484375, 99189.906250, 187500.015625, 187500.015625, 109802.625000, 81613.726563, 89149.281250, 143322.421875, 0, 1, 1, 0, 1,0.029512746,0.02863031,0.028247435,0.073266916,0.03550127, 12:55:06.835
79906.789063, 98983.062500, 187500.015625, 187500.015625, 109641.960938, 81713.281250, 89160.523438, 143133.281250, 0, 1, 1, 0, 1,0.029512746,0.02863031,0.028247435,0.073266916,0.03550127, 12:55:06.835
79777.304688, 98856.304688, 187500.015625, 187500.015625, 109496.429688, 81735.187500, 89074.046875, 142994.031250, 0, 1, 1, 0, 1,0.029512746,0.02863031,0.028247435,0.073266916,0.03550127, 12:55:06.835
79958.468750, 99050.078125, 187500.015625, 187500.015625, 109620.015625, 81630.781250, 89020.890625, 143154.203125, 0, 1, 1, 0, 1,0.029512746,0.02863031,0.028247435,0.073266916,0.03550127, 12:55:06.835
80109.609375, 99207.945313, 187500.015625, 187500.015625, 109779.742188, 81598.414063, 89099.992188, 143305.593750, 0, 1, 1, 0, 1,0.029512746,0.02863031,0.028247435,0.073266916,0.03550127, 12:55:06.835
79980.328125, 99079.671875, 187500.015625, 187500.015625, 109693.015625, 81706.062500, 89164.929688, 143203.734375, 0, 1, 1, 0, 1,0.029512746,0.02863031,0.028247435,0.073266916,0.03550127, 12:55:06.836
79808.375000, 98907.273438, 187500.015625, 187500.015625, 109520.992188, 81756.578125, 89100.867188, 143012.468750, 0, 1, 1, 0, 1,0.029512746,0.02863031,0.028247435,0.073266916,0.03550127, 12:55:06.836
79938.867188, 99047.859375, 187500.015625, 187500.015625, 109597.234375, 81661.406250, 89029.054688, 143121.140625, 0, 1, 1, 0, 1,0.029512746,0.02863031,0.028247435,0.073266916,0.03550127, 12:55:06.836
