%OpenBCI Raw EEG Data
%
%Sample Rate = 250.0 Hz
%First Column = SampleIndex
%5 Columns before Timestamp are Frequency Power factors DELTA THETA ALPHA BETA GAMMA
%Last Column = Timestamp 
%Other Columns = EEG data in microvolts followed by Accel Data (in G) interleaved with Aux Data
0.000000, 0.000000, 0.000000, 0.000000, 0.000000, 0.000000, 0.000000, 0.000000, 0.348, 0.186, 0.906,0.0,0.0,0.0,0.0,0.0, 14:49:01.969
50788.882813, 46413.574219, 130895.093750, 69101.554688, 103560.835938, 87481.171875, 101343.406250, 113851.890625, 0.000, 0.000, 0.000,0.0,0.0,0.0,0.0,0.0, 14:49:02.449
50858.441406, 46484.808594, 130847.531250, 68902.000000, 103603.953125, 87308.679688, 101336.992188, 113860.031250, 0.000, 0.000, 0.000,0.0,0.0,0.0,0.0,0.0, 14:49:02.450
50920.535156, 46549.250000, 130844.828125, 68361.375000, 103664.796875, 87121.421875, 101338.203125, 113899.476563, 0.000, 0.000, 0.000,0.0,0.0,0.0,0.0,0.0, 14:49:02.452
50855.738281, 46480.382813, 130889.640625, 68499.351563, 103623.960938, 87280.007813, 101342.289063, 113897.375000, 0.000, 0.000, 0.000,0.0,0.0,0.0,0.0,0.0, 14:49:02.453
50789.085938, 46409.015625, 130902.539063, 69050.328125, 103561.640625, 87478.757813, 101340.054688, 113858.328125, 0.000, 0.000, 0.000,0.0,0.0,0.0,0.0,0.0, 14:49:02.454
50845.722656, 46467.980469, 130863.671875, 69001.976563, 103596.796875, 87356.000000, 101337.148438, 113854.351563, 0.000, 0.000, 0.000,0.0,0.0,0.0,0.0,0.0, 14:49:02.455
50927.332031, 46549.765625, 130841.718750, 68427.671875, 103667.273438, 87125.953125, 101337.375000, 113890.539063, 0.322, 0.204, 0.918,0.0,0.0,0.0,0.0,0.0, 14:49:02.455
50882.539063, 46498.535156, 130887.382813, 68425.437500, 103648.367188, 87232.664063, 101348.507813, 113900.976563, 0.000, 0.000, 0.000,0.0,0.0,0.0,0.0,0.0, 14:49:02.456
50804.148438, 46415.562500, 130909.242188, 68974.578125, 103577.375000, 87462.906250, 101349.398438, 113868.742188, 0.000, 0.000, 0.000,0.0,0.0,0.0,0.0,0.0, 14:49:02.457
50831.195313, 46446.902344, 130877.148438, 69080.429688, 103582.476563, 87397.578125, 101336.617188, 113847.757813, 0.000, 0.000, 0.000,0.0,0.0,0.0,0.0,0.0, 14:49:02.457
50919.304688, 46541.964844, 130849.429688, 68543.210938, 103654.242188, 87152.445313, 101334.312500, 113881.421875, 0.000, 0.000, 0.000,0.0,0.0,0.0,0.0,0.0, 14:49:02.458
50899.257813, 46518.605469, 130883.898438, 68373.132813, 103655.695313, 87194.625000, 101346.289063, 113909.265625, 0.000, 0.000, 0.000,0.0,0.0,0.0,0.0,0.0, 14:49:02.460
50806.898438, 46421.753906, 130911.460938, 68894.195313, 103582.335938, 87436.359375, 101348.882813, 113874.062500, 0.000, 0.000, 0.000,0.0,0.0,0.0,0.0,0.0, 14:49:02.461
50820.199219, 46435.703125, 130874.820313, 69110.851563, 103575.585938, 87429.562500, 101340.484375, 113851.531250, 0.000, 0.000, 0.000,0.0,0.0,0.0,0.0,0.0, 14:49:02.461
50909.648438, 46531.121094, 130840.937500, 68616.078125, 103650.531250, 87188.718750, 101344.367188, 113885.578125, 0.000, 0.000, 0.000,0.0,0.0,0.0,0.0,0.0, 14:49:02.462
50914.386719, 46531.503906, 130871.562500, 68324.453125, 103669.781250, 87164.671875, 101357.062500, 113916.015625, 0.000, 0.000, 0.000,0.0,0.0,0.0,0.0,0.0, 14:49:02.462
50813.828125, 46428.417969, 130908.125000, 68797.148438, 103589.023438, 87404.367188, 101350.000000, 113880.703125, 0.302, 0.218, 0.928,0.0,0.0,0.0,0.0,0.0, 14:49:02.463
50805.871094, 46423.429688, 130885.820313, 69151.421875, 103567.812500, 87462.460938, 101345.507813, 113854.617188, 0.000, 0.000, 0.000,0.0,0.0,0.0,0.0,0.0, 14:49:02.464
50904.062500, 46519.453125, 130846.367188, 68741.804688, 103640.367188, 87234.562500, 101347.078125, 113880.882813, 0.000, 0.000, 0.000,0.0,0.0,0.0,0.0,0.0, 14:49:02.464
50928.136719, 46543.527344, 130869.210938, 68338.445313, 103676.148438, 87146.382813, 101355.476563, 113917.585938, 0.000, 0.000, 0.000,0.0,0.0,0.0,0.0,0.0, 14:49:02.465
50846.929688, 46459.863281, 130906.093750, 68682.773438, 103615.507813, 87370.039063, 101362.187500, 113901.109375, 0.000, 0.000, 0.000,0.0,0.0,0.0,0.0,0.0, 14:49:02.466
50809.605469, 46418.023438, 130893.375000, 69115.929688, 103570.312500, 87487.812500, 101352.460938, 113863.851563, 0.000, 0.000, 0.000,0.0,0.0,0.0,0.0,0.0, 14:49:02.466
50879.117188, 46487.960938, 130852.742188, 68837.265625, 103622.664063, 87287.289063, 101346.359375, 113873.234375, 0.000, 0.000, 0.000,0.0,0.0,0.0,0.0,0.0, 14:49:02.467
50930.148438, 46542.453125, 130852.695313, 68334.000000, 103678.046875, 87131.906250, 101352.796875, 113912.445313, 0.000, 0.000, 0.000,0.0,0.0,0.0,0.0,0.0, 14:49:02.468
50859.804688, 46466.929688, 130890.250000, 68553.492188, 103625.390625, 87318.492188, 101351.835938, 113902.453125, 0.000, 0.000, 0.000,0.0,0.0,0.0,0.0,0.0, 14:49:02.468
50803.253906, 46406.847656, 130896.546875, 69082.984375, 103564.945313, 87490.671875, 101342.960938, 113859.492188, 0.286, 0.218, 0.922,0.0,0.0,0.0,0.0,0.0, 14:49:02.469
50864.433594, 46472.648438, 130853.742188, 68934.093750, 103608.179688, 87326.945313, 101339.742188, 113860.226563, 0.000, 0.000, 0.000,0.0,0.0,0.0,0.0,0.0, 14:49:02.469
50931.843750, 46546.007813, 130844.960938, 68382.453125, 103673.445313, 87121.375000, 101341.820313, 113896.640625, 0.000, 0.000, 0.000,0.0,0.0,0.0,0.0,0.0, 14:49:02.470
50874.625000, 46486.417969, 130887.343750, 68474.609375, 103639.046875, 87264.226563, 101350.898438, 113899.125000, 0.000, 0.000, 0.000,0.0,0.0,0.0,0.0,0.0, 14:49:02.470
50803.277344, 46411.742188, 130901.960938, 69028.796875, 103568.859375, 87474.578125, 101344.906250, 113859.718750, 0.000, 0.000, 0.000,0.0,0.0,0.0,0.0,0.0, 14:49:02.470
50849.234375, 46458.011719, 130859.468750, 69015.750000, 103589.132813, 87365.164063, 101335.515625, 113852.382813, 0.000, 0.000, 0.000,0.0,0.0,0.0,0.0,0.0, 14:49:02.471
50933.679688, 46547.683594, 130839.015625, 68454.539063, 103662.312500, 87134.023438, 101342.109375, 113893.625000, 0.000, 0.000, 0.000,0.0,0.0,0.0,0.0,0.0, 14:49:02.471
50891.722656, 46503.339844, 130879.828125, 68404.851563, 103648.078125, 87224.531250, 101353.000000, 113910.453125, 0.000, 0.000, 0.000,0.0,0.0,0.0,0.0,0.0, 14:49:02.472
50808.687500, 46413.105469, 130908.085938, 68951.148438, 103577.890625, 87462.843750, 101352.796875, 113878.023438, 0.000, 0.000, 0.000,0.0,0.0,0.0,0.0,0.0, 14:49:02.473
50831.710938, 46437.023438, 130882.062500, 69085.664063, 103590.476563, 87419.882813, 101353.218750, 113867.695313, 0.000, 0.000, 0.000,0.0,0.0,0.0,0.0,0.0, 14:49:02.474
50920.535156, 46533.691406, 130848.093750, 68554.539063, 103664.031250, 87174.507813, 101352.773438, 113900.218750, 0.274, 0.218, 0.932,0.0,0.0,0.0,0.0,0.0, 14:49:02.474
50907.570313, 46524.304688, 130871.601563, 68342.359375, 103664.703125, 87192.117188, 101357.914063, 113918.210938, 0.000, 0.000, 0.000,0.0,0.0,0.0,0.0,0.0, 14:49:02.475
50814.992188, 46428.953125, 130900.687500, 68835.656250, 103588.101563, 87429.382813, 101352.570313, 113879.968750, 0.000, 0.000, 0.000,0.0,0.0,0.0,0.0,0.0, 14:49:02.475
50810.007813, 46426.160156, 130871.445313, 69088.437500, 103574.585938, 87436.554688, 101344.257813, 113849.187500, 0.000, 0.000, 0.000,0.0,0.0,0.0,0.0,0.0, 14:49:02.476
50885.734375, 46509.218750, 130834.632813, 68632.976563, 103640.679688, 87193.976563, 101337.578125, 113869.437500, 0.000, 0.000, 0.000,0.0,0.0,0.0,0.0,0.0, 14:49:02.476
50891.320313, 46519.878906, 130850.328125, 68304.578125, 103655.117188, 87144.109375, 101333.617188, 113894.765625, 0.000, 0.000, 0.000,0.0,0.0,0.0,0.0,0.0, 14:49:02.476
50796.191406, 46420.054688, 130887.140625, 68733.242188, 103585.289063, 87378.578125, 101334.578125, 113867.742188, 0.000, 0.000, 0.000,0.0,0.0,0.0,0.0,0.0, 14:49:02.477
50765.503906, 46390.687500, 130865.656250, 69113.757813, 103546.398438, 87452.289063, 101320.585938, 113830.992188, 0.000, 0.000, 0.000,0.0,0.0,0.0,0.0,0.0, 14:49:02.477
50844.382813, 46475.511719, 130818.476563, 68739.703125, 103606.750000, 87224.593750, 101315.023438, 113849.007813, 0.000, 0.000, 0.000,0.0,0.0,0.0,0.0,0.0, 14:49:02.478
50870.781250, 46502.914063, 130825.562500, 68303.289063, 103646.085938, 87111.539063, 101325.570313, 113883.898438, 0.284, 0.220, 0.922,0.0,0.0,0.0,0.0,0.0, 14:49:02.478
50786.222656, 46414.312500, 130861.679688, 68621.195313, 103578.406250, 87325.554688, 101319.804688, 113866.015625, 0.000, 0.000, 0.000,0.0,0.0,0.0,0.0,0.0, 14:49:02.479
50741.765625, 46371.062500, 130856.562500, 69084.031250, 103529.859375, 87463.179688, 101314.664063, 113834.476563, 0.000, 0.000, 0.000,0.0,0.0,0.0,0.0,0.0, 14:49:02.479
50818.121094, 46451.976563, 130815.164063, 68826.695313, 103580.773438, 87275.375000, 101311.062500, 113848.585938, 0.000, 0.000, 0.000,0.0,0.0,0.0,0.0,0.0, 14:49:02.480
50870.421875, 46507.808594, 130813.554688, 68304.265625, 103637.796875, 87110.421875, 101317.484375, 113889.843750, 0.000, 0.000, 0.000,0.0,0.0,0.0,0.0,0.0, 14:49:02.490
50796.394531, 46430.070313, 130858.062500, 68514.148438, 103589.335938, 87295.335938, 101326.578125, 113885.976563, 0.000, 0.000, 0.000,0.0,0.0,0.0,0.0,0.0, 14:49:02.490
50737.832031, 46364.378906, 130864.296875, 69050.593750, 103530.078125, 87477.664063, 101321.679688, 113847.062500, 0.000, 0.000, 0.000,0.0,0.0,0.0,0.0,0.0, 14:49:02.491
50796.996094, 46428.214844, 130818.695313, 68932.375000, 103570.023438, 87330.945313, 101316.296875, 113848.179688, 0.000, 0.000, 0.000,0.0,0.0,0.0,0.0,0.0, 14:49:02.491
50870.132813, 46505.171875, 130806.406250, 68375.015625, 103635.289063, 87118.398438, 101315.539063, 113886.851563, 0.000, 0.000, 0.000,0.0,0.0,0.0,0.0,0.0, 14:49:02.492
50817.582031, 46448.285156, 130843.617188, 68424.523438, 103608.421875, 87246.367188, 101324.234375, 113896.101563, 0.000, 0.000, 0.000,0.0,0.0,0.0,0.0,0.0, 14:49:02.492
50740.781250, 46368.558594, 130863.265625, 68981.304688, 103541.367188, 87461.281250, 101324.078125, 113855.218750, 0.294, 0.220, 0.926,0.0,0.0,0.0,0.0,0.0, 14:49:02.492
50781.238281, 46411.585938, 130827.523438, 69016.460938, 103559.851563, 87362.773438, 101314.125000, 113838.750000, 0.000, 0.000, 0.000,0.0,0.0,0.0,0.0,0.0, 14:49:02.493
50870.265625, 46501.351563, 130805.289063, 68461.062500, 103633.945313, 87122.898438, 101313.617188, 113875.359375, 0.000, 0.000, 0.000,0.0,0.0,0.0,0.0,0.0, 14:49:02.493
50837.609375, 46464.445313, 130848.914063, 68381.781250, 103623.820313, 87193.820313, 101323.609375, 113888.148438, 0.000, 0.000, 0.000,0.0,0.0,0.0,0.0,0.0, 14:49:02.493
50750.664063, 46372.402344, 130877.929688, 68923.210938, 103551.250000, 87424.976563, 101323.289063, 113846.570313, 0.000, 0.000, 0.000,0.0,0.0,0.0,0.0,0.0, 14:49:02.494
50772.140625, 46397.011719, 130843.484375, 69082.265625, 103556.234375, 87385.773438, 101319.250000, 113825.429688, 0.000, 0.000, 0.000,0.0,0.0,0.0,0.0,0.0, 14:49:02.494
50861.035156, 46492.746094, 130811.476563, 68562.789063, 103626.640625, 87137.242188, 101315.781250, 113853.367188, 0.000, 0.000, 0.000,5.503653E-6,7.2903536E-6,8.961268E-6,2.8191818E-5,3.5804667E-5, 14:49:02.496
50852.542969, 46481.570313, 130841.562500, 68334.625000, 103633.929688, 87145.804688, 101323.070313, 113878.375000, 0.000, 0.000, 0.000,5.503653E-6,7.2903536E-6,8.961268E-6,2.8191818E-5,3.5804667E-5, 14:49:02.497
50759.246094, 46383.132813, 130874.554688, 68825.218750, 103560.593750, 87390.085938, 101327.453125, 113847.375000, 0.000, 0.000, 0.000,5.503653E-6,7.2903536E-6,8.961268E-6,2.8191818E-5,3.5804667E-5, 14:49:02.497
50753.546875, 46379.199219, 130845.210938, 69123.820313, 103543.578125, 87419.679688, 101325.015625, 113824.085938, 0.000, 0.000, 0.000,5.503653E-6,7.2903536E-6,8.961268E-6,2.8191818E-5,3.5804667E-5, 14:49:02.498
50844.226563, 46474.593750, 130801.601563, 68662.656250, 103614.796875, 87185.343750, 101322.960938, 113860.187500, 0.288, 0.224, 0.924,5.503653E-6,7.2903536E-6,8.961268E-6,2.8191818E-5,3.5804667E-5, 14:49:02.498
50856.722656, 46486.308594, 130827.281250, 68298.632813, 103643.468750, 87130.695313, 101331.226563, 113896.375000, 0.000, 0.000, 0.000,5.503653E-6,7.2903536E-6,8.961268E-6,2.8191818E-5,3.5804667E-5, 14:49:02.498
50768.812500, 46391.582031, 130868.117188, 68704.078125, 103581.023438, 87368.742188, 101334.359375, 113875.140625, 0.000, 0.000, 0.000,5.503653E-6,7.2903536E-6,8.961268E-6,2.8191818E-5,3.5804667E-5, 14:49:02.499
50744.539063, 46367.730469, 130852.937500, 69110.007813, 103545.257813, 87462.148438, 101325.125000, 113844.335938, 0.000, 0.000, 0.000,5.503653E-6,7.2903536E-6,8.961268E-6,2.8191818E-5,3.5804667E-5, 14:49:02.499
50826.925781, 46455.664063, 130809.312500, 68763.593750, 103606.031250, 87246.343750, 101321.437500, 113863.914063, 0.000, 0.000, 0.000,5.503653E-6,7.2903536E-6,8.961268E-6,2.8191818E-5,3.5804667E-5, 14:49:02.499
50859.695313, 46490.039063, 130822.562500, 68311.375000, 103646.132813, 87123.031250, 101323.648438, 113897.757813, 0.000, 0.000, 0.000,5.503653E-6,7.2903536E-6,8.961268E-6,2.8191818E-5,3.5804667E-5, 14:49:02.499
50778.421875, 46406.710938, 130864.609375, 68611.156250, 103590.812500, 87331.304688, 101330.671875, 113884.523438, 0.000, 0.000, 0.000,5.503653E-6,7.2903536E-6,8.961268E-6,2.8191818E-5,3.5804667E-5, 14:49:02.500
50732.445313, 46359.906250, 130862.578125, 69104.710938, 103546.710938, 87477.687500, 101329.820313, 113848.742188, 0.000, 0.000, 0.000,5.503653E-6,7.2903536E-6,8.961268E-6,2.8191818E-5,3.5804667E-5, 14:49:02.500
50808.062500, 46438.296875, 130816.265625, 68871.554688, 103597.601563, 87294.156250, 101324.882813, 113857.953125, 0.000, 0.000, 0.000,5.503653E-6,7.2903536E-6,8.961268E-6,2.8191818E-5,3.5804667E-5, 14:49:02.500
50866.242188, 46499.093750, 130816.664063, 68350.156250, 103652.273438, 87114.132813, 101324.835938, 113891.210938, 0.292, 0.236, 0.928,5.503653E-6,7.2903536E-6,8.961268E-6,2.8191818E-5,3.5804667E-5, 14:49:02.500
50798.628906, 46427.613281, 130858.507813, 68517.906250, 103609.164063, 87281.968750, 101332.281250, 113887.367188, 0.000, 0.000, 0.000,5.503653E-6,7.2903536E-6,8.961268E-6,2.8191818E-5,3.5804667E-5, 14:49:02.501
50735.464844, 46362.253906, 130868.656250, 69062.437500, 103547.757813, 87472.992188, 101331.476563, 113848.453125, 0.000, 0.000, 0.000,5.503653E-6,7.2903536E-6,8.961268E-6,2.8191818E-5,3.5804667E-5, 14:49:02.501
50799.457031, 46428.125000, 130826.898438, 68970.890625, 103582.875000, 87339.375000, 101327.468750, 113847.820313, 0.000, 0.000, 0.000,5.503653E-6,7.2903536E-6,8.961268E-6,2.8191818E-5,3.5804667E-5, 14:49:02.502
50876.234375, 46508.078125, 130814.945313, 68406.414063, 103649.507813, 87119.562500, 101327.429688, 113885.687500, 0.000, 0.000, 0.000,5.503653E-6,7.2903536E-6,8.961268E-6,2.8191818E-5,3.5804667E-5, 14:49:02.502
50832.335938, 46461.140625, 130860.382813, 68422.710938, 103625.429688, 87235.437500, 101335.742188, 113894.156250, 0.000, 0.000, 0.000,5.503653E-6,7.2903536E-6,8.961268E-6,2.8191818E-5,3.5804667E-5, 14:49:02.503
50754.550781, 46377.722656, 130889.085938, 68986.132813, 103557.015625, 87462.570313, 101338.718750, 113857.476563, 0.000, 0.000, 0.000,5.503653E-6,7.2903536E-6,8.961268E-6,2.8191818E-5,3.5804667E-5, 14:49:02.503
50791.968750, 46416.882813, 130851.218750, 69052.000000, 103569.171875, 87380.945313, 101326.179688, 113840.421875, 0.000, 0.000, 0.000,5.503653E-6,7.2903536E-6,8.961268E-6,2.8191818E-5,3.5804667E-5, 14:49:02.504
50869.351563, 46502.558594, 130820.929688, 68497.835938, 103638.109375, 87135.078125, 101322.289063, 113874.179688, 0.000, 0.000, 0.000,5.503653E-6,7.2903536E-6,8.961268E-6,2.8191818E-5,3.5804667E-5, 14:49:02.505
50843.867188, 46471.554688, 130859.445313, 68378.117188, 103632.273438, 87192.765625, 101332.437500, 113894.226563, 0.000, 0.000, 0.000,5.503653E-6,7.2903536E-6,8.961268E-6,2.8191818E-5,3.5804667E-5, 14:49:02.505
50760.898438, 46381.476563, 130883.359375, 68902.984375, 103559.070313, 87428.781250, 101330.625000, 113857.304688, 0.284, 0.234, 0.928,5.503653E-6,7.2903536E-6,8.961268E-6,2.8191818E-5,3.5804667E-5, 14:49:02.506
50775.695313, 46400.675781, 130852.046875, 69090.000000, 103558.289063, 87406.937500, 101326.085938, 113837.742188, 0.000, 0.000, 0.000,5.503653E-6,7.2903536E-6,8.961268E-6,2.8191818E-5,3.5804667E-5, 14:49:02.506
50860.296875, 46487.917969, 130822.453125, 68598.820313, 103629.117188, 87164.109375, 101322.710938, 113864.187500, 0.000, 0.000, 0.000,5.503653E-6,7.2903536E-6,8.961268E-6,2.8191818E-5,3.5804667E-5, 14:49:02.507
50850.375000, 46477.812500, 130846.437500, 68339.226563, 103637.187500, 87153.718750, 101327.179688, 113889.976563, 0.000, 0.000, 0.000,5.503653E-6,7.2903536E-6,8.961268E-6,2.8191818E-5,3.5804667E-5, 14:49:02.507
50760.585938, 46385.589844, 130879.273438, 68807.359375, 103565.398438, 87396.703125, 101326.648438, 113864.187500, 0.000, 0.000, 0.000,5.503653E-6,7.2903536E-6,8.961268E-6,2.8191818E-5,3.5804667E-5, 14:49:02.508
50754.640625, 46379.531250, 130858.460938, 69134.750000, 103546.890625, 87444.265625, 101322.664063, 113838.031250, 0.000, 0.000, 0.000,5.503653E-6,7.2903536E-6,8.961268E-6,2.8191818E-5,3.5804667E-5, 14:49:02.508
50848.898438, 46477.566406, 130812.148438, 68698.867188, 103621.296875, 87209.148438, 101327.156250, 113868.367188, 0.000, 0.000, 0.000,5.503653E-6,7.2903536E-6,8.961268E-6,2.8191818E-5,3.5804667E-5, 14:49:02.509
50865.550781, 46496.902344, 130835.218750, 68313.453125, 103652.054688, 87131.882813, 101334.335938, 113901.375000, 0.000, 0.000, 0.000,5.503653E-6,7.2903536E-6,8.961268E-6,2.8191818E-5,3.5804667E-5, 14:49:02.510
50777.929688, 46403.269531, 130875.828125, 68701.390625, 103581.531250, 87357.140625, 101332.656250, 113876.101563, 0.000, 0.000, 0.000,5.503653E-6,7.2903536E-6,8.961268E-6,2.8191818E-5,3.5804667E-5, 14:49:02.510
50745.140625, 46367.621094, 130868.718750, 69136.289063, 103545.148438, 87462.484375, 101326.828125, 113839.148438, 0.280, 0.238, 0.924,5.503653E-6,7.2903536E-6,8.961268E-6,2.8191818E-5,3.5804667E-5, 14:49:02.510
50821.183594, 46450.769531, 130825.898438, 68829.085938, 103603.414063, 87253.429688, 101322.000000, 113854.218750, 0.000, 0.000, 0.000,5.503653E-6,7.2903536E-6,8.961268E-6,2.8191818E-5,3.5804667E-5, 14:49:02.511
50866.691406, 46500.144531, 130831.171875, 68347.742188, 103654.109375, 87111.960938, 101330.265625, 113896.750000, 0.000, 0.000, 0.000,5.503653E-6,7.2903536E-6,8.961268E-6,2.8191818E-5,3.5804667E-5, 14:49:02.511
50788.480469, 46414.265625, 130881.304688, 68615.875000, 103599.820313, 87309.289063, 101336.523438, 113884.953125, 0.000, 0.000, 0.000,5.503653E-6,7.2903536E-6,8.961268E-6,2.8191818E-5,3.5804667E-5, 14:49:02.512
50737.316406, 46359.214844, 130881.015625, 69125.156250, 103549.859375, 87469.414063, 101335.046875, 113849.296875, 0.000, 0.000, 0.000,5.503653E-6,7.2903536E-6,8.961268E-6,2.8191818E-5,3.5804667E-5, 14:49:02.513
50803.679688, 46429.937500, 130835.976563, 68932.617188, 103598.234375, 87298.890625, 101333.171875, 113855.445313, 0.000, 0.000, 0.000,5.503653E-6,7.2903536E-6,8.961268E-6,2.8191818E-5,3.5804667E-5, 14:49:02.513
50867.070313, 46494.578125, 130833.070313, 68397.117188, 103657.578125, 87107.492188, 101330.867188, 113890.960938, 0.000, 0.000, 0.000,5.503653E-6,7.2903536E-6,8.961268E-6,2.8191818E-5,3.5804667E-5, 14:49:02.514
50802.027344, 46429.132813, 130869.343750, 68525.554688, 103614.882813, 87263.554688, 101332.390625, 113889.664063, 0.000, 0.000, 0.000,5.503653E-6,7.2903536E-6,8.961268E-6,2.8191818E-5,3.5804667E-5, 14:49:02.514
50730.500000, 46358.500000, 130875.718750, 69058.234375, 103549.953125, 87462.953125, 101329.820313, 113852.164063, 0.000, 0.000, 0.000,5.503653E-6,7.2903536E-6,8.961268E-6,2.8191818E-5,3.5804667E-5, 14:49:02.514
50780.054688, 46409.753906, 130837.007813, 69012.953125, 103579.054688, 87347.976563, 101325.484375, 113848.296875, 0.000, 0.000, 0.000,5.503653E-6,7.2903536E-6,8.961268E-6,2.8191818E-5,3.5804667E-5, 14:49:02.515
50858.867188, 46488.074219, 130816.617188, 68453.039063, 103652.101563, 87125.625000, 101328.476563, 113890.429688, 0.286, 0.234, 0.920,5.503653E-6,7.2903536E-6,8.961268E-6,2.8191818E-5,3.5804667E-5, 14:49:02.516
50818.855469, 46444.734375, 130856.648438, 68436.140625, 103636.812500, 87230.539063, 101342.289063, 113904.750000, 0.000, 0.000, 0.000,5.503653E-6,7.2903536E-6,8.961268E-6,2.8191818E-5,3.5804667E-5, 14:49:02.516
50736.023438, 46358.632813, 130885.750000, 68996.570313, 103562.578125, 87457.140625, 101336.031250, 113862.242188, 0.000, 0.000, 0.000,5.503653E-6,7.2903536E-6,8.961268E-6,2.8191818E-5,3.5804667E-5, 14:49:02.517
50769.660156, 46395.132813, 130849.140625, 69087.429688, 103571.070313, 87389.148438, 101326.179688, 113849.632813, 0.000, 0.000, 0.000,5.503653E-6,7.2903536E-6,8.961268E-6,2.8191818E-5,3.5804667E-5, 14:49:02.517
50853.925781, 46486.640625, 130823.343750, 68545.960938, 103640.250000, 87147.304688, 101325.750000, 113884.234375, 0.000, 0.000, 0.000,5.503653E-6,7.2903536E-6,8.961268E-6,2.8191818E-5,3.5804667E-5, 14:49:02.517
50832.535156, 46464.156250, 130859.109375, 68396.109375, 103637.570313, 87187.085938, 101334.000000, 113902.789063, 0.000, 0.000, 0.000,5.503653E-6,7.2903536E-6,8.961268E-6,2.8191818E-5,3.5804667E-5, 14:49:02.518
50750.593750, 46376.113281, 130884.140625, 68899.250000, 103565.085938, 87425.625000, 101331.632813, 113869.054688, 0.000, 0.000, 0.000,5.503653E-6,7.2903536E-6,8.961268E-6,2.8191818E-5,3.5804667E-5, 14:49:02.519
50755.847656, 46384.316406, 130855.507813, 69132.492188, 103556.390625, 87422.273438, 101326.398438, 113840.648438, 0.000, 0.000, 0.000,5.503653E-6,7.2903536E-6,8.961268E-6,2.8191818E-5,3.5804667E-5, 14:49:02.519
50850.820313, 46486.015625, 130823.367188, 68651.343750, 103628.492188, 87181.210938, 101326.179688, 113869.171875, 0.000, 0.000, 0.000,5.503653E-6,7.2903536E-6,8.961268E-6,2.8191818E-5,3.5804667E-5, 14:49:02.519
50848.628906, 46483.558594, 130846.460938, 68342.578125, 103646.351563, 87149.875000, 101330.828125, 113899.968750, 0.000, 0.000, 0.000,5.503653E-6,7.2903536E-6,8.961268E-6,2.8191818E-5,3.5804667E-5, 14:49:02.520
50756.652344, 46388.382813, 130884.460938, 68797.546875, 103573.375000, 87390.757813, 101332.632813, 113874.359375, 0.292, 0.232, 0.918,5.503653E-6,7.2903536E-6,8.961268E-6,2.8191818E-5,3.5804667E-5, 14:49:02.520
50744.023438, 46373.921875, 130865.796875, 69150.015625, 103550.757813, 87454.367188, 101332.031250, 113845.945313, 0.000, 0.000, 0.000,5.503653E-6,7.2903536E-6,8.961268E-6,2.8191818E-5,3.5804667E-5, 14:49:02.521
50828.355469, 46460.445313, 130825.289063, 68756.492188, 103616.023438, 87226.851563, 101327.515625, 113864.187500, 0.000, 0.000, 0.000,5.503653E-6,7.2903536E-6,8.961268E-6,2.8191818E-5,3.5804667E-5, 14:49:02.522
50853.726563, 46485.390625, 130839.218750, 68345.085938, 103651.492188, 87129.531250, 101333.015625, 113898.179688, 0.000, 0.000, 0.000,5.503653E-6,7.2903536E-6,8.961268E-6,2.8191818E-5,3.5804667E-5, 14:49:02.523
50770.531250, 46399.402344, 130877.234375, 68685.921875, 103593.515625, 87351.171875, 101341.218750, 113885.015625, 0.000, 0.000, 0.000,5.503653E-6,7.2903536E-6,8.961268E-6,2.8191818E-5,3.5804667E-5, 14:49:02.526
50728.308594, 46354.945313, 130868.031250, 69139.148438, 103543.875000, 87471.804688, 101331.429688, 113845.835938, 0.000, 0.000, 0.000,5.503653E-6,7.2903536E-6,8.961268E-6,2.8191818E-5,3.5804667E-5, 14:49:02.528
50807.257813, 46438.562500, 130818.343750, 68850.546875, 103599.015625, 87272.898438, 101323.875000, 113858.593750, 0.000, 0.000, 0.000,5.503653E-6,7.2903536E-6,8.961268E-6,2.8191818E-5,3.5804667E-5, 14:49:02.528
50859.605469, 46490.933594, 130818.765625, 68351.210938, 103650.781250, 87118.312500, 101328.414063, 113895.570313, 0.000, 0.000, 0.000,5.503653E-6,7.2903536E-6,8.961268E-6,2.8191818E-5,3.5804667E-5, 14:49:02.529
50785.062500, 46413.953125, 130860.742188, 68589.703125, 103599.195313, 87303.093750, 101332.164063, 113880.773438, 0.000, 0.000, 0.000,0.0,0.0,0.0,0.0,0.0, 14:49:02.927
50729.761719, 46359.863281, 130865.859375, 69103.585938, 103542.304688, 87470.734375, 101326.195313, 113843.156250, 0.290, 0.230, 0.912,0.0,0.0,0.0,0.0,0.0, 14:49:02.928
50796.617188, 46429.800781, 130825.273438, 68946.414063, 103584.398438, 87310.984375, 101322.554688, 113849.078125, 0.000, 0.000, 0.000,0.0,0.0,0.0,0.0,0.0, 14:49:02.928
50868.031250, 46502.511719, 130819.640625, 68391.101563, 103650.421875, 87113.281250, 101328.835938, 113893.445313, 0.000, 0.000, 0.000,0.0,0.0,0.0,0.0,0.0, 14:49:02.929
50810.855469, 46439.972656, 130859.445313, 68476.843750, 103616.109375, 87256.046875, 101335.023438, 113895.789063, 0.000, 0.000, 0.000,0.0,0.0,0.0,0.0,0.0, 14:49:02.929
50736.738281, 46361.628906, 130869.257813, 69012.148438, 103550.507813, 87459.601563, 101332.859375, 113853.968750, 0.000, 0.000, 0.000,0.0,0.0,0.0,0.0,0.0, 14:49:02.930
50779.160156, 46408.277344, 130831.078125, 68996.679688, 103574.757813, 87352.890625, 101325.906250, 113845.609375, 0.000, 0.000, 0.000,0.0,0.0,0.0,0.0,0.0, 14:49:02.930
50857.726563, 46491.917969, 130810.359375, 68441.015625, 103640.875000, 87120.570313, 101322.867188, 113880.992188, 0.000, 0.000, 0.000,0.0,0.0,0.0,0.0,0.0, 14:49:02.930
50819.148438, 46449.406250, 130850.210938, 68399.664063, 103622.281250, 87207.851563, 101330.531250, 113891.453125, 0.000, 0.000, 0.000,0.0,0.0,0.0,0.0,0.0, 14:49:02.930
50732.691406, 46359.281250, 130872.679688, 68947.843750, 103551.250000, 87437.742188, 101332.945313, 113853.437500, 0.000, 0.000, 0.000,0.0,0.0,0.0,0.0,0.0, 14:49:02.931
50756.363281, 46388.562500, 130839.039063, 69071.179688, 103559.179688, 87388.367188, 101329.304688, 113835.507813, 0.000, 0.000, 0.000,0.0,0.0,0.0,0.0,0.0, 14:49:02.931
50845.859375, 46488.476563, 130804.015625, 68528.343750, 103629.523438, 87142.273438, 101320.718750, 113869.304688, 0.288, 0.230, 0.918,0.0,0.0,0.0,0.0,0.0, 14:49:02.931
50826.746094, 46468.515625, 130833.648438, 68325.570313, 103633.656250, 87166.031250, 101327.179688, 113895.453125, 0.000, 0.000, 0.000,0.0,0.0,0.0,0.0,0.0, 14:49:02.931
50744.828125, 46381.542969, 130865.390625, 68818.875000, 103565.953125, 87410.273438, 101332.812500, 113870.156250, 0.000, 0.000, 0.000,0.0,0.0,0.0,0.0,0.0, 14:49:02.932
50741.296875, 46379.800781, 130841.500000, 69087.609375, 103553.664063, 87425.851563, 101327.070313, 113843.960938, 0.000, 0.000, 0.000,0.0,0.0,0.0,0.0,0.0, 14:49:02.932
50825.808594, 46468.648438, 130806.453125, 68638.875000, 103620.273438, 87185.546875, 101323.625000, 113867.179688, 0.000, 0.000, 0.000,0.0,0.0,0.0,0.0,0.0, 14:49:02.932
50839.914063, 46476.742188, 130831.726563, 68315.398438, 103639.757813, 87138.742188, 101328.453125, 113896.039063, 0.000, 0.000, 0.000,0.0,0.0,0.0,0.0,0.0, 14:49:02.933
50756.718750, 46388.292969, 130867.757813, 68734.632813, 103574.781250, 87370.890625, 101331.828125, 113870.015625, 0.000, 0.000, 0.000,0.0,0.0,0.0,0.0,0.0, 14:49:02.933
50735.015625, 46370.167969, 130853.007813, 69103.187500, 103548.703125, 87445.429688, 101327.117188, 113840.718750, 0.000, 0.000, 0.000,0.0,0.0,0.0,0.0,0.0, 14:49:02.933
50817.406250, 46457.117188, 130813.445313, 68739.679688, 103611.976563, 87224.257813, 101324.453125, 113859.335938, 0.000, 0.000, 0.000,0.0,0.0,0.0,0.0,0.0, 14:49:02.934
50859.851563, 46493.437500, 130821.492188, 68292.132813, 103654.179688, 87113.257813, 101333.421875, 113897.601563, 0.286, 0.228, 0.922,0.0,0.0,0.0,0.0,0.0, 14:49:02.934
50782.066406, 46411.382813, 130862.125000, 68602.351563, 103591.234375, 87327.750000, 101327.585938, 113881.734375, 0.000, 0.000, 0.000,0.0,0.0,0.0,0.0,0.0, 14:49:02.935
50741.339844, 46371.710938, 130867.382813, 69084.906250, 103547.445313, 87465.726563, 101325.726563, 113846.234375, 0.000, 0.000, 0.000,0.0,0.0,0.0,0.0,0.0, 14:49:02.935
50814.566406, 46449.917969, 130829.765625, 68845.046875, 103604.890625, 87276.765625, 101328.992188, 113856.164063, 0.000, 0.000, 0.000,0.0,0.0,0.0,0.0,0.0, 14:49:02.935
50864.097656, 46501.015625, 130826.859375, 68337.015625, 103657.125000, 87103.382813, 101331.828125, 113886.421875, 0.000, 0.000, 0.000,0.0,0.0,0.0,0.0,0.0, 14:49:02.935
50794.582031, 46426.875000, 130866.421875, 68527.804688, 103610.007813, 87275.937500, 101332.343750, 113878.359375, 0.000, 0.000, 0.000,0.0,0.0,0.0,0.0,0.0, 14:49:02.936
50732.914063, 46362.457031, 130876.429688, 69054.078125, 103552.320313, 87460.046875, 101335.273438, 113843.195313, 0.000, 0.000, 0.000,0.0,0.0,0.0,0.0,0.0, 14:49:02.936
50790.046875, 46426.246094, 130832.375000, 68938.500000, 103584.531250, 87316.351563, 101325.015625, 113846.531250, 0.000, 0.000, 0.000,0.0,0.0,0.0,0.0,0.0, 14:49:02.936
50862.980469, 46499.941406, 130819.835938, 68379.054688, 103649.414063, 87108.078125, 101325.171875, 113889.218750, 0.000, 0.000, 0.000,0.0,0.0,0.0,0.0,0.0, 14:49:02.936
50817.023438, 46449.449219, 130857.367188, 68422.242188, 103622.882813, 87238.226563, 101335.656250, 113899.968750, 0.000, 0.000, 0.000,0.0,0.0,0.0,0.0,0.0, 14:49:02.937
50737.585938, 46369.003906, 130876.992188, 68971.046875, 103555.226563, 87453.234375, 101334.398438, 113860.367188, 0.276, 0.230, 0.924,0.0,0.0,0.0,0.0,0.0, 14:49:02.937
50777.214844, 46412.589844, 130842.460938, 69010.539063, 103572.796875, 87357.453125, 101325.906250, 113844.515625, 0.000, 0.000, 0.000,0.0,0.0,0.0,0.0,0.0, 14:49:02.937
50861.750000, 46500.949219, 130821.289063, 68466.632813, 103645.125000, 87120.125000, 101327.429688, 113877.281250, 0.000, 0.000, 0.000,0.0,0.0,0.0,0.0,0.0, 14:49:02.937
50828.937500, 46463.777344, 130854.664063, 68373.984375, 103633.500000, 87190.867188, 101333.843750, 113894.250000, 0.000, 0.000, 0.000,0.0,0.0,0.0,0.0,0.0, 14:49:02.938
50748.492188, 46380.160156, 130881.125000, 68891.851563, 103565.890625, 87429.671875, 101338.875000, 113866.734375, 0.000, 0.000, 0.000,0.0,0.0,0.0,0.0,0.0, 14:49:02.938
50767.425781, 46400.253906, 130854.195313, 69056.093750, 103565.398438, 87399.679688, 101330.421875, 113847.179688, 0.000, 0.000, 0.000,0.0,0.0,0.0,0.0,0.0, 14:49:02.938
50856.230469, 46490.261719, 130826.812500, 68553.867188, 103640.812500, 87156.179688, 101333.437500, 113875.429688, 0.000, 0.000, 0.000,0.0,0.0,0.0,0.0,0.0, 14:49:02.939
50848.808594, 46479.890625, 130856.179688, 68326.687500, 103647.648438, 87160.648438, 101338.242188, 113897.351563, 0.000, 0.000, 0.000,0.0,0.0,0.0,0.0,0.0, 14:49:02.939
50753.410156, 46383.757813, 130882.359375, 68806.046875, 103565.507813, 87396.343750, 101329.710938, 113862.062500, 0.000, 0.000, 0.000,0.0,0.0,0.0,0.0,0.0, 14:49:02.940
50748.113281, 46382.503906, 130857.679688, 69100.195313, 103547.179688, 87425.804688, 101321.796875, 113832.851563, 0.276, 0.230, 0.924,0.0,0.0,0.0,0.0,0.0, 14:49:02.940
50836.023438, 46475.867188, 130817.132813, 68664.687500, 103618.367188, 87186.351563, 101318.445313, 113857.460938, 0.000, 0.000, 0.000,0.0,0.0,0.0,0.0,0.0, 14:49:02.940
50852.160156, 46493.011719, 130837.023438, 68306.726563, 103649.437500, 87123.921875, 101331.875000, 113894.625000, 0.000, 0.000, 0.000,0.0,0.0,0.0,0.0,0.0, 14:49:02.941
50767.558594, 46405.125000, 130871.875000, 68699.406250, 103581.781250, 87354.437500, 101336.953125, 113873.976563, 0.000, 0.000, 0.000,0.0,0.0,0.0,0.0,0.0, 14:49:02.942
50741.675781, 46376.828125, 130861.945313, 69107.945313, 103540.968750, 87447.039063, 101327.179688, 113838.343750, 0.000, 0.000, 0.000,0.0,0.0,0.0,0.0,0.0, 14:49:02.942
50826.726563, 46464.378906, 130818.031250, 68770.078125, 103601.625000, 87231.750000, 101324.250000, 113853.101563, 0.000, 0.000, 0.000,0.0,0.0,0.0,0.0,0.0, 14:49:02.942
50862.308594, 46501.394531, 130830.585938, 68307.843750, 103646.289063, 87107.562500, 101325.414063, 113890.000000, 0.000, 0.000, 0.000,0.0,0.0,0.0,0.0,0.0, 14:49:02.943
50777.617188, 46408.613281, 130873.750000, 68611.335938, 103586.632813, 87315.523438, 101328.031250, 113874.023438, 0.000, 0.000, 0.000,0.0,0.0,0.0,0.0,0.0, 14:49:02.943
50742.906250, 46370.996094, 130866.531250, 69088.101563, 103545.796875, 87462.281250, 101332.164063, 113844.781250, 0.000, 0.000, 0.000,0.0,0.0,0.0,0.0,0.0, 14:49:02.943
50819.015625, 46450.855469, 130829.585938, 68865.656250, 103600.062500, 87287.179688, 101333.281250, 113857.390625, 0.000, 0.000, 0.000,0.0,0.0,0.0,0.0,0.0, 14:49:02.944
50880.347656, 46511.945313, 130836.062500, 68348.906250, 103655.093750, 87109.257813, 101332.617188, 113892.234375, 0.284, 0.230, 0.916,0.0,0.0,0.0,0.0,0.0, 14:49:02.944
50819.347656, 46446.343750, 130879.765625, 68507.492188, 103610.210938, 87271.648438, 101337.125000, 113887.789063, 0.000, 0.000, 0.000,0.0,0.0,0.0,0.0,0.0, 14:49:02.944
50755.042969, 46381.253906, 130898.000000, 69055.085938, 103551.804688, 87464.812500, 101339.609375, 113853.234375, 0.000, 0.000, 0.000,0.0,0.0,0.0,0.0,0.0, 14:49:02.945
50814.453125, 46441.402344, 130858.101563, 68981.328125, 103585.265625, 87333.539063, 101332.750000, 113850.710938, 0.000, 0.000, 0.000,0.0,0.0,0.0,0.0,0.0, 14:49:02.945
50894.718750, 46521.175781, 130844.468750, 68434.359375, 103652.835938, 87119.453125, 101335.046875, 113890.695313, 0.000, 0.000, 0.000,0.0,0.0,0.0,0.0,0.0, 14:49:02.946
50844.339844, 46469.027344, 130875.828125, 68446.562500, 103630.507813, 87232.906250, 101342.984375, 113900.593750, 0.000, 0.000, 0.000,0.0,0.0,0.0,0.0,0.0, 14:49:02.947
50762.910156, 46385.589844, 130892.796875, 68981.187500, 103563.656250, 87452.359375, 101343.562500, 113862.843750, 0.000, 0.000, 0.000,0.0,0.0,0.0,0.0,0.0, 14:49:02.947
50792.347656, 46416.210938, 130855.687500, 69050.125000, 103572.171875, 87373.320313, 101332.992188, 113845.835938, 0.000, 0.000, 0.000,0.0,0.0,0.0,0.0,0.0, 14:49:02.948
50879.789063, 46506.535156, 130824.734375, 68505.726563, 103642.625000, 87132.304688, 101329.281250, 113879.539063, 0.000, 0.000, 0.000,0.0,0.0,0.0,0.0,0.0, 14:49:02.948
50852.160156, 46476.941406, 130859.937500, 68386.140625, 103636.296875, 87190.304688, 101337.734375, 113896.617188, 0.000, 0.000, 0.000,0.0,0.0,0.0,0.0,0.0, 14:49:02.948
50763.937500, 46388.941406, 130884.437500, 68909.820313, 103565.304688, 87430.812500, 101340.015625, 113866.062500, 0.288, 0.232, 0.920,0.0,0.0,0.0,0.0,0.0, 14:49:02.949
50780.187500, 46402.621094, 130848.515625, 69104.281250, 103561.687500, 87412.906250, 101331.984375, 113845.390625, 0.000, 0.000, 0.000,0.0,0.0,0.0,0.0,0.0, 14:49:02.949
50867.671875, 46491.871094, 130812.929688, 68606.484375, 103630.437500, 87169.695313, 101327.406250, 113873.460938, 0.000, 0.000, 0.000,0.0,0.0,0.0,0.0,0.0, 14:49:02.950
50867.250000, 46491.066406, 130841.656250, 68346.914063, 103639.335938, 87156.984375, 101329.171875, 113896.125000, 0.000, 0.000, 0.000,0.0,0.0,0.0,0.0,0.0, 14:49:02.950
50781.863281, 46396.496094, 130878.039063, 68806.914063, 103572.031250, 87393.015625, 101332.992188, 113869.054688, 0.000, 0.000, 0.000,0.0,0.0,0.0,0.0,0.0, 14:49:02.950
50768.699219, 46381.699219, 130860.140625, 69152.140625, 103548.835938, 87438.453125, 101330.757813, 113835.843750, 0.000, 0.000, 0.000,0.0,0.0,0.0,0.0,0.0, 14:49:02.951
50860.027344, 46478.484375, 130823.796875, 68741.421875, 103615.929688, 87206.601563, 101326.804688, 113861.210938, 0.000, 0.000, 0.000,0.0,0.0,0.0,0.0,0.0, 14:49:02.951
50883.140625, 46502.378906, 130845.210938, 68358.179688, 103649.218750, 87130.984375, 101331.945313, 113900.101563, 0.000, 0.000, 0.000,0.0,0.0,0.0,0.0,0.0, 14:49:02.951
50798.695313, 46415.855469, 130880.750000, 68722.984375, 103593.468750, 87360.203125, 101343.093750, 113885.015625, 0.000, 0.000, 0.000,0.0,0.0,0.0,0.0,0.0, 14:49:02.952
50769.617188, 46384.160156, 130870.531250, 69148.250000, 103556.656250, 87470.460938, 101341.710938, 113851.843750, 0.280, 0.232, 0.918,0.0,0.0,0.0,0.0,0.0, 14:49:02.952
50852.765625, 46468.136719, 130826.585938, 68828.460938, 103614.570313, 87264.585938, 101339.007813, 113871.335938, 0.000, 0.000, 0.000,0.0,0.0,0.0,0.0,0.0, 14:49:02.953
50895.324219, 46509.597656, 130838.882813, 68353.351563, 103657.843750, 87125.796875, 101338.023438, 113906.992188, 0.000, 0.000, 0.000,0.0,0.0,0.0,0.0,0.0, 14:49:02.953
50822.187500, 46432.730469, 130879.718750, 68615.429688, 103601.648438, 87318.468750, 101339.656250, 113892.281250, 0.000, 0.000, 0.000,0.0,0.0,0.0,0.0,0.0, 14:49:02.953
50772.140625, 46383.085938, 130879.179688, 69105.843750, 103552.546875, 87474.328125, 101339.718750, 113855.132813, 0.000, 0.000, 0.000,0.0,0.0,0.0,0.0,0.0, 14:49:02.954
50835.175781, 46450.925781, 130838.679688, 68922.648438, 103597.718750, 87306.085938, 101333.617188, 113859.914063, 0.000, 0.000, 0.000,0.0,0.0,0.0,0.0,0.0, 14:49:02.954
50891.074219, 46511.722656, 130829.492188, 68386.257813, 103657.148438, 87113.328125, 101334.242188, 113895.296875, 0.000, 0.000, 0.000,0.0,0.0,0.0,0.0,0.0, 14:49:02.954
50827.730469, 46444.710938, 130865.593750, 68505.929688, 103621.250000, 87267.039063, 101342.046875, 113892.882813, 0.000, 0.000, 0.000,0.0,0.0,0.0,0.0,0.0, 14:49:02.955
50754.527344, 46370.347656, 130875.046875, 69054.281250, 103553.640625, 87468.851563, 101337.085938, 113853.125000, 0.000, 0.000, 0.000,0.0,0.0,0.0,0.0,0.0, 14:49:02.955
50802.292969, 46423.386719, 130827.796875, 69005.398438, 103576.773438, 87347.640625, 101324.500000, 113846.195313, 0.000, 0.000, 0.000,0.0,0.0,0.0,0.0,0.0, 14:49:02.956
50890.046875, 46509.195313, 130806.179688, 68435.609375, 103646.398438, 87119.679688, 101327.804688, 113884.078125, 0.284, 0.232, 0.922,0.0,0.0,0.0,0.0,0.0, 14:49:02.956
50850.933594, 46465.320313, 130850.773438, 68411.578125, 103629.414063, 87217.710938, 101338.718750, 113893.351563, 0.000, 0.000, 0.000,0.0,0.0,0.0,0.0,0.0, 14:49:02.956
50771.941406, 46384.027344, 130875.898438, 68955.148438, 103555.132813, 87443.437500, 101331.335938, 113853.523438, 0.000, 0.000, 0.000,0.0,0.0,0.0,0.0,0.0, 14:49:02.957
50803.210938, 46418.691406, 130847.820313, 69058.773438, 103567.273438, 87384.273438, 101327.648438, 113840.742188, 0.000, 0.000, 0.000,0.0,0.0,0.0,0.0,0.0, 14:49:02.957
50891.566406, 46513.554688, 130823.054688, 68522.265625, 103641.617188, 87144.062500, 101329.593750, 113879.164063, 0.000, 0.000, 0.000,0.0,0.0,0.0,0.0,0.0, 14:49:02.957
50870.468750, 46489.101563, 130862.734375, 68366.515625, 103639.578125, 87183.312500, 101339.429688, 113902.765625, 0.000, 0.000, 0.000,0.0,0.0,0.0,0.0,0.0, 14:49:02.958
50786.156250, 46395.937500, 130893.398438, 68879.515625, 103572.750000, 87425.625000, 101343.859375, 113874.335938, 0.000, 0.000, 0.000,0.0,0.0,0.0,0.0,0.0, 14:49:02.958
50791.566406, 46404.253906, 130862.953125, 69096.929688, 103569.601563, 87425.601563, 101341.085938, 113852.984375, 0.000, 0.000, 0.000,0.0,0.0,0.0,0.0,0.0, 14:49:02.958
50873.285156, 46487.984375, 130829.250000, 68628.750000, 103635.265625, 87184.898438, 101337.351563, 113876.789063, 0.000, 0.000, 0.000,0.0,0.0,0.0,0.0,0.0, 14:49:02.959
50877.910156, 46492.230469, 130848.203125, 68327.156250, 103650.218750, 87151.820313, 101340.367188, 113905.085938, 0.278, 0.234, 0.914,0.0,0.0,0.0,0.0,0.0, 14:49:02.960
50798.785156, 46409.550781, 130883.023438, 68751.367188, 103585.531250, 87386.867188, 101343.007813, 113883.046875, 0.000, 0.000, 0.000,0.0,0.0,0.0,0.0,0.0, 14:49:02.960
50782.402344, 46392.875000, 130867.046875, 69102.781250, 103555.585938, 87448.539063, 101335.539063, 113848.179688, 0.000, 0.000, 0.000,0.0,0.0,0.0,0.0,0.0, 14:49:02.961
50867.406250, 46481.902344, 130827.546875, 68722.875000, 103612.828125, 87220.796875, 101329.375000, 113864.187500, 0.000, 0.000, 0.000,0.0,0.0,0.0,0.0,0.0, 14:49:02.961
50899.191406, 46511.609375, 130841.382813, 68320.609375, 103645.460938, 87121.375000, 101331.648438, 113894.359375, 0.000, 0.000, 0.000,0.0,0.0,0.0,0.0,0.0, 14:49:02.962
50818.613281, 46426.941406, 130879.273438, 68652.171875, 103589.312500, 87337.742188, 101335.609375, 113877.593750, 0.000, 0.000, 0.000,0.0,0.0,0.0,0.0,0.0, 14:49:02.962
50778.871094, 46388.027344, 130870.445313, 69095.453125, 103545.835938, 87457.210938, 101329.820313, 113841.859375, 0.000, 0.000, 0.000,0.0,0.0,0.0,0.0,0.0, 14:49:02.965
50851.714844, 46468.089844, 130824.625000, 68814.132813, 103598.968750, 87259.484375, 101324.765625, 113855.398438, 0.000, 0.000, 0.000,0.0,0.0,0.0,0.0,0.0, 14:49:02.971
50896.171875, 46512.035156, 130827.507813, 68324.742188, 103648.609375, 87105.703125, 101327.250000, 113891.406250, 0.000, 0.000, 0.000,0.0,0.0,0.0,0.0,0.0, 14:49:02.972
50820.734375, 46429.644531, 130866.710938, 68553.421875, 103599.328125, 87294.421875, 101335.070313, 113884.257813, 0.000, 0.000, 0.000,0.0,0.0,0.0,0.0,0.0, 14:49:02.973
50764.542969, 46370.660156, 130871.648438, 69075.179688, 103543.828125, 87469.164063, 101333.062500, 113846.750000, 0.282, 0.234, 0.920,0.0,0.0,0.0,0.0,0.0, 14:49:02.973
50830.480469, 46440.820313, 130831.593750, 68929.359375, 103583.523438, 87313.351563, 101325.796875, 113849.992188, 0.000, 0.000, 0.000,0.0,0.0,0.0,0.0,0.0, 14:49:02.973
50901.648438, 46513.800781, 130825.914063, 68383.351563, 103647.984375, 87113.867188, 101327.625000, 113889.328125, 0.000, 0.000, 0.000,0.0,0.0,0.0,0.0,0.0, 14:49:02.974
50844.671875, 46455.730469, 130870.734375, 68467.234375, 103619.640625, 87256.109375, 101340.101563, 113896.820313, 0.000, 0.000, 0.000,0.0,0.0,0.0,0.0,0.0, 14:49:02.974
50773.125000, 46381.902344, 130892.773438, 69025.492188, 103553.039063, 87465.570313, 101336.390625, 113857.125000, 0.000, 0.000, 0.000,0.0,0.0,0.0,0.0,0.0, 14:49:02.974
50816.109375, 46430.382813, 130851.062500, 69018.921875, 103578.203125, 87356.421875, 101332.234375, 113847.335938, 0.000, 0.000, 0.000,0.0,0.0,0.0,0.0,0.0, 14:49:02.974
50899.679688, 46515.902344, 130834.679688, 68466.562500, 103652.437500, 87127.117188, 101337.460938, 113886.382813, 0.000, 0.000, 0.000,0.0,0.0,0.0,0.0,0.0, 14:49:02.975
50862.332031, 46471.511719, 130873.234375, 68425.257813, 103628.742188, 87213.843750, 101339.765625, 113897.804688, 0.000, 0.000, 0.000,0.0,0.0,0.0,0.0,0.0, 14:49:02.975
50777.238281, 46382.839844, 130891.406250, 68973.101563, 103553.546875, 87446.460938, 101335.093750, 113859.085938, 0.000, 0.000, 0.000,0.0,0.0,0.0,0.0,0.0, 14:49:02.976
50803.187500, 46416.816406, 130850.523438, 69089.109375, 103564.882813, 87397.640625, 101331.203125, 113848.250000, 0.286, 0.234, 0.918,0.0,0.0,0.0,0.0,0.0, 14:49:02.976
50886.246094, 46503.070313, 130822.382813, 68559.031250, 103638.039063, 87157.296875, 101331.828125, 113881.664063, 0.000, 0.000, 0.000,0.0,0.0,0.0,0.0,0.0, 14:49:02.979
50867.515625, 46486.843750, 130855.914063, 68363.750000, 103638.796875, 87181.835938, 101337.125000, 113903.164063, 0.000, 0.000, 0.000,0.0,0.0,0.0,0.0,0.0, 14:49:02.980
50782.804688, 46390.933594, 130888.281250, 68869.007813, 103559.226563, 87422.851563, 101332.281250, 113866.960938, 0.000, 0.000, 0.000,0.0,0.0,0.0,0.0,0.0, 14:49:02.980
50794.472656, 46396.812500, 130856.539063, 69132.867188, 103548.453125, 87433.765625, 101324.945313, 113841.031250, 0.000, 0.000, 0.000,0.0,0.0,0.0,0.0,0.0, 14:49:02.981
50883.656250, 46491.714844, 130817.781250, 68670.164063, 103618.726563, 87191.671875, 101321.507813, 113865.171875, 0.000, 0.000, 0.000,0.0,0.0,0.0,0.0,0.0, 14:49:02.981
50890.425781, 46499.003906, 130841.093750, 68345.218750, 103641.546875, 87142.453125, 101329.460938, 113893.242188, 0.000, 0.000, 0.000,0.0,0.0,0.0,0.0,0.0, 14:49:02.981
50803.656250, 46410.175781, 130875.625000, 68751.078125, 103575.835938, 87373.234375, 101337.304688, 113869.750000, 0.000, 0.000, 0.000,0.0,0.0,0.0,0.0,0.0, 14:49:02.981
50781.796875, 46388.382813, 130858.570313, 69119.015625, 103541.414063, 87450.507813, 101325.414063, 113836.359375, 0.000, 0.000, 0.000,0.0,0.0,0.0,0.0,0.0, 14:49:02.982
50864.925781, 46473.656250, 130822.343750, 68761.968750, 103601.226563, 87230.250000, 101319.132813, 113852.921875, 0.000, 0.000, 0.000,0.0,0.0,0.0,0.0,0.0, 14:49:02.982
50898.742188, 46508.859375, 130835.843750, 68326.421875, 103641.726563, 87115.945313, 101326.687500, 113888.773438, 0.284, 0.236, 0.918,0.0,0.0,0.0,0.0,0.0, 14:49:02.982
50822.523438, 46428.281250, 130877.750000, 68638.046875, 103586.515625, 87328.125000, 101334.179688, 113877.687500, 0.000, 0.000, 0.000,0.0,0.0,0.0,0.0,0.0, 14:49:02.982
50778.332031, 46384.027344, 130879.695313, 69115.968750, 103542.015625, 87465.593750, 101332.656250, 113841.921875, 0.000, 0.000, 0.000,0.0,0.0,0.0,0.0,0.0, 14:49:02.982
50849.500000, 46462.101563, 130837.023438, 68875.085938, 103590.632813, 87278.687500, 101328.320313, 113849.750000, 0.000, 0.000, 0.000,0.0,0.0,0.0,0.0,0.0, 14:49:02.983
50907.281250, 46520.257813, 130836.781250, 68354.429688, 103650.195313, 87112.703125, 101332.101563, 113889.953125, 0.000, 0.000, 0.000,0.0,0.0,0.0,0.0,0.0, 14:49:03.406
50834.660156, 46443.972656, 130883.875000, 68550.875000, 103606.500000, 87294.531250, 101342.265625, 113887.007813, 0.000, 0.000, 0.000,0.0,0.0,0.0,0.0,0.0, 14:49:03.406
50771.628906, 46377.609375, 130889.617188, 69075.898438, 103545.617188, 87478.820313, 101335.539063, 113852.828125, 0.000, 0.000, 0.000,0.0,0.0,0.0,0.0,0.0, 14:49:03.406
50825.273438, 46434.652344, 130847.890625, 68970.906250, 103577.265625, 87337.898438, 101325.906250, 113851.468750, 0.000, 0.000, 0.000,0.0,0.0,0.0,0.0,0.0, 14:49:03.407
50898.628906, 46513.375000, 130829.960938, 68406.218750, 103641.171875, 87125.914063, 101324.476563, 113891.789063, 0.000, 0.000, 0.000,0.0,0.0,0.0,0.0,0.0, 14:49:03.407
50847.289063, 46461.093750, 130865.437500, 68442.242188, 103614.054688, 87250.726563, 101332.453125, 113899.437500, 0.000, 0.000, 0.000,0.0,0.0,0.0,0.0,0.0, 14:49:03.408
50771.136719, 46381.992188, 130880.343750, 68977.656250, 103548.093750, 87465.187500, 101332.929688, 113862.820313, 0.284, 0.230, 0.918,0.0,0.0,0.0,0.0,0.0, 14:49:03.408
50807.078125, 46420.750000, 130844.359375, 69016.687500, 103565.171875, 87373.101563, 101326.492188, 113848.046875, 0.000, 0.000, 0.000,0.0,0.0,0.0,0.0,0.0, 14:49:03.409
50887.566406, 46503.832031, 130822.812500, 68478.726563, 103632.984375, 87133.984375, 101324.031250, 113877.304688, 0.000, 0.000, 0.000,0.0,0.0,0.0,0.0,0.0, 14:49:03.409
50862.308594, 46476.808594, 130856.070313, 68376.820313, 103628.000000, 87201.375000, 101336.343750, 113898.023438, 0.000, 0.000, 0.000,0.0,0.0,0.0,0.0,0.0, 14:49:03.410
50777.820313, 46388.183594, 130882.468750, 68898.914063, 103559.140625, 87435.531250, 101338.023438, 113862.484375, 0.000, 0.000, 0.000,0.0,0.0,0.0,0.0,0.0, 14:49:03.410
50795.187500, 46405.281250, 130854.726563, 69073.101563, 103561.171875, 87408.546875, 101329.929688, 113839.734375, 0.000, 0.000, 0.000,0.0,0.0,0.0,0.0,0.0, 14:49:03.410
50884.214844, 46497.011719, 130821.875000, 68566.007813, 103628.140625, 87163.437500, 101322.890625, 113869.507813, 0.000, 0.000, 0.000,0.0,0.0,0.0,0.0,0.0, 14:49:03.410
50881.867188, 46490.218750, 130848.492188, 68325.882813, 103642.148438, 87165.679688, 101336.906250, 113901.554688, 0.000, 0.000, 0.000,0.0,0.0,0.0,0.0,0.0, 14:49:03.411
50786.269531, 46392.027344, 130882.242188, 68810.109375, 103571.812500, 87409.804688, 101340.953125, 113873.414063, 0.000, 0.000, 0.000,0.0,0.0,0.0,0.0,0.0, 14:49:03.411
50777.441406, 46386.574219, 130859.554688, 69120.554688, 103552.703125, 87442.460938, 101334.289063, 113843.890625, 0.290, 0.238, 0.920,0.0,0.0,0.0,0.0,0.0, 14:49:03.412
50872.656250, 46482.148438, 130820.773438, 68674.929688, 103626.414063, 87206.671875, 101335.250000, 113872.390625, 0.000, 0.000, 0.000,0.0,0.0,0.0,0.0,0.0, 14:49:03.412
50887.566406, 46496.968750, 130839.890625, 68299.578125, 103654.890625, 87140.039063, 101341.242188, 113903.304688, 0.000, 0.000, 0.000,0.0,0.0,0.0,0.0,0.0, 14:49:03.412
50801.558594, 46404.433594, 130882.468750, 68691.578125, 103585.468750, 87369.789063, 101340.726563, 113880.054688, 0.000, 0.000, 0.000,0.0,0.0,0.0,0.0,0.0, 14:49:03.412
50774.847656, 46378.527344, 130875.429688, 69111.632813, 103546.640625, 87464.851563, 101330.781250, 113842.390625, 0.000, 0.000, 0.000,0.0,0.0,0.0,0.0,0.0, 14:49:03.413
50864.453125, 46470.972656, 130833.070313, 68772.156250, 103611.328125, 87252.531250, 101329.750000, 113862.757813, 0.000, 0.000, 0.000,0.0,0.0,0.0,0.0,0.0, 14:49:03.413
50899.367188, 46502.714844, 130835.507813, 68304.226563, 103651.468750, 87121.218750, 101332.500000, 113898.585938, 0.000, 0.000, 0.000,0.0,0.0,0.0,0.0,0.0, 14:49:03.413
50816.777344, 46421.062500, 130869.992188, 68577.070313, 103593.695313, 87323.523438, 101334.515625, 113884.414063, 0.000, 0.000, 0.000,0.0,0.0,0.0,0.0,0.0, 14:49:03.413
50763.246094, 46370.570313, 130872.093750, 69074.914063, 103539.601563, 87475.539063, 101329.328125, 113844.828125, 0.000, 0.000, 0.000,0.0,0.0,0.0,0.0,0.0, 14:49:03.414
50835.687500, 46442.250000, 130828.398438, 68872.539063, 103585.468750, 87297.148438, 101324.859375, 113850.593750, 0.000, 0.000, 0.000,0.0,0.0,0.0,0.0,0.0, 14:49:03.414
50900.062500, 46507.699219, 130819.882813, 68335.359375, 103645.367188, 87110.687500, 101326.710938, 113889.421875, 0.292, 0.238, 0.914,0.0,0.0,0.0,0.0,0.0, 14:49:03.415
50832.984375, 46437.222656, 130864.117188, 68490.882813, 103606.187500, 87272.539063, 101335.187500, 113882.000000, 0.000, 0.000, 0.000,0.0,0.0,0.0,0.0,0.0, 14:49:03.415
50768.296875, 46370.792969, 130871.359375, 69014.984375, 103547.625000, 87459.375000, 101336.906250, 113845.007813, 0.000, 0.000, 0.000,0.0,0.0,0.0,0.0,0.0, 14:49:03.415
50822.925781, 46427.386719, 130836.085938, 68936.937500, 103580.593750, 87331.031250, 101330.085938, 113841.945313, 0.000, 0.000, 0.000,0.0,0.0,0.0,0.0,0.0, 14:49:03.415
50899.882813, 46502.914063, 130827.367188, 68398.031250, 103643.109375, 87114.289063, 101328.164063, 113875.632813, 0.000, 0.000, 0.000,0.0,0.0,0.0,0.0,0.0, 14:49:03.416
50859.625000, 46459.375000, 130857.031250, 68395.773438, 103623.171875, 87226.921875, 101338.828125, 113892.101563, 0.000, 0.000, 0.000,0.0,0.0,0.0,0.0,0.0, 14:49:03.416
50773.929688, 46370.949219, 130874.687500, 68941.851563, 103547.070313, 87452.898438, 101331.273438, 113852.335938, 0.000, 0.000, 0.000,0.0,0.0,0.0,0.0,0.0, 14:49:03.417
50805.335938, 46407.851563, 130836.062500, 69005.640625, 103560.906250, 87380.476563, 101327.226563, 113842.054688, 0.000, 0.000, 0.000,0.0,0.0,0.0,0.0,0.0, 14:49:03.418
50889.355469, 46495.046875, 130814.898438, 68466.718750, 103636.296875, 87144.578125, 101332.773438, 113880.773438, 0.000, 0.000, 0.000,0.0,0.0,0.0,0.0,0.0, 14:49:03.418
50868.300781, 46470.683594, 130850.750000, 68322.484375, 103637.343750, 87195.671875, 101344.750000, 113905.359375, 0.284, 0.238, 0.916,0.0,0.0,0.0,0.0,0.0, 14:49:03.418
50775.316406, 46373.519531, 130881.062500, 68845.382813, 103561.531250, 87435.039063, 101341.640625, 113869.328125, 0.000, 0.000, 0.000,0.0,0.0,0.0,0.0,0.0, 14:49:03.419
50785.976563, 46384.808594, 130849.859375, 69054.484375, 103555.671875, 87418.898438, 101332.882813, 113843.914063, 0.000, 0.000, 0.000,0.0,0.0,0.0,0.0,0.0, 14:49:03.419
50876.191406, 46479.042969, 130816.640625, 68563.304688, 103629.390625, 87173.078125, 101332.703125, 113874.554688, 0.000, 0.000, 0.000,0.0,0.0,0.0,0.0,0.0, 14:49:03.419
50886.964844, 46485.167969, 130850.750000, 68291.570313, 103652.546875, 87161.718750, 101349.648438, 113909.492188, 0.000, 0.000, 0.000,0.0,0.0,0.0,0.0,0.0, 14:49:03.420
50797.800781, 46394.062500, 130890.671875, 68756.289063, 103584.304688, 87404.328125, 101352.796875, 113881.109375, 0.000, 0.000, 0.000,0.0,0.0,0.0,0.0,0.0, 14:49:03.420
50777.214844, 46376.804688, 130865.304688, 69092.703125, 103556.703125, 87451.734375, 101341.328125, 113846.687500, 0.000, 0.000, 0.000,0.0,0.0,0.0,0.0,0.0, 14:49:03.420
50865.125000, 46471.554688, 130827.640625, 68689.234375, 103623.976563, 87224.867188, 101339.835938, 113871.984375, 0.000, 0.000, 0.000,0.0,0.0,0.0,0.0,0.0, 14:49:03.420
50891.835938, 46499.652344, 130849.429688, 68304.406250, 103658.085938, 87145.046875, 101349.179688, 113908.148438, 0.000, 0.000, 0.000,0.0,0.0,0.0,0.0,0.0, 14:49:03.421
50809.515625, 46410.535156, 130890.671875, 68675.085938, 103594.476563, 87366.570313, 101350.648438, 113887.406250, 0.000, 0.000, 0.000,0.0,0.0,0.0,0.0,0.0, 14:49:03.421
50774.800781, 46375.398438, 130879.296875, 69114.742188, 103550.867188, 87469.835938, 101336.523438, 113847.132813, 0.286, 0.234, 0.916,0.0,0.0,0.0,0.0,0.0, 14:49:03.422
50858.820313, 46463.777344, 130831.281250, 68804.007813, 103609.875000, 87260.226563, 101332.703125, 113861.617188, 0.000, 0.000, 0.000,0.0,0.0,0.0,0.0,0.0, 14:49:03.422
50907.058594, 46513.375000, 130836.085938, 68314.867188, 103659.382813, 87114.000000, 101339.210938, 113900.507813, 0.000, 0.000, 0.000,0.0,0.0,0.0,0.0,0.0, 14:49:03.422
50832.246094, 46437.042969, 130880.437500, 68565.000000, 103607.171875, 87311.812500, 101345.328125, 113891.054688, 0.000, 0.000, 0.000,0.0,0.0,0.0,0.0,0.0, 14:49:03.422
50772.812500, 46378.972656, 130884.257813, 69076.093750, 103547.984375, 87472.898438, 101337.015625, 113847.468750, 0.000, 0.000, 0.000,0.0,0.0,0.0,0.0,0.0, 14:49:03.423
50836.917969, 46445.941406, 130841.632813, 68920.726563, 103583.101563, 87306.984375, 101324.523438, 113846.015625, 0.000, 0.000, 0.000,0.0,0.0,0.0,0.0,0.0, 14:49:03.423
50900.484375, 46512.726563, 130830.656250, 68385.742188, 103644.476563, 87113.820313, 101329.304688, 113885.710938, 0.000, 0.000, 0.000,0.0,0.0,0.0,0.0,0.0, 14:49:03.424
50836.492188, 46444.375000, 130866.398438, 68506.507813, 103607.929688, 87264.781250, 101336.523438, 113886.625000, 0.000, 0.000, 0.000,0.0,0.0,0.0,0.0,0.0, 14:49:03.424
50773.394531, 46377.722656, 130876.523438, 69041.070313, 103550.312500, 87470.304688, 101341.507813, 113855.289063, 0.000, 0.000, 0.000,0.0,0.0,0.0,0.0,0.0, 14:49:03.425
50820.085938, 46427.992188, 130836.671875, 68996.164063, 103579.703125, 87357.812500, 101334.179688, 113853.453125, 0.288, 0.232, 0.920,0.0,0.0,0.0,0.0,0.0, 14:49:03.425
50902.339844, 46510.445313, 130825.250000, 68443.742188, 103651.296875, 87134.960938, 101339.031250, 113893.289063, 0.000, 0.000, 0.000,0.0,0.0,0.0,0.0,0.0, 14:49:03.426
50862.777344, 46467.242188, 130865.812500, 68414.101563, 103636.968750, 87233.203125, 101350.468750, 113907.101563, 0.000, 0.000, 0.000,0.0,0.0,0.0,0.0,0.0, 14:49:03.426
50777.238281, 46378.863281, 130886.359375, 68955.507813, 103566.226563, 87460.585938, 101347.320313, 113868.250000, 0.000, 0.000, 0.000,0.0,0.0,0.0,0.0,0.0, 14:49:03.426
50806.316406, 46413.148438, 130846.171875, 69047.085938, 103576.171875, 87396.703125, 101339.945313, 113852.023438, 0.000, 0.000, 0.000,0.0,0.0,0.0,0.0,0.0, 14:49:03.427
50890.339844, 46500.144531, 130823.460938, 68521.976563, 103643.601563, 87155.437500, 101332.593750, 113880.476563, 0.000, 0.000, 0.000,0.0,0.0,0.0,0.0,0.0, 14:49:03.427
50873.953125, 46480.003906, 130858.710938, 68362.945313, 103643.335938, 87190.734375, 101341.617188, 113900.195313, 0.000, 0.000, 0.000,0.0,0.0,0.0,0.0,0.0, 14:49:03.427
50785.867188, 46384.875000, 130887.070313, 68868.562500, 103571.164063, 87426.859375, 101342.562500, 113865.617188, 0.000, 0.000, 0.000,0.0,0.0,0.0,0.0,0.0, 14:49:03.428
50788.792969, 46392.070313, 130859.156250, 69104.867188, 103564.968750, 87424.289063, 101341.242188, 113841.210938, 0.000, 0.000, 0.000,0.0,0.0,0.0,0.0,0.0, 14:49:03.428
50883.320313, 46491.785156, 130822.679688, 68618.867188, 103637.054688, 87178.015625, 101336.796875, 113868.140625, 0.000, 0.000, 0.000,0.0,0.0,0.0,0.0,0.0, 14:49:03.428
50887.320313, 46492.164063, 130852.382813, 68322.265625, 103653.593750, 87146.812500, 101341.171875, 113894.492188, 0.288, 0.232, 0.922,0.0,0.0,0.0,0.0,0.0, 14:49:03.429
50797.109375, 46396.765625, 130885.976563, 68760.515625, 103585.960938, 87382.734375, 101345.757813, 113869.460938, 0.000, 0.000, 0.000,0.0,0.0,0.0,0.0,0.0, 14:49:03.429
50783.808594, 46385.949219, 130865.750000, 69106.695313, 103558.843750, 87448.898438, 101337.578125, 113840.671875, 0.000, 0.000, 0.000,0.0,0.0,0.0,0.0,0.0, 14:49:03.429
50869.773438, 46478.460938, 130825.273438, 68713.531250, 103621.992188, 87224.015625, 101331.453125, 113860.656250, 0.000, 0.000, 0.000,0.0,0.0,0.0,0.0,0.0, 14:49:03.430
50898.339844, 46507.070313, 130844.359375, 68306.976563, 103657.281250, 87130.539063, 101338.492188, 113896.820313, 0.000, 0.000, 0.000,0.0,0.0,0.0,0.0,0.0, 14:49:03.430
50813.738281, 46420.570313, 130888.257813, 68656.507813, 103595.617188, 87352.156250, 101345.734375, 113881.617188, 0.000, 0.000, 0.000,0.0,0.0,0.0,0.0,0.0, 14:49:03.430
50770.128906, 46376.113281, 130878.179688, 69108.953125, 103548.562500, 87471.914063, 101338.914063, 113844.718750, 0.000, 0.000, 0.000,0.0,0.0,0.0,0.0,0.0, 14:49:03.430
50851.156250, 46461.875000, 130835.843750, 68831.500000, 103602.945313, 87275.984375, 101336.859375, 113861.796875, 0.000, 0.000, 0.000,0.0,0.0,0.0,0.0,0.0, 14:49:03.431
50903.703125, 46515.519531, 130841.539063, 68334.328125, 103657.351563, 87121.148438, 101343.070313, 113901.710938, 0.000, 0.000, 0.000,0.0,0.0,0.0,0.0,0.0, 14:49:03.431
50827.707031, 46433.824219, 130885.328125, 68564.171875, 103608.515625, 87307.250000, 101347.945313, 113892.820313, 0.000, 0.000, 0.000,0.0,0.0,0.0,0.0,0.0, 14:49:03.431
50772.632813, 46375.734375, 130885.578125, 69082.218750, 103553.796875, 87476.320313, 101345.398438, 113853.570313, 0.286, 0.238, 0.926,0.0,0.0,0.0,0.0,0.0, 14:49:03.432
50836.492188, 46441.425781, 130838.101563, 68934.765625, 103597.695313, 87320.437500, 101342.421875, 113857.750000, 0.000, 0.000, 0.000,0.0,0.0,0.0,0.0,0.0, 14:49:03.432
50904.597656, 46509.867188, 130829.492188, 68390.437500, 103660.304688, 87118.242188, 101343.609375, 113894.671875, 0.000, 0.000, 0.000,0.0,0.0,0.0,0.0,0.0, 14:49:03.432
50847.824219, 46450.878906, 130872.343750, 68472.960938, 103627.734375, 87259.601563, 101352.882813, 113900.242188, 0.000, 0.000, 0.000,0.0,0.0,0.0,0.0,0.0, 14:49:03.432
50764.140625, 46366.972656, 130891.296875, 69032.039063, 103555.296875, 87469.835938, 101346.289063, 113856.359375, 0.000, 0.000, 0.000,0.0,0.0,0.0,0.0,0.0, 14:49:03.433
50806.339844, 46415.562500, 130842.812500, 69021.671875, 103577.242188, 87362.906250, 101337.796875, 113849.101563, 0.000, 0.000, 0.000,0.0,0.0,0.0,0.0,0.0, 14:49:03.433
50893.109375, 46504.902344, 130826.632813, 68462.875000, 103655.671875, 87131.742188, 101345.398438, 113888.328125, 0.000, 0.000, 0.000,0.0,0.0,0.0,0.0,0.0, 14:49:03.433
50855.066406, 46458.656250, 130864.765625, 68399.781250, 103641.257813, 87213.398438, 101348.750000, 113900.414063, 0.000, 0.000, 0.000,0.0,0.0,0.0,0.0,0.0, 14:49:03.433
50767.382813, 46367.507813, 130891.718750, 68942.968750, 103569.578125, 87448.000000, 101350.203125, 113867.179688, 0.000, 0.000, 0.000,0.0,0.0,0.0,0.0,0.0, 14:49:03.434
50795.343750, 46401.058594, 130853.414063, 69070.773438, 103572.929688, 87401.484375, 101340.148438, 113850.195313, 0.272, 0.236, 0.928,0.0,0.0,0.0,0.0,0.0, 14:49:03.434
50885.441406, 46497.863281, 130825.046875, 68556.554688, 103641.882813, 87160.734375, 101337.890625, 113880.054688, 0.000, 0.000, 0.000,0.0,0.0,0.0,0.0,0.0, 14:49:03.434
50871.675781, 46482.328125, 130855.507813, 68358.117188, 103639.960938, 87180.117188, 101341.687500, 113902.250000, 0.000, 0.000, 0.000,0.0,0.0,0.0,0.0,0.0, 14:49:03.434
50782.066406, 46395.714844, 130885.796875, 68836.375000, 103571.718750, 87419.257813, 101342.250000, 113873.460938, 0.000, 0.000, 0.000,0.0,0.0,0.0,0.0,0.0, 14:49:03.435
50778.332031, 46397.859375, 130863.515625, 69101.242188, 103556.656250, 87438.968750, 101337.265625, 113851.359375, 0.000, 0.000, 0.000,0.0,0.0,0.0,0.0,0.0, 14:49:03.435
50867.359375, 46488.675781, 130830.882813, 68661.179688, 103621.390625, 87202.023438, 101329.882813, 113873.484375, 0.000, 0.000, 0.000,0.0,0.0,0.0,0.0,0.0, 14:49:03.435
50879.250000, 46499.425781, 130853.992188, 68336.679688, 103646.664063, 87150.093750, 101336.101563, 113901.804688, 0.000, 0.000, 0.000,0.0,0.0,0.0,0.0,0.0, 14:49:03.435
50793.687500, 46410.757813, 130886.023438, 68751.257813, 103581.757813, 87380.429688, 101340.640625, 113876.593750, 0.000, 0.000, 0.000,0.0,0.0,0.0,0.0,0.0, 14:49:03.436
50774.578125, 46392.027344, 130867.734375, 69124.132813, 103552.546875, 87459.843750, 101337.375000, 113848.250000, 0.000, 0.000, 0.000,0.0,0.0,0.0,0.0,0.0, 14:49:03.437
50856.968750, 46478.910156, 130827.484375, 68772.804688, 103611.015625, 87242.140625, 101330.554688, 113863.335938, 0.000, 0.000, 0.000,0.0,0.0,0.0,0.0,0.0, 14:49:03.439
50890.539063, 46511.363281, 130840.851563, 68340.609375, 103653.906250, 87128.234375, 101338.382813, 113897.492188, 0.268, 0.240, 0.930,0.0,0.0,0.0,0.0,0.0, 14:49:03.439
50810.250000, 46426.406250, 130879.898438, 68657.539063, 103596.304688, 87337.445313, 101341.734375, 113880.304688, 0.000, 0.000, 0.000,0.0,0.0,0.0,0.0,0.0, 14:49:03.439
50769.972656, 46386.261719, 130873.906250, 69128.289063, 103550.351563, 87472.406250, 101338.023438, 113844.226563, 0.000, 0.000, 0.000,0.0,0.0,0.0,0.0,0.0, 14:49:03.440
50851.312500, 46469.027344, 130837.515625, 68884.226563, 103603.820313, 87285.171875, 101336.523438, 113855.554688, 0.000, 0.000, 0.000,0.0,0.0,0.0,0.0,0.0, 14:49:03.440
50906.566406, 46521.824219, 130840.382813, 68362.851563, 103659.343750, 87112.945313, 101338.781250, 113890.984375, 0.000, 0.000, 0.000,0.0,0.0,0.0,0.0,0.0, 14:49:03.440
50836.582031, 46445.804688, 130878.351563, 68544.101563, 103609.250000, 87288.070313, 101341.218750, 113882.421875, 0.000, 0.000, 0.000,0.0,0.0,0.0,0.0,0.0, 14:49:03.440
50777.039063, 46379.511719, 130884.281250, 69073.437500, 103550.218750, 87472.070313, 101339.921875, 113847.335938, 0.000, 0.000, 0.000,0.0,0.0,0.0,0.0,0.0, 14:49:03.440
50831.976563, 46438.519531, 130845.007813, 68973.773438, 103589.875000, 87333.671875, 101337.195313, 113853.656250, 0.000, 0.000, 0.000,0.0,0.0,0.0,0.0,0.0, 14:49:03.441
50906.117188, 46515.699219, 130834.054688, 68437.734375, 103657.531250, 87126.742188, 101344.328125, 113895.007813, 0.000, 0.000, 0.000,0.0,0.0,0.0,0.0,0.0, 14:49:03.441
50860.097656, 46470.304688, 130866.125000, 68464.195313, 103631.554688, 87250.789063, 101349.890625, 113903.632813, 0.280, 0.240, 0.924,0.0,0.0,0.0,0.0,0.0, 14:49:03.441
50777.281250, 46384.875000, 130883.898438, 69008.859375, 103558.351563, 87467.984375, 101343.453125, 113858.578125, 0.000, 0.000, 0.000,0.0,0.0,0.0,0.0,0.0, 14:49:03.442
50818.277344, 46430.070313, 130840.875000, 69032.289063, 103570.289063, 87375.046875, 101330.828125, 113844.070313, 0.000, 0.000, 0.000,0.0,0.0,0.0,0.0,0.0, 14:49:03.442
50900.886719, 46518.402344, 130820.421875, 68482.476563, 103643.671875, 87143.656250, 101332.281250, 113884.054688, 0.000, 0.000, 0.000,0.0,0.0,0.0,0.0,0.0, 14:49:03.442
50865.082031, 46482.441406, 130855.625000, 68383.726563, 103638.242188, 87213.757813, 101347.210938, 113902.789063, 0.000, 0.000, 0.000,0.0,0.0,0.0,0.0,0.0, 14:49:03.443
50786.671875, 46394.886719, 130878.757813, 68909.757813, 103568.750000, 87451.734375, 101348.218750, 113868.968750, 0.000, 0.000, 0.000,0.0,0.0,0.0,0.0,0.0, 14:49:03.443
50799.679688, 46406.757813, 130849.429688, 69091.187500, 103563.140625, 87422.812500, 101339.921875, 113847.375000, 0.000, 0.000, 0.000,0.0,0.0,0.0,0.0,0.0, 14:49:03.443
50893.511719, 46502.625000, 130819.640625, 68588.960938, 103636.406250, 87181.343750, 101339.656250, 113881.554688, 0.000, 0.000, 0.000,0.0,0.0,0.0,0.0,0.0, 14:49:03.444
50893.980469, 46500.859375, 130848.804688, 68335.070313, 103651.828125, 87183.242188, 101351.273438, 113915.367188, 0.000, 0.000, 0.000,0.0,0.0,0.0,0.0,0.0, 14:49:03.444
50796.484375, 46402.441406, 130885.015625, 68819.367188, 103573.781250, 87425.226563, 101345.015625, 113879.945313, 0.000, 0.000, 0.000,0.0,0.0,0.0,0.0,0.0, 14:49:03.444
50789.062500, 46395.828125, 130863.960938, 69135.171875, 103551.695313, 87457.140625, 101333.906250, 113846.640625, 0.282, 0.236, 0.920,0.0,0.0,0.0,0.0,0.0, 14:49:03.445
50882.761719, 46496.277344, 130821.625000, 68695.984375, 103623.710938, 87214.578125, 101332.453125, 113870.398438, 0.000, 0.000, 0.000,0.0,0.0,0.0,0.0,0.0, 14:49:03.445
50903.078125, 46514.894531, 130847.554688, 68323.648438, 103653.460938, 87144.601563, 101339.406250, 113900.398438, 0.000, 0.000, 0.000,0.0,0.0,0.0,0.0,0.0, 14:49:03.446
50813.941406, 46418.960938, 130892.882813, 68722.179688, 103581.804688, 87372.539063, 101334.671875, 113870.398438, 0.000, 0.000, 0.000,0.0,0.0,0.0,0.0,0.0, 14:49:03.446
50789.398438, 46393.277344, 130883.476563, 69137.835938, 103546.914063, 87467.781250, 101327.492188, 113837.523438, 0.000, 0.000, 0.000,0.0,0.0,0.0,0.0,0.0, 14:49:03.446
50873.105469, 46478.015625, 130840.914063, 68805.257813, 103610.460938, 87257.007813, 101329.726563, 113859.242188, 0.000, 0.000, 0.000,0.0,0.0,0.0,0.0,0.0, 14:49:03.447
50913.742188, 46519.542969, 130850.484375, 68345.890625, 103652.921875, 87130.226563, 101333.328125, 113896.640625, 0.000, 0.000, 0.000,0.0,0.0,0.0,0.0,0.0, 14:49:03.447
50835.777344, 46436.531250, 130894.250000, 68628.812500, 103596.484375, 87334.164063, 101335.671875, 113884.523438, 0.000, 0.000, 0.000,0.0,0.0,0.0,0.0,0.0, 14:49:03.448
50786.289063, 46390.082031, 130894.265625, 69113.851563, 103548.367188, 87481.710938, 101333.796875, 113848.851563, 0.000, 0.000, 0.000,0.0,0.0,0.0,0.0,0.0, 14:49:03.448
50856.230469, 46463.152344, 130851.375000, 68901.304688, 103598.882813, 87306.718750, 101332.570313, 113858.304688, 0.280, 0.236, 0.920,0.0,0.0,0.0,0.0,0.0, 14:49:03.889
50917.898438, 46525.757813, 130851.820313, 68369.539063, 103661.109375, 87125.843750, 101340.257813, 113897.648438, 0.000, 0.000, 0.000,0.0,0.0,0.0,0.0,0.0, 14:49:03.889
50856.496094, 46461.699219, 130893.734375, 68511.242188, 103621.718750, 87287.203125, 101346.562500, 113897.734375, 0.000, 0.000, 0.000,0.0,0.0,0.0,0.0,0.0, 14:49:03.889
50793.265625, 46395.738281, 130904.796875, 69039.257813, 103558.023438, 87480.101563, 101340.343750, 113861.703125, 0.000, 0.000, 0.000,0.0,0.0,0.0,0.0,0.0, 14:49:03.890
50851.914063, 46458.031250, 130872.453125, 68972.406250, 103593.046875, 87357.031250, 101340.500000, 113863.226563, 0.000, 0.000, 0.000,0.0,0.0,0.0,0.0,0.95040166, 14:49:03.890
50936.359375, 46541.382813, 130860.828125, 68417.882813, 103663.718750, 87137.289063, 101342.289063, 113900.554688, 0.000, 0.000, 0.000,0.0,0.0,0.0,0.0,0.95040166, 14:49:03.890
50887.656250, 46487.847656, 130902.742188, 68427.781250, 103638.757813, 87247.796875, 101349.867188, 113908.171875, 0.000, 0.000, 0.000,0.0,0.0,0.0,0.0,0.95040166, 14:49:03.890
50800.238281, 46400.812500, 130922.453125, 68982.398438, 103563.945313, 87469.726563, 101347.164063, 113867.984375, 0.000, 0.000, 0.000,0.0,0.0,0.0,0.0,0.95040166, 14:49:03.891
50834.636719, 46436.058594, 130883.164063, 69059.156250, 103579.742188, 87395.164063, 101346.765625, 113857.523438, 0.000, 0.000, 0.000,0.0,0.0,0.0,0.0,0.95040166, 14:49:03.891
50918.812500, 46523.902344, 130854.101563, 68519.070313, 103648.789063, 87156.289063, 101344.796875, 113892.078125, 0.000, 0.000, 0.000,0.0,0.0,0.0,0.0,0.95040166, 14:49:03.891
50891.433594, 46497.371094, 130886.085938, 68383.726563, 103640.968750, 87205.171875, 101348.304688, 113908.218750, 0.288, 0.236, 0.918,0.0,0.0,0.0,0.0,0.95040166, 14:49:03.891
50801.914063, 46402.242188, 130912.171875, 68906.179688, 103564.367188, 87440.734375, 101343.367188, 113867.960938, 0.000, 0.000, 0.000,0.0,0.0,0.0,0.0,0.95040166, 14:49:03.892
50822.074219, 46420.191406, 130883.562500, 69106.804688, 103564.617188, 87429.250000, 101341.601563, 113852.476563, 0.000, 0.000, 0.000,0.0,0.0,0.0,0.0,0.95040166, 14:49:03.892
50907.480469, 46507.296875, 130857.117188, 68634.289063, 103634.039063, 87188.742188, 101340.484375, 113881.976563, 0.000, 0.000, 0.000,0.0,0.0,0.0,0.0,0.95040166, 14:49:03.892
50910.050781, 46507.363281, 130884.476563, 68375.679688, 103648.476563, 87173.140625, 101348.820313, 113911.171875, 0.000, 0.000, 0.000,0.0,0.0,0.0,0.0,0.95040166, 14:49:03.892
50826.167969, 46419.496094, 130909.398438, 68820.882813, 103580.570313, 87408.664063, 101350.203125, 113884.796875, 0.000, 0.000, 0.000,0.0,0.0,0.0,0.0,0.95040166, 14:49:03.892
50811.636719, 46407.070313, 130886.984375, 69143.265625, 103557.039063, 87456.921875, 101342.359375, 113852.203125, 0.000, 0.000, 0.000,0.0,0.0,0.0,0.0,0.95040166, 14:49:03.893
50897.511719, 46496.902344, 130846.882813, 68733.335938, 103620.757813, 87226.203125, 101336.367188, 113869.796875, 0.000, 0.000, 0.000,0.0,0.0,0.0,0.0,0.95040166, 14:49:03.893
50917.363281, 46515.542969, 130864.453125, 68353.328125, 103649.843750, 87143.078125, 101339.476563, 113899.343750, 0.000, 0.000, 0.000,0.0,0.0,0.0,0.0,0.95040166, 14:49:03.893
50839.085938, 46430.941406, 130901.335938, 68708.453125, 103594.539063, 87367.914063, 101352.125000, 113886.984375, 0.000, 0.000, 0.000,0.0,0.0,0.0,0.0,0.95040166, 14:49:03.893
50809.203125, 46399.292969, 130895.210938, 69136.382813, 103554.601563, 87479.156250, 101346.515625, 113856.406250, 0.280, 0.232, 0.922,0.0,0.0,0.0,0.0,0.95040166, 14:49:03.894
50889.535156, 46483.781250, 130854.234375, 68830.296875, 103610.476563, 87275.242188, 101341.554688, 113874.218750, 0.000, 0.000, 0.000,0.0,0.0,0.0,0.0,0.95040166, 14:49:03.895
50928.136719, 46523.007813, 130861.523438, 68356.195313, 103652.234375, 87130.250000, 101338.851563, 113905.359375, 0.000, 0.000, 0.000,0.0,0.0,0.0,0.0,0.95040166, 14:49:03.895
50859.000000, 46448.777344, 130897.554688, 68598.507813, 103601.960938, 87318.789063, 101343.523438, 113894.023438, 0.000, 0.000, 0.000,0.0,0.0,0.0,0.0,0.95040166, 14:49:03.895
50811.257813, 46395.691406, 130903.593750, 69093.976563, 103552.562500, 87480.414063, 101343.812500, 113857.500000, 0.000, 0.000, 0.000,0.0,0.0,0.0,0.0,0.95040166, 14:49:03.896
50870.804688, 46461.316406, 130862.484375, 68929.984375, 103593.382813, 87314.023438, 101336.703125, 113857.476563, 0.000, 0.000, 0.000,0.0,0.0,0.0,0.0,0.95040166, 14:49:03.896
50934.082031, 46527.300781, 130851.109375, 68393.921875, 103653.351563, 87119.515625, 101338.562500, 113897.734375, 0.000, 0.000, 0.000,0.0,0.0,0.0,0.0,0.95040166, 14:49:03.896
50870.804688, 46463.328125, 130893.375000, 68512.117188, 103617.695313, 87272.875000, 101347.585938, 113899.703125, 0.000, 0.000, 0.000,0.0,0.0,0.0,0.0,0.95040166, 14:49:03.896
50793.375000, 46384.183594, 130901.132813, 69061.234375, 103550.171875, 87472.187500, 101341.445313, 113855.445313, 0.000, 0.000, 0.000,0.0,0.0,0.0,0.0,0.95040166, 14:49:03.897
50846.820313, 46438.675781, 130856.609375, 69015.859375, 103580.640625, 87354.835938, 101337.664063, 113852.765625, 0.276, 0.230, 0.922,0.0,0.0,0.0,0.0,0.95040166, 14:49:03.897
50927.039063, 46519.609375, 130847.625000, 68474.546875, 103648.054688, 87129.914063, 101336.968750, 113888.187500, 0.000, 0.000, 0.000,0.0,0.0,0.0,0.0,0.95040166, 14:49:03.897
50887.097656, 46477.589844, 130890.937500, 68457.039063, 103631.554688, 87225.937500, 101349.156250, 113899.187500, 0.000, 0.000, 0.000,0.0,0.0,0.0,0.0,0.95040166, 14:49:03.897
50806.945313, 46395.042969, 130916.554688, 68998.312500, 103562.734375, 87451.781250, 101348.882813, 113860.500000, 0.000, 0.000, 0.000,0.0,0.0,0.0,0.0,0.95040166, 14:49:03.898
50831.082031, 46424.527344, 130878.531250, 69106.898438, 103565.218750, 87393.773438, 101336.367188, 113843.914063, 0.000, 0.000, 0.000,0.0,0.0,0.0,0.0,0.95040166, 14:49:03.898
50915.753906, 46516.480469, 130847.625000, 68574.187500, 103637.968750, 87155.304688, 101339.031250, 113881.265625, 0.000, 0.000, 0.000,0.0,0.0,0.0,0.0,0.95040166, 14:49:03.898
50897.984375, 46498.175781, 130878.265625, 68395.460938, 103638.148438, 87188.656250, 101347.742188, 113905.578125, 0.000, 0.000, 0.000,0.0,0.0,0.0,0.0,0.95040166, 14:49:03.899
50809.132813, 46405.101563, 130905.492188, 68885.656250, 103563.695313, 87429.000000, 101341.421875, 113873.531250, 0.000, 0.000, 0.000,0.0,0.0,0.0,0.0,0.95040166, 14:49:03.900
50807.679688, 46407.113281, 130881.664063, 69138.617188, 103551.000000, 87431.015625, 101334.671875, 113842.593750, 0.000, 0.000, 0.000,0.0,0.0,0.0,0.0,0.95040166, 14:49:03.900
50906.386719, 46507.070313, 130841.562500, 68664.757813, 103620.250000, 87185.929688, 101332.656250, 113871.273438, 0.000, 0.000, 0.000,0.0,0.0,0.0,0.0,0.95040166, 14:49:03.900
50916.421875, 46517.195313, 130862.281250, 68339.789063, 103642.148438, 87149.648438, 101339.835938, 113903.390625, 0.278, 0.224, 0.914,0.0,0.0,0.0,0.0,0.95040166, 14:49:03.900
50822.523438, 46415.562500, 130898.312500, 68766.414063, 103569.484375, 87384.078125, 101336.796875, 113874.578125, 0.000, 0.000, 0.000,0.0,0.0,0.0,0.0,0.95040166, 14:49:03.901
50798.359375, 46388.226563, 130889.531250, 69149.343750, 103534.882813, 87453.679688, 101326.734375, 113839.148438, 0.000, 0.000, 0.000,0.0,0.0,0.0,0.0,0.95040166, 14:49:03.901
50885.578125, 46480.316406, 130843.484375, 68762.703125, 103598.789063, 87224.507813, 101322.804688, 113860.718750, 0.000, 0.000, 0.000,0.0,0.0,0.0,0.0,0.95040166, 14:49:03.901
50915.148438, 46513.085938, 130851.664063, 68326.304688, 103642.109375, 87123.562500, 101329.039063, 113899.632813, 0.000, 0.000, 0.000,0.0,0.0,0.0,0.0,0.95040166, 14:49:03.902
50832.246094, 46426.113281, 130891.742188, 68668.515625, 103583.609375, 87343.078125, 101335.023438, 113877.664063, 0.000, 0.000, 0.000,0.0,0.0,0.0,0.0,0.95040166, 14:49:03.902
50799.144531, 46390.507813, 130884.789063, 69116.289063, 103543.601563, 87463.851563, 101332.617188, 113842.328125, 0.000, 0.000, 0.000,0.0,0.0,0.0,0.0,0.95040166, 14:49:03.902
50871.921875, 46466.414063, 130841.875000, 68846.812500, 103594.718750, 87266.054688, 101326.687500, 113853.476563, 0.000, 0.000, 0.000,0.0,0.0,0.0,0.0,0.95040166, 14:49:03.902
50918.054688, 46513.062500, 130841.539063, 68351.226563, 103641.570313, 87109.640625, 101328.609375, 113891.117188, 0.000, 0.000, 0.000,0.0,0.0,0.0,0.0,0.95040166, 14:49:03.903
50844.562500, 46431.992188, 130882.445313, 68568.664063, 103592.890625, 87296.031250, 101332.437500, 113882.492188, 0.282, 0.220, 0.914,0.0,0.0,0.0,0.0,0.95040166, 14:49:03.903
50785.417969, 46369.609375, 130890.156250, 69093.398438, 103534.101563, 87470.351563, 101326.984375, 113844.515625, 0.000, 0.000, 0.000,0.0,0.0,0.0,0.0,0.95040166, 14:49:03.903
50853.054688, 46439.859375, 130849.812500, 68956.406250, 103581.507813, 87320.234375, 101327.515625, 113852.585938, 0.000, 0.000, 0.000,0.0,0.0,0.0,0.0,0.95040166, 14:49:03.903
50927.867188, 46518.179688, 130841.765625, 68405.585938, 103649.414063, 87118.515625, 101333.039063, 113893.664063, 0.000, 0.000, 0.000,0.0,0.0,0.0,0.0,0.95040166, 14:49:03.903
50867.742188, 46455.574219, 130882.734375, 68474.078125, 103617.343750, 87257.500000, 101342.828125, 113897.312500, 0.000, 0.000, 0.000,0.0,0.0,0.0,0.0,0.95040166, 14:49:03.904
50792.972656, 46378.796875, 130900.570313, 69023.210938, 103551.648438, 87469.367188, 101342.515625, 113859.578125, 0.000, 0.000, 0.000,0.0,0.0,0.0,0.0,0.95040166, 14:49:03.904
50843.062500, 46429.980469, 130865.437500, 69031.039063, 103579.570313, 87369.031250, 101339.921875, 113854.195313, 0.000, 0.000, 0.000,0.0,0.0,0.0,0.0,0.95040166, 14:49:03.904
50926.750000, 46517.398438, 130845.812500, 68474.140625, 103652.750000, 87137.648438, 101339.273438, 113892.171875, 0.000, 0.000, 0.000,0.0,0.0,0.0,0.0,0.95040166, 14:49:03.905
50887.855469, 46478.238281, 130886.109375, 68408.226563, 103634.328125, 87221.328125, 101345.507813, 113907.812500, 0.000, 0.000, 0.000,0.0,0.0,0.0,0.0,0.95040166, 14:49:03.905
50801.847656, 46388.250000, 130907.343750, 68951.578125, 103558.757813, 87455.312500, 101343.164063, 113869.281250, 0.000, 0.000, 0.000,0.0,0.0,0.0,0.0,0.95040166, 14:49:03.906
50832.648438, 46414.199219, 130870.171875, 69091.273438, 103567.007813, 87411.812500, 101340.656250, 113855.398438, 0.292, 0.228, 0.918,0.0,0.0,0.0,0.0,0.95040166, 14:49:03.906
50926.257813, 46510.515625, 130843.890625, 68572.179688, 103642.015625, 87169.968750, 101343.273438, 113889.289063, 0.000, 0.000, 0.000,0.0,0.0,0.0,0.0,0.95040166, 14:49:03.906
50916.644531, 46500.878906, 130875.804688, 68354.585938, 103651.203125, 87182.906250, 101351.187500, 113911.343750, 0.000, 0.000, 0.000,0.0,0.0,0.0,0.0,0.95040166, 14:49:03.907
50833.722656, 46412.589844, 130907.460938, 68844.687500, 103577.289063, 87420.398438, 101346.875000, 113874.671875, 0.000, 0.000, 0.000,0.0,0.0,0.0,0.0,0.95040166, 14:49:03.908
50834.859375, 46418.023438, 130884.929688, 69110.968750, 103564.593750, 87440.335938, 101343.789063, 113851.312500, 0.000, 0.000, 0.000,0.0,0.0,0.0,0.0,0.95040166, 14:49:03.909
50914.835938, 46506.402344, 130852.937500, 68672.671875, 103630.375000, 87203.359375, 101338.492188, 113874.734375, 0.000, 0.000, 0.000,0.0,0.0,0.0,0.0,0.95040166, 14:49:03.909
50926.972656, 46514.804688, 130871.273438, 68338.625000, 103652.812500, 87150.406250, 101343.070313, 113909.203125, 0.000, 0.000, 0.000,0.0,0.0,0.0,0.0,0.95040166, 14:49:03.909
50836.269531, 46416.660156, 130901.445313, 68749.429688, 103583.078125, 87383.828125, 101344.195313, 113886.289063, 0.000, 0.000, 0.000,0.0,0.0,0.0,0.0,0.95040166, 14:49:03.909
50814.363281, 46396.429688, 130881.398438, 69119.859375, 103553.460938, 87465.929688, 101342.492188, 113858.398438, 0.000, 0.000, 0.000,0.0,0.0,0.0,0.0,0.95040166, 14:49:03.910
50891.253906, 46479.085938, 130839.890625, 68764.179688, 103611.039063, 87246.835938, 101336.679688, 113871.335938, 0.290, 0.232, 0.918,0.0,0.0,0.0,0.0,0.95040166, 14:49:03.910
50922.972656, 46511.898438, 130852.625000, 68328.765625, 103652.906250, 87128.148438, 101339.406250, 113902.609375, 0.000, 0.000, 0.000,0.0,0.0,0.0,0.0,0.95040166, 14:49:03.910
50842.886719, 46427.050781, 130893.289063, 68642.632813, 103594.117188, 87336.820313, 101341.820313, 113883.632813, 0.000, 0.000, 0.000,0.0,0.0,0.0,0.0,0.95040166, 14:49:03.910
50804.375000, 46389.835938, 130889.976563, 69115.437500, 103543.554688, 87474.195313, 101331.875000, 113846.906250, 0.000, 0.000, 0.000,0.0,0.0,0.0,0.0,0.95040166, 14:49:03.910
50878.042969, 46468.960938, 130844.265625, 68871.242188, 103596.132813, 87291.273438, 101331.023438, 113861.031250, 0.000, 0.000, 0.000,0.0,0.0,0.0,0.0,0.95040166, 14:49:03.911
50933.968750, 46521.242188, 130850.882813, 68368.101563, 103653.257813, 87124.882813, 101338.804688, 113901.757813, 0.000, 0.000, 0.000,0.0,0.0,0.0,0.0,0.95040166, 14:49:03.911
50870.199219, 46450.656250, 130889.507813, 68546.789063, 103608.914063, 87294.843750, 101345.625000, 113899.523438, 0.000, 0.000, 0.000,0.0,0.0,0.0,0.0,0.95040166, 14:49:03.911
50800.910156, 46382.015625, 130901.984375, 69079.960938, 103545.812500, 87481.906250, 101342.539063, 113859.914063, 0.000, 0.000, 0.000,0.0,0.0,0.0,0.0,0.95040166, 14:49:03.911
50858.777344, 46445.605469, 130860.093750, 68981.187500, 103582.023438, 87338.742188, 101338.445313, 113857.320313, 0.000, 0.000, 0.000,0.0,0.0,0.0,0.0,0.95040166, 14:49:03.912
50929.921875, 46520.035156, 130849.164063, 68435.203125, 103646.445313, 87123.539063, 101335.296875, 113890.828125, 0.000, 0.000, 0.000,0.0,0.0,0.0,0.0,0.95040166, 14:49:03.912
50878.468750, 46465.230469, 130887.007813, 68478.031250, 103621.812500, 87249.117188, 101345.468750, 113898.250000, 0.294, 0.232, 0.918,0.0,0.0,0.0,0.0,0.95040166, 14:49:03.913
50798.628906, 46386.171875, 130901.265625, 69021.757813, 103551.875000, 87466.484375, 101343.703125, 113861.953125, 0.000, 0.000, 0.000,0.0,0.0,0.0,0.0,0.95040166, 14:49:03.913
50836.605469, 46426.160156, 130862.664063, 69060.273438, 103567.789063, 87381.859375, 101337.328125, 113850.460938, 0.000, 0.000, 0.000,0.0,0.0,0.0,0.0,0.95040166, 14:49:03.913
50923.574219, 46512.546875, 130841.500000, 68517.460938, 103639.250000, 87148.242188, 101338.718750, 113886.156250, 0.000, 0.000, 0.000,0.0,0.0,0.0,0.0,0.95040166, 14:49:03.913
50896.640625, 46481.144531, 130878.195313, 68416.742188, 103631.757813, 87212.078125, 101345.375000, 113903.390625, 0.000, 0.000, 0.000,0.0,0.0,0.0,0.0,0.95040166, 14:49:03.913
50802.136719, 46381.589844, 130900.390625, 68955.710938, 103550.710938, 87443.085938, 101334.289063, 113856.343750, 0.000, 0.000, 0.000,0.0,0.0,0.0,0.0,0.95040166, 14:49:03.914
50816.824219, 46402.308594, 130859.445313, 69118.382813, 103549.390625, 87407.632813, 101324.296875, 113835.171875, 0.000, 0.000, 0.000,0.0,0.0,0.0,0.0,0.95040166, 14:49:03.914
50908.441406, 46503.539063, 130827.546875, 68597.367188, 103625.390625, 87164.914063, 101326.242188, 113872.164063, 0.000, 0.000, 0.000,0.0,0.0,0.0,0.0,0.95040166, 14:49:03.914
50900.640625, 46493.550781, 130859.914063, 68357.242188, 103635.132813, 87166.523438, 101337.531250, 113899.609375, 0.000, 0.000, 0.000,0.0,0.0,0.0,0.0,0.95040166, 14:49:03.914
50812.062500, 46398.332031, 130893.289063, 68832.062500, 103566.695313, 87409.195313, 101341.796875, 113872.789063, 0.000, 0.000, 0.000,0.0,0.0,0.0,0.0,0.95040166, 14:49:03.914
50805.492188, 46393.101563, 130870.976563, 69143.398438, 103547.539063, 87446.992188, 101335.453125, 113843.109375, 0.288, 0.232, 0.918,0.0,0.0,0.0,0.0,0.95040166, 14:49:03.915
50892.035156, 46484.562500, 130828.039063, 68713.015625, 103614.367188, 87209.890625, 101331.453125, 113865.101563, 0.000, 0.000, 0.000,0.0,0.0,0.0,0.0,0.95040166, 14:49:03.915
50908.085938, 46499.359375, 130847.421875, 68349.929688, 103641.367188, 87141.085938, 101338.515625, 113897.671875, 0.000, 0.000, 0.000,0.0,0.0,0.0,0.0,0.95040166, 14:49:03.916
50826.253906, 46415.140625, 130887.812500, 68736.125000, 103579.078125, 87371.156250, 101344.390625, 113879.921875, 0.000, 0.000, 0.000,0.0,0.0,0.0,0.0,0.95040166, 14:49:03.916
50796.035156, 46384.785156, 130881.773438, 69158.664063, 103543.000000, 87471.406250, 101342.156250, 113847.351563, 0.000, 0.000, 0.000,0.0,0.0,0.0,0.0,0.95040166, 14:49:03.916
50874.289063, 46462.277344, 130836.734375, 68827.859375, 103600.132813, 87259.421875, 101334.960938, 113864.500000, 0.000, 0.000, 0.000,0.0,0.0,0.0,0.0,0.95040166, 14:49:03.917
50928.179688, 46511.050781, 130847.351563, 68361.375000, 103648.835938, 87127.093750, 101340.820313, 113902.023438, 0.000, 0.000, 0.000,0.0,0.0,0.0,0.0,0.95040166, 14:49:03.917
50856.496094, 46431.144531, 130885.750000, 68627.742188, 103599.859375, 87327.054688, 101346.718750, 113890.515625, 0.000, 0.000, 0.000,0.0,0.0,0.0,0.0,0.95040166, 14:49:03.917
50809.335938, 46379.511719, 130887.585938, 69109.156250, 103555.609375, 87481.906250, 101348.882813, 113858.578125, 0.000, 0.000, 0.000,0.0,0.0,0.0,0.0,0.95040166, 14:49:03.917
50877.976563, 46454.253906, 130848.273438, 68904.054688, 103599.054688, 87309.265625, 101342.382813, 113864.609375, 0.292, 0.230, 0.920,0.0,0.0,0.0,0.0,0.95040166, 14:49:03.918
50932.246094, 46512.210938, 130850.125000, 68380.218750, 103654.218750, 87124.484375, 101344.078125, 113899.101563, 0.000, 0.000, 0.000,0.0,0.0,0.0,0.0,0.95040166, 14:49:03.918
50871.496094, 46446.968750, 130888.101563, 68529.906250, 103614.523438, 87284.500000, 101350.046875, 113895.859375, 0.000, 0.000, 0.000,0.0,0.0,0.0,0.0,0.95040166, 14:49:03.918
50805.289063, 46377.722656, 130896.773438, 69062.281250, 103556.945313, 87481.507813, 101352.171875, 113862.531250, 0.000, 0.000, 0.000,0.0,0.0,0.0,0.0,0.95040166, 14:49:03.919
50861.214844, 46435.792969, 130859.710938, 68994.109375, 103591.343750, 87356.804688, 101348.687500, 113863.937500, 0.000, 0.000, 0.000,0.0,0.0,0.0,0.0,0.95040166, 14:49:03.920
50939.132813, 46514.894531, 130852.718750, 68447.968750, 103658.468750, 87140.085938, 101349.890625, 113903.007813, 0.000, 0.000, 0.000,0.0,0.0,0.0,0.0,0.95040166, 14:49:03.920
50893.109375, 46465.496094, 130890.382813, 68457.734375, 103631.085938, 87249.945313, 101356.460938, 113911.171875, 0.000, 0.000, 0.000,0.0,0.0,0.0,0.0,0.95040166, 14:49:03.920
50816.175781, 46383.308594, 130909.851563, 68991.695313, 103559.429688, 87470.351563, 101349.867188, 113872.546875, 0.000, 0.000, 0.000,0.0,0.0,0.0,0.0,0.95040166, 14:49:03.920
50839.218750, 46409.214844, 130878.039063, 69080.101563, 103567.296875, 87393.554688, 101338.085938, 113849.726563, 0.000, 0.000, 0.000,0.0,0.0,0.0,0.0,0.95040166, 14:49:03.921
50923.957031, 46498.691406, 130850.507813, 68549.132813, 103644.296875, 87150.992188, 101342.312500, 113883.453125, 0.000, 0.000, 0.000,0.0,0.0,0.0,0.0,0.95040166, 14:49:03.922
50902.003906, 46471.464844, 130876.117188, 68397.632813, 103643.562500, 87197.078125, 101354.023438, 113905.289063, 0.292, 0.236, 0.910,0.0,0.0,0.0,0.0,0.95040166, 14:49:03.922
50810.519531, 46372.984375, 130901.687500, 68916.078125, 103569.109375, 87439.218750, 101351.992188, 113870.062500, 0.000, 0.000, 0.000,0.0,0.0,0.0,0.0,0.95040166, 14:49:03.923
50819.082031, 46386.597656, 130869.546875, 69124.531250, 103565.710938, 87431.437500, 101344.414063, 113852.875000, 0.000, 0.000, 0.000,0.0,0.0,0.0,0.0,0.95040166, 14:49:03.923
50907.035156, 46479.914063, 130831.664063, 68629.218750, 103636.164063, 87185.812500, 101343.742188, 113884.125000, 0.000, 0.000, 0.000,0.0,0.0,0.0,0.0,0.95040166, 14:49:03.923
50907.972656, 46474.976563, 130862.437500, 68365.421875, 103646.015625, 87168.875000, 101349.085938, 113911.171875, 0.000, 0.000, 0.000,0.0,0.0,0.0,0.0,0.95040166, 14:49:03.923
50822.679688, 46385.746094, 130900.882813, 68824.726563, 103578.898438, 87404.617188, 101353.039063, 113882.718750, 0.000, 0.000, 0.000,0.0,0.0,0.0,0.0,0.95040166, 14:49:03.923
50810.476563, 46375.753906, 130877.437500, 69143.265625, 103558.000000, 87451.820313, 101348.078125, 113851.398438, 0.000, 0.000, 0.000,0.0,0.0,0.0,0.0,0.95040166, 14:49:03.924
50896.351563, 46461.496094, 130844.562500, 68745.406250, 103623.039063, 87224.460938, 101345.015625, 113873.148438, 0.000, 0.000, 0.000,0.0,0.0,0.0,0.0,0.95040166, 14:49:03.924
50921.453125, 46484.050781, 130859.445313, 68351.320313, 103655.742188, 87139.812500, 101351.031250, 113910.812500, 0.000, 0.000, 0.000,0.0,0.0,0.0,0.0,0.95040166, 14:49:03.924
50832.937500, 46391.179688, 130897.109375, 68714.531250, 103589.539063, 87367.312500, 101351.945313, 113890.648438, 0.298, 0.230, 0.912,0.0,0.0,0.0,0.0,0.95040166, 14:49:03.925
50792.125000, 46350.429688, 130884.125000, 69152.984375, 103546.015625, 87481.351563, 101344.546875, 113854.664063, 0.000, 0.000, 0.000,0.0,0.0,0.0,0.0,0.95040166, 14:49:03.925
50875.339844, 46437.355469, 130838.257813, 68842.234375, 103607.414063, 87278.062500, 101343.500000, 113874.109375, 0.000, 0.000, 0.000,0.0,0.0,0.0,0.0,0.95040166, 14:49:03.926
50919.105469, 46484.003906, 130845.679688, 68358.132813, 103656.187500, 87134.828125, 101347.609375, 113910.562500, 0.000, 0.000, 0.000,0.0,0.0,0.0,0.0,0.95040166, 14:49:03.926
50844.898438, 46407.292969, 130888.546875, 68611.718750, 103603.039063, 87331.484375, 101351.117188, 113901.445313, 0.000, 0.000, 0.000,0.0,0.0,0.0,0.0,0.95040166, 14:49:03.927
50792.550781, 46358.902344, 130894.156250, 69124.820313, 103548.343750, 87494.156250, 101345.039063, 113863.781250, 0.000, 0.000, 0.000,0.015524188,0.049335383,0.042924453,0.059573587,0.02181227, 14:49:04.367
50855.917969, 46430.093750, 130854.976563, 68959.578125, 103593.132813, 87328.867188, 101342.156250, 113867.156250, 0.000, 0.000, 0.000,0.015524188,0.049335383,0.042924453,0.059573587,0.02181227, 14:49:04.367
50920.378906, 46496.945313, 130851.867188, 68432.164063, 103656.656250, 87134.851563, 101346.765625, 113904.351563, 0.000, 0.000, 0.000,0.015524188,0.049335383,0.042924453,0.059573587,0.02181227, 14:49:04.368
50863.671875, 46437.066406, 130891.859375, 68542.875000, 103623.781250, 87282.242188, 101356.484375, 113907.343750, 0.000, 0.000, 0.000,0.015524188,0.049335383,0.042924453,0.059573587,0.02181227, 14:49:04.368
50793.621094, 46366.343750, 130903.750000, 69083.515625, 103563.023438, 87486.671875, 101358.968750, 113871.156250, 0.000, 0.000, 0.000,0.015524188,0.049335383,0.042924453,0.059573587,0.02181227, 14:49:04.369
50835.734375, 46411.339844, 130860.585938, 69064.203125, 103588.531250, 87373.304688, 101352.507813, 113861.484375, 0.292, 0.222, 0.916,0.015524188,0.049335383,0.042924453,0.059573587,0.02181227, 14:49:04.369
50916.871094, 46495.695313, 130832.914063, 68495.218750, 103658.554688, 87143.703125, 101351.429688, 113900.281250, 0.000, 0.000, 0.000,0.015524188,0.049335383,0.042924453,0.059573587,0.02181227, 14:49:04.370
50876.390625, 46451.953125, 130869.171875, 68450.179688, 103640.296875, 87237.070313, 101362.007813, 113913.179688, 0.000, 0.000, 0.000,0.015524188,0.049335383,0.042924453,0.059573587,0.02181227, 14:49:04.370
50791.320313, 46361.785156, 130891.945313, 68990.914063, 103568.281250, 87466.195313, 101362.343750, 113876.968750, 0.000, 0.000, 0.000,0.015524188,0.049335383,0.042924453,0.059573587,0.02181227, 14:49:04.370
50816.511719, 46387.937500, 130853.765625, 69094.562500, 103572.078125, 87406.648438, 101350.070313, 113857.257813, 0.000, 0.000, 0.000,0.015524188,0.049335383,0.042924453,0.059573587,0.02181227, 14:49:04.371
50903.726563, 46479.242188, 130824.687500, 68572.218750, 103641.414063, 87161.585938, 101347.117188, 113885.460938, 0.000, 0.000, 0.000,0.015524188,0.049335383,0.042924453,0.059573587,0.02181227, 14:49:04.371
50890.136719, 46467.242188, 130854.953125, 68385.609375, 103646.265625, 87191.265625, 101358.382813, 113909.265625, 0.000, 0.000, 0.000,0.015524188,0.049335383,0.042924453,0.059573587,0.02181227, 14:49:04.371
50801.871094, 46375.152344, 130889.890625, 68895.585938, 103569.375000, 87430.054688, 101353.710938, 113873.125000, 0.000, 0.000, 0.000,0.015524188,0.049335383,0.042924453,0.059573587,0.02181227, 14:49:04.371
50812.285156, 46387.468750, 130865.031250, 69136.937500, 103563.476563, 87434.679688, 101346.742188, 113851.062500, 0.000, 0.000, 0.000,0.015524188,0.049335383,0.042924453,0.059573587,0.02181227, 14:49:04.371
50901.199219, 46477.457031, 130830.992188, 68660.015625, 103633.210938, 87192.679688, 101343.718750, 113878.359375, 0.286, 0.222, 0.918,0.015524188,0.049335383,0.042924453,0.059573587,0.02181227, 14:49:04.372
50909.316406, 46480.203125, 130855.828125, 68353.171875, 103650.781250, 87156.351563, 101350.046875, 113907.187500, 0.000, 0.000, 0.000,0.015524188,0.049335383,0.042924453,0.059573587,0.02181227, 14:49:04.372
50821.851563, 46388.628906, 130893.937500, 68790.445313, 103582.476563, 87391.789063, 101351.476563, 113880.101563, 0.000, 0.000, 0.000,0.015524188,0.049335383,0.042924453,0.059573587,0.02181227, 14:49:04.372
50804.707031, 46370.972656, 130877.687500, 69156.140625, 103556.546875, 87460.492188, 101347.210938, 113851.734375, 0.000, 0.000, 0.000,0.015524188,0.049335383,0.042924453,0.059573587,0.02181227, 14:49:04.373
50890.269531, 46461.250000, 130836.648438, 68772.781250, 103619.601563, 87235.593750, 101342.828125, 113873.929688, 0.000, 0.000, 0.000,0.015524188,0.049335383,0.042924453,0.059573587,0.02181227, 14:49:04.373
50915.796875, 46489.503906, 130852.093750, 68352.234375, 103654.398438, 87133.375000, 101345.578125, 113906.117188, 0.000, 0.000, 0.000,0.015524188,0.049335383,0.042924453,0.059573587,0.02181227, 14:49:04.373
50834.816406, 46406.355469, 130892.304688, 68683.328125, 103596.796875, 87351.085938, 101349.984375, 113889.820313, 0.000, 0.000, 0.000,0.015524188,0.049335383,0.042924453,0.059573587,0.02181227, 14:49:04.374
50798.160156, 46369.496094, 130886.601563, 69134.656250, 103551.671875, 87475.312500, 101346.406250, 113853.656250, 0.000, 0.000, 0.000,0.015524188,0.049335383,0.042924453,0.059573587,0.02181227, 14:49:04.374
50872.480469, 46449.406250, 130848.757813, 68874.796875, 103599.750000, 87283.359375, 101339.320313, 113861.281250, 0.000, 0.000, 0.000,0.015524188,0.049335383,0.042924453,0.059573587,0.02181227, 14:49:04.375
50925.898438, 46505.394531, 130849.882813, 68366.585938, 103652.921875, 87124.664063, 101343.765625, 113902.320313, 0.000, 0.000, 0.000,0.015524188,0.049335383,0.042924453,0.059573587,0.02181227, 14:49:04.375
50852.964844, 46425.265625, 130889.375000, 68576.203125, 103604.554688, 87305.929688, 101346.742188, 113894.000000, 0.278, 0.232, 0.922,0.015524188,0.049335383,0.042924453,0.059573587,0.02181227, 14:49:04.375
50795.410156, 46367.484375, 130894.335938, 69095.226563, 103548.226563, 87482.265625, 101343.609375, 113854.976563, 0.000, 0.000, 0.000,0.015524188,0.049335383,0.042924453,0.059573587,0.02181227, 14:49:04.376
50858.687500, 46436.394531, 130856.539063, 68965.859375, 103585.132813, 87330.921875, 101334.335938, 113853.281250, 0.000, 0.000, 0.000,0.015524188,0.049335383,0.042924453,0.059573587,0.02181227, 14:49:04.376
50932.941406, 46511.339844, 130846.281250, 68419.601563, 103650.843750, 87128.257813, 101337.531250, 113891.390625, 0.000, 0.000, 0.000,0.015524188,0.049335383,0.042924453,0.059573587,0.02181227, 14:49:04.376
50876.816406, 46451.082031, 130887.945313, 68487.617188, 103618.640625, 87266.039063, 101345.289063, 113897.039063, 0.000, 0.000, 0.000,0.015524188,0.049335383,0.042924453,0.059573587,0.02181227, 14:49:04.377
50802.207031, 46376.089844, 130898.742188, 69023.101563, 103555.804688, 87477.101563, 101347.453125, 113864.453125, 0.000, 0.000, 0.000,0.015524188,0.049335383,0.042924453,0.059573587,0.02181227, 14:49:04.377
50844.605469, 46420.773438, 130863.109375, 69027.820313, 103579.742188, 87379.445313, 101346.250000, 113860.812500, 0.000, 0.000, 0.000,0.015524188,0.049335383,0.042924453,0.059573587,0.02181227, 14:49:04.377
50918.992188, 46496.812500, 130844.914063, 68489.296875, 103647.765625, 87150.835938, 101347.164063, 113896.640625, 0.000, 0.000, 0.000,0.015524188,0.049335383,0.042924453,0.059573587,0.02181227, 14:49:04.378
50884.011719, 46463.062500, 130879.250000, 68429.414063, 103632.382813, 87230.984375, 101352.773438, 113910.140625, 0.000, 0.000, 0.000,0.015524188,0.049335383,0.042924453,0.059573587,0.02181227, 14:49:04.378
50804.863281, 46382.929688, 130903.257813, 68953.679688, 103569.484375, 87461.906250, 101355.945313, 113876.140625, 0.000, 0.000, 0.000,0.015524188,0.049335383,0.042924453,0.059573587,0.02181227, 14:49:04.379
50839.800781, 46412.769531, 130877.843750, 69094.515625, 103576.593750, 87421.156250, 101350.828125, 113858.460938, 0.284, 0.232, 0.924,0.015524188,0.049335383,0.042924453,0.059573587,0.02181227, 14:49:04.379
50928.941406, 46503.046875, 130846.343750, 68573.226563, 103647.429688, 87176.453125, 101349.265625, 113890.648438, 0.000, 0.000, 0.000,0.015524188,0.049335383,0.042924453,0.059573587,0.02181227, 14:49:04.380
50922.234375, 46492.273438, 130876.945313, 68357.976563, 103656.812500, 87192.789063, 101358.921875, 113917.515625, 0.000, 0.000, 0.000,0.015524188,0.049335383,0.042924453,0.059573587,0.02181227, 14:49:04.380
50831.531250, 46396.476563, 130911.593750, 68855.750000, 103582.765625, 87433.671875, 101358.164063, 113882.312500, 0.000, 0.000, 0.000,0.015524188,0.049335383,0.042924453,0.059573587,0.02181227, 14:49:04.380
50826.300781, 46394.886719, 130885.929688, 69140.781250, 103565.171875, 87453.992188, 101351.101563, 113851.218750, 0.000, 0.000, 0.000,0.015524188,0.049335383,0.042924453,0.059573587,0.02181227, 14:49:04.381
50919.687500, 46492.902344, 130847.015625, 68687.109375, 103637.679688, 87216.640625, 101351.945313, 113882.085938, 0.000, 0.000, 0.000,0.015524188,0.049335383,0.042924453,0.059573587,0.02181227, 14:49:04.381
50926.703125, 46498.488281, 130870.554688, 68358.468750, 103656.929688, 87165.789063, 101355.187500, 113911.101563, 0.000, 0.000, 0.000,0.015524188,0.049335383,0.042924453,0.059573587,0.02181227, 14:49:04.381
50841.855469, 46408.656250, 130898.000000, 68756.468750, 103588.242188, 87393.890625, 101353.578125, 113888.328125, 0.000, 0.000, 0.000,0.015524188,0.049335383,0.042924453,0.059573587,0.02181227, 14:49:04.382
50821.761719, 46389.167969, 130887.296875, 69134.812500, 103558.671875, 87476.562500, 101351.632813, 113857.570313, 0.000, 0.000, 0.000,0.015524188,0.049335383,0.042924453,0.059573587,0.02181227, 14:49:04.382
50906.007813, 46480.785156, 130848.671875, 68782.414063, 103615.148438, 87260.250000, 101342.781250, 113873.414063, 0.286, 0.234, 0.922,0.015524188,0.049335383,0.042924453,0.059573587,0.02181227, 14:49:04.383
50943.625000, 46517.933594, 130861.437500, 68344.343750, 103657.148438, 87145.312500, 101349.195313, 113909.937500, 0.000, 0.000, 0.000,0.015524188,0.049335383,0.042924453,0.059573587,0.02181227, 14:49:04.383
50861.929688, 46431.054688, 130897.218750, 68649.515625, 103603.570313, 87354.007813, 101356.148438, 113896.039063, 0.000, 0.000, 0.000,0.015524188,0.049335383,0.042924453,0.059573587,0.02181227, 14:49:04.383
50820.242188, 46387.066406, 130891.562500, 69122.742188, 103560.570313, 87494.695313, 101354.007813, 113861.593750, 0.000, 0.000, 0.000,0.015524188,0.049335383,0.042924453,0.059573587,0.02181227, 14:49:04.384
50894.382813, 46465.117188, 130849.500000, 68885.484375, 103612.312500, 87309.640625, 101352.398438, 113871.898438, 0.000, 0.000, 0.000,0.015524188,0.049335383,0.042924453,0.059573587,0.02181227, 14:49:04.384
50950.417969, 46522.515625, 130846.234375, 68364.460938, 103665.148438, 87137.179688, 101350.828125, 113909.046875, 0.000, 0.000, 0.000,0.015524188,0.049335383,0.042924453,0.059573587,0.02181227, 14:49:04.384
50881.531250, 46446.207031, 130883.406250, 68546.562500, 103614.437500, 87308.187500, 101350.609375, 113899.789063, 0.000, 0.000, 0.000,0.015524188,0.049335383,0.042924453,0.059573587,0.02181227, 14:49:04.385
50823.261719, 46384.941406, 130891.585938, 69077.125000, 103557.351563, 87492.835938, 101354.117188, 113863.335938, 0.000, 0.000, 0.000,0.015524188,0.049335383,0.042924453,0.059573587,0.02181227, 14:49:04.385
50880.503906, 46445.894531, 130852.828125, 68969.234375, 103593.000000, 87352.312500, 101349.554688, 113863.804688, 0.000, 0.000, 0.000,0.015524188,0.049335383,0.042924453,0.059573587,0.02181227, 14:49:04.385
50958.398438, 46528.531250, 130844.757813, 68414.242188, 103660.164063, 87140.554688, 101352.617188, 113905.023438, 0.000, 0.000, 0.000,0.015524188,0.049335383,0.042924453,0.059573587,0.02181227, 14:49:04.386
50904.890625, 46472.718750, 130888.257813, 68457.398438, 103630.953125, 87265.609375, 101358.343750, 113909.312500, 0.286, 0.234, 0.918,0.015524188,0.049335383,0.042924453,0.059573587,0.02181227, 14:49:04.386
50831.597656, 46393.570313, 130901.890625, 69005.757813, 103563.984375, 87479.046875, 101356.125000, 113868.703125, 0.000, 0.000, 0.000,0.015524188,0.049335383,0.042924453,0.059573587,0.02181227, 14:49:04.386
50869.417969, 46434.429688, 130860.875000, 69041.562500, 103583.945313, 87393.507813, 101349.445313, 113857.343750, 0.000, 0.000, 0.000,0.015524188,0.049335383,0.042924453,0.059573587,0.02181227, 14:49:04.387
50951.804688, 46515.921875, 130834.453125, 68489.765625, 103649.976563, 87155.617188, 101345.375000, 113891.007813, 0.000, 0.000, 0.000,0.015524188,0.049335383,0.042924453,0.059573587,0.02181227, 14:49:04.387
50925.453125, 46485.277344, 130867.289063, 68376.015625, 103642.148438, 87219.234375, 101354.945313, 113909.601563, 0.000, 0.000, 0.000,0.015524188,0.049335383,0.042924453,0.059573587,0.02181227, 14:49:04.388
50841.769531, 46398.578125, 130895.093750, 68898.984375, 103571.210938, 87455.648438, 101354.250000, 113872.765625, 0.000, 0.000, 0.000,0.015524188,0.049335383,0.042924453,0.059573587,0.02181227, 14:49:04.388
50862.687500, 46421.261719, 130864.585938, 69069.328125, 103570.734375, 87429.898438, 101346.429688, 113854.101563, 0.000, 0.000, 0.000,0.015524188,0.049335383,0.042924453,0.059573587,0.02181227, 14:49:04.388
50945.300781, 46508.792969, 130831.929688, 68561.828125, 103637.953125, 87187.648438, 101343.500000, 113885.398438, 0.000, 0.000, 0.000,0.015524188,0.049335383,0.042924453,0.059573587,0.02181227, 14:49:04.389
50934.484375, 46494.464844, 130860.585938, 68318.015625, 103645.703125, 87184.539063, 101350.250000, 113911.992188, 0.000, 0.000, 0.000,0.015524188,0.049335383,0.042924453,0.059573587,0.02181227, 14:49:04.389
50843.265625, 46399.203125, 130898.625000, 68805.664063, 103573.554688, 87424.351563, 101348.703125, 113877.257813, 0.290, 0.238, 0.922,0.015524188,0.049335383,0.042924453,0.059573587,0.02181227, 14:49:04.390
50847.914063, 46403.828125, 130868.679688, 69097.531250, 103562.531250, 87457.609375, 101347.367188, 113853.437500, 0.000, 0.000, 0.000,0.015524188,0.049335383,0.042924453,0.059573587,0.02181227, 14:49:04.390
50931.667969, 46489.300781, 130831.617188, 68670.523438, 103629.968750, 87223.898438, 101346.468750, 113877.351563, 0.000, 0.000, 0.000,0.015524188,0.049335383,0.042924453,0.059573587,0.02181227, 14:49:04.390
50950.261719, 46508.031250, 130851.039063, 68306.015625, 103660.953125, 87154.367188, 101353.781250, 113910.875000, 0.000, 0.000, 0.000,0.015524188,0.049335383,0.042924453,0.059573587,0.02181227, 14:49:04.391
50863.335938, 46418.132813, 130889.171875, 68691.023438, 103594.210938, 87380.390625, 101352.976563, 113886.648438, 0.000, 0.000, 0.000,0.015524188,0.049335383,0.042924453,0.059573587,0.02181227, 14:49:04.391
50837.296875, 46388.832031, 130874.507813, 69105.601563, 103560.007813, 87479.515625, 101350.875000, 113853.343750, 0.000, 0.000, 0.000,0.015524188,0.049335383,0.042924453,0.059573587,0.02181227, 14:49:04.391
50918.480469, 46472.894531, 130838.296875, 68797.039063, 103618.257813, 87272.828125, 101349.492188, 113866.687500, 0.000, 0.000, 0.000,0.015524188,0.049335383,0.042924453,0.059573587,0.02181227, 14:49:04.392
50960.457031, 46516.148438, 130842.640625, 68338.687500, 103661.796875, 87140.867188, 101353.914063, 113905.335938, 0.000, 0.000, 0.000,0.015524188,0.049335383,0.042924453,0.059573587,0.02181227, 14:49:04.392
50880.437500, 46430.785156, 130883.250000, 68610.445313, 103604.179688, 87341.312500, 101354.984375, 113891.765625, 0.000, 0.000, 0.000,0.015524188,0.049335383,0.042924453,0.059573587,0.02181227, 14:49:04.392
50832.269531, 46377.519531, 130887.046875, 69121.601563, 103549.210938, 87491.359375, 101345.468750, 113848.296875, 0.000, 0.000, 0.000,0.015524188,0.049335383,0.042924453,0.059573587,0.02181227, 14:49:04.392
50907.480469, 46459.351563, 130840.156250, 68907.210938, 103602.210938, 87314.695313, 101343.875000, 113861.367188, 0.294, 0.234, 0.926,0.015524188,0.049335383,0.042924453,0.059573587,0.02181227, 14:49:04.393
50975.007813, 46526.652344, 130841.343750, 68364.171875, 103667.765625, 87133.710938, 101351.054688, 113904.578125, 0.000, 0.000, 0.000,0.015524188,0.049335383,0.042924453,0.059573587,0.02181227, 14:49:04.393
50911.953125, 46459.976563, 130884.750000, 68505.835938, 103627.289063, 87295.648438, 101359.656250, 113904.687500, 0.000, 0.000, 0.000,0.015524188,0.049335383,0.042924453,0.059573587,0.02181227, 14:49:04.393
50842.058594, 46391.066406, 130897.171875, 69045.226563, 103564.304688, 87493.171875, 101359.773438, 113867.273438, 0.000, 0.000, 0.000,0.015524188,0.049335383,0.042924453,0.059573587,0.02181227, 14:49:04.393
50897.804688, 46450.453125, 130849.429688, 68965.882813, 103594.164063, 87364.023438, 101351.656250, 113864.070313, 0.000, 0.000, 0.000,0.015524188,0.049335383,0.042924453,0.059573587,0.02181227, 14:49:04.394
50972.972656, 46523.523438, 130838.140625, 68416.500000, 103659.500000, 87148.242188, 101351.859375, 113900.281250, 0.000, 0.000, 0.000,0.015524188,0.049335383,0.042924453,0.059573587,0.02181227, 14:49:04.394
50921.117188, 46467.175781, 130879.429688, 68434.085938, 103630.437500, 87256.937500, 101356.554688, 113906.875000, 0.000, 0.000, 0.000,0.015524188,0.049335383,0.042924453,0.059573587,0.02181227, 14:49:04.394
50843.222656, 46384.718750, 130895.234375, 68979.359375, 103560.257813, 87478.351563, 101353.289063, 113869.773438, 0.000, 0.000, 0.000,0.015524188,0.049335383,0.042924453,0.059573587,0.02181227, 14:49:04.394
50876.257813, 46421.777344, 130862.554688, 69064.117188, 103574.601563, 87407.140625, 101346.429688, 113854.328125, 0.000, 0.000, 0.000,0.015524188,0.049335383,0.042924453,0.059573587,0.02181227, 14:49:04.395
50963.585938, 46516.527344, 130837.359375, 68528.234375, 103648.679688, 87163.890625, 101348.328125, 113888.796875, 0.284, 0.232, 0.924,0.015524188,0.049335383,0.042924453,0.059573587,0.02181227, 14:49:04.395
50947.738281, 46492.878906, 130871.539063, 68388.046875, 103646.757813, 87209.734375, 101356.664063, 113909.156250, 0.000, 0.000, 0.000,0.015524188,0.049335383,0.042924453,0.059573587,0.02181227, 14:49:04.395
50861.660156, 46401.257813, 130898.273438, 68907.695313, 103570.898438, 87447.421875, 101353.179688, 113873.593750, 0.000, 0.000, 0.000,0.015524188,0.049335383,0.042924453,0.059573587,0.02181227, 14:49:04.396
50873.214844, 46411.070313, 130870.445313, 69118.031250, 103567.070313, 87435.687500, 101348.976563, 113852.609375, 0.000, 0.000, 0.000,0.015524188,0.049335383,0.042924453,0.059573587,0.02181227, 14:49:04.396
50959.898438, 46499.449219, 130838.187500, 68629.328125, 103637.414063, 87190.265625, 101345.757813, 113879.539063, 0.000, 0.000, 0.000,0.015524188,0.049335383,0.042924453,0.059573587,0.02181227, 14:49:04.396
50961.105469, 46500.253906, 130868.968750, 68360.281250, 103653.257813, 87171.710938, 101354.921875, 113909.312500, 0.000, 0.000, 0.000,0.015524188,0.049335383,0.042924453,0.059573587,0.02181227, 14:49:04.397
50876.679688, 46408.476563, 130901.109375, 68810.734375, 103588.460938, 87410.492188, 101358.945313, 113884.992188, 0.000, 0.000, 0.000,0.015524188,0.049335383,0.042924453,0.059573587,0.02181227, 14:49:04.397
50859.785156, 46391.355469, 130878.492188, 69142.835938, 103564.367188, 87461.187500, 101351.835938, 113853.031250, 0.000, 0.000, 0.000,0.015524188,0.049335383,0.042924453,0.059573587,0.02181227, 14:49:04.397
50944.160156, 46479.757813, 130834.500000, 68741.648438, 103625.656250, 87229.671875, 101346.070313, 113871.718750, 0.000, 0.000, 0.000,0.015524188,0.049335383,0.042924453,0.059573587,0.02181227, 14:49:04.397
50971.027344, 46505.597656, 130854.234375, 68354.023438, 103656.031250, 87145.359375, 101353.023438, 113906.539063, 0.000, 0.000, 0.000,0.015524188,0.049335383,0.042924453,0.059573587,0.02181227, 14:49:04.397
50887.589844, 46416.726563, 130892.820313, 68711.179688, 103590.945313, 87367.242188, 101354.875000, 113887.742188, 0.278, 0.230, 0.928,0.015524188,0.049335383,0.042924453,0.059573587,0.02181227, 14:49:04.398
50848.160156, 46381.230469, 130889.195313, 69152.296875, 103552.523438, 87485.062500, 101352.062500, 113853.476563, 0.000, 0.000, 0.000,0.015524188,0.049335383,0.042924453,0.059573587,0.02181227, 14:49:04.398
50931.777344, 46470.257813, 130848.601563, 68853.250000, 103609.093750, 87282.218750, 101346.312500, 113868.093750, 0.000, 0.000, 0.000,0.015524188,0.049335383,0.042924453,0.059573587,0.02181227, 14:49:04.398
50980.886719, 46520.707031, 130858.726563, 68364.351563, 103660.343750, 87135.609375, 101352.101563, 113907.773438, 0.000, 0.000, 0.000,0.015524188,0.049335383,0.042924453,0.059573587,0.02181227, 14:49:04.399
50909.089844, 46445.941406, 130903.117188, 68602.015625, 103614.570313, 87328.796875, 101360.617188, 113900.531250, 0.000, 0.000, 0.000,0.015524188,0.049335383,0.042924453,0.059573587,0.02181227, 14:49:04.399
50853.703125, 46387.734375, 130908.039063, 69118.164063, 103559.632813, 87492.078125, 101354.875000, 113857.992188, 0.000, 0.000, 0.000,0.015524188,0.049335383,0.042924453,0.059573587,0.02181227, 14:49:04.399
50928.558594, 46463.375000, 130868.320313, 68959.468750, 103606.945313, 87329.203125, 101353.710938, 113863.984375, 0.000, 0.000, 0.000,0.015524188,0.049335383,0.042924453,0.059573587,0.02181227, 14:49:04.399
50992.843750, 46531.433594, 130861.125000, 68416.203125, 103668.523438, 87132.390625, 101354.515625, 113904.867188, 0.000, 0.000, 0.000,0.015524188,0.049335383,0.042924453,0.059573587,0.02181227, 14:49:04.400
50930.191406, 46464.000000, 130902.156250, 68525.015625, 103628.851563, 87280.671875, 101361.085938, 113904.328125, 0.000, 0.000, 0.000,0.015524188,0.049335383,0.042924453,0.059573587,0.02181227, 14:49:04.400
50856.363281, 46386.484375, 130914.539063, 69063.156250, 103558.734375, 87483.359375, 101354.695313, 113862.820313, 0.000, 0.000, 0.000,0.015524188,0.049335383,0.042924453,0.059573587,0.02181227, 14:49:04.401
50902.453125, 46435.972656, 130872.429688, 69029.046875, 103586.406250, 87367.398438, 101349.312500, 113858.039063, 0.282, 0.236, 0.922,0.015524188,0.049335383,0.042924453,0.059573587,0.02181227, 14:49:04.402
50982.562500, 46518.160156, 130853.835938, 68464.890625, 103657.375000, 87138.695313, 101351.593750, 113895.765625, 0.000, 0.000, 0.000,0.015524188,0.049335383,0.042924453,0.059573587,0.02181227, 14:49:04.402
50939.535156, 46474.527344, 130893.195313, 68428.632813, 103639.937500, 87235.187500, 101361.828125, 113908.171875, 0.000, 0.000, 0.000,0.015524188,0.049335383,0.042924453,0.059573587,0.02181227, 14:49:04.403
50855.289063, 46384.988281, 130921.000000, 68982.796875, 103565.328125, 87465.968750, 101359.390625, 113867.070313, 0.000, 0.000, 0.000,0.015524188,0.049335383,0.042924453,0.059573587,0.02181227, 14:49:04.403
50885.285156, 46418.781250, 130882.687500, 69098.648438, 103571.070313, 87405.312500, 101348.906250, 113849.945313, 0.000, 0.000, 0.000,0.015524188,0.049335383,0.042924453,0.059573587,0.02181227, 14:49:04.403
50981.914063, 46521.667969, 130848.382813, 68548.664063, 103649.570313, 87160.492188, 101351.367188, 113890.468750, 0.000, 0.000, 0.000,0.015524188,0.049335383,0.042924453,0.059573587,0.02181227, 14:49:04.404
50963.046875, 46496.343750, 130882.468750, 68369.671875, 103654.687500, 87194.734375, 101362.921875, 113915.015625, 0.000, 0.000, 0.000,0.015524188,0.049335383,0.042924453,0.059573587,0.02181227, 14:49:04.404
50870.644531, 46398.242188, 130909.445313, 68870.015625, 103583.281250, 87435.531250, 101363.500000, 113883.500000, 0.000, 0.000, 0.000,0.015524188,0.049335383,0.042924453,0.059573587,0.02181227, 14:49:04.404
50871.160156, 46403.785156, 130880.054688, 69109.492188, 103567.187500, 87441.945313, 101350.921875, 113857.320313, 0.000, 0.000, 0.000,0.015524188,0.049335383,0.042924453,0.059573587,0.02181227, 14:49:04.405
50959.472656, 46494.308594, 130844.984375, 68642.562500, 103637.640625, 87203.273438, 101350.468750, 113884.546875, 0.282, 0.230, 0.924,0.015524188,0.049335383,0.042924453,0.059573587,0.02181227, 14:49:04.406
50967.382813, 46499.023438, 130870.484375, 68335.609375, 103656.460938, 87166.187500, 101356.437500, 113912.781250, 0.000, 0.000, 0.000,0.013031666,0.041170463,0.03787968,0.050185516,0.018943494, 14:49:04.407
50879.406250, 46407.671875, 130908.554688, 68769.875000, 103584.617188, 87397.328125, 101356.351563, 113882.070313, 0.000, 0.000, 0.000,0.013031666,0.041170463,0.03787968,0.050185516,0.018943494, 14:49:04.408
50866.800781, 46392.765625, 130898.781250, 69143.132813, 103558.781250, 87465.320313, 101352.101563, 113852.070313, 0.000, 0.000, 0.000,0.013031666,0.041170463,0.03787968,0.050185516,0.018943494, 14:49:04.408
50960.523438, 46489.750000, 130860.117188, 68760.000000, 103625.343750, 87238.898438, 101352.710938, 113875.117188, 0.000, 0.000, 0.000,0.013031666,0.041170463,0.03787968,0.050185516,0.018943494, 14:49:04.409
50994.765625, 46527.546875, 130878.554688, 68336.789063, 103666.898438, 87139.656250, 101361.625000, 113912.976563, 0.000, 0.000, 0.000,0.013031666,0.041170463,0.03787968,0.050185516,0.018943494, 14:49:04.409
50912.535156, 46440.039063, 130918.429688, 68656.640625, 103605.250000, 87356.226563, 101361.023438, 113897.218750, 0.000, 0.000, 0.000,0.013031666,0.041170463,0.03787968,0.050185516,0.018943494, 14:49:04.409
50863.718750, 46389.300781, 130917.914063, 69130.500000, 103552.140625, 87483.875000, 101350.945313, 113852.828125, 0.000, 0.000, 0.000,0.013031666,0.041170463,0.03787968,0.050185516,0.018943494, 14:49:04.409
50940.449219, 46469.230469, 130865.953125, 68863.289063, 103603.328125, 87287.960938, 101344.414063, 113864.609375, 0.000, 0.000, 0.000,0.013031666,0.041170463,0.03787968,0.050185516,0.018943494, 14:49:04.410
50992.507813, 46521.445313, 130867.070313, 68356.148438, 103663.296875, 87129.804688, 101351.546875, 113907.617188, 0.000, 0.000, 0.000,0.013031666,0.041170463,0.03787968,0.050185516,0.018943494, 14:49:04.412
50917.406250, 46442.566406, 130904.867188, 68564.171875, 103616.625000, 87309.867188, 101361.179688, 113900.687500, 0.286, 0.230, 0.916,0.013031666,0.041170463,0.03787968,0.050185516,0.018943494, 14:49:04.412
50856.675781, 46377.164063, 130908.890625, 69081.882813, 103562.359375, 87485.687500, 101361.828125, 113862.953125, 0.000, 0.000, 0.000,0.003953664,0.019078214,0.016395709,0.016484024,0.008822293, 14:49:04.852
50913.515625, 46437.667969, 130865.210938, 68953.851563, 103599.640625, 87335.546875, 101351.546875, 113863.984375, 0.000, 0.000, 0.000,0.003953664,0.019078214,0.016395709,0.016484024,0.008822293, 14:49:04.852
50983.007813, 46507.718750, 130853.078125, 68414.195313, 103659.203125, 87131.187500, 101350.468750, 113901.179688, 0.000, 0.000, 0.000,0.003953664,0.019078214,0.016395709,0.016484024,0.008822293, 14:49:04.853
50933.992188, 46457.117188, 130885.664063, 68475.039063, 103629.632813, 87267.507813, 101362.296875, 113909.000000, 0.000, 0.000, 0.000,0.003953664,0.019078214,0.016395709,0.016484024,0.008822293, 14:49:04.853
50858.195313, 46381.050781, 130899.414063, 69011.992188, 103564.437500, 87480.835938, 101360.218750, 113871.226563, 0.000, 0.000, 0.000,0.003953664,0.019078214,0.016395709,0.016484024,0.008822293, 14:49:04.853
50902.296875, 46430.160156, 130863.515625, 69023.125000, 103585.492188, 87386.132813, 101352.710938, 113864.875000, 0.000, 0.000, 0.000,0.003953664,0.019078214,0.016395709,0.016484024,0.008822293, 14:49:04.853
50981.398438, 46515.699219, 130844.468750, 68475.375000, 103655.742188, 87153.609375, 101350.585938, 113898.695313, 0.000, 0.000, 0.000,0.003953664,0.019078214,0.016395709,0.016484024,0.008822293, 14:49:04.854
50947.156250, 46478.820313, 130881.570313, 68406.101563, 103639.625000, 87228.843750, 101357.179688, 113913.406250, 0.000, 0.000, 0.000,0.003953664,0.019078214,0.016395709,0.016484024,0.008822293, 14:49:04.854
50864.386719, 46388.046875, 130907.750000, 68943.593750, 103564.789063, 87464.742188, 101356.750000, 113880.343750, 0.292, 0.234, 0.914,0.003953664,0.019078214,0.016395709,0.016484024,0.008822293, 14:49:04.854
50884.011719, 46408.656250, 130872.429688, 69096.148438, 103564.140625, 87424.664063, 101347.164063, 113859.671875, 0.000, 0.000, 0.000,0.003953664,0.019078214,0.016395709,0.016484024,0.008822293, 14:49:04.855
50969.152344, 46499.406250, 130842.812500, 68590.929688, 103632.429688, 87177.882813, 101343.609375, 113886.898438, 0.000, 0.000, 0.000,0.003953664,0.019078214,0.016395709,0.016484024,0.008822293, 14:49:04.855
50960.523438, 46488.027344, 130874.375000, 68373.804688, 103640.921875, 87189.210938, 101353.578125, 113912.351563, 0.000, 0.000, 0.000,0.003953664,0.019078214,0.016395709,0.016484024,0.008822293, 14:49:04.855
50871.316406, 46395.425781, 130911.414063, 68864.070313, 103569.375000, 87431.210938, 101353.109375, 113878.085938, 0.000, 0.000, 0.000,0.003953664,0.019078214,0.016395709,0.016484024,0.008822293, 14:49:04.855
50866.914063, 46393.593750, 130888.148438, 69148.671875, 103553.257813, 87451.468750, 101345.195313, 113849.031250, 0.000, 0.000, 0.000,0.003953664,0.019078214,0.016395709,0.016484024,0.008822293, 14:49:04.856
50963.250000, 46492.007813, 130850.773438, 68698.195313, 103627.984375, 87212.593750, 101347.273438, 113878.867188, 0.000, 0.000, 0.000,0.003953664,0.019078214,0.016395709,0.016484024,0.008822293, 14:49:04.856
50975.183594, 46501.617188, 130875.023438, 68365.132813, 103650.242188, 87155.062500, 101350.671875, 113905.734375, 0.000, 0.000, 0.000,0.003953664,0.019078214,0.016395709,0.016484024,0.008822293, 14:49:04.857
50883.007813, 46408.613281, 130910.296875, 68778.906250, 103582.945313, 87385.281250, 101353.265625, 113880.125000, 0.000, 0.000, 0.000,0.003953664,0.019078214,0.016395709,0.016484024,0.008822293, 14:49:04.857
50859.738281, 46389.121094, 130891.273438, 69155.601563, 103551.875000, 87466.554688, 101347.945313, 113849.500000, 0.000, 0.000, 0.000,0.003953664,0.019078214,0.016395709,0.016484024,0.008822293, 14:49:04.858
50940.941406, 46474.996094, 130851.625000, 68804.414063, 103611.578125, 87248.109375, 101344.351563, 113865.234375, 0.296, 0.234, 0.910,0.003953664,0.019078214,0.016395709,0.016484024,0.008822293, 14:49:04.858
50979.878906, 46511.093750, 130863.734375, 68363.968750, 103651.585938, 87128.101563, 101344.726563, 113898.804688, 0.000, 0.000, 0.000,0.003953664,0.019078214,0.016395709,0.016484024,0.008822293, 14:49:04.858
50899.593750, 46424.347656, 130904.687500, 68668.781250, 103594.187500, 87337.804688, 101349.156250, 113885.617188, 0.000, 0.000, 0.000,0.003953664,0.019078214,0.016395709,0.016484024,0.008822293, 14:49:04.859
50854.933594, 46378.773438, 130899.234375, 69143.132813, 103547.734375, 87480.273438, 101346.937500, 113852.515625, 0.000, 0.000, 0.000,0.003953664,0.019078214,0.016395709,0.016484024,0.008822293, 14:49:04.859
50927.933594, 46456.734375, 130852.851563, 68892.835938, 103598.523438, 87297.710938, 101342.289063, 113865.640625, 0.000, 0.000, 0.000,0.003953664,0.019078214,0.016395709,0.016484024,0.008822293, 14:49:04.859
50981.355469, 46511.722656, 130852.453125, 68376.914063, 103651.789063, 87128.015625, 101344.835938, 113904.062500, 0.000, 0.000, 0.000,0.003953664,0.019078214,0.016395709,0.016484024,0.008822293, 14:49:04.860
50911.035156, 46442.117188, 130888.210938, 68551.789063, 103608.578125, 87300.789063, 101353.445313, 113902.968750, 0.000, 0.000, 0.000,0.003953664,0.019078214,0.016395709,0.016484024,0.008822293, 14:49:04.860
50844.382813, 46373.093750, 130895.789063, 69088.632813, 103544.835938, 87487.093750, 101348.054688, 113860.476563, 0.000, 0.000, 0.000,0.003953664,0.019078214,0.016395709,0.016484024,0.008822293, 14:49:04.860
50905.023438, 46431.164063, 130853.164063, 68989.570313, 103583.546875, 87346.125000, 101343.679688, 113859.085938, 0.000, 0.000, 0.000,0.003953664,0.019078214,0.016395709,0.016484024,0.008822293, 14:49:04.860
50983.210938, 46509.957031, 130848.359375, 68434.445313, 103654.578125, 87132.750000, 101347.164063, 113899.945313, 0.286, 0.234, 0.916,0.003953664,0.019078214,0.016395709,0.016484024,0.008822293, 14:49:04.861
50932.292969, 46459.015625, 130891.656250, 68472.085938, 103627.242188, 87253.492188, 101353.359375, 113906.742188, 0.000, 0.000, 0.000,0.003953664,0.019078214,0.016395709,0.016484024,0.008822293, 14:49:04.861
50845.925781, 46370.593750, 130912.109375, 69026.500000, 103558.421875, 87472.140625, 101353.265625, 113864.968750, 0.000, 0.000, 0.000,0.003953664,0.019078214,0.016395709,0.016484024,0.008822293, 14:49:04.861
50884.593750, 46413.082031, 130869.523438, 69070.328125, 103574.828125, 87385.726563, 101345.531250, 113853.296875, 0.000, 0.000, 0.000,0.003953664,0.019078214,0.016395709,0.016484024,0.008822293, 14:49:04.861
50973.242188, 46503.742188, 130848.984375, 68525.664063, 103647.539063, 87147.726563, 101346.359375, 113887.453125, 0.000, 0.000, 0.000,0.003953664,0.019078214,0.016395709,0.016484024,0.008822293, 14:49:04.861
50942.550781, 46471.152344, 130883.164063, 68409.343750, 103640.875000, 87209.710938, 101356.867188, 113905.914063, 0.000, 0.000, 0.000,0.003953664,0.019078214,0.016395709,0.016484024,0.008822293, 14:49:04.862
50853.167969, 46377.722656, 130915.148438, 68939.460938, 103569.015625, 87448.937500, 101357.710938, 113869.304688, 0.000, 0.000, 0.000,0.003953664,0.019078214,0.016395709,0.016484024,0.008822293, 14:49:04.862
50876.636719, 46398.824219, 130885.125000, 69118.250000, 103567.187500, 87423.304688, 101347.187500, 113850.882813, 0.000, 0.000, 0.000,0.003953664,0.019078214,0.016395709,0.016484024,0.008822293, 14:49:04.862
50970.156250, 46494.128906, 130849.234375, 68598.593750, 103639.960938, 87178.507813, 101346.781250, 113887.546875, 0.000, 0.000, 0.000,0.003953664,0.019078214,0.016395709,0.016484024,0.008822293, 14:49:04.862
50968.210938, 46490.105469, 130880.726563, 68352.882813, 103649.820313, 87175.687500, 101356.328125, 113915.257813, 0.000, 0.000, 0.000,0.003953664,0.019078214,0.016395709,0.016484024,0.008822293, 14:49:04.863
50877.015625, 46396.968750, 130913.382813, 68815.968750, 103579.429688, 87416.015625, 101357.914063, 113886.203125, 0.288, 0.234, 0.916,0.003953664,0.019078214,0.016395709,0.016484024,0.008822293, 14:49:04.863
50869.351563, 46392.207031, 130891.609375, 69124.398438, 103558.398438, 87456.765625, 101352.351563, 113857.437500, 0.000, 0.000, 0.000,0.003953664,0.019078214,0.016395709,0.016484024,0.008822293, 14:49:04.863
50959.718750, 46486.910156, 130853.453125, 68691.359375, 103630.882813, 87225.843750, 101353.242188, 113884.679688, 0.000, 0.000, 0.000,0.003953664,0.019078214,0.016395709,0.016484024,0.008822293, 14:49:04.864
50974.515625, 46500.253906, 130878.710938, 68335.585938, 103660.476563, 87156.937500, 101360.242188, 113917.515625, 0.000, 0.000, 0.000,0.003953664,0.019078214,0.016395709,0.016484024,0.008822293, 14:49:04.864
50889.691406, 46412.210938, 130915.281250, 68719.187500, 103598.007813, 87381.859375, 101363.460938, 113898.429688, 0.000, 0.000, 0.000,0.003953664,0.019078214,0.016395709,0.016484024,0.008822293, 14:49:04.864
50860.074219, 46381.277344, 130905.242188, 69133.812500, 103563.140625, 87482.734375, 101360.843750, 113864.859375, 0.000, 0.000, 0.000,0.003953664,0.019078214,0.016395709,0.016484024,0.008822293, 14:49:04.864
50940.136719, 46466.035156, 130862.218750, 68811.500000, 103618.101563, 87273.835938, 101353.960938, 113880.679688, 0.000, 0.000, 0.000,0.003953664,0.019078214,0.016395709,0.016484024,0.008822293, 14:49:04.865
