%OpenBCI Raw EEG Data
%
%Sample Rate = 250.0 Hz
%First Column = SampleIndex
%Last Column = Timestamp 
%Other Columns = EEG data in microvolts followed by Accel Data (in G) interleaved with Aux Data
0, 0.00, 0.00, 0.00, 0.00, 0.00, 0.00, 0.00, 0.00, 0.000, 0.000, 0.000, 11:51:13.396
1, -43381.83, -43448.39, -91507.77, -88167.81, -60919.32, -54529.65, -75168.18, -75472.41, 0.000, 0.000, 0.000, 11:51:13.873
2, -43433.13, -43502.02, -91593.76, -88001.81, -60981.01, -54591.03, -75226.67, -75518.48, 0.000, 0.000, 0.000, 11:51:13.874
3, -43362.32, -43440.43, -91635.06, -88186.03, -61022.61, -54586.36, -75178.55, -75547.09, 0.000, 0.000, 0.000, 11:51:13.874
4, -43289.49, -43376.04, -91574.16, -88401.48, -60983.25, -54537.52, -75121.13, -75521.80, 0.000, 0.000, 0.000, 11:51:13.874
5, -43367.05, -43447.30, -91505.67, -88232.66, -60924.98, -54530.90, -75162.72, -75483.29, 0.000, 0.000, 0.000, 11:51:13.875
6, -43439.81, -43516.32, -91580.73, -88002.62, -60954.34, -54589.64, -75240.15, -75514.88, 0.000, 0.000, 0.000, 11:51:13.875
7, -43372.75, -43454.96, -91634.08, -88133.06, -61007.61, -54594.87, -75204.25, -75544.24, 0.000, 0.000, 0.000, 11:51:13.876
8, -43285.61, -43373.16, -91587.77, -88387.98, -60995.25, -54542.64, -75118.55, -75517.27, 0.000, 0.000, 0.000, 11:51:13.876
9, -43335.45, -43421.13, -91506.67, -88292.38, -60929.98, -54523.86, -75135.63, -75474.66, 0.000, 0.000, 0.000, 11:51:13.877
10, -43436.66, -43522.33, -91565.84, -88019.00, -60948.42, -54587.29, -75233.89, -75504.77, 0.000, 0.000, 0.000, 11:51:13.878
11, -43402.19, -43496.02, -91639.94, -88091.80, -61014.85, -54614.79, -75223.03, -75547.73, 0.000, 0.000, 0.000, 11:51:13.878
12, -43319.33, -43417.17, -91615.23, -88359.28, -61016.89, -54572.43, -75142.43, -75534.27, 0.000, 0.000, 0.000, 11:51:13.879
13, -43340.70, -43438.36, -91533.92, -88345.29, -60954.10, -54537.61, -75138.80, -75493.26, 0.000, 0.000, 0.000, 11:51:13.879
14, -43439.16, -43532.84, -91551.67, -88056.62, -60938.50, -54579.38, -75221.53, -75501.24, 0.000, 0.000, 0.000, 11:51:13.880
15, -43430.51, -43528.59, -91643.53, -88066.02, -61006.27, -54630.30, -75238.65, -75558.98, 0.000, 0.000, 0.000, 11:51:13.880
16, -43331.83, -43439.41, -91634.77, -88336.20, -61023.30, -54597.80, -75165.36, -75561.95, 0.000, 0.000, 0.000, 11:51:13.880
17, -43311.78, -43419.96, -91533.45, -88389.68, -60966.15, -54544.87, -75129.66, -75507.63, 0.000, 0.000, 0.000, 11:51:13.880
18, -43423.76, -43525.82, -91529.20, -88095.48, -60930.56, -54566.02, -75199.49, -75486.69, 0.000, 0.000, 0.000, 11:51:13.881
19, -43433.89, -43538.56, -91626.91, -88042.09, -60994.78, -54617.54, -75229.73, -75541.18, 0.000, 0.000, 0.000, 11:51:13.881
20, -43336.16, -43450.31, -91629.50, -88290.28, -61011.54, -54593.46, -75158.12, -75555.47, 0.000, 0.000, 0.000, 11:51:13.881
21, -43311.49, -43427.09, -91549.97, -88413.13, -60962.26, -54540.42, -75109.99, -75504.16, 0.000, 0.000, 0.000, 11:51:13.882
22, -43415.07, -43524.86, -91519.08, -88147.39, -60921.78, -54558.28, -75188.47, -75480.27, 0.000, 0.000, 0.000, 11:51:13.882
23, -43452.71, -43560.73, -91612.09, -88017.08, -60986.11, -54621.58, -75243.08, -75532.84, 0.000, 0.000, 0.000, 11:51:13.883
24, -43369.16, -43480.54, -91646.44, -88237.48, -61031.64, -54614.50, -75189.27, -75560.83, 0.000, 0.000, 0.000, 11:51:13.883
25, -43320.63, -43432.75, -91584.05, -88421.02, -61003.70, -54559.22, -75135.09, -75524.66, 0.000, 0.000, 0.000, 11:51:13.884
26, -43396.38, -43503.33, -91521.54, -88213.26, -60945.76, -54549.86, -75174.55, -75481.57, 0.000, 0.000, 0.000, 11:51:13.884
27, -43454.96, -43563.13, -91599.26, -88017.99, -60982.42, -54609.40, -75234.12, -75514.83, 0.000, 0.000, 0.000, 11:51:13.884
28, -43386.95, -43503.45, -91641.99, -88186.99, -61026.23, -54621.05, -75202.87, -75555.47, 0.000, 0.000, 0.000, 11:51:13.885
29, -43315.49, -43435.14, -91592.66, -88423.23, -61010.80, -54557.28, -75124.16, -75520.22, 0.000, 0.000, 0.000, 11:51:13.885
30, -43374.03, -43493.12, -91515.62, -88277.09, -60949.90, -54535.33, -75152.28, -75470.33, 0.000, 0.000, 0.000, 11:51:13.885
31, -43451.16, -43565.98, -91575.36, -88034.94, -60976.36, -54601.84, -75235.90, -75511.23, 0.000, 0.000, 0.000, 11:51:13.886
32, -43421.44, -43534.31, -91638.26, -88134.45, -61030.79, -54627.64, -75222.96, -75555.91, 0.000, 0.000, 0.000, 11:51:13.886
33, -43335.38, -43455.39, -91606.05, -88380.70, -61022.92, -54577.91, -75137.82, -75535.66, 0.000, 0.000, 0.000, 11:51:13.886
34, -43356.66, -43477.98, -91518.70, -88307.80, -60962.57, -54533.79, -75132.23, -75478.87, 0.000, 0.000, 0.000, 11:51:13.886
35, -43451.54, -43564.20, -91556.81, -88037.80, -60968.45, -54573.59, -75206.22, -75486.84, 0.000, 0.000, 0.000, 11:51:13.887
36, -43426.33, -43545.18, -91634.86, -88089.79, -61025.87, -54611.70, -75203.65, -75534.97, 0.000, 0.000, 0.000, 11:51:13.887
37, -43345.04, -43464.38, -91623.30, -88349.94, -61027.12, -54584.41, -75142.63, -75536.06, 0.000, 0.000, 0.000, 11:51:13.887
38, -43351.45, -43465.31, -91536.41, -88356.58, -60965.90, -54536.62, -75130.07, -75482.77, 0.000, 0.000, 0.000, 11:51:13.887
39, -43461.42, -43573.27, -91553.91, -88059.50, -60954.01, -54583.27, -75220.55, -75491.88, 0.000, 0.000, 0.000, 11:51:13.888
40, -43437.08, -43558.52, -91634.46, -88049.30, -61010.34, -54627.86, -75231.09, -75543.28, 0.000, 0.000, 0.000, 11:51:13.888
41, -43345.89, -43474.28, -91622.50, -88309.91, -61034.10, -54595.61, -75158.23, -75546.10, 0.000, 0.000, 0.000, 11:51:13.888
42, -43339.34, -43467.91, -91547.94, -88388.38, -60990.71, -54541.74, -75125.51, -75496.41, 0.000, 0.000, 0.000, 11:51:13.888
43, -43436.46, -43558.23, -91528.85, -88109.48, -60950.23, -54562.98, -75196.77, -75479.45, 0.000, 0.000, 0.000, 11:51:13.889
44, -43448.50, -43572.98, -91614.39, -88033.04, -61008.53, -54618.70, -75229.98, -75530.41, 0.000, 0.000, 0.000, 11:51:13.889
45, -43367.90, -43496.76, -91636.34, -88271.82, -61048.45, -54607.59, -75173.14, -75553.27, 0.000, 0.000, 0.000, 11:51:13.889
46, -43325.05, -43458.61, -91559.65, -88417.62, -61006.94, -54548.67, -75116.97, -75503.45, 0.000, 0.000, 0.000, 11:51:13.889
47, -43414.55, -43542.27, -91510.09, -88163.37, -60950.46, -54551.42, -75175.87, -75470.91, 0.000, 0.000, 0.000, 11:51:13.890
48, -43447.63, -43572.54, -91595.23, -88020.70, -61003.63, -54606.47, -75227.12, -75515.30, 0.000, 0.000, 0.000, 11:51:13.890
49, -43361.54, -43499.27, -91627.11, -88225.04, -61045.34, -54599.03, -75168.49, -75537.59, 0.000, 0.000, 0.000, 11:51:13.890
50, -43296.73, -43443.34, -91549.92, -88415.98, -61008.10, -54544.04, -75104.45, -75498.65, 0.000, 0.000, 0.000, 11:51:13.890
51, -43388.78, -43527.76, -91498.56, -88206.35, -60949.65, -54552.16, -75163.15, -75473.63, 0.000, 0.000, 0.000, 11:51:13.891
52, -43461.36, -43601.12, -91589.35, -88003.06, -60989.59, -54617.87, -75241.84, -75518.77, 0.000, 0.000, 0.000, 11:51:13.891
53, -43392.25, -43539.57, -91634.82, -88165.65, -61052.11, -54624.22, -75200.20, -75555.82, 0.000, 0.000, 0.000, 11:51:13.891
54, -43320.18, -43466.52, -91581.93, -88400.56, -61035.14, -54570.38, -75130.34, -75526.74, 0.000, 0.000, 0.000, 11:51:13.891
55, -43369.71, -43514.20, -91508.75, -88265.72, -60974.71, -54543.44, -75155.75, -75475.53, 0.000, 0.000, 0.000, 11:51:13.892
56, -43453.51, -43592.98, -91567.49, -88014.88, -60998.45, -54600.66, -75234.27, -75502.23, 0.000, 0.000, 0.000, 11:51:13.892
57, -43409.90, -43551.32, -91640.18, -88113.34, -61062.71, -54631.19, -75218.78, -75549.54, 0.000, 0.000, 0.000, 11:51:13.892
58, -43319.71, -43467.04, -91604.84, -88371.80, -61059.13, -54582.96, -75138.65, -75531.26, 0.000, 0.000, 0.000, 11:51:13.892
59, -43351.09, -43494.68, -91522.43, -88310.89, -60991.89, -54547.26, -75139.74, -75481.64, 0.000, 0.000, 0.000, 11:51:13.893
60, -43452.32, -43592.25, -91556.68, -88029.46, -60978.55, -54593.38, -75221.77, -75492.05, 0.000, 0.000, 0.000, 11:51:13.893
61, -43430.67, -43574.84, -91647.54, -88071.59, -61056.54, -54635.55, -75238.31, -75547.91, 0.000, 0.000, 0.000, 11:51:13.893
62, -43324.14, -43474.21, -91627.06, -88346.88, -61064.52, -54591.30, -75153.09, -75541.09, 0.000, 0.000, 0.000, 11:51:13.894
63, -43324.36, -43474.23, -91527.51, -88369.49, -60996.14, -54541.14, -75126.89, -75485.66, 0.000, 0.000, 0.000, 11:51:13.894
64, -43423.47, -43574.34, -91530.28, -88083.57, -60968.58, -54578.96, -75206.55, -75484.34, 0.000, 0.000, 0.000, 11:51:13.894
65, -43439.86, -43584.13, -91634.41, -88034.78, -61041.34, -54639.20, -75242.72, -75543.64, 0.000, 0.000, 0.000, 11:51:13.901
66, -43350.13, -43498.73, -91640.00, -88288.70, -61071.71, -54610.43, -75166.05, -75547.40, 0.000, 0.000, 0.000, 11:51:13.901
67, -43336.23, -43478.75, -91560.48, -88393.01, -61016.39, -54559.96, -75130.52, -75500.97, 0.000, 0.000, 0.000, 11:51:13.901
68, -43427.74, -43559.35, -91536.96, -88131.98, -60982.75, -54575.56, -75200.77, -75476.98, 0.000, 0.000, 0.000, 11:51:13.902
69, -43455.68, -43589.52, -91619.84, -88024.50, -61036.67, -54632.11, -75246.50, -75529.05, 0.000, 0.000, 0.000, 11:51:13.902
70, -43380.09, -43517.66, -91651.91, -88245.73, -61075.74, -54628.51, -75200.54, -75565.34, 0.000, 0.000, 0.000, 11:51:13.902
71, -43348.52, -43482.64, -91590.67, -88399.41, -61049.72, -54575.98, -75145.98, -75521.42, 0.000, 0.000, 0.000, 11:51:13.902
72, -43438.42, -43562.70, -91550.57, -88173.88, -61005.29, -54579.92, -75202.22, -75488.74, 0.000, 0.000, 0.000, 11:51:13.902
73, -43469.61, -43594.02, -91621.36, -88018.98, -61044.31, -54627.53, -75254.30, -75527.88, 0.000, 0.000, 0.000, 11:51:13.903
74, -43378.54, -43510.46, -91650.35, -88215.42, -61080.63, -54622.88, -75196.09, -75555.58, 0.000, 0.000, 0.000, 11:51:13.903
75, -43313.63, -43448.48, -91583.90, -88426.72, -61053.25, -54573.57, -75126.38, -75523.21, 0.000, 0.000, 0.000, 11:51:13.904
76, -43402.53, -43529.64, -91529.43, -88248.59, -60998.07, -54563.71, -75173.52, -75483.45, 0.000, 0.000, 0.000, 11:51:13.904
77, -43467.14, -43594.84, -91604.89, -88027.70, -61033.25, -54619.55, -75254.39, -75519.14, 0.000, 0.000, 0.000, 11:51:13.904
78, -43403.75, -43537.73, -91655.78, -88162.97, -61086.42, -54636.91, -75227.32, -75558.33, 0.000, 0.000, 0.000, 11:51:13.904
79, -43319.64, -43458.61, -91606.81, -88404.97, -61074.06, -54586.60, -75142.23, -75531.84, 0.000, 0.000, 0.000, 11:51:13.904
80, -43362.96, -43498.48, -91522.08, -88291.04, -61004.46, -54560.67, -75151.97, -75485.77, 0.000, 0.000, 0.000, 11:51:13.905
81, -43450.71, -43583.75, -91573.91, -88030.98, -61021.96, -54614.45, -75238.79, -75510.54, 0.000, 0.000, 0.000, 11:51:13.905
82, -43420.43, -43553.67, -91647.71, -88105.01, -61082.29, -54643.84, -75232.21, -75557.41, 0.000, 0.000, 0.000, 11:51:13.905
83, -43331.58, -43468.04, -91623.42, -88368.96, -61086.24, -54598.31, -75153.73, -75546.75, 0.000, 0.000, 0.000, 11:51:13.905
84, -43363.97, -43494.93, -91546.33, -88335.43, -61038.90, -54570.69, -75153.47, -75501.87, 0.000, 0.000, 0.000, 11:51:13.905
85, -43459.70, -43590.44, -91574.47, -88057.06, -61022.32, -54619.88, -75241.69, -75513.78, 0.000, 0.000, 0.000, 11:51:13.905
86, -43432.19, -43568.62, -91655.27, -88072.02, -61080.43, -54653.99, -75255.10, -75557.16, 0.000, 0.000, 0.000, 11:51:13.906
87, -43351.83, -43487.60, -91653.23, -88336.86, -61103.72, -54625.96, -75191.51, -75561.05, 0.000, 0.000, 0.000, 11:51:13.906
88, -43340.28, -43470.66, -91561.80, -88378.44, -61039.73, -54572.05, -75151.39, -75509.29, 0.000, 0.000, 0.000, 11:51:13.906
89, -43426.62, -43552.53, -91547.65, -88106.59, -61010.02, -54590.40, -75217.91, -75493.84, 0.000, 0.000, 0.000, 11:51:13.906
90, -43454.56, -43579.91, -91636.20, -88042.71, -61066.71, -54640.22, -75255.04, -75544.18, 0.000, 0.000, 0.000, 11:51:13.906
91, -43375.28, -43508.05, -91657.39, -88285.19, -61100.01, -54639.20, -75200.01, -75572.19, 0.000, 0.000, 0.000, 11:51:13.906
92, -43337.39, -43470.79, -91574.18, -88391.63, -61063.15, -54584.12, -75154.79, -75524.69, 0.000, 0.000, 0.000, 11:51:13.907
93, -43414.62, -43541.20, -91535.17, -88147.12, -61015.95, -54580.10, -75203.58, -75485.68, 0.000, 0.000, 0.000, 11:51:13.907
94, -43448.10, -43576.56, -91616.49, -88020.32, -61059.09, -54632.45, -75250.16, -75530.25, 0.000, 0.000, 0.000, 11:51:13.907
95, -43368.73, -43504.85, -91657.82, -88244.05, -61110.98, -54631.39, -75200.77, -75563.51, 0.000, 0.000, 0.000, 11:51:13.907
96, -43312.47, -43447.79, -91586.00, -88429.51, -61089.64, -54580.03, -75144.70, -75531.23, 0.000, 0.000, 0.000, 11:51:13.908
97, -43391.04, -43520.95, -91524.60, -88207.05, -61029.67, -54575.38, -75186.75, -75490.09, 0.000, 0.000, 0.000, 11:51:13.908
98, -43445.33, -43575.53, -91602.23, -88009.07, -61057.23, -54636.40, -75251.15, -75526.85, 0.000, 0.000, 0.000, 11:51:13.908
99, -43370.63, -43503.00, -91651.70, -88199.35, -61106.61, -54631.82, -75201.84, -75558.88, 0.000, 0.000, 0.000, 11:51:13.909
100, -43306.86, -43440.14, -91592.95, -88419.30, -61090.24, -54578.53, -75133.02, -75527.73, 0.000, 0.000, 0.000, 11:51:13.909
101, -43378.95, -43507.67, -91524.52, -88258.79, -61028.95, -54567.80, -75169.74, -75486.02, 0.000, 0.000, 0.000, 11:51:13.909
102, -43457.07, -43584.87, -91591.61, -88014.53, -61046.73, -54632.78, -75258.08, -75521.94, 0.000, 0.000, 0.000, 11:51:13.909
103, -43393.56, -43531.68, -91663.38, -88144.55, -61107.41, -54651.91, -75227.92, -75566.09, 0.000, 0.000, 0.000, 11:51:13.910
104, -43302.05, -43448.30, -91611.57, -88401.70, -61094.31, -54589.02, -75131.99, -75535.70, 0.000, 0.000, 0.000, 11:51:13.910
105, -43340.41, -43482.61, -91531.66, -88314.02, -61031.08, -54552.18, -75142.45, -75479.29, 0.000, 0.000, 0.000, 11:51:13.910
106, -43441.26, -43576.25, -91570.20, -88040.39, -61040.29, -54607.97, -75234.29, -75495.88, 0.000, 0.000, 0.000, 11:51:13.910
107, -43407.85, -43548.24, -91648.79, -88097.30, -61107.07, -54648.83, -75233.76, -75554.28, 0.000, 0.000, 0.000, 11:51:13.911
108, -43325.82, -43473.36, -91622.28, -88357.05, -61114.94, -54610.70, -75159.10, -75547.91, 0.000, 0.000, 0.000, 11:51:13.911
109, -43350.80, -43494.28, -91551.13, -88345.40, -61055.84, -54569.91, -75156.04, -75501.89, 0.000, 0.000, 0.000, 11:51:13.911
110, -43440.46, -43576.47, -91567.02, -88076.24, -61037.18, -54597.22, -75225.82, -75499.59, 0.000, 0.000, 0.000, 11:51:13.911
111, -43427.94, -43567.77, -91648.61, -88068.42, -61099.59, -54637.81, -75238.09, -75543.77, 0.000, 0.000, 0.000, 11:51:13.912
112, -43335.98, -43484.51, -91643.45, -88330.90, -61123.14, -54618.41, -75171.77, -75554.91, 0.000, 0.000, 0.000, 11:51:13.912
113, -43331.05, -43475.97, -91559.76, -88389.44, -61068.85, -54567.80, -75145.16, -75502.34, 0.000, 0.000, 0.000, 11:51:13.912
114, -43419.69, -43560.22, -91547.22, -88116.56, -61033.47, -54589.08, -75210.69, -75484.52, 0.000, 0.000, 0.000, 11:51:13.913
115, -43430.04, -43576.22, -91622.44, -88038.38, -61080.68, -54639.53, -75243.05, -75534.66, 0.000, 0.000, 0.000, 11:51:13.913
116, -43351.99, -43504.09, -91645.23, -88279.27, -61122.00, -54627.19, -75186.17, -75556.54, 0.000, 0.000, 0.000, 11:51:13.913
117, -43318.95, -43473.85, -91567.72, -88397.81, -61079.76, -54571.76, -75131.05, -75508.30, 0.000, 0.000, 0.000, 11:51:13.913
118, -43404.61, -43553.18, -91533.90, -88155.99, -61035.64, -54582.20, -75189.03, -75479.29, 0.000, 0.000, 0.000, 11:51:13.914
119, -43453.04, -43600.45, -91623.13, -88014.70, -61084.54, -54647.00, -75257.92, -75533.96, 0.000, 0.000, 0.000, 11:51:13.914
120, -43372.51, -43522.80, -91664.81, -88234.23, -61139.60, -54647.64, -75210.17, -75570.55, 0.000, 0.000, 0.000, 11:51:13.914
121, -43319.07, -43469.20, -91589.55, -88421.91, -61100.88, -54590.09, -75138.56, -75529.29, 0.000, 0.000, 0.000, 11:51:14.352
122, -43398.46, -43544.95, -91536.11, -88217.46, -61036.98, -54584.37, -75189.19, -75492.61, 0.000, 0.000, 0.000, 11:51:14.352
123, -43456.98, -43606.40, -91612.94, -88019.80, -61076.52, -54641.50, -75257.52, -75527.70, 0.000, 0.000, 0.000, 11:51:14.352
124, -43390.25, -43546.92, -91670.58, -88175.80, -61135.73, -54651.82, -75219.36, -75565.03, 0.000, 0.000, 0.000, 11:51:14.352
125, -43311.06, -43473.67, -91613.16, -88403.41, -61120.53, -54600.75, -75145.87, -75540.24, 0.000, 0.000, 0.000, 11:51:14.352
126, -43374.95, -43532.19, -91541.61, -88264.17, -61058.06, -54580.59, -75166.88, -75495.72, 0.000, 0.000, 0.000, 11:51:14.353
127, -43459.14, -43612.43, -91597.29, -88019.65, -61053.88, -54633.88, -75254.79, -75522.18, 0.000, 0.000, 0.000, 11:51:14.353
128, -43418.08, -43570.45, -91674.23, -88124.39, -61125.80, -54662.44, -75253.63, -75576.52, 0.000, 0.000, 0.000, 11:51:14.353
129, -43315.15, -43472.82, -91627.62, -88391.31, -61121.63, -54609.47, -75161.60, -75557.88, 0.000, 0.000, 0.000, 11:51:14.353
130, -43352.23, -43509.37, -91541.14, -88319.43, -61056.65, -54573.66, -75164.87, -75499.95, 0.000, 0.000, 0.000, 11:51:14.353
131, -43442.60, -43597.37, -91577.44, -88048.59, -61052.16, -54609.54, -75237.04, -75494.80, 0.000, 0.000, 0.000, 11:51:14.353
132, -43416.05, -43576.07, -91662.04, -88092.85, -61120.55, -54648.43, -75241.36, -75548.98, 0.000, 0.000, 0.000, 11:51:14.354
133, -43333.08, -43499.11, -91643.96, -88351.28, -61138.64, -54619.93, -75174.88, -75555.94, 0.000, 0.000, 0.000, 11:51:14.354
134, -43344.81, -43510.35, -91562.38, -88364.18, -61074.38, -54574.04, -75157.47, -75506.34, 0.000, 0.000, 0.000, 11:51:14.354
135, -43445.26, -43605.73, -91574.11, -88087.59, -61056.29, -54604.75, -75244.62, -75501.95, 0.000, 0.000, 0.000, 11:51:14.354
136, -43438.82, -43601.86, -91657.02, -88059.43, -61119.37, -54655.42, -75270.08, -75558.70, 0.000, 0.000, 0.000, 11:51:14.354
137, -43347.43, -43517.50, -91651.88, -88314.51, -61141.72, -54633.74, -75180.11, -75565.68, 0.000, 0.000, 0.000, 11:51:14.354
138, -43336.81, -43503.94, -91572.55, -88391.13, -61076.88, -54579.54, -75139.55, -75513.20, 0.000, 0.000, 0.000, 11:51:14.355
139, -43431.83, -43591.87, -91559.27, -88131.79, -61042.93, -54596.82, -75211.18, -75495.16, 0.000, 0.000, 0.000, 11:51:14.355
140, -43452.04, -43615.09, -91648.81, -88038.76, -61107.21, -54650.93, -75261.92, -75544.96, 0.000, 0.000, 0.000, 11:51:14.355
141, -43368.80, -43534.94, -91675.90, -88270.55, -61152.96, -54643.33, -75208.68, -75573.16, 0.000, 0.000, 0.000, 11:51:14.355
142, -43325.55, -43493.23, -91601.20, -88419.85, -61113.15, -54584.75, -75150.05, -75530.01, 0.000, 0.000, 0.000, 11:51:14.355
143, -43398.86, -43562.03, -91538.82, -88180.27, -61040.73, -54574.78, -75200.72, -75489.91, 0.000, 0.000, 0.000, 11:51:14.356
144, -43456.02, -43618.85, -91624.02, -88008.91, -61089.57, -54641.07, -75271.60, -75537.92, 0.000, 0.000, 0.000, 11:51:14.356
145, -43370.07, -43541.31, -91667.97, -88206.51, -61141.41, -54641.32, -75219.88, -75573.23, 0.000, 0.000, 0.000, 11:51:14.356
146, -43301.56, -43474.19, -91595.61, -88415.79, -61108.59, -54576.01, -75141.35, -75533.16, 0.000, 0.000, 0.000, 11:51:14.356
147, -43384.73, -43547.81, -91535.29, -88230.47, -61044.98, -54567.65, -75186.13, -75491.88, 0.000, 0.000, 0.000, 11:51:14.357
148, -43450.92, -43610.91, -91611.66, -88017.99, -61083.54, -54633.05, -75265.07, -75531.26, 0.000, 0.000, 0.000, 11:51:14.357
149, -43394.10, -43558.14, -91667.65, -88167.46, -61143.26, -54644.29, -75229.84, -75565.52, 0.000, 0.000, 0.000, 11:51:14.357
150, -43319.64, -43486.86, -91619.04, -88406.24, -61125.78, -54596.13, -75154.74, -75545.48, 0.000, 0.000, 0.000, 11:51:14.357
151, -43361.54, -43525.84, -91536.96, -88283.82, -61051.87, -54557.99, -75162.48, -75487.13, 0.000, 0.000, 0.000, 11:51:14.357
152, -43452.44, -43614.44, -91591.95, -88025.41, -61065.59, -54614.63, -75247.26, -75512.88, 0.000, 0.000, 0.000, 11:51:14.358
153, -43407.51, -43577.68, -91659.56, -88119.20, -61136.33, -54644.45, -75242.90, -75565.50, 0.000, 0.000, 0.000, 11:51:14.358
154, -43328.00, -43500.88, -91634.02, -88377.37, -61141.43, -54609.64, -75175.89, -75559.76, 0.000, 0.000, 0.000, 11:51:14.358
155, -43348.66, -43516.81, -91542.62, -88327.66, -61068.12, -54563.38, -75164.65, -75498.02, 0.000, 0.000, 0.000, 11:51:14.358
156, -43438.45, -43602.75, -91569.95, -88049.80, -61057.88, -54604.41, -75240.98, -75504.86, 0.000, 0.000, 0.000, 11:51:14.358
157, -43421.70, -43590.39, -91648.54, -88076.51, -61128.33, -54649.99, -75254.32, -75563.00, 0.000, 0.000, 0.000, 11:51:14.358
158, -43326.08, -43500.20, -91639.22, -88347.84, -61151.78, -54612.08, -75172.94, -75561.12, 0.000, 0.000, 0.000, 11:51:14.359
159, -43332.14, -43501.10, -91549.73, -88373.54, -61083.16, -54560.18, -75146.38, -75505.66, 0.000, 0.000, 0.000, 11:51:14.359
160, -43426.58, -43589.30, -91550.20, -88082.05, -61052.76, -54593.26, -75217.22, -75496.52, 0.000, 0.000, 0.000, 11:51:14.359
161, -43432.19, -43599.73, -91638.59, -88035.72, -61111.81, -54644.09, -75250.25, -75551.71, 0.000, 0.000, 0.000, 11:51:14.359
162, -43344.08, -43516.25, -91648.12, -88289.25, -61145.12, -54625.38, -75186.05, -75571.11, 0.000, 0.000, 0.000, 11:51:14.360
163, -43307.13, -43477.98, -91558.13, -88396.38, -61093.02, -54563.11, -75134.36, -75514.61, 0.000, 0.000, 0.000, 11:51:14.360
164, -43408.38, -43569.09, -91536.70, -88132.99, -61047.46, -54578.58, -75203.98, -75487.45, 0.000, 0.000, 0.000, 11:51:14.360
165, -43436.86, -43598.89, -91635.87, -88027.00, -61105.44, -54633.61, -75255.23, -75537.25, 0.000, 0.000, 0.000, 11:51:14.360
166, -43355.90, -43524.19, -91661.86, -88247.84, -61143.39, -54626.34, -75204.95, -75564.88, 0.000, 0.000, 0.000, 11:51:14.360
167, -43321.46, -43488.67, -91593.89, -88405.37, -61109.20, -54577.79, -75150.34, -75527.01, 0.000, 0.000, 0.000, 11:51:14.361
168, -43411.09, -43573.96, -91554.35, -88170.88, -61056.94, -54580.75, -75210.66, -75494.24, 0.000, 0.000, 0.000, 11:51:14.361
169, -43451.36, -43614.09, -91633.05, -88015.42, -61096.82, -54633.41, -75268.05, -75538.27, 0.000, 0.000, 0.000, 11:51:14.361
170, -43389.76, -43560.11, -91673.82, -88200.88, -61148.98, -54641.18, -75227.56, -75573.05, 0.000, 0.000, 0.000, 11:51:14.361
171, -43335.05, -43511.31, -91631.91, -88411.83, -61134.05, -54593.89, -75167.55, -75545.85, 0.000, 0.000, 0.000, 11:51:14.361
172, -43390.43, -43560.35, -91556.56, -88245.82, -61064.11, -54570.08, -75187.40, -75493.64, 0.000, 0.000, 0.000, 11:51:14.361
173, -43458.34, -43628.57, -91619.44, -88027.23, -61090.63, -54624.93, -75263.64, -75524.15, 0.000, 0.000, 0.000, 11:51:14.362
174, -43385.88, -43560.06, -91670.36, -88169.47, -61149.66, -54634.30, -75229.35, -75561.43, 0.000, 0.000, 0.000, 11:51:14.362
175, -43317.21, -43491.93, -91624.91, -88403.29, -61138.10, -54587.41, -75156.93, -75542.91, 0.000, 0.000, 0.000, 11:51:14.362
176, -43358.67, -43530.25, -91546.46, -88292.27, -61071.13, -54559.04, -75167.28, -75491.83, 0.000, 0.000, 0.000, 11:51:14.362
177, -43445.11, -43613.66, -91594.85, -88027.58, -61081.93, -54612.64, -75248.35, -75513.96, 0.000, 0.000, 0.000, 11:51:14.362
178, -43404.23, -43580.96, -91664.30, -88103.17, -61133.34, -54641.00, -75243.99, -75564.79, 0.000, 0.000, 0.000, 11:51:14.362
179, -43324.47, -43502.77, -91645.14, -88368.58, -61142.05, -54609.20, -75174.34, -75562.80, 0.000, 0.000, 0.000, 11:51:14.363
180, -43344.39, -43521.66, -91560.72, -88339.45, -61071.78, -54570.82, -75168.94, -75510.43, 0.000, 0.000, 0.000, 11:51:14.363
181, -43440.68, -43619.11, -91584.59, -88055.99, -61065.21, -54615.55, -75256.45, -75518.43, 0.000, 0.000, 0.000, 11:51:14.363
182, -43422.75, -43608.01, -91667.70, -88073.02, -61129.25, -54656.76, -75264.71, -75572.34, 0.000, 0.000, 0.000, 11:51:14.363
183, -43331.74, -43522.00, -91669.17, -88339.12, -61162.15, -54626.59, -75200.43, -75581.17, 0.000, 0.000, 0.000, 11:51:14.363
184, -43312.76, -43499.22, -91573.22, -88393.93, -61099.95, -54562.66, -75154.05, -75517.20, 0.000, 0.000, 0.000, 11:51:14.363
185, -43425.66, -43603.43, -91564.86, -88103.63, -61062.64, -54597.62, -75235.14, -75503.34, 0.000, 0.000, 0.000, 11:51:14.364
186, -43446.78, -43626.51, -91667.09, -88044.50, -61136.07, -54659.04, -75279.09, -75570.62, 0.000, 0.000, 0.000, 11:51:14.364
187, -43342.63, -43528.77, -91674.36, -88296.74, -61169.55, -54630.63, -75202.51, -75583.34, 0.000, 0.000, 0.000, 11:51:14.364
188, -43307.29, -43493.34, -91585.09, -88419.03, -61114.14, -54570.82, -75145.51, -75530.16, 0.000, 0.000, 0.000, 11:51:14.364
189, -43406.71, -43586.95, -91555.94, -88155.37, -61064.29, -54581.71, -75218.06, -75499.85, 0.000, 0.000, 0.000, 11:51:14.364
190, -43442.45, -43623.00, -91650.77, -88030.60, -61122.52, -54643.69, -75273.84, -75549.12, 0.000, 0.000, 0.000, 11:51:14.365
191, -43376.73, -43561.36, -91690.25, -88241.27, -61181.08, -54643.73, -75225.33, -75583.72, 0.000, 0.000, 0.000, 11:51:14.365
192, -43324.96, -43512.90, -91621.27, -88426.49, -61138.19, -54581.66, -75153.07, -75541.34, 0.000, 0.000, 0.000, 11:51:14.365
193, -43399.04, -43577.54, -91554.66, -88192.96, -61061.30, -54571.20, -75196.95, -75493.02, 0.000, 0.000, 0.000, 11:51:14.365
194, -43446.40, -43628.73, -91634.82, -88010.59, -61108.57, -54627.46, -75268.40, -75533.96, 0.000, 0.000, 0.000, 11:51:14.365
195, -43389.12, -43583.42, -91687.32, -88194.66, -61169.05, -54639.44, -75238.54, -75577.66, 0.000, 0.000, 0.000, 11:51:14.366
196, -43327.89, -43527.61, -91639.22, -88418.60, -61152.63, -54600.06, -75171.22, -75560.72, 0.000, 0.000, 0.000, 11:51:14.366
197, -43383.62, -43578.68, -91564.03, -88260.53, -61083.43, -54576.54, -75190.28, -75509.31, 0.000, 0.000, 0.000, 11:51:14.366
198, -43451.70, -43645.04, -91623.95, -88022.22, -61113.55, -54628.60, -75272.49, -75530.77, 0.000, 0.000, 0.000, 11:51:14.366
199, -43402.26, -43599.11, -91683.70, -88152.13, -61172.59, -54645.36, -75248.02, -75573.05, 0.000, 0.000, 0.000, 11:51:14.366
200, -43324.77, -43525.02, -91645.59, -88407.49, -61155.40, -54607.63, -75169.16, -75562.08, 0.000, 0.000, 0.000, 11:51:14.366
201, -43361.20, -43557.56, -91555.67, -88314.00, -61087.43, -54568.68, -75173.09, -75505.35, 0.000, 0.000, 0.000, 11:51:14.367
202, -43458.45, -43650.25, -91604.60, -88038.73, -61084.86, -54617.74, -75253.72, -75519.03, 0.000, 0.000, 0.000, 11:51:14.367
203, -43430.00, -43623.59, -91693.31, -88099.48, -61158.04, -54660.54, -75260.35, -75578.87, 0.000, 0.000, 0.000, 11:51:14.367
204, -43339.38, -43537.31, -91680.84, -88369.01, -61176.86, -54624.46, -75193.08, -75579.49, 0.000, 0.000, 0.000, 11:51:14.367
205, -43353.42, -43554.07, -91592.10, -88366.03, -61112.26, -54580.59, -75177.01, -75523.28, 0.000, 0.000, 0.000, 11:51:14.367
206, -43450.63, -43652.93, -91596.41, -88071.01, -61080.48, -54613.56, -75248.04, -75510.88, 0.000, 0.000, 0.000, 11:51:14.367
207, -43432.23, -43642.36, -91675.03, -88069.00, -61142.88, -54650.48, -75258.12, -75557.74, 0.000, 0.000, 0.000, 11:51:14.367
208, -43325.17, -43547.10, -91671.32, -88335.66, -61167.65, -54621.07, -75191.42, -75569.93, 0.000, 0.000, 0.000, 11:51:14.368
209, -43314.08, -43538.78, -91583.05, -88397.95, -61102.22, -54565.73, -75153.38, -75515.37, 0.000, 0.000, 0.000, 11:51:14.368
210, -43414.69, -43636.86, -91572.21, -88108.16, -61058.75, -54588.12, -75226.07, -75492.03, 0.000, 0.000, 0.000, 11:51:14.368
211, -43409.34, -43638.07, -91649.50, -88043.38, -61113.64, -54631.06, -75248.40, -75533.90, 0.000, 0.000, 0.000, 11:51:14.369
212, -43323.63, -43560.71, -91669.89, -88284.49, -61155.51, -54623.19, -75200.43, -75561.55, 0.000, 0.000, 0.000, 11:51:14.369
213, -43295.26, -43534.71, -91599.05, -88413.15, -61119.26, -54575.61, -75156.30, -75522.34, 0.000, 0.000, 0.000, 11:51:14.369
214, -43384.04, -43614.82, -91561.86, -88162.95, -61066.75, -54583.76, -75213.44, -75491.70, 0.000, 0.000, 0.000, 11:51:14.369
215, -43415.87, -43647.14, -91651.91, -88037.17, -61119.66, -54634.52, -75256.94, -75536.24, 0.000, 0.000, 0.000, 11:51:14.369
216, -43334.53, -43575.60, -91682.41, -88248.95, -61165.39, -54629.81, -75203.83, -75564.45, 0.000, 0.000, 0.000, 11:51:14.370
217, -43266.85, -43512.23, -91606.54, -88436.48, -61124.96, -54572.36, -75137.63, -75521.60, 0.000, 0.000, 0.000, 11:51:14.370
218, -43345.39, -43584.76, -91540.70, -88233.30, -61058.91, -54564.43, -75184.05, -75482.22, 0.000, 0.000, 0.000, 11:51:14.370
219, -43415.40, -43653.47, -91617.18, -88024.97, -61087.90, -54627.39, -75256.24, -75523.05, 0.000, 0.000, 0.000, 11:51:14.370
220, -43356.93, -43602.71, -91679.21, -88186.34, -61166.06, -54645.68, -75230.20, -75567.00, 0.000, 0.000, 0.000, 11:51:14.370
221, -43279.93, -43530.49, -91628.07, -88418.52, -61149.50, -54596.55, -75166.19, -75548.94, 0.000, 0.000, 0.000, 11:51:14.370
222, -43321.32, -43562.25, -91538.03, -88278.46, -61065.46, -54566.13, -75183.94, -75497.06, 0.000, 0.000, 0.000, 11:51:14.371
223, -43407.40, -43641.85, -91598.36, -88034.55, -61085.75, -54619.93, -75264.09, -75524.46, 0.000, 0.000, 0.000, 11:51:14.371
224, -43364.39, -43601.70, -91670.65, -88147.77, -61155.24, -54648.74, -75249.42, -75573.99, 0.000, 0.000, 0.000, 11:51:14.371
225, -43277.94, -43519.40, -91635.38, -88399.94, -61148.89, -54601.29, -75169.05, -75556.29, 0.000, 0.000, 0.000, 11:51:14.371
226, -43306.08, -43544.73, -91543.17, -88327.63, -61070.53, -54552.25, -75160.66, -75491.00, 0.000, 0.000, 0.000, 11:51:14.371
227, -43405.16, -43640.66, -91585.24, -88054.23, -61075.52, -54602.14, -75252.22, -75505.80, 0.000, 0.000, 0.000, 11:51:14.371
228, -43379.79, -43622.56, -91664.48, -88094.91, -61143.39, -54643.62, -75257.61, -75561.21, 0.000, 0.000, 0.000, 11:51:14.371
229, -43279.08, -43527.38, -91642.69, -88368.85, -61163.40, -54601.18, -75174.13, -75555.38, 0.000, 0.000, 0.000, 11:51:14.372
230, -43298.48, -43544.08, -91556.68, -88376.16, -61105.73, -54558.91, -75164.33, -75504.73, 0.000, 0.000, 0.000, 11:51:14.372
231, -43401.66, -43638.25, -91574.71, -88083.95, -61076.50, -54602.34, -75249.05, -75508.70, 0.000, 0.000, 0.000, 11:51:14.372
232, -43387.93, -43628.01, -91659.13, -88066.12, -61145.48, -54652.41, -75276.78, -75566.28, 0.000, 0.000, 0.000, 11:51:14.372
233, -43290.21, -43538.67, -91650.66, -88322.29, -61177.10, -54614.50, -75198.73, -75564.85, 0.000, 0.000, 0.000, 11:51:14.373
234, -43274.85, -43525.15, -91567.78, -88402.53, -61131.30, -54561.37, -75157.54, -75517.35, 0.000, 0.000, 0.000, 11:51:14.373
235, -43375.73, -43618.69, -91550.22, -88120.74, -61086.55, -54584.46, -75231.21, -75500.66, 0.000, 0.000, 0.000, 11:51:14.373
236, -43393.77, -43642.61, -91644.09, -88037.15, -61145.63, -54642.17, -75268.31, -75553.68, 0.000, 0.000, 0.000, 11:51:14.373
237, -43305.57, -43557.78, -91659.90, -88270.63, -61177.37, -54627.04, -75213.13, -75574.27, 0.000, 0.000, 0.000, 11:51:14.373
238, -43270.27, -43520.21, -91587.77, -88415.59, -61139.60, -54576.16, -75164.55, -75533.41, 0.000, 0.000, 0.000, 11:51:14.374
239, -43359.72, -43602.73, -91544.47, -88177.70, -61085.06, -54573.50, -75214.89, -75498.20, 0.000, 0.000, 0.000, 11:51:14.374
240, -43395.73, -43639.45, -91626.41, -88029.08, -61132.55, -54629.05, -75265.72, -75539.57, 0.000, 0.000, 0.000, 11:51:14.375
241, -43328.43, -43582.93, -91665.66, -88214.73, -61179.94, -54637.45, -75219.01, -75572.81, 0.000, 0.000, 0.000, 11:51:14.831
242, -43273.31, -43529.11, -91614.97, -88423.70, -61165.61, -54591.30, -75160.73, -75543.35, 0.000, 0.000, 0.000, 11:51:14.831
243, -43350.78, -43600.79, -91558.02, -88234.91, -61101.78, -54580.81, -75203.67, -75499.05, 0.000, 0.000, 0.000, 11:51:14.831
244, -43409.90, -43660.84, -91634.39, -88022.30, -61132.60, -54638.30, -75274.33, -75535.05, 0.000, 0.000, 0.000, 11:51:14.831
245, -43344.46, -43604.99, -91677.27, -88174.19, -61188.61, -54651.78, -75235.92, -75577.73, 0.000, 0.000, 0.000, 11:51:14.831
246, -43273.87, -43540.13, -91631.63, -88411.14, -61172.79, -54608.55, -75168.84, -75561.01, 0.000, 0.000, 0.000, 11:51:14.832
247, -43334.02, -43591.89, -91564.19, -88293.79, -61114.79, -54590.67, -75198.95, -75520.09, 0.000, 0.000, 0.000, 11:51:14.832
248, -43406.21, -43660.20, -91608.95, -88043.16, -61124.31, -54630.14, -75267.22, -75534.48, 0.000, 0.000, 0.000, 11:51:14.832
249, -43366.56, -43625.55, -91676.73, -88126.31, -61179.94, -54656.65, -75246.77, -75579.07, 0.000, 0.000, 0.000, 11:51:14.832
250, -43283.86, -43550.96, -91652.48, -88386.53, -61184.34, -54618.41, -75174.88, -75572.97, 0.000, 0.000, 0.000, 11:51:14.833
251, -43310.21, -43574.39, -91572.84, -88342.80, -61114.23, -54581.50, -75174.68, -75522.27, 0.000, 0.000, 0.000, 11:51:14.833
252, -43402.59, -43659.64, -91597.16, -88064.30, -61106.47, -54621.11, -75256.40, -75525.67, 0.000, 0.000, 0.000, 11:51:14.833
253, -43397.43, -43656.42, -91693.05, -88089.05, -61180.84, -54670.22, -75277.70, -75585.98, 0.000, 0.000, 0.000, 11:51:14.833
254, -43288.38, -43551.52, -91673.93, -88367.64, -61192.41, -54626.75, -75191.91, -75582.89, 0.000, 0.000, 0.000, 11:51:14.834
255, -43288.69, -43549.13, -91570.42, -88397.39, -61127.70, -54575.89, -75167.51, -75525.63, 0.000, 0.000, 0.000, 11:51:14.834
0, -43395.89, -43651.23, -91575.67, -88105.32, -61106.09, -54611.50, -75252.30, -75519.79, 0.000, 0.000, 0.000, 11:51:14.834
1, -43405.03, -43661.58, -91673.46, -88065.11, -61178.33, -54665.57, -75284.79, -75575.58, 0.000, 0.000, 0.000, 11:51:14.834
2, -43301.16, -43561.74, -91682.38, -88324.19, -61212.02, -54638.77, -75212.12, -75587.36, 0.000, 0.000, 0.000, 11:51:14.835
3, -43271.75, -43532.57, -91591.30, -88427.68, -61161.50, -54576.27, -75167.46, -75535.52, 0.000, 0.000, 0.000, 11:51:14.835
4, -43372.42, -43624.61, -91565.70, -88160.22, -61112.15, -54586.98, -75223.95, -75503.14, 0.000, 0.000, 0.000, 11:51:14.835
5, -43405.21, -43657.02, -91658.48, -88050.05, -61166.04, -54644.00, -75276.00, -75551.77, 0.000, 0.000, 0.000, 11:51:14.836
6, -43321.84, -43580.87, -91684.95, -88264.51, -61206.43, -54635.26, -75224.73, -75580.86, 0.000, 0.000, 0.000, 11:51:14.836
7, -43286.88, -43545.93, -91618.68, -88419.81, -61175.98, -54585.37, -75173.88, -75545.92, 0.000, 0.000, 0.000, 11:51:14.836
8, -43373.76, -43625.69, -91570.00, -88189.92, -61120.22, -54583.76, -75226.91, -75511.61, 0.000, 0.000, 0.000, 11:51:14.836
9, -43420.79, -43672.71, -91654.71, -88027.29, -61161.41, -54640.20, -75284.18, -75554.84, 0.000, 0.000, 0.000, 11:51:14.837
10, -43341.35, -43603.80, -91696.93, -88218.73, -61212.84, -54646.30, -75234.16, -75584.88, 0.000, 0.000, 0.000, 11:51:14.837
11, -43271.48, -43538.05, -91629.34, -88434.49, -61187.70, -54591.32, -75167.15, -75552.41, 0.000, 0.000, 0.000, 11:51:14.837
12, -43349.11, -43607.85, -91561.21, -88265.16, -61121.85, -54581.33, -75212.77, -75513.71, 0.000, 0.000, 0.000, 11:51:14.837
13, -43425.86, -43680.31, -91636.65, -88042.53, -61154.35, -54645.81, -75289.57, -75549.77, 0.000, 0.000, 0.000, 11:51:14.838
14, -43363.01, -43624.79, -91694.41, -88180.11, -61212.64, -54661.32, -75255.66, -75591.16, 0.000, 0.000, 0.000, 11:51:14.838
15, -43269.91, -43534.04, -91644.63, -88428.04, -61196.17, -54605.15, -75173.48, -75564.65, 0.000, 0.000, 0.000, 11:51:14.838
16, -43307.04, -43562.16, -91549.81, -88332.99, -61125.85, -54565.77, -75176.60, -75506.36, 0.000, 0.000, 0.000, 11:51:14.838
17, -43401.66, -43652.87, -91594.96, -88059.43, -61133.38, -54619.05, -75264.96, -75526.54, 0.000, 0.000, 0.000, 11:51:14.839
18, -43374.14, -43632.53, -91678.94, -88126.42, -61198.09, -54654.08, -75262.32, -75577.33, 0.000, 0.000, 0.000, 11:51:14.839
19, -43288.27, -43553.98, -91658.27, -88390.13, -61202.34, -54608.71, -75174.99, -75562.28, 0.000, 0.000, 0.000, 11:51:14.839
20, -43300.74, -43563.95, -91569.82, -88365.14, -61127.95, -54563.91, -75163.05, -75506.05, 0.000, 0.000, 0.000, 11:51:14.840
21, -43387.57, -43641.15, -91580.66, -88077.88, -61107.86, -54594.27, -75240.69, -75501.77, 0.000, 0.000, 0.000, 11:51:14.840
22, -43391.29, -43646.34, -91671.95, -88079.70, -61182.58, -54647.22, -75269.99, -75563.02, 0.000, 0.000, 0.000, 11:51:14.840
23, -43304.98, -43565.98, -91681.13, -88340.22, -61212.62, -54628.71, -75206.40, -75580.05, 0.000, 0.000, 0.000, 11:51:14.840
24, -43283.66, -43540.14, -91578.54, -88397.10, -61153.97, -54569.12, -75170.01, -75526.68, 0.000, 0.000, 0.000, 11:51:14.841
25, -43400.14, -43650.47, -91581.73, -88103.53, -61130.79, -54609.13, -75259.80, -75524.84, 0.000, 0.000, 0.000, 11:51:14.841
26, -43395.29, -43647.93, -91679.41, -88057.51, -61192.57, -54658.24, -75286.57, -75580.34, 0.000, 0.000, 0.000, 11:51:14.841
27, -43296.22, -43552.64, -91680.39, -88310.27, -61217.34, -54627.57, -75209.55, -75586.24, 0.000, 0.000, 0.000, 11:51:14.842
28, -43255.52, -43513.95, -91585.40, -88431.21, -61163.36, -54564.68, -75153.23, -75528.24, 0.000, 0.000, 0.000, 11:51:14.842
29, -43368.62, -43617.42, -91553.59, -88156.93, -61116.91, -54590.65, -75230.63, -75507.48, 0.000, 0.000, 0.000, 11:51:14.842
30, -43402.32, -43653.76, -91653.62, -88043.59, -61178.40, -54655.91, -75284.67, -75566.30, 0.000, 0.000, 0.000, 11:51:14.842
31, -43324.05, -43583.71, -91684.55, -88258.34, -61219.19, -54653.75, -75231.43, -75592.03, 0.000, 0.000, 0.000, 11:51:14.843
32, -43257.69, -43521.26, -91613.12, -88442.74, -61189.24, -54591.99, -75166.32, -75552.67, 0.000, 0.000, 0.000, 11:51:14.843
33, -43330.15, -43585.68, -91544.23, -88227.14, -61124.13, -54579.92, -75209.33, -75505.17, 0.000, 0.000, 0.000, 11:51:14.843
34, -43399.84, -43650.32, -91634.70, -88031.76, -61166.38, -54644.11, -75283.27, -75547.75, 0.000, 0.000, 0.000, 11:51:14.843
35, -43324.96, -43583.08, -91683.03, -88203.78, -61217.54, -54642.64, -75237.80, -75581.70, 0.000, 0.000, 0.000, 11:51:14.843
36, -43259.43, -43514.84, -91623.17, -88421.84, -61197.11, -54591.96, -75173.48, -75554.88, 0.000, 0.000, 0.000, 11:51:14.844
37, -43338.40, -43585.70, -91561.50, -88264.17, -61136.51, -54583.92, -75211.52, -75513.16, 0.000, 0.000, 0.000, 11:51:14.844
38, -43416.12, -43662.59, -91640.27, -88031.88, -61164.41, -54647.80, -75293.80, -75550.48, 0.000, 0.000, 0.000, 11:51:14.844
39, -43362.58, -43614.55, -91701.60, -88157.87, -61227.66, -54668.43, -75274.44, -75595.45, 0.000, 0.000, 0.000, 11:51:14.844
40, -43279.75, -43534.78, -91661.95, -88412.63, -61224.49, -54622.68, -75193.26, -75577.39, 0.000, 0.000, 0.000, 11:51:14.845
41, -43315.20, -43566.14, -91569.70, -88321.44, -61148.49, -54587.23, -75195.60, -75519.86, 0.000, 0.000, 0.000, 11:51:14.845
42, -43412.94, -43661.65, -91616.83, -88045.35, -61154.17, -54642.26, -75280.88, -75539.98, 0.000, 0.000, 0.000, 11:51:14.845
43, -43382.36, -43637.06, -91698.90, -88108.31, -61222.54, -54676.86, -75277.52, -75594.18, 0.000, 0.000, 0.000, 11:51:14.845
44, -43293.47, -43553.22, -91673.60, -88371.59, -61233.21, -54640.52, -75203.42, -75589.20, 0.000, 0.000, 0.000, 11:51:14.846
45, -43315.13, -43571.77, -91593.16, -88361.00, -61177.04, -54603.12, -75198.09, -75541.31, 0.000, 0.000, 0.000, 11:51:14.846
46, -43414.33, -43665.85, -91618.77, -88084.58, -61166.38, -54641.88, -75282.53, -75544.18, 0.000, 0.000, 0.000, 11:51:14.846
47, -43407.04, -43665.20, -91704.13, -88087.23, -61227.89, -54682.45, -75293.57, -75592.30, 0.000, 0.000, 0.000, 11:51:14.846
48, -43313.93, -43578.79, -91702.66, -88341.49, -61245.83, -54654.62, -75224.03, -75596.30, 0.000, 0.000, 0.000, 11:51:14.846
49, -43286.34, -43550.09, -91609.34, -88415.54, -61184.55, -54594.45, -75180.00, -75540.49, 0.000, 0.000, 0.000, 11:51:14.847
50, -43390.57, -43645.45, -91596.71, -88136.95, -61147.29, -54620.44, -75255.21, -75523.30, 0.000, 0.000, 0.000, 11:51:14.847
51, -43402.06, -43659.53, -91683.97, -88064.98, -61209.22, -54669.08, -75290.64, -75571.83, 0.000, 0.000, 0.000, 11:51:14.847
52, -43328.95, -43591.38, -91705.05, -88295.52, -61243.49, -54661.68, -75238.67, -75596.05, 0.000, 0.000, 0.000, 11:51:14.847
53, -43284.98, -43549.06, -91630.41, -88441.54, -61209.87, -54605.11, -75174.05, -75549.27, 0.000, 0.000, 0.000, 11:51:14.848
54, -43379.57, -43636.21, -91592.51, -88195.11, -61156.32, -54613.29, -75238.47, -75520.41, 0.000, 0.000, 0.000, 11:51:14.848
55, -43418.20, -43677.00, -91677.89, -88057.69, -61199.32, -54666.06, -75297.98, -75568.36, 0.000, 0.000, 0.000, 11:51:14.848
56, -43341.66, -43607.49, -91710.16, -88259.81, -61234.79, -54663.04, -75250.92, -75600.73, 0.000, 0.000, 0.000, 11:51:14.848
57, -43268.55, -43537.33, -91639.89, -88464.65, -61208.84, -54603.50, -75173.70, -75563.47, 0.000, 0.000, 0.000, 11:51:14.848
58, -43343.77, -43606.08, -91572.45, -88263.95, -61144.76, -54596.39, -75215.96, -75518.34, 0.000, 0.000, 0.000, 11:51:14.849
59, -43419.76, -43678.14, -91655.49, -88056.26, -61182.55, -54663.58, -75297.15, -75559.63, 0.000, 0.000, 0.000, 11:51:14.849
60, -43350.40, -43615.43, -91709.59, -88218.98, -61242.37, -54673.82, -75265.74, -75601.71, 0.000, 0.000, 0.000, 11:51:14.849
61, -43273.07, -43543.36, -91656.63, -88454.39, -61227.21, -54621.83, -75191.42, -75574.45, 0.000, 0.000, 0.000, 11:51:14.849
62, -43341.55, -43605.68, -91587.03, -88309.62, -61163.18, -54601.44, -75211.07, -75525.52, 0.000, 0.000, 0.000, 11:51:14.849
63, -43424.32, -43685.70, -91650.93, -88058.52, -61180.30, -54655.45, -75293.05, -75550.86, 0.000, 0.000, 0.000, 11:51:14.850
64, -43373.65, -43641.36, -91716.05, -88166.50, -61248.38, -54680.03, -75277.81, -75598.52, 0.000, 0.000, 0.000, 11:51:14.850
65, -43278.32, -43551.01, -91673.28, -88429.35, -61236.43, -54630.61, -75196.38, -75582.55, 0.000, 0.000, 0.000, 11:51:14.850
66, -43311.44, -43580.67, -91587.59, -88364.24, -61165.86, -54591.23, -75195.42, -75524.75, 0.000, 0.000, 0.000, 11:51:14.851
67, -43411.54, -43674.77, -91623.46, -88078.48, -61169.66, -54643.09, -75284.92, -75542.12, 0.000, 0.000, 0.000, 11:51:14.851
68, -43376.15, -43644.62, -91706.05, -88128.86, -61234.93, -54674.67, -75283.55, -75594.02, 0.000, 0.000, 0.000, 11:51:14.851
69, -43291.28, -43566.48, -91691.91, -88388.05, -61243.71, -54635.91, -75207.45, -75588.79, 0.000, 0.000, 0.000, 11:51:14.851
70, -43299.66, -43570.84, -91607.13, -88397.34, -61189.78, -54594.27, -75191.34, -75542.16, 0.000, 0.000, 0.000, 11:51:14.851
71, -43401.27, -43664.40, -91612.29, -88106.53, -61166.02, -54630.16, -75277.01, -75539.87, 0.000, 0.000, 0.000, 11:51:14.852
72, -43400.02, -43668.18, -91704.27, -88080.53, -61233.85, -54683.96, -75305.75, -75598.07, 0.000, 0.000, 0.000, 11:51:14.852
73, -43302.95, -43580.71, -91705.09, -88335.12, -61256.65, -54661.05, -75236.80, -75607.55, 0.000, 0.000, 0.000, 11:51:14.852
74, -43282.25, -43558.68, -91627.62, -88427.25, -61210.81, -54610.54, -75194.22, -75560.94, 0.000, 0.000, 0.000, 11:51:14.852
75, -43371.61, -43640.26, -91604.80, -88161.00, -61168.72, -54620.09, -75256.47, -75537.34, 0.000, 0.000, 0.000, 11:51:14.852
76, -43396.49, -43663.71, -91690.63, -88069.36, -61219.08, -54670.91, -75297.80, -75584.19, 0.000, 0.000, 0.000, 11:51:14.853
77, -43312.36, -43583.87, -91712.16, -88303.05, -61259.65, -54657.14, -75237.24, -75604.95, 0.000, 0.000, 0.000, 11:51:14.853
78, -43263.72, -43533.98, -91631.33, -88464.58, -61223.62, -54597.35, -75177.84, -75558.69, 0.000, 0.000, 0.000, 11:51:14.853
79, -43361.24, -43620.68, -91589.45, -88218.94, -61163.47, -54604.75, -75240.71, -75528.27, 0.000, 0.000, 0.000, 11:51:14.853
80, -43411.94, -43669.20, -91675.97, -88050.80, -61204.15, -54665.70, -75302.33, -75575.18, 0.000, 0.000, 0.000, 11:51:14.853
81, -43337.59, -43598.55, -91722.41, -88252.66, -61255.98, -54670.11, -75256.69, -75611.70, 0.000, 0.000, 0.000, 11:51:14.854
82, -43279.88, -43540.79, -91659.80, -88466.39, -61226.32, -54614.90, -75188.31, -75573.46, 0.000, 0.000, 0.000, 11:51:14.854
83, -43344.12, -43599.40, -91592.44, -88291.55, -61160.99, -54595.99, -75222.94, -75527.08, 0.000, 0.000, 0.000, 11:51:14.854
84, -43414.60, -43666.05, -91664.32, -88082.63, -61195.79, -54655.73, -75295.72, -75563.29, 0.000, 0.000, 0.000, 11:51:14.854
85, -43355.43, -43614.98, -91730.64, -88236.01, -61255.96, -54671.89, -75266.63, -75605.91, 0.000, 0.000, 0.000, 11:51:14.854
86, -43266.63, -43530.00, -91673.84, -88488.92, -61236.83, -54611.84, -75182.70, -75575.25, 0.000, 0.000, 0.000, 11:51:14.855
87, -43331.22, -43586.19, -91599.19, -88367.06, -61161.32, -54591.23, -75209.73, -75527.70, 0.000, 0.000, 0.000, 11:51:14.855
88, -43411.47, -43661.54, -91659.27, -88114.93, -61176.66, -54643.62, -75292.72, -75553.45, 0.000, 0.000, 0.000, 11:51:14.855
89, -43373.09, -43626.25, -91721.66, -88204.72, -61235.20, -54670.31, -75280.47, -75603.23, 0.000, 0.000, 0.000, 11:51:14.855
90, -43293.59, -43550.85, -91698.81, -88460.42, -61244.38, -54634.95, -75215.23, -75598.58, 0.000, 0.000, 0.000, 11:51:14.855
91, -43312.92, -43570.01, -91610.99, -88424.10, -61182.71, -54591.50, -75201.64, -75542.48, 0.000, 0.000, 0.000, 11:51:14.856
92, -43408.79, -43660.64, -91641.26, -88144.46, -61174.31, -54631.46, -75284.72, -75547.28, 0.000, 0.000, 0.000, 11:51:14.856
93, -43390.10, -43643.37, -91724.31, -88174.41, -61239.33, -54672.72, -75296.19, -75602.74, 0.000, 0.000, 0.000, 11:51:14.856
94, -43300.27, -43559.97, -91710.75, -88445.49, -61248.67, -54640.27, -75217.24, -75602.59, 0.000, 0.000, 0.000, 11:51:14.856
95, -43299.48, -43558.39, -91625.66, -88482.10, -61190.47, -54593.38, -75191.06, -75551.22, 0.000, 0.000, 0.000, 11:51:14.856
96, -43406.21, -43659.01, -91624.52, -88187.11, -61167.04, -54629.32, -75277.37, -75548.18, 0.000, 0.000, 0.000, 11:51:14.857
97, -43408.02, -43663.71, -91713.65, -88143.70, -61231.75, -54680.30, -75314.18, -75606.34, 0.000, 0.000, 0.000, 11:51:14.857
98, -43311.36, -43573.11, -91719.44, -88402.29, -61263.16, -54656.25, -75242.32, -75621.80, 0.000, 0.000, 0.000, 11:51:14.857
99, -43288.78, -43551.16, -91638.69, -88508.63, -61214.23, -54604.55, -75202.24, -75571.96, 0.000, 0.000, 0.000, 11:51:14.857
100, -43373.04, -43629.75, -91608.22, -88245.38, -61170.04, -54615.70, -75266.93, -75544.55, 0.000, 0.000, 0.000, 11:51:14.858
101, -43412.45, -43668.69, -91700.02, -88125.37, -61217.69, -54676.50, -75314.63, -75594.49, 0.000, 0.000, 0.000, 11:51:14.858
102, -43323.74, -43585.70, -91725.50, -88353.13, -61255.87, -54663.47, -75252.11, -75616.38, 0.000, 0.000, 0.000, 11:51:14.858
103, -43282.88, -43544.97, -91653.19, -88519.34, -61221.20, -54610.16, -75199.60, -75578.30, 0.000, 0.000, 0.000, 11:51:14.858
104, -43380.46, -43639.90, -91610.77, -88272.60, -61166.24, -54617.20, -75265.90, -75545.72, 0.000, 0.000, 0.000, 11:51:14.858
105, -43421.66, -43681.61, -91699.02, -88097.84, -61211.50, -54674.69, -75321.17, -75591.01, 0.000, 0.000, 0.000, 11:51:15.312
106, -43339.27, -43602.80, -91739.65, -88289.08, -61259.63, -54673.21, -75269.56, -75624.82, 0.000, 0.000, 0.000, 11:51:15.312
107, -43267.52, -43529.91, -91674.24, -88507.59, -61233.54, -54613.07, -75196.38, -75590.13, 0.000, 0.000, 0.000, 11:51:15.312
108, -43353.31, -43607.63, -91602.20, -88326.88, -61169.12, -54593.39, -75238.79, -75543.84, 0.000, 0.000, 0.000, 11:51:15.312
109, -43436.34, -43685.30, -91678.70, -88085.72, -61203.34, -54657.43, -75329.55, -75584.26, 0.000, 0.000, 0.000, 11:51:15.312
110, -43376.15, -43629.91, -91748.52, -88218.51, -61269.62, -54683.47, -75315.30, -75634.57, 0.000, 0.000, 0.000, 11:51:15.313
111, -43280.51, -43541.35, -91695.93, -88480.07, -61256.12, -54622.72, -75223.95, -75604.44, 0.000, 0.000, 0.000, 11:51:15.313
112, -43317.95, -43573.70, -91603.93, -88381.72, -61177.21, -54588.81, -75223.03, -75546.52, 0.000, 0.000, 0.000, 11:51:15.313
113, -43413.55, -43665.11, -91655.94, -88105.97, -61178.11, -54643.06, -75302.45, -75565.26, 0.000, 0.000, 0.000, 11:51:15.313
114, -43372.13, -43627.65, -91730.23, -88185.36, -61239.42, -54666.22, -75288.09, -75605.80, 0.000, 0.000, 0.000, 11:51:15.313
115, -43277.20, -43534.09, -91697.23, -88459.51, -61239.29, -54622.34, -75209.93, -75594.63, 0.000, 0.000, 0.000, 11:51:15.313
116, -43302.66, -43553.56, -91608.80, -88437.83, -61170.89, -54580.59, -75204.63, -75542.23, 0.000, 0.000, 0.000, 11:51:15.313
117, -43403.15, -43646.18, -91636.43, -88145.80, -61153.45, -54624.62, -75290.73, -75548.31, 0.000, 0.000, 0.000, 11:51:15.314
118, -43394.95, -43640.53, -91724.90, -88147.50, -61222.75, -54671.52, -75312.50, -75606.41, 0.000, 0.000, 0.000, 11:51:15.314
119, -43297.32, -43549.42, -91720.42, -88418.38, -61243.42, -54641.05, -75237.58, -75611.45, 0.000, 0.000, 0.000, 11:51:15.314
120, -43282.59, -43533.30, -91626.30, -88481.99, -61182.42, -54584.88, -75205.73, -75557.70, 0.000, 0.000, 0.000, 11:51:15.314
121, -43388.78, -43629.60, -91618.44, -88182.73, -61140.00, -54614.99, -75281.45, -75545.56, 0.000, 0.000, 0.000, 11:51:15.314
122, -43389.92, -43630.43, -91704.33, -88123.45, -61199.43, -54660.45, -75312.39, -75597.28, 0.000, 0.000, 0.000, 11:51:15.314
123, -43304.36, -43552.46, -91716.18, -88364.09, -61227.37, -54645.61, -75255.51, -75613.73, 0.000, 0.000, 0.000, 11:51:15.314
124, -43274.81, -43522.89, -91636.47, -88490.55, -61175.43, -54594.45, -75202.27, -75572.56, 0.000, 0.000, 0.000, 11:51:15.314
125, -43378.01, -43617.28, -91608.47, -88225.10, -61120.98, -54608.89, -75275.06, -75549.81, 0.000, 0.000, 0.000, 11:51:15.315
126, -43408.85, -43651.39, -91703.05, -88099.89, -61178.64, -54667.70, -75332.73, -75603.48, 0.000, 0.000, 0.000, 11:51:15.315
127, -43329.10, -43577.23, -91734.08, -88314.51, -61218.57, -54666.38, -75282.04, -75630.86, 0.000, 0.000, 0.000, 11:51:15.315
128, -43262.83, -43512.05, -91660.39, -88508.91, -61179.43, -54605.36, -75212.79, -75590.34, 0.000, 0.000, 0.000, 11:51:15.315
129, -43349.62, -43593.28, -91599.32, -88284.36, -61105.58, -54599.52, -75265.27, -75549.81, 0.000, 0.000, 0.000, 11:51:15.315
130, -43399.09, -43639.03, -91686.45, -88101.50, -61143.13, -54657.14, -75331.88, -75594.05, 0.000, 0.000, 0.000, 11:51:15.316
131, -43321.28, -43564.66, -91723.13, -88280.09, -61186.47, -54656.70, -75281.05, -75623.52, 0.000, 0.000, 0.000, 11:51:15.316
132, -43254.34, -43498.93, -91661.98, -88499.98, -61150.21, -54598.94, -75201.48, -75588.26, 0.000, 0.000, 0.000, 11:51:15.316
133, -43325.86, -43564.24, -91597.02, -88340.55, -61080.25, -54583.05, -75235.32, -75545.92, 0.000, 0.000, 0.000, 11:51:15.316
134, -43403.49, -43641.31, -91670.80, -88099.66, -61105.96, -54645.23, -75317.58, -75581.55, 0.000, 0.000, 0.000, 11:51:15.316
135, -43351.09, -43596.94, -91732.36, -88213.15, -61158.71, -54666.31, -75293.05, -75622.52, 0.000, 0.000, 0.000, 11:51:15.316
136, -43259.74, -43509.21, -91695.97, -88474.28, -61147.31, -54614.90, -75219.25, -75606.34, 0.000, 0.000, 0.000, 11:51:15.317
137, -43294.70, -43537.44, -91606.14, -88397.68, -61069.12, -54577.50, -75231.63, -75553.59, 0.000, 0.000, 0.000, 11:51:15.319
138, -43386.93, -43623.59, -91651.72, -88121.17, -61060.38, -54628.29, -75307.14, -75569.81, 0.000, 0.000, 0.000, 11:51:15.319
139, -43356.37, -43599.60, -91731.20, -88180.09, -61111.46, -54666.69, -75305.38, -75622.48, 0.000, 0.000, 0.000, 11:51:15.319
140, -43267.75, -43515.05, -91710.43, -88450.84, -61104.14, -54625.96, -75231.81, -75617.71, 0.000, 0.000, 0.000, 11:51:15.320
141, -43286.16, -43526.11, -91624.00, -88448.40, -61024.71, -54579.47, -75221.58, -75567.67, 0.000, 0.000, 0.000, 11:51:15.320
142, -43384.20, -43617.39, -91641.86, -88156.59, -60989.66, -54615.99, -75298.69, -75567.29, 0.000, 0.000, 0.000, 11:51:15.320
143, -43389.36, -43621.89, -91735.38, -88136.86, -61043.46, -54669.84, -75327.99, -75628.53, 0.000, 0.000, 0.000, 11:51:15.320
144, -43290.43, -43527.88, -91734.95, -88402.98, -61056.71, -54637.16, -75253.83, -75632.98, 0.000, 0.000, 0.000, 11:51:15.320
145, -43272.80, -43509.70, -91641.91, -88479.51, -60987.05, -54578.55, -75212.21, -75576.30, 0.000, 0.000, 0.000, 11:51:15.321
146, -43364.44, -43597.95, -91624.29, -88201.97, -60931.99, -54596.35, -75280.54, -75557.37, 0.000, 0.000, 0.000, 11:51:15.321
147, -43384.60, -43622.40, -91715.84, -88118.71, -60971.18, -54652.47, -75326.67, -75612.15, 0.000, 0.000, 0.000, 11:51:15.321
148, -43297.94, -43540.66, -91743.38, -88358.25, -60991.14, -54642.23, -75269.16, -75636.76, 0.000, 0.000, 0.000, 11:51:15.321
149, -43249.48, -43493.92, -91656.66, -88505.06, -60920.91, -54576.90, -75196.83, -75583.92, 0.000, 0.000, 0.000, 11:51:15.322
150, -43337.89, -43572.69, -91616.42, -88257.00, -60837.47, -54575.96, -75247.81, -75547.87, 0.000, 0.000, 0.000, 11:51:15.322
151, -43388.55, -43620.59, -91704.38, -88108.74, -60865.54, -54637.61, -75312.05, -75600.80, 0.000, 0.000, 0.000, 11:51:15.322
152, -43317.50, -43554.96, -91751.02, -88309.98, -60897.73, -54644.11, -75270.80, -75639.64, 0.000, 0.000, 0.000, 11:51:15.322
153, -43250.73, -43488.13, -91683.19, -88518.65, -60855.46, -54585.51, -75209.68, -75602.52, 0.000, 0.000, 0.000, 11:51:15.323
154, -43329.08, -43556.75, -91617.49, -88313.80, -60781.14, -54575.34, -75255.51, -75559.71, 0.000, 0.000, 0.000, 11:51:15.323
155, -43390.30, -43613.35, -91691.44, -88102.20, -60800.63, -54633.72, -75325.42, -75599.14, 0.000, 0.000, 0.000, 11:51:15.323
156, -43335.25, -43562.23, -91743.00, -88252.57, -60840.02, -54651.38, -75295.76, -75643.24, 0.000, 0.000, 0.000, 11:51:15.323
157, -43263.34, -43492.78, -91698.97, -88491.00, -60818.45, -54604.46, -75228.93, -75623.37, 0.000, 0.000, 0.000, 11:51:15.323
158, -43305.14, -43529.42, -91616.18, -88366.66, -60727.27, -54570.53, -75244.77, -75571.85, 0.000, 0.000, 0.000, 11:51:15.324
159, -43380.96, -43604.99, -91669.28, -88112.92, -60698.42, -54620.06, -75316.01, -75591.09, 0.000, 0.000, 0.000, 11:51:15.324
160, -43345.48, -43576.98, -91741.99, -88199.63, -60735.19, -54653.84, -75300.56, -75638.91, 0.000, 0.000, 0.000, 11:51:15.324
161, -43239.92, -43477.65, -91706.81, -88476.67, -60726.76, -54598.14, -75213.22, -75622.56, 0.000, 0.000, 0.000, 11:51:15.324
162, -43278.27, -43509.66, -91612.51, -88409.41, -60647.01, -54563.09, -75223.56, -75570.27, 0.000, 0.000, 0.000, 11:51:15.325
163, -43374.61, -43599.07, -91660.59, -88120.30, -60636.88, -54614.50, -75316.26, -75587.98, 0.000, 0.000, 0.000, 11:51:15.325
164, -43347.61, -43577.54, -91738.28, -88156.40, -60687.98, -54650.21, -75321.38, -75640.06, 0.000, 0.000, 0.000, 11:51:15.325
165, -43259.14, -43492.27, -91729.08, -88422.29, -60695.80, -54615.37, -75245.98, -75643.30, 0.000, 0.000, 0.000, 11:51:15.325
166, -43263.75, -43492.40, -91648.34, -88441.54, -60623.27, -54567.40, -75227.41, -75592.41, 0.000, 0.000, 0.000, 11:51:15.326
167, -43365.80, -43586.68, -91655.16, -88146.05, -60576.46, -54597.42, -75312.26, -75586.04, 0.000, 0.000, 0.000, 11:51:15.326
168, -43360.06, -43585.68, -91737.39, -88119.09, -60618.84, -54643.69, -75333.27, -75636.87, 0.000, 0.000, 0.000, 11:51:15.326
169, -43274.05, -43503.76, -91737.97, -88378.84, -60635.54, -54625.79, -75268.96, -75649.45, 0.000, 0.000, 0.000, 11:51:15.326
170, -43249.11, -43475.84, -91657.57, -88480.72, -60575.06, -54569.46, -75222.49, -75602.45, 0.000, 0.000, 0.000, 11:51:15.327
171, -43352.68, -43573.79, -91636.09, -88197.27, -60516.09, -54586.18, -75292.90, -75578.29, 0.000, 0.000, 0.000, 11:51:15.327
172, -43373.98, -43599.67, -91730.57, -88095.51, -60563.91, -54640.89, -75330.95, -75629.54, 0.000, 0.000, 0.000, 11:51:15.327
173, -43287.75, -43517.44, -91755.80, -88332.13, -60603.87, -54630.32, -75275.58, -75656.61, 0.000, 0.000, 0.000, 11:51:15.327
174, -43234.00, -43464.35, -91681.58, -88495.63, -60562.14, -54573.61, -75221.80, -75615.21, 0.000, 0.000, 0.000, 11:51:15.327
175, -43321.25, -43549.91, -91634.48, -88249.22, -60498.05, -54576.21, -75280.49, -75580.55, 0.000, 0.000, 0.000, 11:51:15.328
176, -43360.21, -43590.19, -91707.38, -88093.74, -60542.52, -54621.40, -75329.89, -75616.48, 0.000, 0.000, 0.000, 11:51:15.328
177, -43297.32, -43532.79, -91750.11, -88282.13, -60599.38, -54627.04, -75291.22, -75651.73, 0.000, 0.000, 0.000, 11:51:15.328
178, -43230.93, -43470.36, -91693.78, -88495.83, -60570.18, -54573.01, -75216.12, -75619.84, 0.000, 0.000, 0.000, 11:51:15.328
179, -43302.05, -43533.30, -91627.93, -88315.12, -60493.74, -54550.48, -75252.84, -75572.52, 0.000, 0.000, 0.000, 11:51:15.328
180, -43370.27, -43600.65, -91698.63, -88090.75, -60506.28, -54606.11, -75323.86, -75605.38, 0.000, 0.000, 0.000, 11:51:15.329
181, -43320.45, -43555.59, -91762.24, -88228.14, -60564.26, -54629.94, -75302.63, -75653.37, 0.000, 0.000, 0.000, 11:51:15.329
182, -43235.29, -43470.83, -91716.78, -88483.67, -60560.08, -54576.34, -75235.57, -75632.02, 0.000, 0.000, 0.000, 11:51:15.329
183, -43289.74, -43518.15, -91635.58, -88362.27, -60492.69, -54549.09, -75251.26, -75581.28, 0.000, 0.000, 0.000, 11:51:15.329
184, -43373.87, -43596.16, -91692.87, -88105.63, -60501.88, -54601.20, -75330.61, -75604.51, 0.000, 0.000, 0.000, 11:51:15.330
185, -43334.04, -43560.87, -91764.34, -88195.45, -60565.67, -54632.07, -75324.62, -75654.55, 0.000, 0.000, 0.000, 11:51:15.330
186, -43248.43, -43480.94, -91739.24, -88459.51, -60578.16, -54593.06, -75251.19, -75646.28, 0.000, 0.000, 0.000, 11:51:15.330
187, -43268.86, -43498.82, -91657.02, -88429.11, -60509.99, -54551.15, -75244.71, -75593.87, 0.000, 0.000, 0.000, 11:51:15.330
188, -43365.13, -43590.32, -91683.92, -88138.55, -60482.75, -54593.78, -75331.68, -75603.19, 0.000, 0.000, 0.000, 11:51:15.330
189, -43336.48, -43568.02, -91764.39, -88162.63, -60533.53, -54635.48, -75341.38, -75658.55, 0.000, 0.000, 0.000, 11:51:15.331
190, -43241.95, -43481.20, -91750.87, -88431.05, -60537.66, -54606.00, -75271.58, -75663.42, 0.000, 0.000, 0.000, 11:51:15.331
191, -43226.84, -43462.36, -91657.59, -88478.77, -60467.21, -54543.98, -75234.90, -75601.98, 0.000, 0.000, 0.000, 11:51:15.331
192, -43333.62, -43560.69, -91654.76, -88178.70, -60416.81, -54564.20, -75306.42, -75582.89, 0.000, 0.000, 0.000, 11:51:15.331
193, -43335.96, -43566.43, -91752.03, -88129.82, -60476.00, -54612.21, -75338.38, -75635.30, 0.000, 0.000, 0.000, 11:51:15.332
194, -43247.43, -43481.50, -91756.08, -88382.20, -60502.82, -54591.70, -75274.93, -75651.40, 0.000, 0.000, 0.000, 11:51:15.332
195, -43221.95, -43453.76, -91680.88, -88490.82, -60451.48, -54541.96, -75237.40, -75608.06, 0.000, 0.000, 0.000, 11:51:15.332
196, -43312.89, -43539.12, -91649.10, -88223.56, -60394.41, -54550.64, -75298.64, -75581.17, 0.000, 0.000, 0.000, 11:51:15.332
197, -43343.09, -43571.10, -91735.89, -88106.23, -60446.13, -54605.80, -75343.50, -75630.23, 0.000, 0.000, 0.000, 11:51:15.333
198, -43263.54, -43496.47, -91765.77, -88323.95, -60485.79, -54602.25, -75291.18, -75659.02, 0.000, 0.000, 0.000, 11:51:15.333
199, -43200.00, -43434.40, -91692.59, -88498.82, -60441.53, -54543.17, -75224.03, -75616.44, 0.000, 0.000, 0.000, 11:51:15.333
200, -43281.45, -43509.97, -91630.77, -88266.86, -60368.48, -54535.95, -75274.48, -75573.48, 0.000, 0.000, 0.000, 11:51:15.333
201, -43338.60, -43564.02, -91720.45, -88081.43, -60407.75, -54598.61, -75345.16, -75619.39, 0.000, 0.000, 0.000, 11:51:15.333
202, -43264.21, -43497.19, -91767.66, -88263.82, -60458.25, -54606.34, -75302.78, -75659.47, 0.000, 0.000, 0.000, 11:51:15.334
203, -43188.24, -43425.08, -91707.66, -88493.48, -60435.89, -54548.13, -75229.42, -75628.58, 0.000, 0.000, 0.000, 11:51:15.334
204, -43267.57, -43494.59, -91635.09, -88317.33, -60355.27, -54533.38, -75263.33, -75580.14, 0.000, 0.000, 0.000, 11:51:15.334
205, -43336.32, -43557.11, -91711.26, -88090.45, -60373.63, -54589.13, -75332.35, -75612.24, 0.000, 0.000, 0.000, 11:51:15.334
206, -43280.78, -43507.87, -91763.45, -88218.38, -60428.34, -54607.52, -75310.29, -75654.77, 0.000, 0.000, 0.000, 11:51:15.335
207, -43205.34, -43435.94, -91723.46, -88463.48, -60416.61, -54565.43, -75238.31, -75642.23, 0.000, 0.000, 0.000, 11:51:15.335
208, -43235.67, -43462.34, -91637.05, -88373.85, -60344.32, -54526.59, -75250.09, -75591.67, 0.000, 0.000, 0.000, 11:51:15.335
209, -43321.23, -43542.70, -91679.19, -88104.90, -60334.38, -54570.80, -75327.09, -75605.98, 0.000, 0.000, 0.000, 11:51:15.335
210, -43289.54, -43513.84, -91754.96, -88162.92, -60386.23, -54602.88, -75316.84, -75653.73, 0.000, 0.000, 0.000, 11:51:15.335
211, -43187.41, -43417.91, -91726.88, -88436.62, -60390.43, -54554.91, -75234.59, -75643.15, 0.000, 0.000, 0.000, 11:51:15.336
212, -43216.67, -43443.05, -91643.05, -88413.38, -60329.34, -54516.51, -75234.98, -75591.38, 0.000, 0.000, 0.000, 11:51:15.336
213, -43318.51, -43539.61, -91672.15, -88120.16, -60316.23, -54557.50, -75324.23, -75595.12, 0.000, 0.000, 0.000, 11:51:15.336
214, -43306.88, -43530.31, -91758.65, -88121.55, -60376.95, -54605.94, -75339.01, -75648.18, 0.000, 0.000, 0.000, 11:51:15.336
215, -43204.07, -43432.81, -91754.45, -88399.29, -60400.78, -54573.55, -75265.30, -75653.74, 0.000, 0.000, 0.000, 11:51:15.337
216, -43191.01, -43416.30, -91662.80, -88461.18, -60341.80, -54512.59, -75230.63, -75601.58, 0.000, 0.000, 0.000, 11:51:15.337
217, -43296.07, -43512.12, -91649.23, -88164.27, -60301.14, -54537.07, -75308.48, -75585.59, 0.000, 0.000, 0.000, 11:51:15.337
218, -43311.73, -43528.99, -91751.54, -88097.41, -60363.32, -54599.48, -75350.19, -75648.45, 0.000, 0.000, 0.000, 11:51:15.337
219, -43220.27, -43441.55, -91762.89, -88354.50, -60387.73, -54576.23, -75276.23, -75660.16, 0.000, 0.000, 0.000, 11:51:15.337
220, -43190.77, -43409.41, -91687.05, -88487.70, -60329.41, -54519.79, -75226.65, -75615.16, 0.000, 0.000, 0.000, 11:51:15.338
221, -43281.71, -43493.30, -91654.87, -88229.53, -60258.29, -54524.26, -75290.44, -75581.51, 0.000, 0.000, 0.000, 11:51:15.338
222, -43320.00, -43532.52, -91748.14, -88094.73, -60298.16, -54584.01, -75351.95, -75630.16, 0.000, 0.000, 0.000, 11:51:15.338
223, -43244.52, -43464.80, -91787.26, -88311.83, -60341.59, -54586.60, -75304.37, -75664.77, 0.000, 0.000, 0.000, 11:51:15.338
224, -43184.78, -43405.66, -91714.75, -88507.45, -60306.68, -54526.90, -75240.20, -75627.57, 0.000, 0.000, 0.000, 11:51:15.339
225, -43264.13, -43480.63, -91663.18, -88292.23, -60233.97, -54521.18, -75289.95, -75588.55, 0.000, 0.000, 0.000, 11:51:15.339
226, -43314.41, -43527.32, -91734.55, -88103.22, -60261.84, -54575.25, -75363.30, -75625.05, 0.000, 0.000, 0.000, 11:51:15.791
227, -43257.13, -43472.73, -91787.50, -88269.63, -60314.66, -54589.21, -75316.46, -75666.71, 0.000, 0.000, 0.000, 11:51:15.792
228, -43188.78, -43406.48, -91738.10, -88499.23, -60298.10, -54537.36, -75243.48, -75642.28, 0.000, 0.000, 0.000, 11:51:15.792
229, -43247.79, -43461.20, -91664.30, -88349.78, -60225.41, -54514.99, -75275.22, -75595.14, 0.000, 0.000, 0.000, 11:51:15.792
230, -43321.08, -43530.78, -91726.35, -88110.04, -60244.59, -54568.30, -75350.14, -75624.58, 0.000, 0.000, 0.000, 11:51:15.792
231, -43278.36, -43493.30, -91793.38, -88223.49, -60307.98, -54594.13, -75337.80, -75672.70, 0.000, 0.000, 0.000, 11:51:15.792
232, -43181.27, -43401.36, -91757.13, -88495.29, -60307.84, -54543.11, -75256.91, -75656.25, 0.000, 0.000, 0.000, 11:51:15.792
233, -43214.23, -43427.38, -91663.02, -88422.83, -60228.45, -54499.56, -75256.17, -75599.12, 0.000, 0.000, 0.000, 11:51:15.793
234, -43316.25, -43520.28, -91714.28, -88138.98, -60225.01, -54553.45, -75352.31, -75621.02, 0.000, 0.000, 0.000, 11:51:15.793
235, -43282.79, -43490.61, -91786.63, -88192.88, -60292.09, -54581.86, -75343.19, -75663.02, 0.000, 0.000, 0.000, 11:51:15.793
236, -43194.68, -43410.28, -91769.87, -88460.47, -60314.75, -54546.10, -75268.65, -75657.79, 0.000, 0.000, 0.000, 11:51:15.793
237, -43195.77, -43412.20, -91679.97, -88468.23, -60267.32, -54496.19, -75253.16, -75605.02, 0.000, 0.000, 0.000, 11:51:15.793
238, -43291.44, -43504.29, -91686.27, -88175.13, -60247.80, -54526.21, -75330.74, -75600.26, 0.000, 0.000, 0.000, 11:51:15.793
239, -43290.10, -43506.55, -91774.34, -88152.64, -60318.50, -54569.95, -75347.46, -75649.84, 0.000, 0.000, 0.000, 11:51:15.793
240, -43206.46, -43426.13, -91778.88, -88411.72, -60353.11, -54550.14, -75284.27, -75664.81, 0.000, 0.000, 0.000, 11:51:15.794
241, -43189.09, -43409.93, -91695.75, -88495.45, -60310.28, -54498.74, -75250.14, -75619.46, 0.000, 0.000, 0.000, 11:51:15.794
242, -43282.68, -43498.10, -91681.02, -88212.63, -60261.51, -54517.71, -75324.57, -75603.92, 0.000, 0.000, 0.000, 11:51:15.794
243, -43295.08, -43507.65, -91764.99, -88131.43, -60309.95, -54567.80, -75356.47, -75651.63, 0.000, 0.000, 0.000, 11:51:15.794
244, -43213.52, -43432.10, -91784.71, -88363.55, -60358.40, -54559.27, -75303.96, -75675.00, 0.000, 0.000, 0.000, 11:51:15.794
245, -43168.05, -43387.46, -91708.06, -88509.95, -60324.70, -54500.86, -75245.87, -75631.33, 0.000, 0.000, 0.000, 11:51:15.794
246, -43262.65, -43474.32, -91663.41, -88257.11, -60264.82, -54505.44, -75306.87, -75600.73, 0.000, 0.000, 0.000, 11:51:15.794
247, -43312.34, -43524.46, -91757.33, -88102.08, -60316.61, -54569.79, -75376.09, -75655.47, 0.000, 0.000, 0.000, 11:51:15.794
248, -43222.39, -43441.71, -91796.73, -88315.90, -60367.14, -54563.00, -75316.68, -75682.53, 0.000, 0.000, 0.000, 11:51:15.795
249, -43146.93, -43370.21, -91716.89, -88521.63, -60328.41, -54499.83, -75238.02, -75635.71, 0.000, 0.000, 0.000, 11:51:15.795
250, -43227.73, -43444.26, -91649.50, -88316.57, -60241.50, -54488.77, -75289.21, -75593.42, 0.000, 0.000, 0.000, 11:51:15.795
251, -43304.29, -43519.16, -91734.95, -88096.58, -60264.52, -54552.20, -75375.22, -75634.57, 0.000, 0.000, 0.000, 11:51:15.795
252, -43249.53, -43470.50, -91801.52, -88245.73, -60318.84, -54573.08, -75331.27, -75681.82, 0.000, 0.000, 0.000, 11:51:15.795
253, -43166.34, -43388.78, -91746.98, -88494.35, -60305.36, -54514.23, -75258.34, -75657.77, 0.000, 0.000, 0.000, 11:51:15.795
254, -43208.76, -43423.58, -91658.00, -88370.16, -60229.03, -54474.44, -75271.02, -75600.28, 0.000, 0.000, 0.000, 11:51:15.795
255, -43293.02, -43504.34, -91714.28, -88112.95, -60228.65, -54525.89, -75349.77, -75622.45, 0.000, 0.000, 0.000, 11:51:15.795
0, -43249.86, -43468.64, -91787.28, -88213.59, -60284.75, -54552.49, -75336.22, -75670.60, 0.000, 0.000, 0.000, 11:51:15.796
1, -43162.69, -43384.67, -91753.26, -88473.23, -60286.99, -54508.86, -75261.05, -75657.73, 0.000, 0.000, 0.000, 11:51:15.796
2, -43186.63, -43405.39, -91664.32, -88423.32, -60221.16, -54463.62, -75256.96, -75601.45, 0.000, 0.000, 0.000, 11:51:15.796
3, -43288.24, -43500.76, -91696.13, -88132.43, -60203.89, -54505.89, -75337.91, -75607.27, 0.000, 0.000, 0.000, 11:51:15.796
4, -43270.05, -43485.52, -91788.35, -88165.58, -60274.79, -54549.81, -75341.94, -75662.98, 0.000, 0.000, 0.000, 11:51:15.796
5, -43179.50, -43401.74, -91774.56, -88435.68, -60299.86, -54518.72, -75272.34, -75664.50, 0.000, 0.000, 0.000, 11:51:15.797
6, -43177.69, -43395.15, -91682.98, -88465.16, -60242.09, -54464.76, -75248.40, -75612.13, 0.000, 0.000, 0.000, 11:51:15.797
7, -43266.02, -43479.53, -91680.59, -88178.50, -60212.82, -54485.15, -75320.98, -75600.10, 0.000, 0.000, 0.000, 11:51:15.797
8, -43264.28, -43484.71, -91761.15, -88139.50, -60274.92, -54532.42, -75344.87, -75650.17, 0.000, 0.000, 0.000, 11:51:15.797
9, -43175.84, -43404.98, -91770.16, -88392.54, -60303.46, -54514.99, -75280.70, -75666.60, 0.000, 0.000, 0.000, 11:51:15.797
10, -43150.46, -43375.59, -91685.31, -88493.17, -60251.94, -54458.30, -75236.46, -75620.24, 0.000, 0.000, 0.000, 11:51:15.798
11, -43254.34, -43471.62, -91664.37, -88212.61, -60199.04, -54475.25, -75317.20, -75600.05, 0.000, 0.000, 0.000, 11:51:15.798
12, -43279.50, -43500.00, -91761.10, -88110.55, -60258.22, -54531.53, -75366.99, -75655.13, 0.000, 0.000, 0.000, 11:51:15.798
13, -43191.55, -43418.13, -91782.36, -88340.91, -60299.33, -54517.67, -75297.10, -75672.90, 0.000, 0.000, 0.000, 11:51:15.798
14, -43139.85, -43370.41, -91706.30, -88509.42, -60261.53, -54453.25, -75235.88, -75624.55, 0.000, 0.000, 0.000, 11:51:15.798
15, -43232.05, -43460.15, -91661.62, -88271.10, -60205.56, -54457.09, -75299.02, -75590.49, 0.000, 0.000, 0.000, 11:51:15.798
16, -43285.65, -43509.55, -91748.07, -88102.55, -60252.90, -54519.46, -75360.73, -75635.93, 0.000, 0.000, 0.000, 11:51:15.798
17, -43205.09, -43432.03, -91782.67, -88293.01, -60302.61, -54516.11, -75311.61, -75666.87, 0.000, 0.000, 0.000, 11:51:15.799
18, -43128.70, -43355.01, -91711.71, -88515.70, -60279.43, -54453.25, -75236.05, -75633.07, 0.000, 0.000, 0.000, 11:51:15.799
19, -43199.35, -43419.96, -91643.40, -88330.83, -60201.88, -54434.14, -75274.05, -75586.87, 0.000, 0.000, 0.000, 11:51:15.799
20, -43272.46, -43492.05, -91716.24, -88100.09, -60221.43, -54493.68, -75350.90, -75619.66, 0.000, 0.000, 0.000, 11:51:15.799
21, -43214.17, -43440.08, -91775.37, -88239.90, -60285.18, -54511.86, -75323.68, -75661.59, 0.000, 0.000, 0.000, 11:51:15.799
22, -43130.73, -43360.91, -91733.81, -88490.46, -60285.65, -54462.39, -75246.85, -75640.87, 0.000, 0.000, 0.000, 11:51:15.800
23, -43180.24, -43404.23, -91648.19, -88382.41, -60221.90, -54429.98, -75260.00, -75587.59, 0.000, 0.000, 0.000, 11:51:15.800
24, -43269.13, -43487.71, -91701.98, -88117.52, -60235.69, -54480.39, -75343.59, -75610.07, 0.000, 0.000, 0.000, 11:51:15.800
25, -43238.46, -43463.32, -91780.22, -88192.88, -60310.23, -54513.31, -75337.80, -75663.85, 0.000, 0.000, 0.000, 11:51:15.800
26, -43151.54, -43381.18, -91761.26, -88456.47, -60322.04, -54471.11, -75251.23, -75649.05, 0.000, 0.000, 0.000, 11:51:15.800
27, -43170.76, -43395.95, -91672.34, -88426.13, -60255.47, -54423.28, -75246.67, -75594.58, 0.000, 0.000, 0.000, 11:51:15.800
28, -43270.29, -43490.66, -91700.71, -88134.06, -60244.34, -54465.03, -75337.38, -75603.63, 0.000, 0.000, 0.000, 11:51:15.800
29, -43249.33, -43474.97, -91780.44, -88151.12, -60314.35, -54501.62, -75346.34, -75654.13, 0.000, 0.000, 0.000, 11:51:15.801
30, -43164.44, -43394.19, -91778.18, -88413.08, -60341.66, -54475.87, -75279.89, -75663.98, 0.000, 0.000, 0.000, 11:51:15.801
31, -43155.11, -43383.30, -91689.27, -88465.52, -60287.21, -54423.66, -75250.92, -75610.67, 0.000, 0.000, 0.000, 11:51:15.801
32, -43253.71, -43474.14, -91678.78, -88171.68, -60239.20, -54446.99, -75322.96, -75592.34, 0.000, 0.000, 0.000, 11:51:15.801
33, -43256.97, -43480.85, -91769.38, -88121.93, -60291.84, -54496.12, -75348.53, -75643.76, 0.000, 0.000, 0.000, 11:51:15.801
34, -43165.20, -43399.15, -91778.98, -88371.77, -60319.46, -54474.69, -75280.16, -75658.80, 0.000, 0.000, 0.000, 11:51:15.801
35, -43138.93, -43373.45, -91704.98, -88488.66, -60276.86, -54423.39, -75240.15, -75616.20, 0.000, 0.000, 0.000, 11:51:15.801
36, -43238.24, -43464.46, -91681.27, -88216.14, -60235.58, -54435.35, -75311.52, -75589.51, 0.000, 0.000, 0.000, 11:51:15.802
37, -43263.50, -43489.43, -91766.09, -88102.02, -60287.61, -54485.15, -75356.53, -75634.45, 0.000, 0.000, 0.000, 11:51:15.802
38, -43190.99, -43423.09, -91799.75, -88319.67, -60331.02, -54485.21, -75312.45, -75667.16, 0.000, 0.000, 0.000, 11:51:15.802
39, -43131.55, -43361.96, -91729.43, -88503.67, -60299.02, -54422.14, -75239.97, -75624.22, 0.000, 0.000, 0.000, 11:51:15.802
40, -43217.21, -43440.86, -91669.93, -88279.28, -60231.54, -54415.79, -75294.53, -75583.25, 0.000, 0.000, 0.000, 11:51:15.802
41, -43266.76, -43491.84, -91749.03, -88098.30, -60252.01, -54472.77, -75356.38, -75626.16, 0.000, 0.000, 0.000, 11:51:15.803
42, -43200.54, -43430.46, -91796.89, -88270.91, -60294.81, -54484.43, -75322.59, -75670.17, 0.000, 0.000, 0.000, 11:51:15.803
43, -43122.13, -43354.29, -91737.75, -88498.66, -60272.41, -54425.54, -75248.98, -75639.95, 0.000, 0.000, 0.000, 11:51:15.803
44, -43187.01, -43413.81, -91662.38, -88334.80, -60200.09, -54405.84, -75279.04, -75592.55, 0.000, 0.000, 0.000, 11:51:15.803
45, -43256.26, -43479.75, -91729.32, -88101.12, -60214.91, -54457.57, -75349.83, -75615.10, 0.000, 0.000, 0.000, 11:51:15.803
46, -43212.47, -43441.22, -91796.02, -88220.39, -60277.91, -54488.79, -75336.13, -75666.24, 0.000, 0.000, 0.000, 11:51:15.803
47, -43128.81, -43364.55, -91761.48, -88476.92, -60280.84, -54448.73, -75267.46, -75657.27, 0.000, 0.000, 0.000, 11:51:15.803
48, -43162.04, -43395.60, -91674.36, -88394.28, -60209.56, -54409.46, -75269.67, -75603.43, 0.000, 0.000, 0.000, 11:51:15.803
49, -43249.30, -43476.24, -91707.39, -88123.70, -60200.64, -54446.97, -75337.83, -75606.43, 0.000, 0.000, 0.000, 11:51:15.804
50, -43227.29, -43452.77, -91784.46, -88181.98, -60269.71, -54483.71, -75340.98, -75658.48, 0.000, 0.000, 0.000, 11:51:15.804
51, -43142.60, -43374.00, -91770.31, -88451.13, -60289.89, -54448.49, -75272.98, -75660.43, 0.000, 0.000, 0.000, 11:51:15.804
52, -43157.53, -43385.63, -91681.48, -88435.44, -60227.04, -54403.27, -75260.31, -75610.67, 0.000, 0.000, 0.000, 11:51:15.804
53, -43259.54, -43479.77, -91706.16, -88141.73, -60208.89, -54445.90, -75348.31, -75616.84, 0.000, 0.000, 0.000, 11:51:15.804
54, -43244.52, -43469.02, -91794.27, -88145.13, -60272.64, -54488.05, -75364.29, -75669.19, 0.000, 0.000, 0.000, 11:51:15.804
55, -43144.23, -43372.39, -91785.67, -88418.07, -60286.81, -54454.93, -75281.25, -75669.75, 0.000, 0.000, 0.000, 11:51:15.804
56, -43132.43, -43358.34, -91697.11, -88490.66, -60223.00, -54402.67, -75243.77, -75612.91, 0.000, 0.000, 0.000, 11:51:15.804
57, -43232.47, -43451.52, -91689.49, -88199.22, -60176.79, -54424.73, -75323.45, -75594.98, 0.000, 0.000, 0.000, 11:51:15.805
58, -43247.29, -43467.52, -91786.09, -88126.48, -60236.54, -54478.40, -75367.09, -75654.30, 0.000, 0.000, 0.000, 11:51:15.805
59, -43159.47, -43383.93, -91798.39, -88367.53, -60265.64, -54465.88, -75306.20, -75674.80, 0.000, 0.000, 0.000, 11:51:15.805
60, -43123.93, -43348.46, -91721.41, -88500.48, -60217.63, -54408.75, -75251.08, -75629.27, 0.000, 0.000, 0.000, 11:51:15.805
61, -43219.69, -43438.76, -91685.87, -88241.31, -60159.76, -54412.21, -75316.91, -75600.84, 0.000, 0.000, 0.000, 11:51:15.805
62, -43258.71, -43478.59, -91778.12, -88107.24, -60211.33, -54471.29, -75375.20, -75651.80, 0.000, 0.000, 0.000, 11:51:15.805
63, -43168.30, -43397.00, -91806.05, -88329.53, -60254.76, -54462.77, -75314.55, -75676.90, 0.000, 0.000, 0.000, 11:51:15.805
64, -43108.45, -43341.04, -91734.10, -88524.35, -60220.20, -54401.26, -75245.38, -75633.00, 0.000, 0.000, 0.000, 11:51:15.805
65, -43187.23, -43414.08, -91674.83, -88316.59, -60153.88, -54388.83, -75290.26, -75591.05, 0.000, 0.000, 0.000, 11:51:15.806
66, -43251.21, -43476.27, -91752.32, -88112.70, -60185.73, -54449.18, -75366.21, -75631.93, 0.000, 0.000, 0.000, 11:51:15.806
67, -43191.04, -43423.49, -91808.67, -88271.23, -60245.66, -54465.34, -75336.48, -75674.29, 0.000, 0.000, 0.000, 11:51:15.806
68, -43109.23, -43345.26, -91752.39, -88512.32, -60232.43, -54410.65, -75260.69, -75646.05, 0.000, 0.000, 0.000, 11:51:15.806
69, -43173.24, -43403.71, -91679.68, -88365.38, -60160.43, -54389.10, -75292.54, -75600.44, 0.000, 0.000, 0.000, 11:51:15.807
70, -43259.70, -43485.32, -91745.34, -88112.95, -60179.43, -54449.45, -75374.15, -75629.80, 0.000, 0.000, 0.000, 11:51:15.807
71, -43213.05, -43444.39, -91815.09, -88217.51, -60241.46, -54479.78, -75349.45, -75676.21, 0.000, 0.000, 0.000, 11:51:15.807
72, -43120.25, -43356.06, -91777.13, -88484.34, -60244.54, -54432.84, -75271.11, -75665.50, 0.000, 0.000, 0.000, 11:51:15.807
73, -43154.11, -43384.38, -91692.30, -88415.61, -60180.53, -54395.38, -75273.63, -75612.30, 0.000, 0.000, 0.000, 11:51:15.807
74, -43249.44, -43475.01, -91729.59, -88133.17, -60174.78, -54440.84, -75359.04, -75624.89, 0.000, 0.000, 0.000, 11:51:15.808
75, -43220.76, -43452.30, -91817.61, -88186.63, -60243.05, -54478.89, -75366.95, -75683.43, 0.000, 0.000, 0.000, 11:51:15.808
76, -43123.58, -43361.33, -91795.13, -88462.81, -60256.14, -54436.91, -75285.30, -75679.45, 0.000, 0.000, 0.000, 11:51:15.808
77, -43132.07, -43367.99, -91699.23, -88462.21, -60187.30, -54392.50, -75266.13, -75624.06, 0.000, 0.000, 0.000, 11:51:15.808
78, -43233.91, -43462.34, -91713.61, -88165.16, -60158.96, -54430.79, -75346.25, -75619.91, 0.000, 0.000, 0.000, 11:51:15.808
79, -43221.99, -43454.85, -91795.91, -88153.35, -60223.42, -54475.54, -75367.11, -75675.90, 0.000, 0.000, 0.000, 11:51:15.808
80, -43130.19, -43372.04, -91795.84, -88418.87, -60252.72, -54447.55, -75296.70, -75686.78, 0.000, 0.000, 0.000, 11:51:15.808
81, -43122.32, -43361.58, -91719.40, -88496.61, -60201.67, -54401.21, -75266.13, -75642.62, 0.000, 0.000, 0.000, 11:51:15.808
82, -43216.18, -43449.04, -91705.52, -88214.66, -60151.38, -54419.23, -75334.97, -75623.48, 0.000, 0.000, 0.000, 11:51:15.809
83, -43227.80, -43462.34, -91792.78, -88136.44, -60209.99, -54460.18, -75368.05, -75663.89, 0.000, 0.000, 0.000, 11:51:15.809
84, -43154.45, -43392.34, -91812.98, -88368.38, -60249.24, -54449.47, -75307.23, -75685.95, 0.000, 0.000, 0.000, 11:51:15.809
85, -43115.53, -43354.43, -91738.95, -88517.98, -60208.91, -54391.09, -75255.05, -75638.50, 0.000, 0.000, 0.000, 11:51:15.809
86, -43203.51, -43438.02, -91696.71, -88273.25, -60149.32, -54395.07, -75317.64, -75603.43, 0.000, 0.000, 0.000, 11:51:15.809
87, -43232.68, -43468.73, -91777.84, -88130.60, -60192.84, -54445.65, -75358.88, -75645.84, 0.000, 0.000, 0.000, 11:51:15.809
88, -43165.51, -43407.71, -91810.73, -88320.77, -60239.27, -54450.88, -75315.70, -75680.91, 0.000, 0.000, 0.000, 11:51:15.809
89, -43102.25, -43347.54, -91751.72, -88522.43, -60213.07, -54396.57, -75256.55, -75650.05, 0.000, 0.000, 0.000, 11:51:15.810
90, -43167.25, -43406.35, -91682.43, -88333.35, -60136.65, -54376.76, -75289.81, -75602.02, 0.000, 0.000, 0.000, 11:51:16.270
91, -43229.14, -43464.66, -91756.05, -88118.33, -60157.73, -54430.92, -75364.58, -75634.59, 0.000, 0.000, 0.000, 11:51:16.271
92, -43164.57, -43410.06, -91808.38, -88268.38, -60211.95, -54445.09, -75328.82, -75671.27, 0.000, 0.000, 0.000, 11:51:16.271
93, -43095.28, -43343.05, -91762.76, -88511.36, -60207.42, -54397.84, -75257.56, -75651.94, 0.000, 0.000, 0.000, 11:51:16.271
94, -43152.75, -43397.52, -91690.61, -88380.07, -60144.61, -54373.95, -75285.52, -75606.61, 0.000, 0.000, 0.000, 11:51:16.271
95, -43233.75, -43471.28, -91748.03, -88122.46, -60157.62, -54424.13, -75366.98, -75629.02, 0.000, 0.000, 0.000, 11:51:16.271
96, -43179.34, -43423.25, -91806.88, -88224.86, -60217.54, -54444.91, -75343.46, -75670.94, 0.000, 0.000, 0.000, 11:51:16.271
97, -43096.31, -43344.73, -91765.91, -88484.32, -60210.77, -54398.69, -75265.72, -75655.24, 0.000, 0.000, 0.000, 11:51:16.271
98, -43134.53, -43379.82, -91690.97, -88431.34, -60145.28, -54367.13, -75266.30, -75608.75, 0.000, 0.000, 0.000, 11:51:16.271
99, -43219.58, -43460.73, -91719.40, -88152.80, -60132.92, -54399.47, -75339.37, -75610.49, 0.000, 0.000, 0.000, 11:51:16.272
100, -43196.29, -43443.95, -91799.17, -88179.20, -60196.57, -54436.64, -75349.92, -75662.82, 0.000, 0.000, 0.000, 11:51:16.272
101, -43101.29, -43357.51, -91788.09, -88452.24, -60218.44, -54402.96, -75275.91, -75667.00, 0.000, 0.000, 0.000, 11:51:16.272
102, -43104.27, -43354.83, -91699.62, -88484.77, -60162.96, -54355.64, -75254.45, -75617.09, 0.000, 0.000, 0.000, 11:51:16.272
103, -43205.47, -43447.30, -91705.41, -88191.95, -60131.36, -54390.29, -75340.93, -75609.51, 0.000, 0.000, 0.000, 11:51:16.273
104, -43204.45, -43451.25, -91795.17, -88147.63, -60189.85, -54438.19, -75366.66, -75660.02, 0.000, 0.000, 0.000, 11:51:16.273
105, -43111.84, -43367.61, -91801.72, -88403.09, -60226.37, -54416.04, -75297.02, -75674.35, 0.000, 0.000, 0.000, 11:51:16.273
106, -43088.51, -43343.14, -91723.15, -88511.56, -60188.29, -54365.16, -75255.66, -75627.88, 0.000, 0.000, 0.000, 11:51:16.273
107, -43183.10, -43433.33, -91697.23, -88239.68, -60138.91, -54379.22, -75319.38, -75604.98, 0.000, 0.000, 0.000, 11:51:16.273
108, -43213.41, -43468.04, -91791.95, -88132.30, -60191.88, -54433.78, -75368.41, -75655.29, 0.000, 0.000, 0.000, 11:51:16.273
109, -43137.61, -43392.04, -91819.20, -88357.70, -60236.96, -54425.80, -75318.52, -75679.79, 0.000, 0.000, 0.000, 11:51:16.274
110, -43096.26, -43347.54, -91751.98, -88523.99, -60204.29, -54374.73, -75267.77, -75644.54, 0.000, 0.000, 0.000, 11:51:16.274
111, -43176.66, -43422.78, -91694.99, -88290.20, -60135.22, -54368.65, -75318.49, -75604.46, 0.000, 0.000, 0.000, 11:51:16.274
112, -43229.34, -43477.09, -91786.90, -88121.82, -60179.68, -54434.18, -75388.01, -75654.51, 0.000, 0.000, 0.000, 11:51:16.274
113, -43153.08, -43410.26, -91828.36, -88310.82, -60234.95, -54438.12, -75338.16, -75689.89, 0.000, 0.000, 0.000, 11:51:16.274
114, -43075.14, -43334.71, -91764.70, -88533.89, -60215.93, -54376.00, -75262.39, -75657.86, 0.000, 0.000, 0.000, 11:51:16.274
115, -43144.72, -43395.78, -91693.20, -88359.77, -60143.45, -54346.86, -75289.66, -75599.92, 0.000, 0.000, 0.000, 11:51:16.274
116, -43205.85, -43456.68, -91759.36, -88140.16, -60167.52, -54399.94, -75361.19, -75632.47, 0.000, 0.000, 0.000, 11:51:16.275
117, -43145.44, -43403.82, -91811.91, -88276.49, -60226.46, -54418.54, -75330.96, -75676.57, 0.000, 0.000, 0.000, 11:51:16.275
118, -43069.44, -43330.49, -91772.37, -88524.91, -60224.02, -54372.14, -75263.71, -75658.10, 0.000, 0.000, 0.000, 11:51:16.275
119, -43120.18, -43377.14, -91691.08, -88409.77, -60156.72, -54341.58, -75282.04, -75605.35, 0.000, 0.000, 0.000, 11:51:16.275
120, -43201.61, -43458.41, -91742.17, -88140.34, -60160.07, -54392.66, -75362.97, -75626.43, 0.000, 0.000, 0.000, 11:51:16.275
121, -43166.00, -43429.15, -91821.14, -88220.19, -60228.18, -54428.33, -75359.20, -75682.67, 0.000, 0.000, 0.000, 11:51:16.275
122, -43074.22, -43339.29, -91794.72, -88495.29, -60241.30, -54381.41, -75284.83, -75671.41, 0.000, 0.000, 0.000, 11:51:16.275
123, -43098.30, -43357.89, -91707.22, -88463.64, -60167.34, -54334.41, -75267.20, -75611.52, 0.000, 0.000, 0.000, 11:51:16.275
124, -43196.84, -43451.43, -91729.73, -88169.07, -60147.02, -54374.80, -75349.00, -75614.02, 0.000, 0.000, 0.000, 11:51:16.276
125, -43188.31, -43446.85, -91815.62, -88177.77, -60218.04, -54425.80, -75368.02, -75669.39, 0.000, 0.000, 0.000, 11:51:16.276
126, -43093.38, -43359.23, -91802.37, -88446.09, -60236.38, -54391.74, -75294.24, -75674.53, 0.000, 0.000, 0.000, 11:51:16.276
127, -43085.45, -43352.97, -91718.84, -88495.59, -60182.88, -54336.75, -75264.16, -75623.64, 0.000, 0.000, 0.000, 11:51:16.276
128, -43193.63, -43450.54, -91714.62, -88197.68, -60143.63, -54366.28, -75344.64, -75611.95, 0.000, 0.000, 0.000, 11:51:16.276
129, -43209.36, -43466.00, -91808.52, -88138.54, -60205.74, -54425.71, -75382.10, -75670.48, 0.000, 0.000, 0.000, 11:51:16.276
130, -43111.84, -43377.22, -91821.79, -88386.44, -60241.04, -54406.47, -75314.40, -75689.46, 0.000, 0.000, 0.000, 11:51:16.276
131, -43065.26, -43328.07, -91732.49, -88515.52, -60193.52, -54341.92, -75255.20, -75637.34, 0.000, 0.000, 0.000, 11:51:16.276
132, -43167.61, -43422.98, -91702.03, -88247.75, -60135.76, -54351.62, -75318.94, -75605.20, 0.000, 0.000, 0.000, 11:51:16.277
133, -43203.17, -43457.42, -91797.98, -88128.52, -60185.11, -54407.43, -75372.72, -75656.67, 0.000, 0.000, 0.000, 11:51:16.277
134, -43119.29, -43377.94, -91827.27, -88351.62, -60229.28, -54402.85, -75315.25, -75688.80, 0.000, 0.000, 0.000, 11:51:16.277
135, -43071.41, -43332.52, -91758.52, -88530.98, -60197.38, -54356.85, -75260.65, -75658.80, 0.000, 0.000, 0.000, 11:51:16.277
136, -43158.38, -43413.75, -91703.44, -88305.50, -60132.92, -54349.94, -75313.66, -75613.55, 0.000, 0.000, 0.000, 11:51:16.277
137, -43203.55, -43457.76, -91784.51, -88128.37, -60164.99, -54399.59, -75369.50, -75645.54, 0.000, 0.000, 0.000, 11:51:16.277
138, -43134.77, -43394.26, -91831.67, -88298.53, -60216.87, -54408.97, -75334.56, -75684.28, 0.000, 0.000, 0.000, 11:51:16.277
139, -43052.99, -43320.65, -91773.80, -88529.02, -60207.13, -54351.15, -75267.62, -75653.79, 0.000, 0.000, 0.000, 11:51:16.277
140, -43127.60, -43385.52, -91699.86, -88365.18, -60139.42, -54332.98, -75296.63, -75606.20, 0.000, 0.000, 0.000, 11:51:16.278
141, -43204.45, -43461.22, -91773.11, -88127.65, -60153.64, -54387.29, -75354.59, -75634.37, 0.000, 0.000, 0.000, 11:51:16.278
142, -43160.88, -43424.54, -91837.55, -88242.02, -60216.27, -54415.03, -75339.77, -75680.91, 0.000, 0.000, 0.000, 11:51:16.278
143, -43076.13, -43342.98, -91800.34, -88503.00, -60219.64, -54368.18, -75267.53, -75667.73, 0.000, 0.000, 0.000, 11:51:16.278
144, -43115.51, -43380.46, -91714.21, -88420.97, -60144.81, -54330.07, -75274.84, -75613.78, 0.000, 0.000, 0.000, 11:51:16.278
145, -43207.69, -43465.11, -91751.13, -88138.00, -60137.52, -54379.65, -75363.91, -75627.10, 0.000, 0.000, 0.000, 11:51:16.278
146, -43171.36, -43433.89, -91829.26, -88207.71, -60201.32, -54411.14, -75355.23, -75678.53, 0.000, 0.000, 0.000, 11:51:16.278
147, -43080.24, -43349.35, -91802.99, -88471.24, -60207.86, -54370.13, -75275.33, -75670.51, 0.000, 0.000, 0.000, 11:51:16.278
148, -43085.98, -43350.22, -91717.34, -88469.34, -60144.27, -54319.63, -75252.04, -75613.09, 0.000, 0.000, 0.000, 11:51:16.279
149, -43186.68, -43445.51, -91733.59, -88176.45, -60125.18, -54354.28, -75337.76, -75611.52, 0.000, 0.000, 0.000, 11:51:16.279
150, -43187.12, -43449.71, -91825.12, -88166.66, -60194.05, -54400.72, -75362.79, -75667.29, 0.000, 0.000, 0.000, 11:51:16.279
151, -43101.43, -43371.52, -91832.01, -88431.68, -60223.04, -54382.82, -75301.13, -75683.92, 0.000, 0.000, 0.000, 11:51:16.279
152, -43079.21, -43350.74, -91744.72, -88514.38, -60169.31, -54328.75, -75261.05, -75633.56, 0.000, 0.000, 0.000, 11:51:16.279
153, -43164.35, -43430.60, -91724.34, -88232.41, -60113.41, -54340.64, -75328.86, -75608.06, 0.000, 0.000, 0.000, 11:51:16.279
154, -43171.19, -43440.08, -91801.67, -88164.04, -60167.56, -54387.34, -75362.57, -75656.61, 0.000, 0.000, 0.000, 11:51:16.280
155, -43103.10, -43377.02, -91830.22, -88395.88, -60212.38, -54388.41, -75316.08, -75686.94, 0.000, 0.000, 0.000, 11:51:16.280
156, -43052.79, -43333.97, -91756.57, -88537.70, -60174.56, -54331.93, -75258.92, -75646.15, 0.000, 0.000, 0.000, 11:51:16.280
157, -43144.12, -43417.05, -91708.13, -88282.46, -60114.14, -54329.58, -75313.91, -75605.82, 0.000, 0.000, 0.000, 11:51:16.280
158, -43196.36, -43467.46, -91796.24, -88138.73, -60159.54, -54385.23, -75366.48, -75648.05, 0.000, 0.000, 0.000, 11:51:16.280
159, -43131.60, -43407.45, -91844.81, -88347.03, -60217.88, -54394.73, -75325.69, -75687.52, 0.000, 0.000, 0.000, 11:51:16.281
160, -43073.80, -43350.18, -91781.55, -88546.86, -60197.92, -54340.22, -75264.94, -75655.00, 0.000, 0.000, 0.000, 11:51:16.281
161, -43148.19, -43420.32, -91714.19, -88344.57, -60124.18, -54322.18, -75299.27, -75605.80, 0.000, 0.000, 0.000, 11:51:16.281
162, -43214.05, -43487.35, -91802.01, -88140.48, -60155.61, -54390.55, -75373.19, -75649.88, 0.000, 0.000, 0.000, 11:51:16.281
163, -43136.86, -43418.35, -91850.38, -88302.62, -60217.45, -54400.48, -75338.59, -75689.35, 0.000, 0.000, 0.000, 11:51:16.281
164, -43059.58, -43344.93, -91796.42, -88536.40, -60205.36, -54348.33, -75274.55, -75664.14, 0.000, 0.000, 0.000, 11:51:16.281
165, -43122.75, -43397.86, -91722.99, -88399.25, -60135.49, -54320.93, -75300.61, -75616.38, 0.000, 0.000, 0.000, 11:51:16.282
166, -43196.11, -43464.82, -91775.09, -88153.13, -60150.78, -54370.35, -75368.83, -75637.83, 0.000, 0.000, 0.000, 11:51:16.282
167, -43150.11, -43427.34, -91839.58, -88251.66, -60213.92, -54403.34, -75353.25, -75686.67, 0.000, 0.000, 0.000, 11:51:16.282
168, -43065.71, -43346.78, -91802.57, -88511.77, -60216.49, -54360.38, -75279.82, -75674.53, 0.000, 0.000, 0.000, 11:51:16.282
169, -43108.67, -43383.44, -91725.97, -88449.96, -60163.27, -54323.10, -75291.54, -75624.71, 0.000, 0.000, 0.000, 11:51:16.282
170, -43197.67, -43466.79, -91762.20, -88173.60, -60159.14, -54361.32, -75369.23, -75632.27, 0.000, 0.000, 0.000, 11:51:16.282
171, -43177.20, -43449.75, -91835.67, -88210.24, -60220.67, -54397.48, -75373.70, -75680.34, 0.000, 0.000, 0.000, 11:51:16.282
172, -43086.94, -43367.23, -91825.52, -88474.35, -60238.89, -54363.51, -75297.55, -75680.81, 0.000, 0.000, 0.000, 11:51:16.282
173, -43082.11, -43361.87, -91739.65, -88499.96, -60182.11, -54311.77, -75268.58, -75627.55, 0.000, 0.000, 0.000, 11:51:16.283
174, -43184.51, -43461.33, -91745.13, -88204.43, -60148.03, -54342.18, -75348.16, -75619.44, 0.000, 0.000, 0.000, 11:51:16.283
175, -43180.82, -43460.33, -91839.18, -88180.53, -60213.25, -54390.15, -75370.57, -75658.17, 0.000, 0.000, 0.000, 11:51:16.283
176, -43094.05, -43376.96, -91847.43, -88443.37, -60249.10, -54367.31, -75312.13, -75681.41, 0.000, 0.000, 0.000, 11:51:16.283
177, -43074.11, -43357.22, -91761.35, -88529.38, -60196.02, -54316.41, -75271.30, -75643.84, 0.000, 0.000, 0.000, 11:51:16.283
178, -43163.47, -43441.33, -91731.34, -88244.73, -60143.91, -54328.19, -75337.98, -75616.82, 0.000, 0.000, 0.000, 11:51:16.283
179, -43185.63, -43464.24, -91822.82, -88145.35, -60206.86, -54384.54, -75382.87, -75665.30, 0.000, 0.000, 0.000, 11:51:16.283
180, -43113.74, -43400.76, -91854.02, -88383.24, -60252.77, -54380.05, -75330.05, -75690.98, 0.000, 0.000, 0.000, 11:51:16.283
181, -43084.13, -43369.80, -91793.60, -88537.73, -60219.33, -54335.23, -75285.99, -75659.67, 0.000, 0.000, 0.000, 11:51:16.283
182, -43160.14, -43433.04, -91742.48, -88306.02, -60164.88, -54326.72, -75334.14, -75622.23, 0.000, 0.000, 0.000, 11:51:16.283
183, -43198.57, -43470.61, -91816.60, -88156.53, -60203.68, -54375.69, -75383.34, -75660.12, 0.000, 0.000, 0.000, 11:51:16.283
184, -43130.42, -43411.89, -91862.07, -88346.66, -60257.51, -54386.40, -75343.70, -75698.36, 0.000, 0.000, 0.000, 11:51:16.284
185, -43064.25, -43350.69, -91800.18, -88562.05, -60235.40, -54333.49, -75273.92, -75651.22, 0.000, 0.000, 0.000, 11:51:16.284
186, -43143.47, -43421.93, -91735.45, -88370.93, -60171.36, -54321.35, -75320.39, -75601.58, 0.000, 0.000, 0.000, 11:51:16.284
187, -43207.02, -43481.99, -91806.32, -88151.68, -60198.03, -54376.47, -75389.97, -75665.03, 0.000, 0.000, 0.000, 11:51:16.284
188, -43150.04, -43432.72, -91866.65, -88295.84, -60258.91, -54396.84, -75364.76, -75708.40, 0.000, 0.000, 0.000, 11:51:16.284
189, -43068.64, -43353.26, -91816.96, -88545.13, -60246.87, -54340.57, -75277.03, -75683.30, 0.000, 0.000, 0.000, 11:51:16.284
190, -43115.89, -43393.07, -91732.96, -88430.83, -60176.62, -54305.08, -75286.26, -75624.91, 0.000, 0.000, 0.000, 11:51:16.284
191, -43202.01, -43476.18, -91791.03, -88169.70, -60183.77, -54360.91, -75370.26, -75643.42, 0.000, 0.000, 0.000, 11:51:16.284
192, -43165.29, -43444.26, -91864.68, -88254.95, -60240.14, -54395.16, -75369.56, -75698.74, 0.000, 0.000, 0.000, 11:51:16.284
193, -43078.38, -43360.91, -91840.16, -88521.89, -60252.57, -54356.94, -75299.56, -75691.70, 0.000, 0.000, 0.000, 11:51:16.284
194, -43098.83, -43377.38, -91756.14, -88484.34, -60191.26, -54317.13, -75300.25, -75639.35, 0.000, 0.000, 0.000, 11:51:16.284
195, -43192.31, -43464.53, -91783.01, -88197.86, -60175.52, -54358.64, -75380.67, -75647.13, 0.000, 0.000, 0.000, 11:51:16.285
196, -43171.03, -43449.78, -91869.16, -88219.34, -60251.05, -54401.44, -75396.79, -75704.71, 0.000, 0.000, 0.000, 11:51:16.285
197, -43078.61, -43364.51, -91856.08, -88485.23, -60271.86, -54369.10, -75320.70, -75707.73, 0.000, 0.000, 0.000, 11:51:16.285
198, -43073.82, -43357.51, -91767.61, -88530.43, -60211.21, -54312.93, -75286.98, -75648.09, 0.000, 0.000, 0.000, 11:51:16.285
199, -43183.39, -43461.60, -91769.30, -88240.08, -60173.06, -54336.24, -75357.63, -75629.63, 0.000, 0.000, 0.000, 11:51:16.285
200, -43197.41, -43479.39, -91867.52, -88193.01, -60238.51, -54392.12, -75391.67, -75687.41, 0.000, 0.000, 0.000, 11:51:16.285
201, -43111.84, -43398.55, -91878.12, -88448.84, -60275.66, -54374.19, -75332.02, -75704.66, 0.000, 0.000, 0.000, 11:51:16.285
202, -43077.29, -43366.16, -91797.78, -88561.90, -60232.05, -54315.48, -75287.31, -75660.32, 0.000, 0.000, 0.000, 11:51:16.285
203, -43162.02, -43442.94, -91757.84, -88289.88, -60173.38, -54319.41, -75342.72, -75626.32, 0.000, 0.000, 0.000, 11:51:16.285
204, -43199.91, -43478.81, -91852.95, -88168.13, -60231.18, -54387.43, -75401.62, -75684.59, 0.000, 0.000, 0.000, 11:51:16.285
205, -43113.86, -43398.66, -91880.75, -88396.85, -60276.26, -54382.84, -75346.66, -75712.38, 0.000, 0.000, 0.000, 11:51:16.286
206, -43066.54, -43352.01, -91804.69, -88564.02, -60243.20, -54326.27, -75293.01, -75671.60, 0.000, 0.000, 0.000, 11:51:16.286
207, -43156.61, -43432.12, -91758.84, -88333.31, -60184.51, -54323.21, -75336.44, -75631.98, 0.000, 0.000, 0.000, 11:51:16.286
208, -43204.33, -43480.63, -91844.61, -88163.23, -60229.03, -54380.65, -75398.84, -75676.12, 0.000, 0.000, 0.000, 11:51:16.286
209, -43130.95, -43414.21, -91885.11, -88347.75, -60281.18, -54377.88, -75359.26, -75708.73, 0.000, 0.000, 0.000, 11:51:16.286
210, -43068.30, -43352.23, -91829.32, -88567.22, -60262.31, -54327.54, -75289.84, -75677.64, 0.000, 0.000, 0.000, 11:51:16.752
211, -43121.61, -43399.04, -91745.26, -88402.91, -60181.73, -54298.84, -75303.59, -75618.45, 0.000, 0.000, 0.000, 11:51:16.752
212, -43202.88, -43476.98, -91809.36, -88163.70, -60202.05, -54356.85, -75388.45, -75649.03, 0.000, 0.000, 0.000, 11:51:16.752
213, -43156.34, -43438.96, -91878.61, -88286.51, -60274.02, -54385.91, -75377.16, -75702.47, 0.000, 0.000, 0.000, 11:51:16.752
214, -43060.99, -43347.54, -91836.25, -88545.27, -60272.93, -54332.08, -75298.15, -75683.77, 0.000, 0.000, 0.000, 11:51:16.752
215, -43094.54, -43374.88, -91737.91, -88447.57, -60188.64, -54286.51, -75289.34, -75621.89, 0.000, 0.000, 0.000, 11:51:16.752
216, -43191.75, -43469.70, -91791.44, -88167.21, -60190.30, -54341.71, -75384.79, -75643.64, 0.000, 0.000, 0.000, 11:51:16.752
217, -43144.83, -43431.27, -91868.88, -88246.65, -60258.33, -54368.31, -75376.05, -75693.11, 0.000, 0.000, 0.000, 11:51:16.753
218, -43048.03, -43340.28, -91834.71, -88519.01, -60261.73, -54320.14, -75286.41, -75680.91, 0.000, 0.000, 0.000, 11:51:16.753
219, -43080.21, -43368.02, -91750.69, -88485.99, -60198.70, -54280.38, -75279.20, -75627.48, 0.000, 0.000, 0.000, 11:51:16.753
220, -43170.36, -43451.10, -91774.85, -88199.22, -60179.01, -54315.05, -75366.86, -75629.90, 0.000, 0.000, 0.000, 11:51:16.753
221, -43165.17, -43450.38, -91861.02, -88196.05, -60244.99, -54369.30, -75391.90, -75690.09, 0.000, 0.000, 0.000, 11:51:16.753
222, -43076.68, -43368.80, -91865.58, -88463.51, -60276.89, -54344.78, -75320.99, -75699.79, 0.000, 0.000, 0.000, 11:51:16.753
223, -43061.35, -43348.88, -91772.37, -88526.47, -60222.14, -54286.66, -75281.25, -75643.15, 0.000, 0.000, 0.000, 11:51:16.753
224, -43163.79, -43441.93, -91759.20, -88235.30, -60181.42, -54310.25, -75360.71, -75628.55, 0.000, 0.000, 0.000, 11:51:16.753
225, -43174.83, -43455.16, -91854.42, -88172.40, -60248.23, -54364.83, -75400.55, -75684.93, 0.000, 0.000, 0.000, 11:51:16.753
226, -43084.84, -43374.83, -91867.23, -88419.43, -60288.13, -54349.83, -75337.87, -75705.22, 0.000, 0.000, 0.000, 11:51:16.753
227, -43042.20, -43334.49, -91780.87, -88550.34, -60236.63, -54284.03, -75272.27, -75649.09, 0.000, 0.000, 0.000, 11:51:16.753
228, -43143.36, -43430.60, -91749.55, -88281.16, -60178.38, -54293.55, -75343.08, -75619.50, 0.000, 0.000, 0.000, 11:51:16.754
229, -43180.02, -43467.48, -91843.52, -88154.36, -60231.82, -54355.57, -75400.81, -75674.11, 0.000, 0.000, 0.000, 11:51:16.754
230, -43098.90, -43394.43, -91876.93, -88365.70, -60280.35, -54354.61, -75349.60, -75704.71, 0.000, 0.000, 0.000, 11:51:16.754
231, -43044.65, -43340.28, -91811.62, -88552.22, -60255.09, -54298.69, -75289.95, -75668.84, 0.000, 0.000, 0.000, 11:51:16.754
232, -43115.42, -43400.63, -91752.37, -88346.56, -60192.44, -54280.41, -75330.00, -75625.36, 0.000, 0.000, 0.000, 11:51:16.754
233, -43167.36, -43449.69, -91827.47, -88154.27, -60218.41, -54333.89, -75397.15, -75661.95, 0.000, 0.000, 0.000, 11:51:16.754
234, -43108.94, -43396.20, -91882.16, -88317.71, -60273.98, -54357.72, -75370.88, -75708.17, 0.000, 0.000, 0.000, 11:51:16.754
235, -43039.55, -43333.53, -91825.92, -88543.84, -60257.64, -54303.70, -75292.88, -75676.39, 0.000, 0.000, 0.000, 11:51:16.754
236, -43094.68, -43388.76, -91745.64, -88389.55, -60186.76, -54275.67, -75315.74, -75623.03, 0.000, 0.000, 0.000, 11:51:16.754
237, -43158.56, -43456.64, -91811.77, -88148.51, -60207.93, -54334.45, -75397.73, -75653.48, 0.000, 0.000, 0.000, 11:51:16.755
238, -43107.04, -43405.10, -91872.39, -88263.17, -60267.74, -54358.43, -75377.39, -75697.24, 0.000, 0.000, 0.000, 11:51:16.755
239, -43020.02, -43322.73, -91829.39, -88521.04, -60266.54, -54310.54, -75298.45, -75680.37, 0.000, 0.000, 0.000, 11:51:16.755
240, -43053.28, -43352.59, -91742.73, -88444.48, -60198.45, -54269.23, -75296.95, -75624.11, 0.000, 0.000, 0.000, 11:51:16.755
241, -43145.50, -43437.46, -91777.84, -88166.48, -60196.73, -54310.02, -75379.47, -75635.64, 0.000, 0.000, 0.000, 11:51:16.755
242, -43120.36, -43418.08, -91858.29, -88212.97, -60268.06, -54348.76, -75389.33, -75690.34, 0.000, 0.000, 0.000, 11:51:16.755
243, -43035.06, -43338.94, -91846.87, -88480.65, -60285.69, -54319.74, -75312.55, -75694.27, 0.000, 0.000, 0.000, 11:51:16.755
244, -43050.42, -43347.27, -91762.63, -88485.62, -60230.19, -54279.11, -75300.88, -75648.38, 0.000, 0.000, 0.000, 11:51:16.755
245, -43142.40, -43435.18, -91773.76, -88190.41, -60197.94, -54309.26, -75378.35, -75640.13, 0.000, 0.000, 0.000, 11:51:16.755
246, -43128.54, -43428.86, -91854.54, -88179.35, -60254.24, -54352.09, -75392.14, -75690.24, 0.000, 0.000, 0.000, 11:51:16.755
247, -43041.03, -43346.18, -91857.55, -88441.85, -60291.21, -54327.01, -75326.52, -75706.90, 0.000, 0.000, 0.000, 11:51:16.755
248, -43014.99, -43319.49, -91769.15, -88520.44, -60232.07, -54267.02, -75278.41, -75651.80, 0.000, 0.000, 0.000, 11:51:16.756
249, -43102.34, -43401.18, -91745.68, -88246.96, -60182.27, -54275.78, -75345.02, -75621.96, 0.000, 0.000, 0.000, 11:51:16.756
250, -43125.19, -43424.27, -91832.56, -88166.32, -60237.41, -54329.98, -75394.89, -75678.00, 0.000, 0.000, 0.000, 11:51:16.756
251, -43068.48, -43372.04, -91867.68, -88386.88, -60282.36, -54334.94, -75354.59, -75713.67, 0.000, 0.000, 0.000, 11:51:16.756
252, -43027.53, -43329.41, -91801.78, -88534.81, -60250.02, -54282.02, -75302.00, -75674.71, 0.000, 0.000, 0.000, 11:51:16.756
253, -43112.29, -43406.48, -91758.34, -88280.13, -60196.91, -54284.74, -75359.95, -75636.55, 0.000, 0.000, 0.000, 11:51:16.756
254, -43145.06, -43439.90, -91835.96, -88134.78, -60240.88, -54336.93, -75406.83, -75674.58, 0.000, 0.000, 0.000, 11:51:16.756
255, -43080.39, -43381.88, -91873.35, -88335.81, -60296.02, -54345.29, -75364.09, -75711.08, 0.000, 0.000, 0.000, 11:51:16.756
0, -43008.91, -43314.30, -91805.12, -88535.62, -60273.76, -54287.31, -75292.88, -75675.31, 0.000, 0.000, 0.000, 11:51:16.756
1, -43072.01, -43371.86, -91734.15, -88330.49, -60205.74, -54270.73, -75330.16, -75624.98, 0.000, 0.000, 0.000, 11:51:16.756
2, -43129.88, -43423.18, -91804.24, -88130.27, -60237.57, -54322.65, -75396.77, -75658.06, 0.000, 0.000, 0.000, 11:51:16.757
3, -43064.28, -43366.45, -91857.89, -88294.38, -60296.93, -54332.13, -75363.87, -75698.00, 0.000, 0.000, 0.000, 11:51:16.757
4, -42991.32, -43296.91, -91806.93, -88524.51, -60283.37, -54283.71, -75297.86, -75674.00, 0.000, 0.000, 0.000, 11:51:16.757
5, -43054.42, -43349.24, -91740.36, -88394.20, -60224.40, -54264.80, -75326.70, -75630.14, 0.000, 0.000, 0.000, 11:51:16.757
6, -43131.42, -43420.70, -91797.18, -88146.54, -60238.48, -54315.21, -75396.08, -75650.86, 0.000, 0.000, 0.000, 11:51:16.757
7, -43093.74, -43388.11, -91860.50, -88233.87, -60297.90, -54346.14, -75387.27, -75699.41, 0.000, 0.000, 0.000, 11:51:16.757
8, -43010.12, -43309.03, -91834.91, -88487.60, -60310.61, -54307.05, -75315.25, -75692.02, 0.000, 0.000, 0.000, 11:51:16.757
9, -43031.20, -43327.27, -91747.25, -88434.38, -60241.41, -54259.84, -75302.89, -75634.59, 0.000, 0.000, 0.000, 11:51:16.757
10, -43114.66, -43409.48, -91776.86, -88161.09, -60225.32, -54293.93, -75374.35, -75637.01, 0.000, 0.000, 0.000, 11:51:16.757
11, -43085.80, -43386.41, -91852.63, -88199.34, -60291.53, -54326.88, -75376.16, -75683.61, 0.000, 0.000, 0.000, 11:51:16.758
12, -43008.20, -43312.85, -91845.41, -88463.82, -60312.31, -54299.67, -75307.30, -75688.75, 0.000, 0.000, 0.000, 11:51:16.758
13, -43023.02, -43324.79, -91771.09, -88488.61, -60261.57, -54258.90, -75295.47, -75643.02, 0.000, 0.000, 0.000, 11:51:16.758
14, -43129.03, -43425.39, -91779.43, -88195.76, -60239.27, -54301.01, -75383.13, -75643.87, 0.000, 0.000, 0.000, 11:51:16.758
15, -43131.80, -43430.82, -91872.30, -88156.10, -60304.31, -54356.94, -75413.71, -75704.80, 0.000, 0.000, 0.000, 11:51:16.758
16, -43016.36, -43323.82, -91863.72, -88421.53, -60333.79, -54324.39, -75333.89, -75710.92, 0.000, 0.000, 0.000, 11:51:16.758
17, -43001.65, -43309.05, -91777.51, -88520.33, -60293.18, -54275.55, -75296.74, -75663.63, 0.000, 0.000, 0.000, 11:51:16.758
18, -43123.31, -43422.84, -91771.09, -88232.86, -60245.46, -54301.26, -75379.00, -75647.71, 0.000, 0.000, 0.000, 11:51:16.758
19, -43133.59, -43437.29, -91862.00, -88141.35, -60299.02, -54351.17, -75417.42, -75694.88, 0.000, 0.000, 0.000, 11:51:16.758
20, -43029.23, -43349.44, -91865.47, -88375.09, -60327.22, -54334.21, -75345.18, -75710.63, 0.000, 0.000, 0.000, 11:51:16.758
21, -42993.00, -43311.73, -91801.00, -88539.62, -60300.73, -54287.60, -75296.23, -75675.77, 0.000, 0.000, 0.000, 11:51:16.759
22, -43092.73, -43399.40, -91758.73, -88301.55, -60242.55, -54290.08, -75360.54, -75645.07, 0.000, 0.000, 0.000, 11:51:16.759
23, -43144.52, -43452.66, -91853.55, -88137.22, -60288.93, -54347.08, -75425.06, -75691.95, 0.000, 0.000, 0.000, 11:51:16.759
24, -43052.92, -43369.98, -91881.85, -88336.91, -60342.76, -54336.42, -75368.34, -75716.78, 0.000, 0.000, 0.000, 11:51:16.759
25, -42994.61, -43309.54, -91819.48, -88539.64, -60319.53, -54286.17, -75305.51, -75686.73, 0.000, 0.000, 0.000, 11:51:16.759
26, -43064.79, -43373.02, -91758.02, -88358.32, -60256.10, -54265.61, -75331.01, -75634.55, 0.000, 0.000, 0.000, 11:51:16.759
27, -43121.05, -43424.03, -91816.58, -88140.68, -60278.27, -54311.34, -75394.82, -75659.52, 0.000, 0.000, 0.000, 11:51:16.759
28, -43075.10, -43383.41, -91876.13, -88275.30, -60339.14, -54335.84, -75376.63, -75703.57, 0.000, 0.000, 0.000, 11:51:16.759
29, -42994.41, -43306.26, -91838.62, -88524.44, -60342.49, -54290.91, -75302.71, -75661.41, 0.000, 0.000, 0.000, 11:51:16.759
30, -43037.43, -43348.43, -91757.91, -88406.66, -60279.55, -54255.44, -75323.55, -75635.71, 0.000, 0.000, 0.000, 11:51:16.759
31, -43120.56, -43425.79, -91806.57, -88145.13, -60286.32, -54304.32, -75397.91, -75660.48, 0.000, 0.000, 0.000, 11:51:16.759
32, -43088.26, -43395.33, -91867.99, -88227.83, -60344.75, -54335.17, -75382.59, -75701.60, 0.000, 0.000, 0.000, 11:51:16.760
33, -42989.27, -43305.07, -91838.89, -88493.21, -60353.33, -54289.28, -75303.00, -75690.65, 0.000, 0.000, 0.000, 11:51:16.760
34, -43016.42, -43327.31, -91748.07, -88455.13, -60289.27, -54244.08, -75295.18, -75632.09, 0.000, 0.000, 0.000, 11:51:16.760
35, -43115.48, -43417.93, -91776.86, -88166.23, -60279.37, -54287.29, -75381.73, -75637.79, 0.000, 0.000, 0.000, 11:51:16.760
36, -43103.77, -43410.93, -91859.99, -88180.91, -60344.48, -54332.04, -75396.73, -75695.43, 0.000, 0.000, 0.000, 11:51:16.760
37, -43020.00, -43332.81, -91865.17, -88451.41, -60374.88, -54305.95, -75330.54, -75708.13, 0.000, 0.000, 0.000, 11:51:16.760
38, -42999.86, -43312.00, -91769.35, -88504.16, -60312.47, -54243.82, -75290.71, -75647.66, 0.000, 0.000, 0.000, 11:51:16.760
39, -43095.75, -43402.14, -91760.14, -88212.12, -60265.93, -54263.35, -75359.62, -75628.24, 0.000, 0.000, 0.000, 11:51:16.760
40, -43105.45, -43410.08, -91850.34, -88163.80, -60327.89, -54314.09, -75389.10, -75680.10, 0.000, 0.000, 0.000, 11:51:16.760
41, -43021.88, -43328.12, -91860.28, -88408.01, -60360.39, -54300.21, -75323.99, -75696.44, 0.000, 0.000, 0.000, 11:51:16.760
42, -43000.98, -43306.48, -91788.06, -88515.85, -60324.99, -54255.44, -75295.11, -75658.77, 0.000, 0.000, 0.000, 11:51:16.760
43, -43084.84, -43386.10, -91759.45, -88259.52, -60283.59, -54260.98, -75364.58, -75634.86, 0.000, 0.000, 0.000, 11:51:16.761
44, -43116.98, -43417.68, -91848.27, -88146.18, -60337.73, -54320.35, -75413.30, -75683.27, 0.000, 0.000, 0.000, 11:51:16.761
45, -43032.11, -43335.58, -91871.45, -88371.40, -60385.09, -54305.06, -75347.64, -75702.16, 0.000, 0.000, 0.000, 11:51:16.761
46, -42985.40, -43290.97, -91795.64, -88541.42, -60347.96, -54240.44, -75272.42, -75655.20, 0.000, 0.000, 0.000, 11:51:16.761
47, -43070.38, -43370.90, -91749.15, -88315.27, -60277.96, -54235.93, -75323.16, -75617.31, 0.000, 0.000, 0.000, 11:51:16.761
48, -43130.59, -43430.38, -91832.59, -88133.98, -60320.85, -54300.90, -75398.63, -75664.03, 0.000, 0.000, 0.000, 11:51:16.761
49, -43069.53, -43374.96, -91883.57, -88305.62, -60377.02, -54317.35, -75365.81, -75708.02, 0.000, 0.000, 0.000, 11:51:16.761
50, -42990.09, -43298.48, -91822.28, -88532.89, -60360.04, -54256.78, -75288.65, -75676.84, 0.000, 0.000, 0.000, 11:51:16.761
51, -43053.06, -43357.60, -91744.90, -88366.55, -60290.83, -54238.56, -75330.14, -75632.06, 0.000, 0.000, 0.000, 11:51:16.761
52, -43132.88, -43437.35, -91826.59, -88132.95, -60320.52, -54306.47, -75418.63, -75675.49, 0.000, 0.000, 0.000, 11:51:16.761
53, -43072.37, -43385.94, -91889.05, -88264.04, -60375.84, -54325.78, -75380.72, -75721.70, 0.000, 0.000, 0.000, 11:51:16.762
54, -42974.67, -43290.77, -91840.32, -88525.84, -60366.07, -54268.67, -75304.59, -75697.78, 0.000, 0.000, 0.000, 11:51:16.762
55, -43017.99, -43327.49, -91749.35, -88423.34, -60292.06, -54232.26, -75318.72, -75639.33, 0.000, 0.000, 0.000, 11:51:16.762
56, -43107.48, -43410.46, -91797.63, -88157.87, -60293.25, -54279.11, -75389.95, -75653.50, 0.000, 0.000, 0.000, 11:51:16.762
57, -43079.23, -43386.16, -91874.54, -88219.59, -60350.60, -54312.43, -75375.76, -75700.15, 0.000, 0.000, 0.000, 11:51:16.762
58, -42981.42, -43291.06, -91851.23, -88489.08, -60365.29, -54275.42, -75302.60, -75701.55, 0.000, 0.000, 0.000, 11:51:16.763
59, -43005.63, -43311.13, -91764.10, -88476.80, -60310.26, -54229.49, -75296.63, -75645.32, 0.000, 0.000, 0.000, 11:51:16.763
60, -43103.08, -43407.06, -91787.01, -88189.97, -60289.49, -54267.78, -75385.86, -75644.80, 0.000, 0.000, 0.000, 11:51:16.763
61, -43095.26, -43401.63, -91869.34, -88189.01, -60343.65, -54315.96, -75393.68, -75696.26, 0.000, 0.000, 0.000, 11:51:16.763
62, -43019.17, -43329.37, -91878.09, -88446.61, -60374.54, -54297.91, -75329.22, -75713.07, 0.000, 0.000, 0.000, 11:51:16.763
63, -42994.79, -43303.08, -91788.13, -88510.65, -60319.73, -54237.80, -75288.97, -75657.63, 0.000, 0.000, 0.000, 11:51:16.763
64, -43103.91, -43401.63, -91778.98, -88222.22, -60279.43, -54259.62, -75365.95, -75641.34, 0.000, 0.000, 0.000, 11:51:16.763
65, -43114.30, -43415.16, -91867.52, -88160.06, -60334.60, -54311.74, -75400.68, -75692.80, 0.000, 0.000, 0.000, 11:51:16.763
66, -43017.54, -43325.28, -91869.24, -88395.52, -60367.12, -54291.40, -75331.34, -75705.47, 0.000, 0.000, 0.000, 11:51:16.763
67, -42998.38, -43311.49, -91804.52, -88522.94, -60335.87, -54246.39, -75306.22, -75671.74, 0.000, 0.000, 0.000, 11:51:16.763
68, -43089.91, -43391.77, -91776.20, -88274.55, -60281.11, -54252.22, -75366.81, -75646.13, 0.000, 0.000, 0.000, 11:51:16.764
69, -43129.16, -43423.38, -91858.78, -88141.77, -60325.50, -54307.52, -75412.08, -75690.18, 0.000, 0.000, 0.000, 11:51:16.764
70, -43046.62, -43345.95, -91893.63, -88351.62, -60374.94, -54302.80, -75366.21, -75721.92, 0.000, 0.000, 0.000, 11:51:16.764
71, -42980.95, -43283.93, -91812.96, -88546.50, -60344.21, -54242.47, -75301.39, -75684.34, 0.000, 0.000, 0.000, 11:51:16.764
72, -43066.80, -43365.18, -91757.35, -88326.42, -60270.38, -54239.05, -75344.87, -75642.13, 0.000, 0.000, 0.000, 11:51:16.764
73, -43120.85, -43419.20, -91835.02, -88133.57, -60298.23, -54294.75, -75406.00, -75679.41, 0.000, 0.000, 0.000, 11:51:16.764
74, -43060.95, -43362.54, -91883.52, -88305.73, -60358.78, -54311.52, -75378.64, -75724.94, 0.000, 0.000, 0.000, 11:51:17.233
75, -42978.02, -43284.62, -91827.80, -88538.48, -60341.57, -54256.78, -75303.49, -75699.37, 0.000, 0.000, 0.000, 11:51:17.233
76, -43030.23, -43333.59, -91743.31, -88387.89, -60269.84, -54222.18, -75323.50, -75643.22, 0.000, 0.000, 0.000, 11:51:17.233
77, -43101.02, -43398.19, -91802.52, -88150.18, -60288.71, -54270.14, -75395.56, -75664.72, 0.000, 0.000, 0.000, 11:51:17.233
78, -43059.29, -43361.42, -91867.63, -88262.25, -60348.52, -54299.45, -75378.71, -75711.62, 0.000, 0.000, 0.000, 11:51:17.233
79, -42975.16, -43279.32, -91834.20, -88515.41, -60352.97, -54255.75, -75311.38, -75698.52, 0.000, 0.000, 0.000, 11:51:17.233
80, -43012.40, -43308.56, -91751.49, -88437.67, -60293.20, -54219.09, -75321.73, -75647.13, 0.000, 0.000, 0.000, 11:51:17.233
81, -43107.95, -43399.55, -91796.29, -88157.22, -60291.08, -54269.05, -75401.13, -75659.58, 0.000, 0.000, 0.000, 11:51:17.233
82, -43074.52, -43372.98, -91874.61, -88213.57, -60352.01, -54303.41, -75392.41, -75706.92, 0.000, 0.000, 0.000, 11:51:17.234
83, -42980.88, -43287.55, -91854.65, -88475.84, -60358.65, -54269.27, -75313.02, -75703.45, 0.000, 0.000, 0.000, 11:51:17.234
84, -42991.39, -43294.14, -91774.85, -88484.05, -60310.64, -54226.02, -75300.70, -75659.11, 0.000, 0.000, 0.000, 11:51:17.234
85, -43082.45, -43378.63, -91784.53, -88188.52, -60279.32, -54259.13, -75382.24, -75651.98, 0.000, 0.000, 0.000, 11:51:17.234
86, -43077.55, -43380.75, -91874.77, -88171.30, -60341.77, -54308.23, -75407.63, -75706.14, 0.000, 0.000, 0.000, 11:51:17.234
87, -42994.23, -43304.54, -91887.64, -88442.34, -60381.87, -54286.37, -75339.77, -75721.27, 0.000, 0.000, 0.000, 11:51:17.234
88, -42981.87, -43288.33, -91803.66, -88525.94, -60328.54, -54234.32, -75295.00, -75669.84, 0.000, 0.000, 0.000, 11:51:17.234
89, -43078.54, -43375.50, -91782.02, -88242.36, -60282.68, -54251.04, -75369.88, -75647.60, 0.000, 0.000, 0.000, 11:51:17.234
90, -43108.63, -43404.54, -91885.47, -88160.10, -60349.02, -54308.37, -75419.03, -75704.28, 0.000, 0.000, 0.000, 11:51:17.234
91, -43015.04, -43317.81, -91902.34, -88398.45, -60386.39, -54289.75, -75357.05, -75721.65, 0.000, 0.000, 0.000, 11:51:17.234
92, -42983.03, -43286.07, -91823.96, -88543.48, -60346.40, -54238.25, -75303.94, -75679.70, 0.000, 0.000, 0.000, 11:51:17.235
93, -43073.98, -43373.65, -91785.11, -88291.53, -60291.04, -54243.23, -75364.65, -75647.63, 0.000, 0.000, 0.000, 11:51:17.235
94, -43102.34, -43404.34, -91863.77, -88140.73, -60337.82, -54297.21, -75419.23, -75694.65, 0.000, 0.000, 0.000, 11:51:17.235
95, -43032.94, -43340.93, -91902.93, -88335.41, -60388.51, -54304.25, -75379.78, -75730.28, 0.000, 0.000, 0.000, 11:51:17.235
96, -42968.75, -43280.15, -91838.06, -88529.58, -60363.21, -54251.84, -75305.70, -75698.85, 0.000, 0.000, 0.000, 11:51:17.235
97, -43034.91, -43338.00, -91775.19, -88345.96, -60308.07, -54233.00, -75349.65, -75656.96, 0.000, 0.000, 0.000, 11:51:17.235
98, -43090.74, -43391.55, -91838.42, -88139.83, -60324.94, -54284.59, -75412.55, -75684.14, 0.000, 0.000, 0.000, 11:51:17.235
99, -43029.88, -43335.09, -91894.10, -88290.80, -60374.72, -54302.49, -75378.82, -75727.08, 0.000, 0.000, 0.000, 11:51:17.235
100, -42954.24, -43265.98, -91843.60, -88537.29, -60370.81, -54252.91, -75308.97, -75705.04, 0.000, 0.000, 0.000, 11:51:17.236
101, -43012.96, -43318.77, -91760.77, -88401.75, -60300.02, -54223.23, -75330.31, -75649.41, 0.000, 0.000, 0.000, 11:51:17.236
102, -43096.55, -43395.13, -91821.48, -88148.66, -60311.04, -54280.56, -75409.95, -75674.27, 0.000, 0.000, 0.000, 11:51:17.236
103, -43059.34, -43361.78, -91898.77, -88249.71, -60381.67, -54312.03, -75400.92, -75728.91, 0.000, 0.000, 0.000, 11:51:17.236
104, -42973.84, -43281.00, -91867.74, -88506.58, -60387.35, -54267.82, -75327.70, -75718.25, 0.000, 0.000, 0.000, 11:51:17.236
105, -42992.17, -43297.65, -91778.74, -88447.73, -60317.68, -54226.83, -75317.93, -75660.01, 0.000, 0.000, 0.000, 11:51:17.236
106, -43092.13, -43391.13, -91814.33, -88162.52, -60308.78, -54275.78, -75406.27, -75671.36, 0.000, 0.000, 0.000, 11:51:17.236
107, -43070.22, -43368.33, -91894.08, -88200.67, -60376.66, -54310.98, -75399.34, -75722.16, 0.000, 0.000, 0.000, 11:51:17.236
108, -42979.03, -43283.01, -91876.04, -88467.98, -60391.13, -54275.27, -75323.84, -75720.22, 0.000, 0.000, 0.000, 11:51:17.236
109, -42987.21, -43290.19, -91793.02, -88489.57, -60337.62, -54230.61, -75310.53, -75670.84, 0.000, 0.000, 0.000, 11:51:17.236
110, -43084.02, -43381.88, -91804.67, -88199.53, -60315.96, -54261.54, -75399.30, -75668.74, 0.000, 0.000, 0.000, 11:51:17.236
111, -43073.44, -43378.16, -91886.14, -88175.08, -60376.35, -54301.04, -75410.60, -75715.70, 0.000, 0.000, 0.000, 11:51:17.237
112, -42987.57, -43298.28, -91890.86, -88435.81, -60409.03, -54275.20, -75342.16, -75723.75, 0.000, 0.000, 0.000, 11:51:17.237
113, -42958.53, -43266.76, -91809.88, -88534.95, -60362.70, -54215.88, -75300.39, -75672.30, 0.000, 0.000, 0.000, 11:51:17.237
114, -43051.80, -43354.43, -91779.10, -88255.19, -60305.18, -54224.35, -75365.52, -75643.91, 0.000, 0.000, 0.000, 11:51:17.237
115, -43082.76, -43385.83, -91870.96, -88146.52, -60354.89, -54281.28, -75413.87, -75693.89, 0.000, 0.000, 0.000, 11:51:17.237
116, -42999.08, -43311.40, -91895.98, -88368.60, -60401.61, -54277.77, -75362.93, -75721.29, 0.000, 0.000, 0.000, 11:51:17.237
117, -42951.80, -43264.19, -91825.63, -88533.34, -60372.04, -54227.92, -75304.03, -75685.73, 0.000, 0.000, 0.000, 11:51:17.237
118, -43037.99, -43342.42, -91775.73, -88297.68, -60307.53, -54229.35, -75363.98, -75652.29, 0.000, 0.000, 0.000, 11:51:17.237
119, -43089.85, -43391.46, -91866.80, -88139.77, -60355.21, -54292.92, -75430.34, -75701.53, 0.000, 0.000, 0.000, 11:51:17.237
120, -43021.99, -43329.28, -91906.59, -88328.97, -60405.61, -54296.05, -75379.80, -75731.44, 0.000, 0.000, 0.000, 11:51:17.237
121, -42946.55, -43260.23, -91844.37, -88547.08, -60380.35, -54233.40, -75303.92, -75693.98, 0.000, 0.000, 0.000, 11:51:17.238
122, -43006.90, -43317.81, -91770.54, -88368.87, -60304.04, -54211.61, -75335.30, -75643.82, 0.000, 0.000, 0.000, 11:51:17.238
123, -43084.17, -43388.07, -91843.96, -88140.16, -60331.34, -54274.79, -75413.98, -75676.39, 0.000, 0.000, 0.000, 11:51:17.238
124, -43030.50, -43336.28, -91909.12, -88282.57, -60394.68, -54291.31, -75388.23, -75720.69, 0.000, 0.000, 0.000, 11:51:17.238
125, -42943.38, -43255.36, -91857.73, -88540.76, -60390.75, -54236.30, -75311.34, -75698.41, 0.000, 0.000, 0.000, 11:51:17.238
126, -42992.26, -43296.18, -91772.91, -88429.48, -60325.39, -54205.28, -75325.33, -75646.84, 0.000, 0.000, 0.000, 11:51:17.238
127, -43083.48, -43383.84, -91824.00, -88159.68, -60327.87, -54259.53, -75414.27, -75670.13, 0.000, 0.000, 0.000, 11:51:17.238
128, -43046.42, -43354.02, -91904.58, -88234.29, -60396.96, -54297.01, -75414.83, -75724.63, 0.000, 0.000, 0.000, 11:51:17.238
129, -42952.32, -43266.63, -91867.21, -88491.80, -60401.36, -54253.02, -75328.33, -75709.09, 0.000, 0.000, 0.000, 11:51:17.238
130, -42976.10, -43286.34, -91791.68, -88465.50, -60345.64, -54213.13, -75328.77, -75661.08, 0.000, 0.000, 0.000, 11:51:17.239
131, -43072.08, -43371.57, -91813.30, -88183.73, -60324.09, -54249.74, -75406.83, -75658.33, 0.000, 0.000, 0.000, 11:51:17.239
132, -43069.04, -43373.20, -91905.97, -88194.98, -60393.09, -54305.08, -75433.20, -75722.50, 0.000, 0.000, 0.000, 11:51:17.239
133, -42988.53, -43300.18, -91911.84, -88464.83, -60417.32, -54281.81, -75348.98, -75730.73, 0.000, 0.000, 0.000, 11:51:17.239
134, -42965.68, -43277.20, -91816.36, -88520.77, -60360.82, -54218.76, -75305.08, -75666.38, 0.000, 0.000, 0.000, 11:51:17.239
135, -43047.74, -43353.91, -91794.63, -88229.51, -60316.71, -54236.44, -75378.88, -75645.52, 0.000, 0.000, 0.000, 11:51:17.239
136, -43068.59, -43375.95, -91887.13, -88169.38, -60374.81, -54292.23, -75421.47, -75704.55, 0.000, 0.000, 0.000, 11:51:17.239
137, -42976.30, -43287.82, -91903.87, -88431.59, -60417.10, -54274.48, -75362.84, -75727.84, 0.000, 0.000, 0.000, 11:51:17.239
138, -42954.89, -43265.40, -91817.86, -88546.41, -60366.16, -54218.60, -75309.75, -75677.39, 0.000, 0.000, 0.000, 11:51:17.239
139, -43058.73, -43366.12, -91796.31, -88273.83, -60312.18, -54232.13, -75378.33, -75646.03, 0.000, 0.000, 0.000, 11:51:17.240
140, -43082.29, -43393.30, -91884.64, -88157.87, -60364.64, -54288.54, -75423.99, -75695.48, 0.000, 0.000, 0.000, 11:51:17.240
141, -43002.27, -43317.68, -91911.45, -88375.02, -60403.11, -54283.63, -75365.03, -75725.65, 0.000, 0.000, 0.000, 11:51:17.240
142, -42936.00, -43257.84, -91834.28, -88556.70, -60372.42, -54217.84, -75301.73, -75680.91, 0.000, 0.000, 0.000, 11:51:17.240
143, -43023.22, -43339.74, -91781.27, -88335.88, -60309.50, -54213.35, -75354.55, -75640.85, 0.000, 0.000, 0.000, 11:51:17.240
144, -43093.16, -43405.34, -91873.42, -88150.70, -60350.04, -54282.57, -75432.38, -75692.52, 0.000, 0.000, 0.000, 11:51:17.240
145, -43029.61, -43343.41, -91922.80, -88327.23, -60406.44, -54291.02, -75386.76, -75728.52, 0.000, 0.000, 0.000, 11:51:17.240
146, -42954.89, -43270.18, -91861.02, -88545.05, -60384.60, -54238.72, -75310.98, -75697.47, 0.000, 0.000, 0.000, 11:51:17.240
147, -43025.72, -43334.64, -91798.37, -88385.21, -60322.08, -54224.35, -75347.55, -75652.54, 0.000, 0.000, 0.000, 11:51:17.240
148, -43084.73, -43389.25, -91860.50, -88163.86, -60343.07, -54270.28, -75414.76, -75677.22, 0.000, 0.000, 0.000, 11:51:17.240
149, -43029.03, -43339.32, -91915.11, -88287.11, -60398.14, -54285.05, -75389.05, -75720.45, 0.000, 0.000, 0.000, 11:51:17.240
150, -42949.41, -43264.64, -91875.28, -88539.44, -60392.06, -54238.25, -75314.63, -75702.30, 0.000, 0.000, 0.000, 11:51:17.241
151, -42987.48, -43300.58, -91795.91, -88445.02, -60320.45, -54206.96, -75325.38, -75649.05, 0.000, 0.000, 0.000, 11:51:17.241
152, -43073.96, -43381.85, -91835.88, -88171.26, -60316.89, -54250.01, -75403.88, -75659.78, 0.000, 0.000, 0.000, 11:51:17.241
153, -43043.96, -43355.59, -91912.18, -88233.98, -60386.70, -54284.25, -75402.58, -75712.77, 0.000, 0.000, 0.000, 11:51:17.241
154, -42957.55, -43277.40, -91890.27, -88496.41, -60403.93, -54250.32, -75331.14, -75710.66, 0.000, 0.000, 0.000, 11:51:17.241
155, -42971.94, -43291.35, -91810.08, -88487.00, -60345.55, -54207.20, -75323.77, -75659.73, 0.000, 0.000, 0.000, 11:51:17.241
156, -43064.61, -43377.83, -91822.57, -88197.05, -60321.19, -54235.16, -75392.74, -75652.07, 0.000, 0.000, 0.000, 11:51:17.241
157, -43054.33, -43370.65, -91906.95, -88200.52, -60389.20, -54275.38, -75408.66, -75704.66, 0.000, 0.000, 0.000, 11:51:17.241
158, -42976.41, -43296.91, -91911.31, -88464.20, -60427.16, -54263.15, -75354.10, -75724.27, 0.000, 0.000, 0.000, 11:51:17.241
159, -42968.57, -43284.20, -91830.84, -88526.98, -60371.97, -54214.33, -75319.16, -75677.04, 0.000, 0.000, 0.000, 11:51:17.242
160, -43061.02, -43371.77, -91818.33, -88242.31, -60323.09, -54225.69, -75382.64, -75654.08, 0.000, 0.000, 0.000, 11:51:17.242
161, -43066.09, -43381.25, -91902.46, -88178.14, -60379.70, -54268.83, -75411.92, -75701.31, 0.000, 0.000, 0.000, 11:51:17.242
162, -42975.77, -43296.87, -91904.65, -88420.15, -60405.39, -54248.29, -75338.72, -75715.05, 0.000, 0.000, 0.000, 11:51:17.242
163, -42945.59, -43267.75, -91827.65, -88547.70, -60367.72, -54198.60, -75294.84, -75671.09, 0.000, 0.000, 0.000, 11:51:17.242
164, -43048.05, -43361.46, -91799.23, -88281.19, -60315.84, -54212.52, -75366.84, -75644.18, 0.000, 0.000, 0.000, 11:51:17.242
165, -43080.35, -43392.69, -91892.55, -88149.38, -60362.54, -54269.92, -75422.61, -75696.10, 0.000, 0.000, 0.000, 11:51:17.242
166, -42999.30, -43323.29, -91918.55, -88355.46, -60403.82, -54266.59, -75371.13, -75724.02, 0.000, 0.000, 0.000, 11:51:17.242
167, -42947.67, -43268.13, -91855.07, -88545.07, -60376.51, -54211.90, -75303.27, -75690.70, 0.000, 0.000, 0.000, 11:51:17.242
168, -43026.70, -43339.94, -91797.09, -88337.60, -60307.87, -54198.15, -75349.05, -75645.77, 0.000, 0.000, 0.000, 11:51:17.242
169, -43075.23, -43389.12, -91869.17, -88137.04, -60333.97, -54249.22, -75409.27, -75678.83, 0.000, 0.000, 0.000, 11:51:17.242
170, -43018.50, -43332.68, -91918.88, -88301.05, -60390.01, -54263.66, -75377.55, -75720.73, 0.000, 0.000, 0.000, 11:51:17.243
171, -42968.16, -43283.91, -91884.60, -88535.19, -60391.44, -54227.52, -75324.23, -75707.81, 0.000, 0.000, 0.000, 11:51:17.243
172, -43014.32, -43327.54, -91807.13, -88386.73, -60317.81, -54197.97, -75337.91, -75651.13, 0.000, 0.000, 0.000, 11:51:17.243
173, -43085.42, -43399.24, -91858.65, -88134.34, -60333.01, -54250.48, -75416.99, -75671.88, 0.000, 0.000, 0.000, 11:51:17.243
174, -43042.86, -43362.65, -91936.84, -88252.71, -60411.11, -54278.46, -75403.90, -75723.15, 0.000, 0.000, 0.000, 11:51:17.243
175, -42952.50, -43280.38, -91899.26, -88515.72, -60400.00, -54227.61, -75322.94, -75706.09, 0.000, 0.000, 0.000, 11:51:17.243
176, -42988.59, -43312.52, -91809.81, -88446.90, -60332.81, -54191.49, -75328.10, -75654.10, 0.000, 0.000, 0.000, 11:51:17.243
177, -43086.05, -43403.18, -91847.54, -88166.14, -60329.21, -54241.38, -75411.74, -75666.91, 0.000, 0.000, 0.000, 11:51:17.243
178, -43058.76, -43381.25, -91931.42, -88214.38, -60394.79, -54284.09, -75415.27, -75723.39, 0.000, 0.000, 0.000, 11:51:17.243
