%OpenBCI Raw EEG Data
%
%Sample Rate = 250.0 Hz
%First Column = SampleIndex
%Last Column = Timestamp 
%Other Columns = EEG data in microvolts followed by Accel Data (in G) interleaved with Aux Data
0, -41886.92, -38029.01, -187500.02, -187500.02, -52461.64, -77595.11, -60353.44, -77407.48, 0, 21:25:07.082
1, -42246.43, -38386.80, -187500.02, -187500.02, -52651.25, -77885.97, -60242.00, -77211.02, 0, 21:25:07.084
2, -42263.95, -38409.28, -187500.02, -187500.02, -52819.07, -77994.98, -60295.84, -77241.81, 0, 21:25:07.084
3, -41875.25, -38018.46, -187500.02, -187500.02, -52603.35, -77660.15, -60397.74, -77431.11, 0, 21:25:07.085
4, -41843.63, -37984.80, -187500.02, -187500.02, -52444.03, -77544.84, -60374.99, -77425.45, 0, 21:25:07.085
5, -42155.23, -38292.70, -187500.02, -187500.02, -52584.22, -77786.66, -60249.66, -77227.48, 0, 21:25:07.085
6, -42284.29, -38423.70, -187500.02, -187500.02, -52789.23, -77972.36, -60262.89, -77201.67, 0, 21:25:07.086
7, -41962.34, -38101.90, -187500.02, -187500.02, -52667.88, -77732.57, -60369.11, -77388.29, 0, 21:25:07.086
8, -41818.88, -37954.63, -187500.02, -187500.02, -52478.23, -77540.73, -60389.92, -77445.15, 0, 21:25:07.086
9, -42097.50, -38233.77, -187500.02, -187500.02, -52550.29, -77737.58, -60267.25, -77264.97, 0, 21:25:07.087
10, -42276.58, -38411.96, -187500.02, -187500.02, -52772.18, -77961.14, -60251.29, -77195.32, 0, 21:25:07.087
11, -41994.72, -38128.43, -187500.02, -187500.02, -52676.18, -77750.92, -60347.52, -77354.06, 0, 21:25:07.087
12, -41825.12, -37958.94, -187500.02, -187500.02, -52491.21, -77561.60, -60393.23, -77451.72, 0, 21:25:07.088
13, -42040.75, -38177.05, -187500.02, -187500.02, -52520.12, -77686.21, -60287.66, -77301.59, 0, 21:25:07.088
14, -42346.29, -38479.69, -187500.02, -187500.02, -52780.22, -77996.79, -60246.91, -77184.86, 0, 21:25:07.088
15, -42074.83, -38204.43, -187500.02, -187500.02, -52752.15, -77837.65, -60345.26, -77329.75, 0, 21:25:07.089
16, -41786.88, -37921.27, -187500.02, -187500.02, -52505.77, -77534.69, -60403.38, -77455.66, 0, 21:25:07.090
17, -41952.26, -38091.93, -187500.02, -187500.02, -52466.25, -77614.44, -60310.61, -77328.63, 0, 21:25:07.090
18, -42261.36, -38395.96, -187500.02, -187500.02, -52693.03, -77907.30, -60234.24, -77173.35, 0, 21:25:07.091
19, -42141.62, -38274.95, -187500.02, -187500.02, -52751.88, -77874.03, -60310.35, -77271.23, 0, 21:25:07.091
20, -41817.83, -37947.70, -187500.02, -187500.02, -52532.61, -77570.38, -60395.11, -77437.70, 0, 21:25:07.091
21, -41888.64, -38021.41, -187500.02, -187500.02, -52448.46, -77564.93, -60329.66, -77361.82, 0, 21:25:07.092
22, -42260.53, -38392.67, -187500.02, -187500.02, -52671.57, -77894.59, -60232.27, -77178.94, 0, 21:25:07.092
23, -42239.81, -38370.77, -187500.02, -187500.02, -52798.20, -77952.84, -60297.00, -77235.63, 0, 21:25:07.092
24, -41891.55, -38024.68, -187500.02, -187500.02, -52603.62, -77652.66, -60402.93, -77423.52, 0, 21:25:07.093
25, -41887.41, -38020.00, -187500.02, -187500.02, -52474.21, -77580.87, -60374.21, -77408.52, 0, 21:25:07.093
26, -42177.18, -38310.31, -187500.02, -187500.02, -52609.95, -77816.95, -60252.46, -77220.60, 0, 21:25:07.093
27, -42238.52, -38376.29, -187500.02, -187500.02, -52759.59, -77922.96, -60267.14, -77213.09, 0, 21:25:07.093
28, -41902.01, -38040.86, -187500.02, -187500.02, -52604.96, -77645.76, -60364.41, -77388.98, 0, 21:25:07.094
29, -41822.39, -37959.30, -187500.02, -187500.02, -52434.04, -77502.70, -60357.02, -77405.97, 0, 21:25:07.094
30, -42135.34, -38271.04, -187500.02, -187500.02, -52573.92, -77759.23, -60238.71, -77225.05, 0, 21:25:07.094
31, -42235.86, -38366.19, -187500.02, -187500.02, -52755.32, -77920.32, -60246.09, -77184.75, 0, 21:25:07.095
32, -41972.46, -38106.91, -187500.02, -187500.02, -52657.47, -77729.51, -60349.06, -77357.02, 0, 21:25:07.096
33, -41791.64, -37927.67, -187500.02, -187500.02, -52463.59, -77518.17, -60377.65, -77433.01, 0, 21:25:07.096
34, -42014.48, -38151.03, -187500.02, -187500.02, -52495.75, -77662.43, -60253.06, -77256.32, 0, 21:25:07.096
35, -42261.78, -38397.59, -187500.02, -187500.02, -52719.52, -77923.14, -60216.89, -77149.32, 0, 21:25:07.097
36, -42004.76, -38146.78, -187500.02, -187500.02, -52679.33, -77772.24, -60318.50, -77300.58, 0, 21:25:07.097
37, -41772.39, -37919.13, -187500.02, -187500.02, -52447.99, -77518.24, -60369.36, -77408.65, 0, 21:25:07.097
38, -41984.78, -38127.11, -187500.02, -187500.02, -52451.18, -77631.38, -60273.40, -77273.17, 0, 21:25:07.097
39, -42307.63, -38442.36, -187500.02, -187500.02, -52705.72, -77947.55, -60216.25, -77145.19, 0, 21:25:07.098
40, -42110.48, -38254.68, -187500.02, -187500.02, -52730.58, -77846.81, -60303.98, -77269.58, 0, 21:25:07.098
41, -41805.94, -37953.44, -187500.02, -187500.02, -52521.43, -77542.22, -60384.09, -77419.11, 0, 21:25:07.099
42, -41943.58, -38090.05, -187500.02, -187500.02, -52463.05, -77582.26, -60301.96, -77317.30, 0, 21:25:07.099
43, -42271.53, -38416.30, -187500.02, -187500.02, -52689.70, -77889.84, -60215.64, -77149.37, 0, 21:25:07.099
44, -42163.32, -38310.29, -187500.02, -187500.02, -52767.39, -77876.80, -60288.04, -77231.40, 0, 21:25:07.100
45, -41864.57, -38009.79, -187500.02, -187500.02, -52576.02, -77598.21, -60383.82, -77407.64, 0, 21:25:07.100
46, -41909.56, -38055.79, -187500.02, -187500.02, -52481.40, -77574.23, -60341.80, -77365.17, 0, 21:25:07.101
47, -42221.48, -38371.13, -187500.02, -187500.02, -52648.77, -77842.12, -60235.82, -77182.76, 0, 21:25:07.101
48, -42225.33, -38369.29, -187500.02, -187500.02, -52784.43, -77919.32, -60281.47, -77214.99, 0, 21:25:07.102
49, -41863.50, -38009.72, -187500.02, -187500.02, -52585.43, -77609.95, -60377.91, -77396.69, 0, 21:25:07.102
50, -41831.09, -37979.52, -187500.02, -187500.02, -52436.05, -77505.84, -60351.61, -77386.59, 0, 21:25:07.103
51, -42146.80, -38289.99, -187500.02, -187500.02, -52576.15, -77756.02, -60227.45, -77192.64, 0, 21:25:07.103
52, -42273.32, -38418.27, -187500.02, -187500.02, -52769.83, -77934.27, -60242.17, -77173.80, 0, 21:25:07.104
53, -41982.45, -38129.75, -187500.02, -187500.02, -52658.63, -77719.52, -60348.41, -77363.14, 0, 21:25:07.104
54, -41829.75, -37976.02, -187500.02, -187500.02, -52468.50, -77521.86, -60367.54, -77418.02, 0, 21:25:07.104
55, -42115.58, -38260.95, -187500.02, -187500.02, -52549.55, -77728.95, -60249.57, -77236.92, 0, 21:25:07.105
56, -42268.82, -38409.93, -187500.02, -187500.02, -52758.99, -77933.67, -60243.78, -77172.10, 0, 21:25:07.105
57, -41978.21, -38119.91, -187500.02, -187500.02, -52652.35, -77722.69, -60335.76, -77331.02, 0, 21:25:07.106
58, -41763.52, -37903.91, -187500.02, -187500.02, -52436.65, -77484.47, -60365.40, -77418.30, 0, 21:25:07.106
59, -41962.89, -38098.68, -187500.02, -187500.02, -52433.93, -77596.18, -60241.64, -77247.83, 0, 21:25:07.106
60, -42240.28, -38375.46, -187500.02, -187500.02, -52675.53, -77886.59, -60197.70, -77128.91, 0, 21:25:07.107
61, -42030.66, -38166.43, -187500.02, -187500.02, -52667.14, -77771.51, -60294.48, -77271.97, 0, 21:25:07.107
62, -41796.02, -37933.82, -187500.02, -187500.02, -52470.63, -77520.88, -60355.45, -77405.12, 0, 21:25:07.107
63, -41970.81, -38114.80, -187500.02, -187500.02, -52457.93, -77607.80, -60260.77, -77282.47, 0, 21:25:07.108
64, -42320.66, -38465.20, -187500.02, -187500.02, -52728.95, -77943.64, -60198.10, -77139.35, 0, 21:25:07.108
65, -42139.77, -38281.21, -187500.02, -187500.02, -52761.52, -77866.93, -60292.55, -77262.76, 0, 21:25:07.108
66, -41822.06, -37961.62, -187500.02, -187500.02, -52516.11, -77553.42, -60371.64, -77419.98, 0, 21:25:07.109
67, -41926.17, -38067.75, -187500.02, -187500.02, -52446.58, -77576.94, -60302.75, -77333.05, 0, 21:25:07.109
68, -42225.59, -38364.60, -187500.02, -187500.02, -52643.95, -77841.94, -60208.02, -77159.27, 0, 21:25:07.110
69, -42191.29, -38332.61, -187500.02, -187500.02, -52747.52, -77879.89, -60264.79, -77212.42, 0, 21:25:07.110
70, -41833.95, -37977.38, -187500.02, -187500.02, -52540.28, -77564.82, -60355.88, -77388.71, 0, 21:25:07.110
71, -41821.72, -37966.05, -187500.02, -187500.02, -52405.83, -77492.73, -60313.32, -77350.42, 0, 21:25:07.111
72, -42136.32, -38279.30, -187500.02, -187500.02, -52555.92, -77759.55, -60194.39, -77156.12, 0, 21:25:07.111
73, -42207.49, -38347.88, -187500.02, -187500.02, -52725.10, -77893.77, -60233.28, -77170.71, 0, 21:25:07.111
74, -41851.23, -37987.79, -187500.02, -187500.02, -52558.14, -77595.45, -60340.16, -77358.36, 0, 21:25:07.112
75, -41785.38, -37924.07, -187500.02, -187500.02, -52390.23, -77457.51, -60325.77, -77365.11, 0, 21:25:07.113
76, -42158.27, -38303.82, -187500.02, -187500.02, -52554.78, -77757.78, -60208.60, -77175.92, 0, 21:25:07.114
77, -42287.15, -38427.88, -187500.02, -187500.02, -52777.72, -77945.16, -60234.51, -77151.09, 0, 21:25:07.114
78, -41984.44, -38125.32, -187500.02, -187500.02, -52658.74, -77708.16, -60342.46, -77333.75, 0, 21:25:07.114
79, -41849.19, -37989.61, -187500.02, -187500.02, -52473.09, -77534.66, -60364.48, -77403.84, 0, 21:25:07.115
80, -42095.57, -38238.45, -187500.02, -187500.02, -52532.25, -77707.42, -60250.80, -77238.73, 0, 21:25:07.115
81, -42249.42, -38396.25, -187500.02, -187500.02, -52731.07, -77900.12, -60227.54, -77157.70, 0, 21:25:07.115
82, -42011.98, -38156.08, -187500.02, -187500.02, -52657.89, -77725.23, -60318.71, -77303.53, 0, 21:25:07.116
83, -41806.70, -37950.22, -187500.02, -187500.02, -52458.27, -77505.03, -60368.91, -77409.99, 0, 21:25:07.116
84, -42000.40, -38144.77, -187500.02, -187500.02, -52465.33, -77627.18, -60264.46, -77263.48, 0, 21:25:07.116
85, -42312.66, -38457.16, -187500.02, -187500.02, -52727.41, -77949.00, -60213.12, -77137.41, 0, 21:25:07.116
86, -42116.81, -38258.00, -187500.02, -187500.02, -52744.68, -77856.91, -60312.76, -77275.52, 0, 21:25:07.117
87, -41831.49, -37971.70, -187500.02, -187500.02, -52518.39, -77574.66, -60384.11, -77421.84, 0, 21:25:07.117
88, -41898.63, -38039.14, -187500.02, -187500.02, -52431.38, -77556.41, -60290.86, -77309.41, 0, 21:25:07.117
89, -42228.59, -38368.67, -187500.02, -187500.02, -52636.41, -77847.21, -60196.64, -77128.76, 0, 21:25:07.118
90, -42116.90, -38254.65, -187500.02, -187500.02, -52714.66, -77829.60, -60274.00, -77219.51, 0, 21:25:07.118
91, -41823.73, -37960.77, -187500.02, -187500.02, -52517.70, -77553.42, -60365.33, -77388.98, 0, 21:25:07.118
92, -41912.36, -38054.29, -187500.02, -187500.02, -52465.27, -77575.46, -60323.49, -77341.26, 0, 21:25:07.119
93, -42252.29, -38398.04, -187500.02, -187500.02, -52659.99, -77867.55, -60223.02, -77169.46, 0, 21:25:07.119
94, -42232.52, -38374.97, -187500.02, -187500.02, -52785.32, -77916.37, -60278.34, -77218.37, 0, 21:25:07.119
95, -41895.95, -38039.67, -187500.02, -187500.02, -52588.54, -77621.10, -60378.83, -77397.96, 0, 21:25:07.120
96, -41863.30, -38012.07, -187500.02, -187500.02, -52446.31, -77523.24, -60353.46, -77380.17, 0, 21:25:07.120
97, -42157.69, -38312.30, -187500.02, -187500.02, -52576.09, -77760.62, -60228.65, -77186.85, 0, 21:25:07.120
98, -42270.70, -38427.81, -187500.02, -187500.02, -52770.21, -77927.25, -60253.51, -77178.80, 0, 21:25:07.121
99, -41956.61, -38115.00, -187500.02, -187500.02, -52626.33, -77687.95, -60347.85, -77361.71, 0, 21:25:07.121
100, -41851.58, -38008.76, -187500.02, -187500.02, -52458.69, -77532.70, -60354.76, -77408.38, 0, 21:25:07.121
101, -42121.64, -38276.69, -187500.02, -187500.02, -52547.77, -77720.50, -60235.00, -77224.11, 0, 21:25:07.122
102, -42317.30, -38472.85, -187500.02, -187500.02, -52770.81, -77947.95, -60230.51, -77160.45, 0, 21:25:07.122
103, -42038.31, -38198.21, -187500.02, -187500.02, -52703.42, -77756.93, -60341.57, -77338.13, 0, 21:25:07.122
104, -41810.99, -37970.83, -187500.02, -187500.02, -52477.38, -77488.16, -60376.29, -77427.58, 0, 21:25:07.123
105, -42077.02, -38237.15, -187500.02, -187500.02, -52522.64, -77660.17, -60258.42, -77259.88, 0, 21:25:07.123
106, -42319.90, -38475.31, -187500.02, -187500.02, -52769.25, -77923.12, -60228.20, -77157.80, 0, 21:25:07.123
107, -42041.08, -38194.46, -187500.02, -187500.02, -52699.58, -77730.00, -60322.91, -77298.74, 0, 21:25:07.123
108, -41772.95, -37928.27, -187500.02, -187500.02, -52461.75, -77453.77, -60377.11, -77413.03, 0, 21:25:07.124
109, -41979.50, -38139.25, -187500.02, -187500.02, -52466.29, -77571.32, -60282.81, -77280.95, 0, 21:25:07.124
110, -42285.05, -38443.12, -187500.02, -187500.02, -52719.58, -77881.23, -60222.91, -77142.84, 0, 21:25:07.124
111, -42128.97, -38289.34, -187500.02, -187500.02, -52757.43, -77814.29, -60305.43, -77256.19, 0, 21:25:07.125
112, -41794.43, -37952.34, -187500.02, -187500.02, -52527.54, -77491.80, -60384.40, -77415.13, 0, 21:25:07.125
113, -41903.91, -38064.59, -187500.02, -187500.02, -52443.47, -77520.41, -60305.99, -77320.29, 0, 21:25:07.125
114, -42254.65, -38414.33, -187500.02, -187500.02, -52686.32, -77858.59, -60221.43, -77154.06, 0, 21:25:07.125
115, -42187.35, -38345.46, -187500.02, -187500.02, -52795.91, -77874.91, -60298.70, -77236.05, 0, 21:25:07.126
116, -41854.33, -38014.41, -187500.02, -187500.02, -52592.34, -77574.32, -60394.61, -77416.63, 0, 21:25:07.126
117, -41887.08, -38049.30, -187500.02, -187500.02, -52476.46, -77532.79, -60348.43, -77375.16, 0, 21:25:07.126
118, -42232.55, -38399.09, -187500.02, -187500.02, -52675.84, -77837.82, -60249.39, -77192.08, 0, 21:25:07.127
119, -42238.13, -38405.53, -187500.02, -187500.02, -52827.95, -77918.45, -60304.07, -77220.16, 0, 21:25:07.127
120, -41878.50, -38036.97, -187500.02, -187500.02, -52618.73, -77599.30, -60394.66, -77399.22, 0, 21:25:07.559
121, -41846.91, -38007.55, -187500.02, -187500.02, -52464.08, -77495.77, -60372.37, -77396.31, 0, 21:25:07.559
122, -42176.82, -38334.92, -187500.02, -187500.02, -52627.47, -77762.48, -60265.87, -77209.92, 0, 21:25:07.559
123, -42267.04, -38424.30, -187500.02, -187500.02, -52814.60, -77907.70, -60287.21, -77179.99, 0, 21:25:07.559
124, -41900.47, -38060.01, -187500.02, -187500.02, -52656.06, -77623.29, -60379.79, -77347.34, 0, 21:25:07.560
125, -41763.85, -37922.50, -187500.02, -187500.02, -52442.67, -77428.20, -60380.62, -77388.42, 0, 21:25:07.560
126, -42058.52, -38215.74, -187500.02, -187500.02, -52544.25, -77647.88, -60265.91, -77211.39, 0, 21:25:07.561
127, -42289.03, -38444.51, -187500.02, -187500.02, -52786.44, -77909.44, -60253.84, -77138.75, 0, 21:25:07.561
128, -42009.90, -38163.30, -187500.02, -187500.02, -52720.19, -77727.65, -60354.67, -77310.79, 0, 21:25:07.562
129, -41783.88, -37936.07, -187500.02, -187500.02, -52491.08, -77464.59, -60392.33, -77411.29, 0, 21:25:07.562
130, -42014.44, -38167.86, -187500.02, -187500.02, -52519.22, -77615.27, -60286.59, -77259.27, 0, 21:25:07.563
131, -42296.79, -38448.82, -187500.02, -187500.02, -52775.93, -77916.52, -60249.91, -77150.10, 0, 21:25:07.563
132, -42088.69, -38243.25, -187500.02, -187500.02, -52771.55, -77806.95, -60339.92, -77281.31, 0, 21:25:07.563
133, -41810.03, -37963.57, -187500.02, -187500.02, -52547.70, -77525.41, -60399.53, -77413.38, 0, 21:25:07.563
134, -41950.69, -38105.83, -187500.02, -187500.02, -52511.11, -77580.66, -60315.35, -77306.55, 0, 21:25:07.564
135, -42262.88, -38417.89, -187500.02, -187500.02, -52724.84, -77875.95, -60236.70, -77156.37, 0, 21:25:07.564
136, -42136.50, -38293.30, -187500.02, -187500.02, -52778.93, -77843.01, -60308.71, -77251.02, 0, 21:25:07.564
137, -41827.64, -37983.01, -187500.02, -187500.02, -52550.25, -77537.93, -60385.52, -77407.53, 0, 21:25:07.564
138, -41895.57, -38049.08, -187500.02, -187500.02, -52480.13, -77528.66, -60334.55, -77342.69, 0, 21:25:07.564
139, -42220.32, -38375.20, -187500.02, -187500.02, -52670.48, -77811.85, -60235.31, -77166.24, 0, 21:25:07.564
140, -42208.90, -38360.82, -187500.02, -187500.02, -52806.98, -77877.84, -60295.55, -77213.36, 0, 21:25:07.565
141, -41876.68, -38026.42, -187500.02, -187500.02, -52609.32, -77584.38, -60387.97, -77386.34, 0, 21:25:07.565
142, -41919.00, -38069.20, -187500.02, -187500.02, -52512.05, -77556.77, -60358.69, -77370.45, 0, 21:25:07.565
143, -42190.91, -38339.01, -187500.02, -187500.02, -52656.64, -77787.80, -60251.85, -77192.84, 0, 21:25:07.565
144, -42267.39, -38415.67, -187500.02, -187500.02, -52824.14, -77918.18, -60280.69, -77172.01, 0, 21:25:07.565
145, -41890.14, -38041.13, -187500.02, -187500.02, -52651.90, -77622.38, -60380.96, -77349.15, 0, 21:25:07.565
146, -41782.11, -37934.62, -187500.02, -187500.02, -52440.19, -77454.09, -60366.76, -77382.90, 0, 21:25:07.565
147, -42115.45, -38269.74, -187500.02, -187500.02, -52563.19, -77706.89, -60243.45, -77192.88, 0, 21:25:07.566
148, -42289.39, -38442.92, -187500.02, -187500.02, -52807.36, -77940.33, -60251.41, -77148.27, 0, 21:25:07.567
149, -41972.77, -38125.35, -187500.02, -187500.02, -52698.86, -77713.75, -60352.77, -77317.84, 0, 21:25:07.567
150, -41775.32, -37925.30, -187500.02, -187500.02, -52469.67, -77469.73, -60376.62, -77388.51, 0, 21:25:07.589
151, -42078.59, -38226.04, -187500.02, -187500.02, -52545.73, -77683.95, -60265.00, -77225.43, 0, 21:25:07.590
152, -42305.57, -38450.88, -187500.02, -187500.02, -52786.79, -77938.61, -60243.87, -77141.61, 0, 21:25:07.590
153, -42066.59, -38217.79, -187500.02, -187500.02, -52740.68, -77779.46, -60337.44, -77290.12, 0, 21:25:07.590
154, -41820.80, -37971.63, -187500.02, -187500.02, -52514.55, -77513.32, -60385.74, -77404.29, 0, 21:25:07.590
155, -41987.24, -38143.96, -187500.02, -187500.02, -52493.11, -77604.52, -60285.89, -77269.11, 0, 21:25:07.591
156, -42275.11, -38430.27, -187500.02, -187500.02, -52720.23, -77895.16, -60229.90, -77136.38, 0, 21:25:07.591
157, -42153.09, -38308.48, -187500.02, -187500.02, -52769.00, -77849.55, -60313.48, -77250.33, 0, 21:25:07.591
158, -41853.66, -38010.30, -187500.02, -187500.02, -52569.11, -77555.56, -60394.16, -77404.96, 0, 21:25:07.591
159, -41931.18, -38088.00, -187500.02, -187500.02, -52495.44, -77560.59, -60321.03, -77312.65, 0, 21:25:07.591
160, -42232.32, -38389.72, -187500.02, -187500.02, -52690.14, -77844.55, -60229.43, -77142.39, 0, 21:25:07.592
161, -42170.68, -38326.42, -187500.02, -187500.02, -52784.96, -77871.17, -60289.45, -77209.78, 0, 21:25:07.592
162, -41838.02, -37993.58, -187500.02, -187500.02, -52576.26, -77570.77, -60373.36, -77377.13, 0, 21:25:07.592
163, -41910.97, -38066.05, -187500.02, -187500.02, -52496.07, -77558.41, -60334.15, -77334.55, 0, 21:25:07.592
164, -42214.26, -38369.50, -187500.02, -187500.02, -52671.71, -77818.16, -60234.64, -77157.02, 0, 21:25:07.592
165, -42244.06, -38403.54, -187500.02, -187500.02, -52806.04, -77925.58, -60272.28, -77174.96, 0, 21:25:07.592
166, -41899.19, -38058.22, -187500.02, -187500.02, -52633.13, -77644.68, -60370.52, -77356.41, 0, 21:25:07.592
167, -41842.84, -38001.05, -187500.02, -187500.02, -52471.79, -77513.77, -60350.56, -77359.05, 0, 21:25:07.593
168, -42182.32, -38343.10, -187500.02, -187500.02, -52636.34, -77790.35, -60238.55, -77171.79, 0, 21:25:07.593
169, -42251.97, -38409.66, -187500.02, -187500.02, -52811.61, -77927.37, -60258.76, -77152.34, 0, 21:25:07.593
170, -41962.96, -38120.50, -187500.02, -187500.02, -52681.50, -77694.57, -60353.15, -77321.97, 0, 21:25:07.593
171, -41818.53, -37975.43, -187500.02, -187500.02, -52481.87, -77502.46, -60359.59, -77372.80, 0, 21:25:07.594
172, -42111.63, -38266.03, -187500.02, -187500.02, -52573.25, -77725.57, -60245.23, -77202.68, 0, 21:25:07.594
173, -42312.66, -38464.07, -187500.02, -187500.02, -52810.84, -77962.46, -60239.67, -77137.52, 0, 21:25:07.594
174, -42059.32, -38209.99, -187500.02, -187500.02, -52756.69, -77797.08, -60340.30, -77301.36, 0, 21:25:07.594
175, -41823.64, -37971.01, -187500.02, -187500.02, -52527.02, -77538.40, -60378.41, -77398.59, 0, 21:25:07.595
176, -42011.64, -38159.46, -187500.02, -187500.02, -52531.09, -77650.88, -60269.40, -77243.31, 0, 21:25:07.595
177, -42252.15, -38404.36, -187500.02, -187500.02, -52737.80, -77902.95, -60215.17, -77119.69, 0, 21:25:07.595
178, -42079.30, -38234.47, -187500.02, -187500.02, -52744.77, -77821.71, -60303.93, -77250.66, 0, 21:25:07.595
179, -41798.32, -37950.11, -187500.02, -187500.02, -52524.00, -77541.06, -60369.40, -77392.82, 0, 21:25:07.595
180, -41979.79, -38135.79, -187500.02, -187500.02, -52512.27, -77630.24, -60286.12, -77282.70, 0, 21:25:07.607
181, -42327.88, -38486.21, -187500.02, -187500.02, -52782.32, -77968.38, -60235.78, -77138.77, 0, 21:25:07.608
182, -42175.39, -38336.86, -187500.02, -187500.02, -52827.59, -77913.71, -60317.39, -77245.55, 0, 21:25:07.608
183, -41811.04, -37971.01, -187500.02, -187500.02, -52560.46, -77563.30, -60380.93, -77396.17, 0, 21:25:07.608
184, -41896.04, -38057.46, -187500.02, -187500.02, -52465.44, -77557.06, -60309.61, -77313.05, 0, 21:25:07.609
185, -42266.57, -38428.77, -187500.02, -187500.02, -52709.37, -77893.37, -60222.79, -77148.74, 0, 21:25:07.609
186, -42195.93, -38355.91, -187500.02, -187500.02, -52809.13, -77909.71, -60283.17, -77208.45, 0, 21:25:07.609
187, -41862.16, -38023.16, -187500.02, -187500.02, -52601.50, -77619.94, -60367.12, -77374.98, 0, 21:25:07.610
188, -41823.78, -37984.22, -187500.02, -187500.02, -52450.63, -77516.65, -60329.08, -77344.99, 0, 21:25:07.610
189, -42157.11, -38318.31, -187500.02, -187500.02, -52610.19, -77785.14, -60211.93, -77146.28, 0, 21:25:07.610
190, -42282.84, -38446.59, -187500.02, -187500.02, -52826.98, -77984.09, -60248.03, -77149.14, 0, 21:25:07.611
191, -41917.32, -38081.36, -187500.02, -187500.02, -52661.04, -77692.27, -60353.66, -77338.62, 0, 21:25:07.611
192, -41827.87, -37993.79, -187500.02, -187500.02, -52477.29, -77530.13, -60346.58, -77364.13, 0, 21:25:07.611
193, -42149.93, -38317.62, -187500.02, -187500.02, -52603.55, -77779.84, -60235.11, -77180.75, 0, 21:25:07.611
194, -42275.62, -38440.91, -187500.02, -187500.02, -52805.64, -77961.74, -60251.29, -77143.73, 0, 21:25:07.612
195, -41961.09, -38128.50, -187500.02, -187500.02, -52674.36, -77716.97, -60341.15, -77306.43, 0, 21:25:07.612
196, -41791.32, -37956.90, -187500.02, -187500.02, -52470.76, -77506.91, -60357.33, -77368.57, 0, 21:25:07.612
197, -42042.42, -38210.29, -187500.02, -187500.02, -52525.73, -77674.59, -60237.91, -77195.16, 0, 21:25:07.613
198, -42309.06, -38475.87, -187500.02, -187500.02, -52781.03, -77950.55, -60214.50, -77105.72, 0, 21:25:07.613
199, -42077.22, -38243.36, -187500.02, -187500.02, -52760.60, -77812.66, -60319.46, -77262.24, 0, 21:25:07.613
200, -41801.83, -37967.27, -187500.02, -187500.02, -52526.22, -77524.09, -60371.55, -77378.98, 0, 21:25:07.613
201, -42009.72, -38175.30, -187500.02, -187500.02, -52524.96, -77642.70, -60271.16, -77241.52, 0, 21:25:07.614
202, -42280.71, -38439.99, -187500.02, -187500.02, -52755.75, -77924.19, -60220.05, -77116.69, 0, 21:25:07.614
203, -42105.37, -38267.73, -187500.02, -187500.02, -52751.84, -77835.48, -60297.76, -77234.59, 0, 21:25:07.614
204, -41841.91, -38007.40, -187500.02, -187500.02, -52548.17, -77574.95, -60367.16, -77376.38, 0, 21:25:07.614
205, -41926.55, -38095.20, -187500.02, -187500.02, -52495.28, -77587.91, -60298.34, -77278.31, 0, 21:25:07.615
206, -42264.02, -38429.49, -187500.02, -187500.02, -52708.90, -77890.04, -60215.44, -77110.09, 0, 21:25:07.615
207, -42213.86, -38374.30, -187500.02, -187500.02, -52822.33, -77928.48, -60293.74, -77195.59, 0, 21:25:07.615
208, -41839.74, -37999.24, -187500.02, -187500.02, -52582.97, -77588.06, -60373.29, -77365.82, 0, 21:25:07.615
209, -41877.96, -38041.28, -187500.02, -187500.02, -52469.06, -77552.41, -60312.98, -77306.12, 0, 21:25:07.616
210, -42214.44, -38377.41, -187500.02, -187500.02, -52671.62, -77853.96, -60214.57, -77125.74, 0, 21:25:07.616
211, -42191.02, -38353.60, -187500.02, -187500.02, -52797.99, -77904.45, -60264.68, -77162.22, 0, 21:25:07.618
212, -41895.82, -38060.91, -187500.02, -187500.02, -52619.56, -77652.51, -60349.53, -77334.22, 0, 21:25:07.619
213, -41880.86, -38048.90, -187500.02, -187500.02, -52500.98, -77581.49, -60331.40, -77334.17, 0, 21:25:07.619
214, -42162.18, -38328.97, -187500.02, -187500.02, -52635.54, -77804.54, -60223.84, -77153.95, 0, 21:25:07.619
215, -42248.80, -38412.23, -187500.02, -187500.02, -52811.52, -77950.86, -60247.80, -77140.94, 0, 21:25:07.619
216, -41915.80, -38081.61, -187500.02, -187500.02, -52654.36, -77690.75, -60339.14, -77313.09, 0, 21:25:07.620
217, -41785.91, -37952.30, -187500.02, -187500.02, -52453.26, -77505.77, -60338.44, -77347.52, 0, 21:25:07.620
218, -42085.25, -38251.12, -187500.02, -187500.02, -52556.75, -77732.97, -60221.14, -77166.51, 0, 21:25:07.620
219, -42294.15, -38456.36, -187500.02, -187500.02, -52797.32, -77982.41, -60218.14, -77105.40, 0, 21:25:07.620
220, -42032.34, -38195.31, -187500.02, -187500.02, -52733.04, -77799.45, -60318.24, -77277.45, 0, 21:25:07.621
221, -41789.42, -37949.19, -187500.02, -187500.02, -52497.05, -77530.60, -60355.23, -77371.09, 0, 21:25:07.621
222, -42005.70, -38165.34, -187500.02, -187500.02, -52500.25, -77663.57, -60244.70, -77212.80, 0, 21:25:07.621
223, -42287.35, -38449.58, -187500.02, -187500.02, -52753.45, -77965.88, -60209.32, -77109.54, 0, 21:25:07.621
224, -42075.93, -38239.95, -187500.02, -187500.02, -52747.12, -77851.19, -60305.81, -77250.78, 0, 21:25:07.622
225, -41849.41, -38010.37, -187500.02, -187500.02, -52531.67, -77600.65, -60367.28, -77372.39, 0, 21:25:07.622
226, -42009.45, -38174.59, -187500.02, -187500.02, -52504.11, -77685.32, -60282.23, -77254.24, 0, 21:25:07.622
227, -42273.27, -38441.51, -187500.02, -187500.02, -52718.58, -77955.98, -60215.78, -77114.34, 0, 21:25:07.622
228, -42130.42, -38297.14, -187500.02, -187500.02, -52758.70, -77899.67, -60290.52, -77214.21, 0, 21:25:07.623
229, -41827.91, -37993.88, -187500.02, -187500.02, -52530.98, -77600.47, -60358.76, -77359.48, 0, 21:25:07.623
230, -41930.80, -38099.60, -187500.02, -187500.02, -52469.06, -77621.44, -60295.82, -77276.64, 0, 21:25:07.623
231, -42260.82, -38427.65, -187500.02, -187500.02, -52681.85, -77915.74, -60215.51, -77107.62, 0, 21:25:07.623
232, -42191.26, -38359.53, -187500.02, -187500.02, -52784.65, -77934.23, -60282.92, -77170.78, 0, 21:25:07.623
233, -41855.38, -38021.79, -187500.02, -187500.02, -52568.04, -77634.42, -60366.14, -77340.66, 0, 21:25:07.624
234, -41905.92, -38069.71, -187500.02, -187500.02, -52455.43, -77598.82, -60321.77, -77304.34, 0, 21:25:07.624
235, -42194.19, -38353.00, -187500.02, -187500.02, -52610.35, -77833.63, -60215.66, -77121.98, 0, 21:25:07.624
236, -42251.41, -38411.83, -187500.02, -187500.02, -52764.13, -77956.94, -60248.68, -77128.73, 0, 21:25:07.624
237, -41892.71, -38052.73, -187500.02, -187500.02, -52587.68, -77664.30, -60339.47, -77304.49, 0, 21:25:07.624
238, -41815.33, -37971.01, -187500.02, -187500.02, -52417.81, -77517.66, -60327.09, -77322.03, 0, 21:25:07.624
239, -42165.76, -38319.81, -187500.02, -187500.02, -52572.98, -77794.51, -60211.62, -77139.84, 0, 21:25:07.625
240, -42298.57, -38454.59, -187500.02, -187500.02, -52781.72, -77984.81, -60224.25, -77106.79, 0, 21:25:08.038
241, -41993.09, -38152.79, -187500.02, -187500.02, -52666.52, -77753.16, -60324.88, -77278.90, 0, 21:25:08.038
242, -41825.12, -37980.73, -187500.02, -187500.02, -52463.99, -77538.16, -60347.56, -77344.70, 0, 21:25:08.039
243, -42095.44, -38251.03, -187500.02, -187500.02, -52530.60, -77727.05, -60235.71, -77173.53, 0, 21:25:08.039
244, -42323.21, -38480.36, -187500.02, -187500.02, -52776.18, -77990.06, -60223.40, -77096.77, 0, 21:25:08.039
245, -42083.21, -38240.05, -187500.02, -187500.02, -52728.68, -77835.48, -60320.14, -77251.02, 0, 21:25:08.039
246, -41863.90, -38019.94, -187500.02, -187500.02, -52522.66, -77592.09, -60367.72, -77362.11, 0, 21:25:08.040
247, -42049.48, -38208.52, -187500.02, -187500.02, -52528.16, -77705.10, -60271.10, -77229.41, 0, 21:25:08.040
248, -42321.89, -38478.39, -187500.02, -187500.02, -52756.46, -77988.38, -60219.26, -77107.26, 0, 21:25:08.040
249, -42125.01, -38282.12, -187500.02, -187500.02, -52756.64, -77879.84, -60301.83, -77231.06, 0, 21:25:08.040
250, -41827.87, -37988.84, -187500.02, -187500.02, -52524.05, -77586.68, -60361.87, -77370.67, 0, 21:25:08.041
251, -41965.38, -38127.09, -187500.02, -187500.02, -52474.05, -77638.23, -60279.05, -77269.15, 0, 21:25:08.041
252, -42273.56, -38432.68, -187500.02, -187500.02, -52700.92, -77931.30, -60202.34, -77117.78, 0, 21:25:08.041
253, -42177.61, -38336.66, -187500.02, -187500.02, -52768.24, -77915.98, -60264.70, -77197.13, 0, 21:25:08.041
254, -41882.63, -38043.52, -187500.02, -187500.02, -52567.84, -77638.09, -60340.57, -77359.59, 0, 21:25:08.042
255, -41942.27, -38104.18, -187500.02, -187500.02, -52486.39, -77629.38, -60291.13, -77306.50, 0, 21:25:08.042
0, -42268.42, -38429.49, -187500.02, -187500.02, -52685.09, -77916.32, -60195.17, -77130.95, 0, 21:25:08.042
1, -42263.75, -38427.74, -187500.02, -187500.02, -52822.58, -77990.76, -60250.00, -77174.70, 0, 21:25:08.043
2, -41914.55, -38077.00, -187500.02, -187500.02, -52621.73, -77688.31, -60344.66, -77353.95, 0, 21:25:08.043
3, -41919.27, -38083.04, -187500.02, -187500.02, -52495.17, -77625.17, -60322.46, -77343.85, 0, 21:25:08.043
4, -42234.45, -38401.48, -187500.02, -187500.02, -52663.21, -77903.29, -60219.80, -77164.73, 0, 21:25:08.044
5, -42276.85, -38442.32, -187500.02, -187500.02, -52815.41, -78001.98, -60250.73, -77163.07, 0, 21:25:08.044
6, -41927.76, -38093.27, -187500.02, -187500.02, -52636.21, -77717.88, -60343.63, -77337.95, 0, 21:25:08.044
7, -41810.81, -37977.22, -187500.02, -187500.02, -52440.19, -77547.70, -60338.55, -77367.03, 0, 21:25:08.045
8, -42105.43, -38270.97, -187500.02, -187500.02, -52540.81, -77771.41, -60219.82, -77185.33, 0, 21:25:08.045
9, -42294.02, -38459.33, -187500.02, -187500.02, -52767.46, -77996.99, -60218.44, -77129.45, 0, 21:25:08.045
10, -42033.71, -38201.21, -187500.02, -187500.02, -52694.14, -77820.05, -60317.79, -77293.70, 0, 21:25:08.046
11, -41829.34, -37995.73, -187500.02, -187500.02, -52485.92, -77589.83, -60349.53, -77378.77, 0, 21:25:08.046
12, -42066.05, -38235.47, -187500.02, -187500.02, -52521.66, -77738.90, -60236.90, -77214.86, 0, 21:25:08.046
13, -42323.47, -38491.69, -187500.02, -187500.02, -52763.53, -78014.83, -60205.38, -77112.11, 0, 21:25:08.046
14, -42103.38, -38266.39, -187500.02, -187500.02, -52738.74, -77883.87, -60295.04, -77253.64, 0, 21:25:08.047
15, -41821.59, -37988.38, -187500.02, -187500.02, -52506.08, -77599.60, -60350.02, -77377.87, 0, 21:25:08.047
16, -42027.92, -38204.52, -187500.02, -187500.02, -52506.50, -77721.23, -60258.16, -77251.85, 0, 21:25:08.047
17, -42299.60, -38474.30, -187500.02, -187500.02, -52725.06, -77989.48, -60200.44, -77118.81, 0, 21:25:08.047
18, -42147.43, -38320.34, -187500.02, -187500.02, -52762.97, -77927.23, -60279.70, -77225.52, 0, 21:25:08.047
19, -41841.97, -38013.92, -187500.02, -187500.02, -52540.63, -77636.52, -60350.25, -77375.27, 0, 21:25:08.048
20, -41955.41, -38126.89, -187500.02, -187500.02, -52467.77, -77664.91, -60275.99, -77287.57, 0, 21:25:08.048
21, -42287.46, -38460.38, -187500.02, -187500.02, -52689.81, -77973.09, -60192.82, -77119.91, 0, 21:25:08.048
22, -42196.56, -38367.73, -187500.02, -187500.02, -52777.14, -77976.29, -60257.75, -77188.38, 0, 21:25:08.048
23, -41837.37, -38008.22, -187500.02, -187500.02, -52536.03, -77652.48, -60331.67, -77347.63, 0, 21:25:08.049
24, -41867.52, -38044.84, -187500.02, -187500.02, -52422.13, -77614.69, -60283.57, -77301.70, 0, 21:25:08.049
25, -42197.52, -38377.07, -187500.02, -187500.02, -52620.27, -77912.68, -60181.38, -77125.66, 0, 21:25:08.049
26, -42204.18, -38382.79, -187500.02, -187500.02, -52761.94, -78000.39, -60225.25, -77155.83, 0, 21:25:08.050
27, -41892.51, -38072.75, -187500.02, -187500.02, -52587.93, -77732.15, -60313.61, -77329.37, 0, 21:25:08.050
28, -41773.91, -37954.58, -187500.02, -187500.02, -52401.00, -77560.82, -60297.81, -77341.19, 0, 21:25:08.050
29, -42071.10, -38251.68, -187500.02, -187500.02, -52500.00, -77784.65, -60164.88, -77146.38, 0, 21:25:08.050
30, -42252.42, -38428.86, -187500.02, -187500.02, -52740.55, -78014.23, -60175.52, -77111.10, 0, 21:25:08.051
31, -41956.82, -38135.79, -187500.02, -187500.02, -52642.29, -77799.49, -60280.46, -77288.44, 0, 21:25:08.051
32, -41802.10, -37982.95, -187500.02, -187500.02, -52439.05, -77594.26, -60294.30, -77350.02, 0, 21:25:08.051
33, -42052.77, -38233.04, -187500.02, -187500.02, -52506.32, -77772.36, -60178.98, -77180.05, 0, 21:25:08.052
34, -42244.77, -38422.80, -187500.02, -187500.02, -52728.59, -78002.18, -60165.98, -77104.84, 0, 21:25:08.052
35, -42009.21, -38187.82, -187500.02, -187500.02, -52674.48, -77849.63, -60259.34, -77259.61, 0, 21:25:08.052
36, -41786.85, -37963.79, -187500.02, -187500.02, -52460.59, -77602.26, -60297.56, -77367.86, 0, 21:25:08.052
37, -42002.35, -38181.07, -187500.02, -187500.02, -52466.83, -77733.93, -60181.24, -77222.93, 0, 21:25:08.053
38, -42246.67, -38424.21, -187500.02, -187500.02, -52699.60, -77998.69, -60129.52, -77102.66, 0, 21:25:08.053
39, -42063.03, -38238.69, -187500.02, -187500.02, -52690.17, -77893.16, -60209.92, -77223.28, 0, 21:25:08.053
40, -41783.75, -37958.00, -187500.02, -187500.02, -52482.16, -77617.34, -60277.11, -77364.05, 0, 21:25:08.053
41, -41922.95, -38099.51, -187500.02, -187500.02, -52452.79, -77665.34, -60196.44, -77258.04, 0, 21:25:08.054
42, -42253.31, -38428.01, -187500.02, -187500.02, -52691.35, -77975.06, -60128.63, -77109.52, 0, 21:25:08.054
43, -42123.54, -38298.02, -187500.02, -187500.02, -52745.80, -77941.65, -60202.84, -77201.89, 0, 21:25:08.054
44, -41821.95, -37997.65, -187500.02, -187500.02, -52538.20, -77660.77, -60282.00, -77368.10, 0, 21:25:08.054
45, -41927.40, -38104.67, -187500.02, -187500.02, -52478.05, -77694.82, -60232.74, -77312.76, 0, 21:25:08.055
46, -42219.02, -38393.93, -187500.02, -187500.02, -52668.09, -77966.03, -60147.47, -77151.80, 0, 21:25:08.055
47, -42178.01, -38350.18, -187500.02, -187500.02, -52766.88, -77987.63, -60198.86, -77201.27, 0, 21:25:08.055
48, -41844.86, -38015.31, -187500.02, -187500.02, -52574.16, -77692.18, -60283.52, -77377.73, 0, 21:25:08.055
49, -41838.29, -38009.54, -187500.02, -187500.02, -52434.42, -77608.56, -60243.47, -77358.85, 0, 21:25:08.056
50, -42177.00, -38346.34, -187500.02, -187500.02, -52606.30, -77885.03, -60127.40, -77183.90, 0, 21:25:08.056
51, -42234.18, -38399.20, -187500.02, -187500.02, -52773.61, -77997.10, -60152.70, -77202.37, 0, 21:25:08.056
52, -41955.25, -38125.05, -187500.02, -187500.02, -52645.31, -77773.67, -60248.84, -77399.20, 0, 21:25:08.056
53, -41840.83, -38013.66, -187500.02, -187500.02, -52486.92, -77607.45, -60261.75, -77454.65, 0, 21:25:08.057
54, -42120.83, -38295.73, -187500.02, -187500.02, -52585.11, -77815.90, -60149.57, -77283.99, 0, 21:25:08.057
55, -42269.61, -38443.64, -187500.02, -187500.02, -52779.48, -78008.08, -60142.13, -77243.96, 0, 21:25:08.057
56, -41994.30, -38170.09, -187500.02, -187500.02, -52670.74, -77799.13, -60224.43, -77411.71, 0, 21:25:08.057
57, -41790.99, -37964.75, -187500.02, -187500.02, -52456.91, -77566.05, -60247.49, -77492.91, 0, 21:25:08.058
58, -42036.45, -38209.16, -187500.02, -187500.02, -52497.59, -77733.87, -60133.39, -77331.34, 0, 21:25:08.058
59, -42268.42, -38439.66, -187500.02, -187500.02, -52720.48, -77982.87, -60096.39, -77229.90, 0, 21:25:08.058
60, -42024.39, -38195.57, -187500.02, -187500.02, -52672.18, -77819.88, -60172.70, -77366.41, 0, 21:25:08.058
61, -41793.02, -37964.30, -187500.02, -187500.02, -52458.67, -77559.70, -60206.05, -77476.93, 0, 21:25:08.059
62, -42019.87, -38195.33, -187500.02, -187500.02, -52497.85, -77700.07, -60114.14, -77355.95, 0, 21:25:08.059
63, -42314.02, -38487.16, -187500.02, -187500.02, -52754.29, -77997.91, -60070.73, -77240.83, 0, 21:25:08.059
64, -42144.86, -38314.91, -187500.02, -187500.02, -52772.33, -77918.47, -60157.41, -77365.64, 0, 21:25:08.059
65, -41833.34, -38007.17, -187500.02, -187500.02, -52540.39, -77607.96, -60234.17, -77520.32, 0, 21:25:08.060
66, -41927.51, -38099.87, -187500.02, -187500.02, -52468.73, -77606.91, -60165.57, -77431.58, 0, 21:25:08.060
67, -42270.66, -38441.78, -187500.02, -187500.02, -52693.43, -77914.00, -60081.53, -77269.55, 0, 21:25:08.060
68, -42197.54, -38368.58, -187500.02, -187500.02, -52788.09, -77918.89, -60137.48, -77340.12, 0, 21:25:08.060
69, -41907.89, -38078.70, -187500.02, -187500.02, -52606.33, -77647.88, -60215.87, -77507.17, 0, 21:25:08.060
70, -41938.22, -38108.72, -187500.02, -187500.02, -52514.17, -77607.22, -60184.35, -77476.20, 0, 21:25:08.060
71, -42272.45, -38442.59, -187500.02, -187500.02, -52686.10, -77889.97, -60083.25, -77299.62, 0, 21:25:08.061
72, -42265.40, -38435.21, -187500.02, -187500.02, -52813.30, -77958.19, -60122.37, -77324.74, 0, 21:25:08.061
73, -41934.08, -38104.96, -187500.02, -187500.02, -52623.31, -77678.14, -60200.31, -77495.15, 0, 21:25:08.061
74, -41889.31, -38055.50, -187500.02, -187500.02, -52485.34, -77569.54, -60183.97, -77500.36, 0, 21:25:08.061
75, -42223.61, -38386.50, -187500.02, -187500.02, -52644.19, -77839.26, -60074.42, -77322.88, 0, 21:25:08.062
76, -42310.42, -38478.75, -187500.02, -187500.02, -52834.07, -77986.84, -60089.06, -77307.46, 0, 21:25:08.062
77, -41992.27, -38163.55, -187500.02, -187500.02, -52686.19, -77725.93, -60174.38, -77474.12, 0, 21:25:08.062
78, -41883.86, -38056.10, -187500.02, -187500.02, -52519.27, -77558.92, -60187.19, -77524.66, 0, 21:25:08.062
79, -42150.07, -38323.18, -187500.02, -187500.02, -52596.76, -77747.43, -60075.16, -77358.13, 0, 21:25:08.062
80, -42350.47, -38523.27, -187500.02, -187500.02, -52821.35, -77988.27, -60050.48, -77288.95, 0, 21:25:08.062
81, -42028.81, -38199.42, -187500.02, -187500.02, -52706.06, -77736.81, -60123.64, -77436.86, 0, 21:25:08.063
82, -41864.35, -38032.01, -187500.02, -187500.02, -52504.85, -77528.95, -60149.26, -77523.80, 0, 21:25:08.063
83, -42094.84, -38262.92, -187500.02, -187500.02, -52551.32, -77683.20, -60052.92, -77384.15, 0, 21:25:08.063
84, -42340.44, -38512.43, -187500.02, -187500.02, -52781.99, -77954.19, -60019.82, -77277.89, 0, 21:25:08.063
85, -42111.29, -38276.38, -187500.02, -187500.02, -52748.98, -77815.54, -60107.62, -77414.28, 0, 21:25:08.064
86, -41840.34, -37999.44, -187500.02, -187500.02, -52517.70, -77527.83, -60160.43, -77539.02, 0, 21:25:08.064
87, -41986.32, -38147.05, -187500.02, -187500.02, -52487.08, -77586.66, -60073.64, -77417.25, 0, 21:25:08.064
88, -42288.76, -38447.14, -187500.02, -187500.02, -52698.41, -77872.36, -60003.97, -77263.95, 0, 21:25:08.064
89, -42258.63, -38419.90, -187500.02, -187500.02, -52803.58, -77919.66, -60077.71, -77356.39, 0, 21:25:08.064
90, -41956.26, -38123.60, -187500.02, -187500.02, -52629.77, -77652.62, -60169.80, -77533.04, 0, 21:25:08.065
91, -41987.50, -38156.24, -187500.02, -187500.02, -52517.12, -77608.54, -60112.06, -77478.32, 0, 21:25:08.065
92, -42276.11, -38445.29, -187500.02, -187500.02, -52687.78, -77861.63, -60022.28, -77312.24, 0, 21:25:08.065
93, -42245.46, -38414.76, -187500.02, -187500.02, -52782.14, -77908.43, -60060.54, -77354.91, 0, 21:25:08.065
94, -41917.32, -38086.86, -187500.02, -187500.02, -52580.67, -77609.84, -60134.95, -77524.43, 0, 21:25:08.066
95, -41868.32, -38039.70, -187500.02, -187500.02, -52427.60, -77491.48, -60096.33, -77505.99, 0, 21:25:08.066
96, -42183.42, -38352.55, -187500.02, -187500.02, -52584.46, -77754.19, -59982.43, -77320.96, 0, 21:25:08.066
97, -42270.21, -38439.14, -187500.02, -187500.02, -52774.21, -77922.96, -60011.95, -77327.02, 0, 21:25:08.066
98, -41936.57, -38108.18, -187500.02, -187500.02, -52628.84, -77662.30, -60111.48, -77499.58, 0, 21:25:08.067
99, -41854.51, -38023.63, -187500.02, -187500.02, -52452.75, -77508.94, -60110.63, -77522.75, 0, 21:25:08.067
100, -42149.29, -38318.18, -187500.02, -187500.02, -52544.41, -77727.45, -59984.48, -77343.83, 0, 21:25:08.067
101, -42314.51, -38486.11, -187500.02, -187500.02, -52766.32, -77951.93, -59981.06, -77301.12, 0, 21:25:08.067
102, -42056.64, -38229.28, -187500.02, -187500.02, -52678.97, -77773.48, -60073.75, -77472.84, 0, 21:25:08.067
103, -41906.66, -38074.90, -187500.02, -187500.02, -52500.69, -77585.96, -60109.43, -77564.82, 0, 21:25:08.068
104, -42131.23, -38296.63, -187500.02, -187500.02, -52545.91, -77731.25, -60007.84, -77418.23, 0, 21:25:08.518
105, -42346.88, -38516.79, -187500.02, -187500.02, -52769.92, -77971.11, -59986.69, -77337.62, 0, 21:25:08.518
106, -42085.65, -38260.13, -187500.02, -187500.02, -52701.41, -77797.95, -60078.98, -77486.50, 0, 21:25:08.518
107, -41848.07, -38021.07, -187500.02, -187500.02, -52459.30, -77542.49, -60119.46, -77591.87, 0, 21:25:08.519
108, -42016.38, -38191.78, -187500.02, -187500.02, -52438.75, -77624.12, -60016.60, -77460.02, 0, 21:25:08.519
109, -42300.07, -38475.53, -187500.02, -187500.02, -52677.79, -77905.23, -59961.30, -77332.38, 0, 21:25:08.519
110, -42146.58, -38325.95, -187500.02, -187500.02, -52708.90, -77838.05, -60037.61, -77447.61, 0, 21:25:08.519
111, -41862.58, -38040.48, -187500.02, -187500.02, -52477.89, -77560.53, -60097.22, -77591.27, 0, 21:25:08.519
112, -41976.60, -38153.33, -187500.02, -187500.02, -52424.76, -77597.59, -60025.36, -77502.52, 0, 21:25:08.519
113, -42291.33, -38467.78, -187500.02, -187500.02, -52655.48, -77892.48, -59949.88, -77351.90, 0, 21:25:08.520
114, -42189.95, -38366.25, -187500.02, -187500.02, -52719.47, -77862.48, -60015.13, -77427.58, 0, 21:25:08.520
115, -41914.04, -38091.15, -187500.02, -187500.02, -52530.89, -77598.98, -60088.73, -77581.59, 0, 21:25:08.520
116, -41930.82, -38107.20, -187500.02, -187500.02, -52424.03, -77550.00, -60049.84, -77539.23, 0, 21:25:08.520
117, -42225.98, -38403.87, -187500.02, -187500.02, -52582.75, -77799.52, -59956.50, -77360.37, 0, 21:25:08.520
118, -42276.80, -38454.61, -187500.02, -187500.02, -52745.76, -77925.73, -60002.85, -77389.91, 0, 21:25:08.520
119, -41907.22, -38084.44, -187500.02, -187500.02, -52545.35, -77609.41, -60089.40, -77562.52, 0, 21:25:08.520
120, -41884.64, -38064.19, -187500.02, -187500.02, -52401.45, -77518.35, -60066.15, -77557.89, 0, 21:25:08.520
121, -42157.82, -38332.75, -187500.02, -187500.02, -52542.02, -77738.78, -59967.96, -77385.78, 0, 21:25:08.521
122, -42241.89, -38419.99, -187500.02, -187500.02, -52699.87, -77878.28, -59987.18, -77365.17, 0, 21:25:08.521
123, -41964.17, -38142.16, -187500.02, -187500.02, -52570.09, -77656.35, -60069.17, -77521.91, 0, 21:25:08.521
124, -41852.72, -38032.25, -187500.02, -187500.02, -52412.40, -77502.75, -60078.56, -77568.24, 0, 21:25:08.521
125, -42110.48, -38292.31, -187500.02, -187500.02, -52492.64, -77688.56, -59973.95, -77398.59, 0, 21:25:08.521
126, -42339.39, -38519.86, -187500.02, -187500.02, -52740.75, -77956.31, -59976.46, -77337.63, 0, 21:25:08.522
127, -42024.61, -38205.12, -187500.02, -187500.02, -52628.34, -77723.70, -60064.88, -77496.91, 0, 21:25:08.522
128, -41846.96, -38022.64, -187500.02, -187500.02, -52401.83, -77500.36, -60090.34, -77574.45, 0, 21:25:08.522
129, -42046.91, -38217.93, -187500.02, -187500.02, -52435.67, -77617.55, -59996.15, -77431.96, 0, 21:25:08.522
130, -42260.04, -38432.73, -187500.02, -187500.02, -52642.58, -77837.94, -59957.14, -77322.10, 0, 21:25:08.522
131, -42093.74, -38271.17, -187500.02, -187500.02, -52636.32, -77754.66, -60030.26, -77439.78, 0, 21:25:08.522
132, -41840.88, -38018.30, -187500.02, -187500.02, -52421.10, -77498.68, -60083.66, -77567.41, 0, 21:25:08.523
133, -41997.43, -38173.36, -187500.02, -187500.02, -52396.38, -77574.34, -60003.86, -77457.20, 0, 21:25:08.523
134, -42310.20, -38487.00, -187500.02, -187500.02, -52637.80, -77879.42, -59946.82, -77313.63, 0, 21:25:08.523
135, -42194.66, -38371.95, -187500.02, -187500.02, -52687.62, -77853.29, -60021.36, -77408.42, 0, 21:25:08.523
136, -41867.45, -38041.10, -187500.02, -187500.02, -52471.10, -77550.70, -60091.07, -77563.70, 0, 21:25:08.523
137, -41906.26, -38083.88, -187500.02, -187500.02, -52367.50, -77510.70, -60025.59, -77490.50, 0, 21:25:08.523
138, -42212.61, -38390.15, -187500.02, -187500.02, -52549.60, -77789.52, -59932.38, -77318.23, 0, 21:25:08.524
139, -42201.86, -38382.57, -187500.02, -187500.02, -52668.02, -77865.67, -59987.07, -77368.57, 0, 21:25:08.524
140, -41879.14, -38056.88, -187500.02, -187500.02, -52464.17, -77579.37, -60065.42, -77539.48, 0, 21:25:08.524
141, -41913.79, -38090.21, -187500.02, -187500.02, -52358.16, -77536.43, -60032.80, -77514.20, 0, 21:25:08.524
142, -42238.34, -38413.57, -187500.02, -187500.02, -52539.54, -77807.05, -59946.10, -77347.49, 0, 21:25:08.524
143, -42287.31, -38459.24, -187500.02, -187500.02, -52692.87, -77924.05, -59988.32, -77367.72, 0, 21:25:08.524
144, -41951.90, -38124.12, -187500.02, -187500.02, -52510.66, -77644.86, -60079.23, -77542.20, 0, 21:25:08.525
145, -41889.47, -38064.33, -187500.02, -187500.02, -52344.70, -77517.91, -60073.98, -77563.41, 0, 21:25:08.525
146, -42193.27, -38367.10, -187500.02, -187500.02, -52474.34, -77765.65, -59970.53, -77392.82, 0, 21:25:08.525
147, -42316.34, -38489.55, -187500.02, -187500.02, -52671.19, -77953.16, -59986.36, -77356.01, 0, 21:25:08.525
148, -41980.06, -38150.87, -187500.02, -187500.02, -52532.05, -77704.98, -60072.95, -77519.60, 0, 21:25:08.525
149, -41831.78, -38005.56, -187500.02, -187500.02, -52330.93, -77509.43, -60079.83, -77578.59, 0, 21:25:08.525
150, -42093.27, -38269.56, -187500.02, -187500.02, -52406.86, -77702.53, -59972.93, -77416.07, 0, 21:25:08.526
151, -42325.53, -38496.74, -187500.02, -187500.02, -52628.72, -77956.00, -59951.11, -77336.92, 0, 21:25:08.526
152, -42045.39, -38217.19, -187500.02, -187500.02, -52554.14, -77759.41, -60034.37, -77482.81, 0, 21:25:08.526
153, -41812.76, -37985.47, -187500.02, -187500.02, -52329.07, -77503.80, -60062.64, -77578.74, 0, 21:25:08.526
154, -42076.09, -38246.96, -187500.02, -187500.02, -52384.13, -77682.16, -59966.58, -77444.91, 0, 21:25:08.526
155, -42339.61, -38506.55, -187500.02, -187500.02, -52641.69, -77961.20, -59930.81, -77337.91, 0, 21:25:08.526
156, -42141.42, -38311.02, -187500.02, -187500.02, -52629.84, -77853.56, -60006.70, -77455.63, 0, 21:25:08.527
157, -41828.96, -38000.13, -187500.02, -187500.02, -52381.11, -77538.27, -60063.32, -77586.86, 0, 21:25:08.527
158, -41962.02, -38135.25, -187500.02, -187500.02, -52322.44, -77591.33, -59981.48, -77480.45, 0, 21:25:08.527
159, -42277.45, -38450.99, -187500.02, -187500.02, -52547.88, -77904.27, -59905.00, -77331.83, 0, 21:25:08.527
160, -42219.58, -38387.69, -187500.02, -187500.02, -52630.62, -77918.31, -59969.86, -77412.70, 0, 21:25:08.527
161, -41910.39, -38078.57, -187500.02, -187500.02, -52417.77, -77622.38, -60040.63, -77570.50, 0, 21:25:08.528
162, -41951.27, -38117.95, -187500.02, -187500.02, -52321.57, -77587.69, -59986.98, -77519.55, 0, 21:25:08.528
163, -42245.51, -38411.74, -187500.02, -187500.02, -52495.53, -77845.94, -59893.06, -77348.12, 0, 21:25:08.528
164, -42236.61, -38404.34, -187500.02, -187500.02, -52617.10, -77910.67, -59934.32, -77377.96, 0, 21:25:08.528
165, -41920.88, -38081.38, -187500.02, -187500.02, -52435.98, -77625.73, -60017.14, -77547.34, 0, 21:25:08.529
166, -41890.25, -38057.04, -187500.02, -187500.02, -52282.38, -77523.71, -59986.43, -77540.48, 0, 21:25:08.529
167, -42185.36, -38355.73, -187500.02, -187500.02, -52420.96, -77769.98, -59868.18, -77358.31, 0, 21:25:08.529
168, -42307.29, -38474.48, -187500.02, -187500.02, -52627.43, -77949.88, -59897.11, -77347.70, 0, 21:25:08.529
169, -41989.29, -38158.20, -187500.02, -187500.02, -52472.21, -77689.79, -59988.97, -77525.37, 0, 21:25:08.529
170, -41850.09, -38021.19, -187500.02, -187500.02, -52287.75, -77509.61, -59998.90, -77578.68, 0, 21:25:08.529
171, -42156.11, -38326.98, -187500.02, -187500.02, -52398.84, -77730.05, -59898.29, -77411.40, 0, 21:25:08.529
172, -42375.87, -38542.99, -187500.02, -187500.02, -52678.84, -78000.14, -59913.49, -77367.81, 0, 21:25:08.530
173, -42066.14, -38231.45, -187500.02, -187500.02, -52569.82, -77776.55, -60014.03, -77539.41, 0, 21:25:08.530
174, -41854.24, -38013.50, -187500.02, -187500.02, -52329.48, -77525.05, -60046.62, -77625.23, 0, 21:25:08.530
175, -42103.31, -38265.87, -187500.02, -187500.02, -52366.43, -77692.31, -59944.34, -77473.55, 0, 21:25:08.530
176, -42380.47, -38549.05, -187500.02, -187500.02, -52626.44, -77992.92, -59924.36, -77373.47, 0, 21:25:08.530
177, -42147.92, -38319.29, -187500.02, -187500.02, -52599.40, -77857.65, -60020.42, -77513.03, 0, 21:25:08.530
178, -41900.54, -38071.43, -187500.02, -187500.02, -52364.61, -77598.15, -60072.86, -77636.23, 0, 21:25:08.530
179, -42031.25, -38204.41, -187500.02, -187500.02, -52338.04, -77663.62, -59994.85, -77524.68, 0, 21:25:08.531
180, -42315.14, -38487.18, -187500.02, -187500.02, -52559.48, -77945.60, -59943.44, -77385.47, 0, 21:25:08.531
181, -42205.05, -38376.60, -187500.02, -187500.02, -52613.90, -77926.76, -60025.12, -77482.99, 0, 21:25:08.531
182, -41909.09, -38081.92, -187500.02, -187500.02, -52390.77, -77638.71, -60092.17, -77628.70, 0, 21:25:08.531
183, -42029.84, -38202.77, -187500.02, -187500.02, -52340.00, -77667.59, -60030.61, -77552.99, 0, 21:25:08.531
184, -42332.75, -38504.54, -187500.02, -187500.02, -52555.41, -77944.40, -59964.39, -77402.91, 0, 21:25:08.531
185, -42236.79, -38407.65, -187500.02, -187500.02, -52618.73, -77941.58, -60020.60, -77460.73, 0, 21:25:08.531
186, -41918.93, -38085.92, -187500.02, -187500.02, -52381.54, -77651.01, -60085.31, -77610.64, 0, 21:25:08.532
187, -41946.15, -38117.03, -187500.02, -187500.02, -52287.19, -77617.97, -60052.61, -77575.05, 0, 21:25:08.532
188, -42268.20, -38433.36, -187500.02, -187500.02, -52477.22, -77891.38, -59963.89, -77404.96, 0, 21:25:08.532
189, -42358.86, -38522.43, -187500.02, -187500.02, -52662.70, -78056.55, -60005.58, -77426.17, 0, 21:25:08.532
190, -41981.98, -38147.77, -187500.02, -187500.02, -52465.60, -77741.98, -60094.99, -77605.92, 0, 21:25:08.532
191, -41903.91, -38074.86, -187500.02, -187500.02, -52277.51, -77593.99, -60074.91, -77608.16, 0, 21:25:08.532
192, -42239.63, -38414.60, -187500.02, -187500.02, -52434.00, -77882.62, -59972.70, -77425.70, 0, 21:25:08.532
193, -42384.98, -38559.46, -187500.02, -187500.02, -52648.77, -78084.12, -59994.45, -77400.00, 0, 21:25:08.533
194, -42061.69, -38236.21, -187500.02, -187500.02, -52509.30, -77828.19, -60083.97, -77568.69, 0, 21:25:08.533
195, -41881.04, -38053.29, -187500.02, -187500.02, -52295.61, -77606.64, -60099.30, -77632.27, 0, 21:25:08.533
196, -42126.78, -38301.32, -187500.02, -187500.02, -52353.06, -77773.27, -59990.70, -77468.55, 0, 21:25:08.533
197, -42342.72, -38516.91, -187500.02, -187500.02, -52580.06, -78010.47, -59976.86, -77391.03, 0, 21:25:08.533
198, -42147.43, -38322.42, -187500.02, -187500.02, -52547.34, -77889.16, -60067.85, -77536.23, 0, 21:25:08.534
199, -41927.11, -38101.86, -187500.02, -187500.02, -52338.64, -77660.33, -60112.15, -77645.71, 0, 21:25:08.534
200, -42099.18, -38268.84, -187500.02, -187500.02, -52340.27, -77753.54, -60017.05, -77516.95, 0, 21:25:08.534
201, -42376.76, -38543.44, -187500.02, -187500.02, -52576.02, -78031.88, -59974.46, -77402.61, 0, 21:25:08.534
202, -42178.21, -38351.73, -187500.02, -187500.02, -52582.45, -77933.53, -60064.12, -77528.52, 0, 21:25:08.534
203, -41879.10, -38055.86, -187500.02, -187500.02, -52328.65, -77627.72, -60114.93, -77657.06, 0, 21:25:08.535
204, -42021.48, -38195.17, -187500.02, -187500.02, -52282.67, -77680.67, -60035.40, -77551.52, 0, 21:25:08.535
205, -42364.96, -38537.36, -187500.02, -187500.02, -52536.63, -78010.38, -59969.88, -77402.50, 0, 21:25:08.535
206, -42253.07, -38426.98, -187500.02, -187500.02, -52591.35, -77979.60, -60030.88, -77486.48, 0, 21:25:08.535
207, -41938.96, -38116.94, -187500.02, -187500.02, -52357.95, -77676.69, -60095.79, -77635.67, 0, 21:25:08.536
208, -41984.75, -38163.73, -187500.02, -187500.02, -52263.81, -77650.36, -60041.95, -77574.52, 0, 21:25:08.536
209, -42292.36, -38476.09, -187500.02, -187500.02, -52453.17, -77928.51, -59951.87, -77403.69, 0, 21:25:08.536
210, -42304.05, -38485.99, -187500.02, -187500.02, -52587.57, -78019.32, -60008.64, -77451.16, 0, 21:25:08.536
211, -41977.16, -38154.96, -187500.02, -187500.02, -52391.77, -77736.57, -60094.25, -77622.27, 0, 21:25:08.536
212, -41908.45, -38088.09, -187500.02, -187500.02, -52226.91, -77601.52, -60069.95, -77607.13, 0, 21:25:08.537
213, -42230.58, -38411.36, -187500.02, -187500.02, -52378.34, -77870.30, -59969.44, -77420.49, 0, 21:25:08.537
214, -42344.06, -38525.29, -187500.02, -187500.02, -52582.32, -78040.35, -60007.93, -77413.43, 0, 21:25:08.537
215, -41997.23, -38178.05, -187500.02, -187500.02, -52412.22, -77752.55, -60096.51, -77587.93, 0, 21:25:08.537
216, -41892.04, -38074.27, -187500.02, -187500.02, -52216.38, -77585.77, -60092.20, -77619.65, 0, 21:25:08.538
217, -42195.00, -38375.11, -187500.02, -187500.02, -52331.98, -77808.66, -59988.68, -77444.74, 0, 21:25:08.538
218, -42360.71, -38540.24, -187500.02, -187500.02, -52539.63, -78005.41, -59988.44, -77386.25, 0, 21:25:08.538
219, -42073.63, -38257.67, -187500.02, -187500.02, -52448.39, -77819.18, -60083.97, -77549.15, 0, 21:25:08.538
220, -41861.35, -38044.21, -187500.02, -187500.02, -52235.18, -77582.39, -60118.97, -77633.51, 0, 21:25:08.538
221, -42081.34, -38264.82, -187500.02, -187500.02, -52266.31, -77726.04, -60017.94, -77480.66, 0, 21:25:08.539
222, -42345.56, -38526.85, -187500.02, -187500.02, -52507.40, -77997.77, -59988.88, -77376.30, 0, 21:25:08.539
223, -42143.00, -38329.91, -187500.02, -187500.02, -52470.56, -77882.55, -60062.78, -77511.11, 0, 21:25:08.539
224, -41888.64, -38076.55, -187500.02, -187500.02, -52249.21, -77611.65, -60100.46, -77626.91, 0, 21:25:08.997
225, -42061.11, -38248.57, -187500.02, -187500.02, -52247.89, -77686.88, -60019.82, -77503.24, 0, 21:25:08.998
226, -42369.45, -38557.76, -187500.02, -187500.02, -52500.40, -77989.30, -59979.54, -77373.82, 0, 21:25:08.998
227, -42115.25, -38303.76, -187500.02, -187500.02, -52484.51, -77850.03, -60073.71, -77501.41, 0, 21:25:08.999
228, -41797.47, -37986.90, -187500.02, -187500.02, -52222.59, -77534.33, -60158.82, -77666.79, 0, 21:25:08.999
229, -41934.51, -38118.95, -187500.02, -187500.02, -52176.70, -77582.45, -60121.36, -77606.39, 0, 21:25:08.999
230, -42215.20, -38402.11, -187500.02, -187500.02, -52351.25, -77836.84, -60039.40, -77446.31, 0, 21:25:08.999
231, -42130.51, -38321.13, -187500.02, -187500.02, -52413.43, -77832.66, -60091.25, -77506.08, 0, 21:25:08.999
232, -41800.29, -37984.33, -187500.02, -187500.02, -52191.50, -77531.70, -60168.01, -77670.21, 0, 21:25:08.999
233, -41796.57, -37983.19, -187500.02, -187500.02, -52061.95, -77450.89, -60128.56, -77628.41, 0, 21:25:08.999
234, -42146.80, -38332.77, -187500.02, -187500.02, -52242.60, -77735.14, -60021.92, -77427.09, 0, 21:25:09.000
235, -42211.02, -38394.86, -187500.02, -187500.02, -52412.34, -77880.94, -60059.87, -77436.61, 0, 21:25:09.000
236, -41866.70, -38049.48, -187500.02, -187500.02, -52238.75, -77602.30, -60154.00, -77613.93, 0, 21:25:09.000
237, -41777.53, -37963.54, -187500.02, -187500.02, -52065.01, -77444.57, -60147.52, -77622.51, 0, 21:25:09.000
238, -42110.51, -38299.09, -187500.02, -187500.02, -52203.48, -77705.26, -60025.92, -77418.80, 0, 21:25:09.000
239, -42211.54, -38406.58, -187500.02, -187500.02, -52376.37, -77871.59, -60028.74, -77383.19, 0, 21:25:09.000
240, -41914.01, -38108.96, -187500.02, -187500.02, -52243.04, -77638.60, -60116.49, -77553.98, 0, 21:25:09.000
241, -41767.52, -37961.55, -187500.02, -187500.02, -52054.24, -77435.70, -60133.66, -77613.70, 0, 21:25:09.000
242, -42060.98, -38257.27, -187500.02, -187500.02, -52140.40, -77644.80, -60012.91, -77427.96, 0, 21:25:09.001
243, -42293.61, -38490.51, -187500.02, -187500.02, -52402.43, -77920.23, -59997.98, -77352.50, 0, 21:25:09.001
244, -42024.27, -38224.97, -187500.02, -187500.02, -52334.44, -77745.20, -60091.50, -77519.06, 0, 21:25:09.001
245, -41785.00, -37988.11, -187500.02, -187500.02, -52102.54, -77477.55, -60134.10, -77623.29, 0, 21:25:09.001
246, -42019.56, -38225.32, -187500.02, -187500.02, -52125.36, -77613.55, -60030.61, -77473.87, 0, 21:25:09.001
247, -42326.04, -38529.64, -187500.02, -187500.02, -52397.89, -77912.91, -59987.43, -77353.80, 0, 21:25:09.001
248, -42105.50, -38307.07, -187500.02, -187500.02, -52405.05, -77787.06, -60084.50, -77490.23, 0, 21:25:09.001
249, -41814.99, -38018.55, -187500.02, -187500.02, -52162.18, -77496.70, -60149.37, -77624.27, 0, 21:25:09.001
250, -41993.27, -38200.56, -187500.02, -187500.02, -52127.33, -77582.27, -60060.12, -77506.77, 0, 21:25:09.001
251, -42331.32, -38535.61, -187500.02, -187500.02, -52386.61, -77906.78, -59989.33, -77350.87, 0, 21:25:09.002
252, -42201.39, -38402.17, -187500.02, -187500.02, -52446.80, -77873.90, -60073.38, -77456.28, 0, 21:25:09.002
253, -41853.33, -38048.28, -187500.02, -187500.02, -52201.13, -77549.95, -60158.45, -77630.31, 0, 21:25:09.002
254, -41961.26, -38156.97, -187500.02, -187500.02, -52109.71, -77555.61, -60097.91, -77555.34, 0, 21:25:09.002
255, -42306.40, -38501.04, -187500.02, -187500.02, -52334.98, -77872.40, -60004.30, -77372.26, 0, 21:25:09.002
0, -42319.79, -38519.77, -187500.02, -187500.02, -52481.16, -77946.86, -60067.05, -77421.73, 0, 21:25:09.002
1, -41958.56, -38161.20, -187500.02, -187500.02, -52286.36, -77637.26, -60167.70, -77607.73, 0, 21:25:09.002
2, -41909.81, -38122.38, -187500.02, -187500.02, -52116.02, -77518.46, -60142.51, -77590.88, 0, 21:25:09.002
3, -42252.37, -38459.86, -187500.02, -187500.02, -52276.66, -77806.11, -60025.54, -77395.69, 0, 21:25:09.003
4, -42333.46, -38529.67, -187500.02, -187500.02, -52465.93, -77957.20, -60059.83, -77401.02, 0, 21:25:09.003
5, -42025.39, -38223.74, -187500.02, -187500.02, -52318.46, -77709.15, -60153.86, -77584.89, 0, 21:25:09.003
6, -41897.81, -38095.29, -187500.02, -187500.02, -52142.06, -77542.70, -60163.88, -77627.47, 0, 21:25:09.003
7, -42224.41, -38420.28, -187500.02, -187500.02, -52249.04, -77795.96, -60034.59, -77429.62, 0, 21:25:09.003
8, -42386.26, -38582.44, -187500.02, -187500.02, -52481.09, -78010.47, -60042.62, -77381.71, 0, 21:25:09.003
9, -42091.51, -38287.82, -187500.02, -187500.02, -52387.59, -77797.26, -60149.05, -77558.00, 0, 21:25:09.003
10, -41887.75, -38084.49, -187500.02, -187500.02, -52167.14, -77561.34, -60184.24, -77643.48, 0, 21:25:09.004
11, -42134.04, -38334.13, -187500.02, -187500.02, -52203.10, -77719.65, -60065.66, -77471.91, 0, 21:25:09.004
12, -42389.77, -38590.04, -187500.02, -187500.02, -52449.48, -77992.27, -60045.72, -77381.60, 0, 21:25:09.004
13, -42174.10, -38377.27, -187500.02, -187500.02, -52420.45, -77867.46, -60145.46, -77529.23, 0, 21:25:09.004
14, -41908.07, -38103.71, -187500.02, -187500.02, -52200.11, -77601.92, -60209.61, -77657.36, 0, 21:25:09.004
15, -42091.51, -38275.91, -187500.02, -187500.02, -52179.14, -77685.48, -60114.34, -77518.66, 0, 21:25:09.005
16, -42389.77, -38578.84, -187500.02, -187500.02, -52417.14, -77986.59, -60056.30, -77381.60, 0, 21:25:09.005
17, -42174.43, -38379.38, -187500.02, -187500.02, -52410.17, -77878.26, -60130.68, -77491.64, 0, 21:25:09.005
18, -41850.98, -38050.98, -187500.02, -187500.02, -52145.97, -77545.22, -60196.31, -77630.83, 0, 21:25:09.005
19, -41997.68, -38205.86, -187500.02, -187500.02, -52099.63, -77591.66, -60118.66, -77532.92, 0, 21:25:09.006
20, -42343.34, -38549.02, -187500.02, -187500.02, -52357.08, -77920.68, -60036.47, -77364.84, 0, 21:25:09.006
21, -42252.98, -38453.09, -187500.02, -187500.02, -52441.53, -77923.50, -60102.74, -77443.16, 0, 21:25:09.006
22, -41916.49, -38110.17, -187500.02, -187500.02, -52200.20, -77610.41, -60175.63, -77613.95, 0, 21:25:09.006
23, -41976.93, -38172.11, -187500.02, -187500.02, -52115.71, -77591.04, -60136.96, -77572.30, 0, 21:25:09.006
24, -42315.41, -38511.85, -187500.02, -187500.02, -52313.29, -77887.53, -60037.43, -77385.63, 0, 21:25:09.007
25, -42308.86, -38492.99, -187500.02, -187500.02, -52443.65, -77965.01, -60083.57, -77415.47, 0, 21:25:09.007
26, -41964.68, -38164.73, -187500.02, -187500.02, -52241.16, -77669.65, -60173.57, -77598.84, 0, 21:25:09.007
27, -41914.70, -38123.85, -187500.02, -187500.02, -52084.91, -77552.03, -60159.16, -77602.52, 0, 21:25:09.007
28, -42264.22, -38459.33, -187500.02, -187500.02, -52243.60, -77814.49, -60044.56, -77404.78, 0, 21:25:09.007
29, -42399.11, -38594.49, -187500.02, -187500.02, -52472.39, -78008.46, -60073.95, -77386.45, 0, 21:25:09.008
30, -42020.92, -38229.84, -187500.02, -187500.02, -52300.89, -77704.54, -60178.52, -77568.44, 0, 21:25:09.008
31, -41864.70, -38075.41, -187500.02, -187500.02, -52071.89, -77480.66, -60193.74, -77617.93, 0, 21:25:09.008
32, -42204.61, -38417.91, -187500.02, -187500.02, -52189.73, -77731.20, -60077.17, -77423.96, 0, 21:25:09.008
33, -42381.07, -38598.40, -187500.02, -187500.02, -52438.78, -77975.78, -60077.13, -77367.61, 0, 21:25:09.008
34, -42048.19, -38271.19, -187500.02, -187500.02, -52331.67, -77750.07, -60174.83, -77538.67, 0, 21:25:09.009
35, -41804.87, -38002.25, -187500.02, -187500.02, -52062.40, -77446.58, -60209.12, -77634.96, 0, 21:25:09.009
36, -42111.02, -38304.68, -187500.02, -187500.02, -52108.51, -77652.02, -60088.66, -77464.91, 0, 21:25:09.009
37, -42385.07, -38579.13, -187500.02, -187500.02, -52397.76, -77970.19, -60061.62, -77363.92, 0, 21:25:09.009
38, -42123.00, -38319.49, -187500.02, -187500.02, -52348.57, -77801.62, -60157.75, -77507.78, 0, 21:25:09.009
39, -41803.41, -38005.95, -187500.02, -187500.02, -52077.55, -77478.88, -60204.76, -77638.16, 0, 21:25:09.009
40, -42019.96, -38218.00, -187500.02, -187500.02, -52055.89, -77588.34, -60104.75, -77501.63, 0, 21:25:09.010
41, -42385.30, -38583.00, -187500.02, -187500.02, -52354.98, -77957.23, -60040.79, -77348.23, 0, 21:25:09.010
42, -42226.73, -38422.25, -187500.02, -187500.02, -52403.64, -77905.84, -60130.73, -77459.86, 0, 21:25:09.010
43, -41893.65, -38077.89, -187500.02, -187500.02, -52158.33, -77577.59, -60219.22, -77625.46, 0, 21:25:09.010
44, -41989.11, -38174.95, -187500.02, -187500.02, -52079.03, -77585.98, -60153.55, -77553.42, 0, 21:25:09.011
45, -42339.37, -38543.82, -187500.02, -187500.02, -52322.08, -77912.05, -60065.48, -77379.97, 0, 21:25:09.011
46, -42251.50, -38457.34, -187500.02, -187500.02, -52411.42, -77912.81, -60126.04, -77437.51, 0, 21:25:09.011
47, -41893.71, -38097.92, -187500.02, -187500.02, -52163.25, -77578.97, -60200.96, -77600.49, 0, 21:25:09.011
48, -41889.38, -38091.15, -187500.02, -187500.02, -52028.87, -77496.34, -60167.34, -77571.30, 0, 21:25:09.012
49, -42256.57, -38460.98, -187500.02, -187500.02, -52238.57, -77810.02, -60059.96, -77375.75, 0, 21:25:09.012
50, -42279.91, -38488.07, -187500.02, -187500.02, -52389.76, -77908.86, -60084.73, -77375.77, 0, 21:25:09.012
51, -41931.51, -38132.95, -187500.02, -187500.02, -52201.96, -77613.34, -60169.69, -77545.33, 0, 21:25:09.012
52, -41871.28, -38066.54, -187500.02, -187500.02, -52038.88, -77485.52, -60164.43, -77570.23, 0, 21:25:09.012
53, -42216.81, -38414.82, -187500.02, -187500.02, -52205.87, -77760.98, -60058.66, -77392.66, 0, 21:25:09.013
54, -42344.21, -38544.80, -187500.02, -187500.02, -52432.86, -77954.14, -60081.09, -77365.45, 0, 21:25:09.013
55, -42003.87, -38213.82, -187500.02, -187500.02, -52294.43, -77700.34, -60177.67, -77525.50, 0, 21:25:09.013
56, -41836.68, -38046.04, -187500.02, -187500.02, -52070.82, -77466.18, -60196.09, -77577.27, 0, 21:25:09.013
57, -42143.23, -38352.04, -187500.02, -187500.02, -52154.13, -77674.92, -60075.32, -77387.93, 0, 21:25:09.013
58, -42380.56, -38583.04, -187500.02, -187500.02, -52416.09, -77943.37, -60065.30, -77302.86, 0, 21:25:09.014
59, -42076.53, -38283.33, -187500.02, -187500.02, -52332.90, -77727.67, -60162.27, -77458.23, 0, 21:25:09.014
60, -41826.37, -38025.66, -187500.02, -187500.02, -52065.10, -77432.23, -60202.39, -77569.49, 0, 21:25:09.014
61, -42109.14, -38292.29, -187500.02, -187500.02, -52094.18, -77598.68, -60088.35, -77421.97, 0, 21:25:09.014
62, -42418.00, -38610.98, -187500.02, -187500.02, -52373.46, -77915.32, -60044.14, -77302.86, 0, 21:25:09.014
63, -42224.46, -38416.14, -187500.02, -187500.02, -52382.81, -77817.23, -60138.37, -77436.52, 0, 21:25:09.015
64, -41882.61, -38095.29, -187500.02, -187500.02, -52121.67, -77483.52, -60212.74, -77590.99, 0, 21:25:09.015
65, -41982.48, -38199.35, -187500.02, -187500.02, -52036.74, -77489.00, -60136.18, -77485.80, 0, 21:25:09.015
66, -42344.60, -38562.19, -187500.02, -187500.02, -52294.99, -77840.91, -60055.11, -77313.27, 0, 21:25:09.015
67, -42261.27, -38466.25, -187500.02, -187500.02, -52379.01, -77842.41, -60123.15, -77396.34, 0, 21:25:09.015
68, -41943.85, -38144.46, -187500.02, -187500.02, -52152.54, -77538.13, -60201.07, -77565.40, 0, 21:25:09.015
69, -41988.84, -38194.10, -187500.02, -187500.02, -52055.47, -77509.23, -60153.62, -77516.31, 0, 21:25:09.016
70, -42334.38, -38548.40, -187500.02, -187500.02, -52281.89, -77824.44, -60060.45, -77336.32, 0, 21:25:09.016
71, -42321.04, -38531.48, -187500.02, -187500.02, -52414.39, -77890.77, -60115.93, -77376.46, 0, 21:25:09.016
72, -41994.55, -38205.54, -187500.02, -187500.02, -52218.95, -77611.45, -60207.84, -77549.91, 0, 21:25:09.016
73, -41908.09, -38115.69, -187500.02, -187500.02, -52039.75, -77459.56, -60192.04, -77542.40, 0, 21:25:09.016
74, -42234.49, -38440.53, -187500.02, -187500.02, -52177.66, -77720.41, -60075.90, -77337.81, 0, 21:25:09.017
75, -42331.54, -38533.18, -187500.02, -187500.02, -52377.49, -77886.93, -60103.48, -77320.42, 0, 21:25:09.017
76, -42022.78, -38217.97, -187500.02, -187500.02, -52233.77, -77635.54, -60190.65, -77487.84, 0, 21:25:09.017
77, -41895.66, -38087.35, -187500.02, -187500.02, -52042.64, -77460.57, -60199.30, -77534.27, 0, 21:25:09.018
78, -42203.49, -38405.88, -187500.02, -187500.02, -52152.77, -77697.50, -60081.62, -77352.84, 0, 21:25:09.018
79, -42358.99, -38561.05, -187500.02, -187500.02, -52370.67, -77895.89, -60080.17, -77294.38, 0, 21:25:09.018
80, -42105.01, -38310.62, -187500.02, -187500.02, -52286.79, -77708.97, -60168.64, -77451.79, 0, 21:25:09.018
81, -41864.46, -38067.72, -187500.02, -187500.02, -52064.86, -77448.13, -60215.24, -77555.74, 0, 21:25:09.018
82, -42099.73, -38298.62, -187500.02, -187500.02, -52076.48, -77588.89, -60104.09, -77393.59, 0, 21:25:09.019
83, -42376.74, -38575.58, -187500.02, -187500.02, -52334.08, -77888.20, -60066.36, -77284.26, 0, 21:25:09.019
84, -42145.35, -38345.82, -187500.02, -187500.02, -52306.23, -77748.02, -60156.63, -77423.34, 0, 21:25:09.019
85, -41880.95, -38073.42, -187500.02, -187500.02, -52075.23, -77469.45, -60215.84, -77560.30, 0, 21:25:09.019
86, -42064.95, -38258.50, -187500.02, -187500.02, -52074.71, -77574.84, -60132.11, -77446.13, 0, 21:25:09.019
87, -42348.80, -38550.01, -187500.02, -187500.02, -52306.30, -77856.58, -60075.27, -77302.63, 0, 21:25:09.020
88, -42194.41, -38393.52, -187500.02, -187500.02, -52322.48, -77779.24, -60147.52, -77392.58, 0, 21:25:09.020
89, -41866.80, -38064.89, -187500.02, -187500.02, -52075.27, -77467.19, -60210.55, -77545.42, 0, 21:25:09.477
90, -41925.55, -38128.03, -187500.02, -187500.02, -51969.12, -77447.16, -60140.59, -77459.63, 0, 21:25:09.477
91, -42324.68, -38532.02, -187500.02, -187500.02, -52216.51, -77815.05, -60047.58, -77274.88, 0, 21:25:09.479
92, -42311.88, -38514.04, -187500.02, -187500.02, -52368.21, -77906.16, -60115.55, -77343.98, 0, 21:25:09.479
93, -41943.43, -38149.00, -187500.02, -187500.02, -52151.02, -77587.87, -60204.73, -77528.95, 0, 21:25:09.479
94, -41938.62, -38152.23, -187500.02, -187500.02, -52014.34, -77491.04, -60173.35, -77499.62, 0, 21:25:09.479
95, -42306.84, -38525.33, -187500.02, -187500.02, -52210.70, -77792.88, -60068.59, -77304.51, 0, 21:25:09.480
96, -42371.84, -38586.69, -187500.02, -187500.02, -52399.02, -77934.09, -60108.71, -77321.52, 0, 21:25:09.480
97, -41966.43, -38173.96, -187500.02, -187500.02, -52195.81, -77599.91, -60198.25, -77499.35, 0, 21:25:09.480
98, -41896.15, -38104.16, -187500.02, -187500.02, -52011.37, -77453.30, -60187.08, -77505.19, 0, 21:25:09.480
99, -42274.01, -38487.54, -187500.02, -187500.02, -52180.61, -77753.76, -60077.29, -77307.88, 0, 21:25:09.480
100, -42369.14, -38580.70, -187500.02, -187500.02, -52384.93, -77923.97, -60103.75, -77275.37, 0, 21:25:09.480
101, -42027.34, -38235.43, -187500.02, -187500.02, -52222.23, -77647.81, -60188.98, -77434.06, 0, 21:25:09.481
102, -41876.28, -38085.83, -187500.02, -187500.02, -52018.68, -77441.69, -60204.09, -77495.57, 0, 21:25:09.481
103, -42184.18, -38403.36, -187500.02, -187500.02, -52109.07, -77658.85, -60090.70, -77318.62, 0, 21:25:09.481
104, -42397.50, -38615.14, -187500.02, -187500.02, -52359.52, -77907.74, -60077.29, -77236.90, 0, 21:25:09.481
105, -42145.26, -38361.92, -187500.02, -187500.02, -52297.85, -77743.12, -60172.19, -77389.36, 0, 21:25:09.481
106, -41903.68, -38117.59, -187500.02, -187500.02, -52076.90, -77483.86, -60228.05, -77506.86, 0, 21:25:09.481
107, -42107.98, -38328.48, -187500.02, -187500.02, -52081.78, -77604.74, -60129.21, -77356.41, 0, 21:25:09.481
108, -42416.03, -38634.74, -187500.02, -187500.02, -52346.04, -77923.48, -60089.11, -77236.23, 0, 21:25:09.481
109, -42205.10, -38420.84, -187500.02, -187500.02, -52346.91, -77810.02, -60175.39, -77368.51, 0, 21:25:09.482
110, -41881.96, -38094.99, -187500.02, -187500.02, -52093.58, -77490.79, -60232.07, -77503.48, 0, 21:25:09.482
111, -42030.80, -38245.20, -187500.02, -187500.02, -52051.22, -77550.00, -60149.70, -77389.20, 0, 21:25:09.482
112, -42371.93, -38585.41, -187500.02, -187500.02, -52292.51, -77870.32, -60074.40, -77224.65, 0, 21:25:09.482
113, -42244.73, -38459.64, -187500.02, -187500.02, -52334.46, -77829.35, -60142.53, -77304.16, 0, 21:25:09.482
114, -41934.02, -38144.79, -187500.02, -187500.02, -52124.56, -77539.23, -60221.16, -77467.77, 0, 21:25:09.482
115, -41978.00, -38192.69, -187500.02, -187500.02, -52025.36, -77498.32, -60171.32, -77413.01, 0, 21:25:09.483
116, -42332.19, -38548.71, -187500.02, -187500.02, -52235.93, -77814.89, -60075.77, -77228.05, 0, 21:25:09.483
117, -42330.54, -38547.35, -187500.02, -187500.02, -52384.98, -77896.54, -60126.17, -77272.46, 0, 21:25:09.483
118, -41961.80, -38178.48, -187500.02, -187500.02, -52178.80, -77581.90, -60216.58, -77457.30, 0, 21:25:09.483
119, -41944.57, -38166.52, -187500.02, -187500.02, -52027.30, -77486.88, -60195.10, -77446.06, 0, 21:25:09.483
120, -42270.12, -38492.61, -187500.02, -187500.02, -52181.62, -77760.48, -60076.01, -77244.03, 0, 21:25:09.483
121, -42372.00, -38592.61, -187500.02, -187500.02, -52375.99, -77932.23, -60109.00, -77230.44, 0, 21:25:09.483
122, -42032.14, -38249.51, -187500.02, -187500.02, -52226.64, -77657.20, -60211.02, -77411.55, 0, 21:25:09.484
123, -41901.23, -38116.29, -187500.02, -187500.02, -52018.01, -77459.03, -60222.13, -77450.05, 0, 21:25:09.484
124, -42253.65, -38471.57, -187500.02, -187500.02, -52134.68, -77727.32, -60097.51, -77256.05, 0, 21:25:09.484
125, -42424.21, -38645.43, -187500.02, -187500.02, -52375.03, -77960.09, -60105.11, -77206.19, 0, 21:25:09.484
126, -42111.42, -38330.85, -187500.02, -187500.02, -52258.36, -77728.55, -60200.60, -77378.61, 0, 21:25:09.484
127, -41908.89, -38123.63, -187500.02, -187500.02, -52031.15, -77476.64, -60232.56, -77465.78, 0, 21:25:09.484
128, -42189.52, -38406.80, -187500.02, -187500.02, -52086.45, -77655.26, -60118.39, -77289.42, 0, 21:25:09.484
129, -42441.85, -38657.54, -187500.02, -187500.02, -52349.24, -77936.55, -60095.39, -77191.77, 0, 21:25:09.484
130, -42183.42, -38392.56, -187500.02, -187500.02, -52293.04, -77769.38, -60183.34, -77339.72, 0, 21:25:09.484
131, -41906.99, -38117.12, -187500.02, -187500.02, -52045.99, -77477.29, -60237.86, -77467.01, 0, 21:25:09.484
132, -42124.41, -38336.75, -187500.02, -187500.02, -52041.99, -77605.57, -60145.28, -77333.93, 0, 21:25:09.485
133, -42381.54, -38599.05, -187500.02, -187500.02, -52287.08, -77874.16, -60090.20, -77196.06, 0, 21:25:09.485
134, -42172.18, -38395.91, -187500.02, -187500.02, -52275.30, -77761.02, -60158.85, -77299.80, 0, 21:25:09.485
135, -41882.43, -38101.90, -187500.02, -187500.02, -52039.08, -77473.05, -60224.14, -77446.09, 0, 21:25:09.485
136, -42000.67, -38221.97, -187500.02, -187500.02, -51977.06, -77494.08, -60157.64, -77355.07, 0, 21:25:09.485
137, -42346.41, -38569.92, -187500.02, -187500.02, -52223.75, -77814.16, -60070.18, -77176.37, 0, 21:25:09.485
138, -42276.02, -38501.15, -187500.02, -187500.02, -52322.21, -77840.06, -60127.53, -77239.73, 0, 21:25:09.485
139, -41924.20, -38149.60, -187500.02, -187500.02, -52089.58, -77520.30, -60205.07, -77407.77, 0, 21:25:09.485
140, -41962.02, -38190.57, -187500.02, -187500.02, -51983.29, -77479.62, -60166.96, -77365.38, 0, 21:25:09.485
141, -42314.87, -38546.27, -187500.02, -187500.02, -52178.76, -77796.80, -60069.13, -77175.34, 0, 21:25:09.485
142, -42321.73, -38552.31, -187500.02, -187500.02, -52289.04, -77886.41, -60122.64, -77202.97, 0, 21:25:09.485
143, -42022.35, -38251.75, -187500.02, -187500.02, -52089.87, -77631.23, -60208.47, -77379.32, 0, 21:25:09.486
144, -41921.19, -38148.75, -187500.02, -187500.02, -51903.03, -77471.59, -60205.36, -77397.98, 0, 21:25:09.486
145, -42254.54, -38486.80, -187500.02, -187500.02, -52036.07, -77744.77, -60089.18, -77205.20, 0, 21:25:09.486
146, -42333.80, -38553.16, -187500.02, -187500.02, -52218.21, -77882.13, -60112.69, -77185.06, 0, 21:25:09.486
147, -42003.91, -38224.41, -187500.02, -187500.02, -52055.69, -77610.41, -60200.31, -77343.27, 0, 21:25:09.486
148, -41918.77, -38146.60, -187500.02, -187500.02, -51891.68, -77464.62, -60219.33, -77403.28, 0, 21:25:09.486
149, -42219.14, -38445.42, -187500.02, -187500.02, -52001.58, -77699.11, -60117.27, -77229.77, 0, 21:25:09.486
150, -42367.44, -38589.19, -187500.02, -187500.02, -52210.52, -77898.93, -60107.06, -77162.66, 0, 21:25:09.486
151, -42064.95, -38291.20, -187500.02, -187500.02, -52102.16, -77678.12, -60185.89, -77317.16, 0, 21:25:09.486
152, -41865.35, -38090.48, -187500.02, -187500.02, -51893.51, -77443.77, -60223.84, -77421.77, 0, 21:25:09.486
153, -42114.39, -38346.16, -187500.02, -187500.02, -51936.91, -77605.27, -60119.53, -77273.40, 0, 21:25:09.487
154, -42358.97, -38586.51, -187500.02, -187500.02, -52185.29, -77866.41, -60082.45, -77158.84, 0, 21:25:09.487
155, -42181.76, -38407.16, -187500.02, -187500.02, -52174.20, -77765.20, -60162.98, -77281.84, 0, 21:25:09.487
156, -41884.55, -38105.27, -187500.02, -187500.02, -51963.02, -77474.88, -60237.93, -77427.42, 0, 21:25:09.487
157, -42037.39, -38263.32, -187500.02, -187500.02, -51910.29, -77526.15, -60144.12, -77312.65, 0, 21:25:09.487
158, -42363.84, -38591.87, -187500.02, -187500.02, -52157.55, -77846.95, -60064.99, -77150.59, 0, 21:25:09.487
159, -42227.29, -38453.98, -187500.02, -187500.02, -52201.85, -77797.97, -60136.27, -77240.49, 0, 21:25:09.487
160, -41917.21, -38140.25, -187500.02, -187500.02, -51971.40, -77499.17, -60211.77, -77402.61, 0, 21:25:09.487
161, -41997.94, -38221.71, -187500.02, -187500.02, -51889.06, -77500.07, -60154.93, -77336.07, 0, 21:25:09.487
162, -42325.91, -38554.43, -187500.02, -187500.02, -52109.54, -77807.83, -60063.58, -77158.09, 0, 21:25:09.487
163, -42310.93, -38541.20, -187500.02, -187500.02, -52234.48, -77877.23, -60127.02, -77206.48, 0, 21:25:09.488
164, -41977.29, -38209.34, -187500.02, -187500.02, -52040.80, -77586.37, -60220.27, -77386.59, 0, 21:25:09.488
165, -41936.34, -38169.74, -187500.02, -187500.02, -51886.02, -77465.09, -60192.60, -77371.84, 0, 21:25:09.488
166, -42246.23, -38478.50, -187500.02, -187500.02, -52029.18, -77722.22, -60072.93, -77172.91, 0, 21:25:09.488
167, -42306.82, -38539.03, -187500.02, -187500.02, -52197.00, -77853.47, -60094.50, -77161.48, 0, 21:25:09.488
168, -41947.18, -38173.05, -187500.02, -187500.02, -52024.89, -77557.17, -60185.78, -77334.15, 0, 21:25:09.488
169, -41881.78, -38110.55, -187500.02, -187500.02, -51854.30, -77411.15, -60184.80, -77356.95, 0, 21:25:09.488
170, -42256.91, -38490.57, -187500.02, -187500.02, -52031.93, -77713.84, -60073.24, -77164.30, 0, 21:25:09.488
171, -42394.60, -38629.20, -187500.02, -187500.02, -52254.51, -77907.12, -60092.57, -77130.32, 0, 21:25:09.488
172, -42052.66, -38287.22, -187500.02, -187500.02, -52112.91, -77645.76, -60187.39, -77303.73, 0, 21:25:09.489
173, -41844.83, -38079.28, -187500.02, -187500.02, -51883.18, -77398.52, -60211.66, -77378.54, 0, 21:25:09.489
174, -42130.04, -38367.02, -187500.02, -187500.02, -51945.79, -77598.68, -60093.24, -77194.14, 0, 21:25:09.489
175, -42353.80, -38577.34, -187500.02, -187500.02, -52198.05, -77852.04, -60079.30, -77100.10, 0, 21:25:09.489
176, -42119.43, -38358.09, -187500.02, -187500.02, -52138.10, -77698.33, -60158.73, -77243.38, 0, 21:25:09.489
177, -41852.75, -38095.15, -187500.02, -187500.02, -51916.91, -77426.89, -60211.89, -77367.52, 0, 21:25:09.489
178, -42050.58, -38297.84, -187500.02, -187500.02, -51904.32, -77525.46, -60107.13, -77224.23, 0, 21:25:09.489
179, -42392.38, -38635.73, -187500.02, -187500.02, -52199.77, -77869.38, -60061.95, -77091.77, 0, 21:25:09.489
180, -42193.88, -38434.32, -187500.02, -187500.02, -52212.76, -77772.55, -60150.64, -77218.59, 0, 21:25:09.489
181, -41859.16, -38097.07, -187500.02, -187500.02, -51946.10, -77438.82, -60210.21, -77365.69, 0, 21:25:09.490
182, -42018.06, -38255.28, -187500.02, -187500.02, -51906.49, -77501.14, -60134.84, -77259.25, 0, 21:25:09.490
183, -42320.81, -38551.10, -187500.02, -187500.02, -52143.06, -77795.06, -60059.25, -77095.21, 0, 21:25:09.490
184, -42245.49, -38482.01, -187500.02, -187500.02, -52219.95, -77806.06, -60123.78, -77168.92, 0, 21:25:09.490
185, -41946.33, -38183.64, -187500.02, -187500.02, -52015.01, -77533.52, -60206.46, -77345.68, 0, 21:25:09.490
186, -41974.94, -38216.14, -187500.02, -187500.02, -51897.30, -77475.48, -60161.15, -77305.98, 0, 21:25:09.490
187, -42342.45, -38588.63, -187500.02, -187500.02, -52116.38, -77803.34, -60059.40, -77120.04, 0, 21:25:09.490
188, -42313.88, -38564.18, -187500.02, -187500.02, -52253.84, -77866.41, -60112.82, -77157.13, 0, 21:25:09.490
189, -41915.38, -38169.92, -187500.02, -187500.02, -52026.16, -77522.33, -60199.53, -77338.62, 0, 21:25:09.490
190, -41897.02, -38151.23, -187500.02, -187500.02, -51863.55, -77411.71, -60171.39, -77330.23, 0, 21:25:09.490
191, -42270.07, -38525.93, -187500.02, -187500.02, -52059.65, -77728.28, -60055.92, -77134.75, 0, 21:25:09.491
192, -42398.29, -38650.16, -187500.02, -187500.02, -52274.07, -77910.18, -60080.79, -77117.80, 0, 21:25:09.491
193, -42032.70, -38283.78, -187500.02, -187500.02, -52115.08, -77626.35, -60183.95, -77304.87, 0, 21:25:09.491
194, -41849.82, -38100.92, -187500.02, -187500.02, -51875.04, -77396.84, -60193.71, -77358.78, 0, 21:25:09.491
195, -42183.71, -38435.99, -187500.02, -187500.02, -51966.53, -77642.94, -60067.81, -77159.27, 0, 21:25:09.491
196, -42390.24, -38638.79, -187500.02, -187500.02, -52221.05, -77889.75, -60063.38, -77092.88, 0, 21:25:09.491
197, -42086.57, -38334.83, -187500.02, -187500.02, -52118.77, -77661.13, -60154.73, -77257.02, 0, 21:25:09.491
198, -41831.71, -38080.78, -187500.02, -187500.02, -51874.22, -77372.91, -60193.56, -77356.97, 0, 21:25:09.491
199, -42103.00, -38353.00, -187500.02, -187500.02, -51909.76, -77533.30, -60078.07, -77192.91, 0, 21:25:09.491
200, -42362.84, -38609.78, -187500.02, -187500.02, -52181.49, -77821.28, -60048.72, -77087.99, 0, 21:25:09.491
201, -42138.11, -38385.79, -187500.02, -187500.02, -52154.31, -77694.84, -60138.64, -77228.88, 0, 21:25:09.491
202, -41830.71, -38086.05, -187500.02, -187500.02, -51906.61, -77379.93, -60202.52, -77368.52, 0, 21:25:09.492
203, -42054.05, -38309.93, -187500.02, -187500.02, -51896.14, -77494.30, -60111.57, -77243.85, 0, 21:25:09.492
204, -42415.90, -38671.40, -187500.02, -187500.02, -52180.39, -77849.36, -60046.66, -77099.32, 0, 21:25:09.492
205, -42253.27, -38502.89, -187500.02, -187500.02, -52218.73, -77780.76, -60129.63, -77214.27, 0, 21:25:09.492
206, -41909.54, -38161.18, -187500.02, -187500.02, -51978.00, -77454.89, -60214.10, -77386.41, 0, 21:25:09.492
207, -41960.19, -38214.75, -187500.02, -187500.02, -51873.68, -77424.45, -60149.32, -77314.97, 0, 21:25:09.492
208, -42330.80, -38592.10, -187500.02, -187500.02, -52109.16, -77761.59, -60047.67, -77127.73, 0, 21:25:09.492
209, -42276.80, -38536.80, -187500.02, -187500.02, -52233.50, -77803.42, -60110.86, -77190.70, 0, 21:25:09.956
210, -41893.40, -38147.70, -187500.02, -187500.02, -51988.30, -77449.71, -60190.27, -77365.24, 0, 21:25:09.956
211, -41898.12, -38155.48, -187500.02, -187500.02, -51843.17, -77374.96, -60145.32, -77321.63, 0, 21:25:09.956
212, -42236.88, -38489.28, -187500.02, -187500.02, -52031.98, -77658.09, -60036.71, -77119.48, 0, 21:25:09.956
213, -42311.96, -38563.73, -187500.02, -187500.02, -52213.72, -77789.16, -60074.34, -77123.35, 0, 21:25:09.956
214, -41987.62, -38239.65, -187500.02, -187500.02, -52052.54, -77526.17, -60175.34, -77306.37, 0, 21:25:09.956
215, -41881.63, -38131.74, -187500.02, -187500.02, -51871.56, -77366.88, -60173.29, -77335.73, 0, 21:25:09.956
216, -42217.91, -38464.38, -187500.02, -187500.02, -52008.84, -77631.45, -60052.63, -77140.47, 0, 21:25:09.957
217, -42388.50, -38634.68, -187500.02, -187500.02, -52250.75, -77853.41, -60076.88, -77105.55, 0, 21:25:09.957
218, -42012.49, -38264.11, -187500.02, -187500.02, -52104.30, -77566.09, -60177.80, -77287.95, 0, 21:25:09.957
219, -41808.91, -38055.16, -187500.02, -187500.02, -51847.35, -77309.70, -60186.79, -77355.56, 0, 21:25:09.957
220, -42162.38, -38409.82, -187500.02, -187500.02, -51953.12, -77565.09, -60068.95, -77175.45, 0, 21:25:09.957
221, -42423.81, -38669.90, -187500.02, -187500.02, -52239.64, -77860.38, -60059.09, -77096.02, 0, 21:25:09.957
222, -42127.18, -38379.08, -187500.02, -187500.02, -52185.98, -77668.78, -60162.98, -77263.61, 0, 21:25:09.957
223, -41831.87, -38081.96, -187500.02, -187500.02, -51923.79, -77355.05, -60216.09, -77386.90, 0, 21:25:09.957
224, -42053.18, -38304.77, -187500.02, -187500.02, -51912.17, -77468.87, -60105.34, -77231.71, 0, 21:25:09.958
225, -42369.41, -38622.83, -187500.02, -187500.02, -52183.14, -77793.21, -60057.50, -77095.95, 0, 21:25:09.958
226, -42181.72, -38437.71, -187500.02, -187500.02, -52183.45, -77702.23, -60144.16, -77214.59, 0, 21:25:09.958
227, -41907.38, -38161.07, -187500.02, -187500.02, -51969.64, -77428.66, -60216.80, -77365.82, 0, 21:25:09.958
228, -42014.89, -38268.91, -187500.02, -187500.02, -51923.26, -77451.92, -60147.67, -77268.26, 0, 21:25:09.958
229, -42352.40, -38604.05, -187500.02, -187500.02, -52149.66, -77761.29, -60065.13, -77102.36, 0, 21:25:09.958
230, -42258.50, -38508.86, -187500.02, -187500.02, -52222.77, -77756.48, -60132.32, -77187.30, 0, 21:25:09.958
231, -41886.92, -38134.13, -187500.02, -187500.02, -51978.82, -77421.23, -60211.26, -77357.17, 0, 21:25:09.958
232, -41946.94, -38197.34, -187500.02, -187500.02, -51867.36, -77385.36, -60151.65, -77296.20, 0, 21:25:09.959
233, -42274.50, -38527.57, -187500.02, -187500.02, -52075.74, -77682.23, -60046.48, -77108.06, 0, 21:25:09.959
234, -42262.90, -38516.32, -187500.02, -187500.02, -52197.09, -77751.75, -60094.03, -77145.39, 0, 21:25:09.959
235, -41905.43, -38156.19, -187500.02, -187500.02, -51992.26, -77439.63, -60179.54, -77326.57, 0, 21:25:09.959
236, -41864.28, -38116.59, -187500.02, -187500.02, -51828.20, -77320.52, -60150.18, -77312.18, 0, 21:25:09.959
237, -42259.21, -38515.96, -187500.02, -187500.02, -52028.69, -77655.88, -60036.20, -77112.94, 0, 21:25:09.959
238, -42363.57, -38619.68, -187500.02, -187500.02, -52246.73, -77822.78, -60067.11, -77104.66, 0, 21:25:09.960
239, -41991.91, -38250.29, -187500.02, -187500.02, -52082.18, -77523.60, -60167.18, -77288.51, 0, 21:25:09.960
240, -41838.53, -38094.08, -187500.02, -187500.02, -51857.12, -77300.84, -60175.05, -77332.05, 0, 21:25:09.960
241, -42193.34, -38446.45, -187500.02, -187500.02, -51981.80, -77567.10, -60048.99, -77135.69, 0, 21:25:09.960
242, -42396.81, -38651.06, -187500.02, -187500.02, -52245.82, -77828.13, -60058.06, -77086.20, 0, 21:25:09.960
243, -42085.63, -38342.74, -187500.02, -187500.02, -52138.19, -77599.27, -60158.22, -77238.93, 0, 21:25:09.960
244, -41902.32, -38153.89, -187500.02, -187500.02, -51929.63, -77378.85, -60195.28, -77344.39, 0, 21:25:09.961
245, -42110.82, -38367.39, -187500.02, -187500.02, -51959.85, -77507.55, -60089.96, -77195.59, 0, 21:25:09.961
246, -42400.34, -38656.20, -187500.02, -187500.02, -52220.51, -77799.98, -60060.63, -77087.77, 0, 21:25:09.961
247, -42157.04, -38408.61, -187500.02, -187500.02, -52195.77, -77653.60, -60156.63, -77238.13, 0, 21:25:09.961
248, -41851.90, -38105.05, -187500.02, -187500.02, -51928.18, -77335.27, -60203.89, -77367.19, 0, 21:25:09.961
249, -42047.81, -38309.19, -187500.02, -187500.02, -51902.29, -77429.32, -60104.38, -77232.31, 0, 21:25:09.961
250, -42415.90, -38674.75, -187500.02, -187500.02, -52160.63, -77790.35, -60040.41, -77084.91, 0, 21:25:09.962
251, -42235.83, -38491.47, -187500.02, -187500.02, -52182.43, -77710.87, -60124.76, -77199.81, 0, 21:25:09.962
252, -41909.56, -38165.60, -187500.02, -187500.02, -51937.29, -77399.22, -60202.03, -77365.09, 0, 21:25:09.962
253, -42009.36, -38267.28, -187500.02, -187500.02, -51864.23, -77412.74, -60142.71, -77289.52, 0, 21:25:09.962
254, -42354.50, -38611.00, -187500.02, -187500.02, -52083.36, -77710.69, -60053.01, -77114.16, 0, 21:25:09.962
255, -42275.62, -38531.23, -187500.02, -187500.02, -52170.07, -77733.04, -60115.71, -77185.06, 0, 21:25:09.962
0, -41907.39, -38163.97, -187500.02, -187500.02, -51942.30, -77405.30, -60199.82, -77362.67, 0, 21:25:09.963
1, -41942.82, -38193.30, -187500.02, -187500.02, -51820.44, -77340.63, -60165.39, -77321.66, 0, 21:25:09.963
2, -42293.95, -38541.87, -187500.02, -187500.02, -52018.57, -77646.02, -60049.79, -77120.42, 0, 21:25:09.963
3, -42337.76, -38586.31, -187500.02, -187500.02, -52180.28, -77759.26, -60083.27, -77133.99, 0, 21:25:09.963
4, -41976.06, -38224.77, -187500.02, -187500.02, -51987.65, -77461.60, -60178.20, -77324.56, 0, 21:25:09.963
5, -41895.97, -38145.02, -187500.02, -187500.02, -51803.81, -77310.86, -60166.98, -77343.78, 0, 21:25:09.963
6, -42262.03, -38511.99, -187500.02, -187500.02, -51978.04, -77605.55, -60054.91, -77153.05, 0, 21:25:09.963
7, -42405.71, -38656.65, -187500.02, -187500.02, -52203.28, -77799.13, -60078.40, -77130.86, 0, 21:25:09.963
8, -42070.54, -38322.24, -187500.02, -187500.02, -52058.04, -77539.90, -60175.83, -77309.30, 0, 21:25:09.963
9, -41892.84, -38137.95, -187500.02, -187500.02, -51832.46, -77306.75, -60196.91, -77364.39, 0, 21:25:09.963
10, -42204.54, -38454.77, -187500.02, -187500.02, -51939.02, -77546.27, -60087.28, -77177.87, 0, 21:25:09.964
11, -42386.71, -38644.15, -187500.02, -187500.02, -52165.62, -77778.50, -60077.15, -77097.29, 0, 21:25:09.964
12, -42130.40, -38382.26, -187500.02, -187500.02, -52096.10, -77607.31, -60170.20, -77250.73, 0, 21:25:09.964
13, -41892.46, -38145.20, -187500.02, -187500.02, -51864.58, -77345.35, -60215.26, -77363.72, 0, 21:25:09.964
14, -42162.18, -38417.98, -187500.02, -187500.02, -51894.09, -77506.19, -60108.87, -77216.06, 0, 21:25:09.964
15, -42465.54, -38717.87, -187500.02, -187500.02, -52167.56, -77823.81, -60062.22, -77099.03, 0, 21:25:09.964
16, -42244.82, -38496.57, -187500.02, -187500.02, -52156.54, -77703.20, -60147.56, -77228.16, 0, 21:25:09.964
17, -41937.95, -38197.07, -187500.02, -187500.02, -51917.33, -77391.99, -60224.52, -77380.09, 10, 21:25:09.964
18, -42058.41, -38312.95, -187500.02, -187500.02, -51847.53, -77417.77, -60148.79, -77272.21, 0, 21:25:09.964
19, -42383.46, -38638.88, -187500.02, -187500.02, -52075.61, -77723.00, -60063.32, -77100.02, 0, 21:25:09.965
20, -42281.07, -38539.48, -187500.02, -187500.02, -52151.69, -77721.91, -60121.50, -77183.72, 0, 21:25:09.965
21, -41958.63, -38217.48, -187500.02, -187500.02, -51934.52, -77432.45, -60203.91, -77357.06, 0, 21:25:09.965
22, -42016.23, -38276.94, -187500.02, -187500.02, -51844.00, -77399.39, -60154.33, -77301.38, 0, 21:25:09.965
23, -42338.32, -38595.67, -187500.02, -187500.02, -52036.38, -77678.73, -60051.04, -77117.00, 0, 21:25:09.965
24, -42312.77, -38572.83, -187500.02, -187500.02, -52144.36, -77724.43, -60093.63, -77150.77, 0, 21:25:09.965
25, -42010.41, -38274.19, -187500.02, -187500.02, -51968.43, -77462.02, -60181.85, -77329.01, 0, 21:25:09.965
26, -41979.12, -38240.41, -187500.02, -187500.02, -51825.25, -77369.66, -60163.77, -77327.02, 0, 21:25:09.965
27, -42300.83, -38560.94, -187500.02, -187500.02, -51985.21, -77632.34, -60050.02, -77134.23, 0, 21:25:09.966
28, -42413.02, -38678.93, -187500.02, -187500.02, -52175.70, -77801.10, -60074.04, -77122.75, 0, 21:25:09.966
29, -42102.23, -38371.95, -187500.02, -187500.02, -52039.75, -77568.17, -60176.84, -77309.45, 0, 21:25:09.966
30, -41967.32, -38230.69, -187500.02, -187500.02, -51848.65, -77379.97, -60190.30, -77363.34, 0, 21:25:09.966
31, -42283.26, -38546.16, -187500.02, -187500.02, -51969.01, -77617.68, -60073.80, -77179.05, 0, 21:25:09.966
32, -42459.24, -38722.70, -187500.02, -187500.02, -52200.39, -77845.40, -60077.80, -77128.73, 0, 21:25:09.966
33, -42105.90, -38367.21, -187500.02, -187500.02, -52065.30, -77577.09, -60169.69, -77301.36, 0, 21:25:09.966
34, -41871.03, -38126.69, -187500.02, -187500.02, -51804.37, -77291.37, -60194.81, -77382.23, 0, 21:25:09.966
35, -42150.29, -38409.93, -187500.02, -187500.02, -51849.68, -77466.09, -60075.39, -77198.41, 0, 21:25:09.966
36, -42460.18, -38720.21, -187500.02, -187500.02, -52149.08, -77804.97, -60050.38, -77092.59, 0, 21:25:09.966
37, -42188.45, -38444.04, -187500.02, -187500.02, -52125.50, -77643.54, -60158.69, -77248.59, 0, 21:25:09.966
38, -41884.08, -38137.24, -187500.02, -187500.02, -51855.00, -77334.10, -60210.99, -77377.16, 0, 21:25:09.967
39, -42096.78, -38353.38, -187500.02, -187500.02, -51824.21, -77444.92, -60103.39, -77231.87, 0, 21:25:09.967
40, -42409.24, -38668.98, -187500.02, -187500.02, -52088.41, -77758.01, -60042.86, -77084.73, 0, 21:25:09.967
41, -42244.41, -38510.54, -187500.02, -187500.02, -52118.48, -77684.80, -60120.40, -77191.91, 0, 21:25:09.967
42, -41913.66, -38180.11, -187500.02, -187500.02, -51873.21, -77370.52, -60195.21, -77353.39, 0, 21:25:09.967
43, -42024.47, -38293.99, -187500.02, -187500.02, -51797.64, -77381.38, -60123.66, -77262.98, 0, 21:25:09.967
44, -42415.18, -38683.58, -187500.02, -187500.02, -52067.63, -77745.31, -60041.79, -77088.30, 0, 21:25:09.967
45, -42295.94, -38562.77, -187500.02, -187500.02, -52149.84, -77726.22, -60110.61, -77161.08, 0, 21:25:09.967
46, -41988.78, -38248.13, -187500.02, -187500.02, -51930.30, -77423.58, -60191.03, -77328.02, 0, 21:25:09.967
47, -42012.72, -38282.97, -187500.02, -187500.02, -51821.27, -77361.09, -60159.20, -77293.02, 0, 21:25:09.967
48, -42390.48, -38659.46, -187500.02, -187500.02, -52032.20, -77697.86, -60051.89, -77098.79, 0, 21:25:09.968
49, -42404.14, -38666.08, -187500.02, -187500.02, -52188.44, -77802.93, -60104.49, -77129.56, 0, 21:25:09.968
50, -42024.16, -38287.82, -187500.02, -187500.02, -51982.96, -77480.80, -60198.97, -77316.41, 0, 21:25:09.968
51, -41957.26, -38227.29, -187500.02, -187500.02, -51802.85, -77333.88, -60174.05, -77320.42, 0, 21:25:09.968
52, -42328.37, -38602.91, -187500.02, -187500.02, -51971.76, -77634.96, -60049.43, -77123.22, 0, 21:25:09.968
53, -42427.03, -38698.18, -187500.02, -187500.02, -52171.41, -77786.21, -60071.34, -77100.53, 0, 21:25:09.968
54, -42074.00, -38339.90, -187500.02, -187500.02, -52018.86, -77502.86, -60166.22, -77276.46, 0, 21:25:09.968
55, -41943.52, -38207.09, -187500.02, -187500.02, -51833.85, -77315.71, -60192.51, -77340.54, 0, 21:25:09.968
56, -42252.30, -38523.43, -187500.02, -187500.02, -51931.37, -77542.87, -60077.66, -77155.73, 0, 21:25:09.968
57, -42446.39, -38721.67, -187500.02, -187500.02, -52165.82, -77786.33, -60068.50, -77086.00, 0, 21:25:09.968
58, -42102.86, -38376.49, -187500.02, -187500.02, -52033.92, -77531.25, -60153.19, -77248.05, 0, 21:25:09.968
59, -41876.39, -38148.32, -187500.02, -187500.02, -51769.81, -77255.92, -60173.09, -77335.67, 0, 21:25:09.969
60, -42152.57, -38429.31, -187500.02, -187500.02, -51832.91, -77440.99, -60064.86, -77174.34, 0, 21:25:09.969
61, -42467.91, -38741.23, -187500.02, -187500.02, -52121.72, -77758.56, -60033.72, -77057.46, 0, 21:25:09.969
62, -42215.43, -38485.68, -187500.02, -187500.02, -52108.87, -77613.95, -60128.29, -77196.95, 0, 21:25:09.969
63, -41880.66, -38148.91, -187500.02, -187500.02, -51815.81, -77270.02, -60172.41, -77331.31, 0, 21:25:09.969
64, -42120.21, -38394.77, -187500.02, -187500.02, -51822.99, -77412.11, -60077.38, -77209.07, 0, 21:25:09.969
65, -42407.98, -38683.52, -187500.02, -187500.02, -52089.04, -77705.50, -60025.81, -77065.66, 0, 21:25:09.969
66, -42293.39, -38570.82, -187500.02, -187500.02, -52141.45, -77678.32, -60112.54, -77163.34, 0, 21:25:09.969
67, -41933.32, -38202.28, -187500.02, -187500.02, -51883.74, -77344.66, -60186.68, -77327.96, 0, 21:25:09.969
68, -41995.15, -38268.11, -187500.02, -187500.02, -51771.06, -77311.30, -60112.18, -77239.24, 0, 21:25:09.969
69, -42342.45, -38620.13, -187500.02, -187500.02, -51995.65, -77619.80, -60007.70, -77036.76, 0, 21:25:09.970
70, -42307.96, -38583.80, -187500.02, -187500.02, -52122.12, -77673.98, -60061.19, -77082.70, 0, 21:25:09.970
71, -41977.94, -38251.99, -187500.02, -187500.02, -51916.60, -77378.18, -60145.39, -77260.79, 0, 21:25:09.970
72, -41949.71, -38226.53, -187500.02, -187500.02, -51774.98, -77281.80, -60114.95, -77246.87, 0, 21:25:09.970
73, -42301.39, -38579.07, -187500.02, -187500.02, -51947.17, -77571.32, -60000.66, -77051.63, 0, 21:25:10.434
74, -42382.73, -38659.31, -187500.02, -187500.02, -52150.02, -77726.67, -60040.02, -77058.27, 0, 21:25:10.434
75, -42037.53, -38315.74, -187500.02, -187500.02, -51974.42, -77445.06, -60135.29, -77243.27, 0, 21:25:10.434
76, -41930.80, -38211.65, -187500.02, -187500.02, -51794.15, -77287.28, -60140.92, -77284.41, 0, 21:25:10.434
77, -42253.40, -38536.91, -187500.02, -187500.02, -51929.34, -77540.19, -60025.25, -77092.48, 0, 21:25:10.434
78, -42436.17, -38717.58, -187500.02, -187500.02, -52164.88, -77778.23, -60036.79, -77047.27, 0, 21:25:10.435
79, -42096.89, -38382.62, -187500.02, -187500.02, -52033.50, -77535.67, -60130.15, -77225.01, 0, 21:25:10.435
80, -41856.43, -38140.14, -187500.02, -187500.02, -51778.98, -77253.70, -60154.38, -77299.52, 0, 21:25:10.435
81, -42160.91, -38445.18, -187500.02, -187500.02, -51838.97, -77458.56, -60030.66, -77114.45, 0, 21:25:10.435
82, -42413.26, -38698.69, -187500.02, -187500.02, -52105.67, -77746.88, -60012.33, -77024.98, 0, 21:25:10.435
83, -42149.00, -38431.57, -187500.02, -187500.02, -52036.60, -77576.98, -60104.29, -77173.89, 0, 21:25:10.435
84, -41891.17, -38172.00, -187500.02, -187500.02, -51806.78, -77298.14, -60156.63, -77295.75, 0, 21:25:10.435
85, -42136.10, -38422.02, -187500.02, -187500.02, -51840.38, -77448.19, -60058.40, -77152.09, 0, 21:25:10.435
86, -42449.18, -38733.80, -187500.02, -187500.02, -52113.56, -77764.71, -60011.01, -77020.78, 0, 21:25:10.435
87, -42284.96, -38572.45, -187500.02, -187500.02, -52142.75, -77696.83, -60106.72, -77146.15, 0, 21:25:10.436
88, -41956.44, -38242.74, -187500.02, -187500.02, -51899.18, -77385.00, -60184.13, -77308.52, 0, 21:25:10.436
89, -42061.89, -38347.86, -187500.02, -187500.02, -51825.78, -77407.91, -60112.71, -77217.81, 0, 21:25:10.436
90, -42380.27, -38664.36, -187500.02, -187500.02, -52042.59, -77705.57, -60033.97, -77054.95, 0, 21:25:10.436
91, -42322.91, -38608.28, -187500.02, -187500.02, -52137.36, -77731.30, -60101.98, -77135.27, 0, 21:25:10.436
92, -41975.52, -38261.43, -187500.02, -187500.02, -51923.59, -77408.96, -60180.93, -77306.59, 0, 21:25:10.436
93, -42001.32, -38287.69, -187500.02, -187500.02, -51810.63, -77348.88, -60136.18, -77253.68, 0, 21:25:10.436
94, -42364.24, -38649.99, -187500.02, -187500.02, -52013.60, -77663.52, -60028.91, -77057.55, 0, 21:25:10.436
95, -42379.26, -38662.95, -187500.02, -187500.02, -52169.57, -77765.77, -60075.99, -77085.73, 0, 21:25:10.436
96, -42006.17, -38289.03, -187500.02, -187500.02, -51960.70, -77454.40, -60168.08, -77270.00, 0, 21:25:10.436
97, -41929.19, -38213.28, -187500.02, -187500.02, -51775.51, -77305.59, -60150.75, -77274.80, 0, 21:25:10.437
98, -42271.30, -38555.73, -187500.02, -187500.02, -51922.21, -77569.42, -60028.45, -77076.39, 0, 21:25:10.437
99, -42377.01, -38659.29, -187500.02, -187500.02, -52117.36, -77734.83, -60048.05, -77053.48, 0, 21:25:10.437
100, -42044.28, -38329.48, -187500.02, -187500.02, -51969.61, -77487.59, -60144.27, -77231.27, 0, 21:25:10.437
101, -41905.36, -38192.00, -187500.02, -187500.02, -51757.63, -77286.43, -60155.89, -77287.26, 0, 21:25:10.437
102, -42207.78, -38494.55, -187500.02, -187500.02, -51876.54, -77506.70, -60038.26, -77102.38, 0, 21:25:10.438
103, -42423.92, -38709.51, -187500.02, -187500.02, -52117.85, -77754.48, -60025.38, -77029.98, 0, 21:25:10.438
104, -42142.74, -38428.77, -187500.02, -187500.02, -52043.29, -77572.98, -60120.67, -77195.52, 0, 21:25:10.438
105, -41911.24, -38196.92, -187500.02, -187500.02, -51812.13, -77313.25, -60161.91, -77297.76, 0, 21:25:10.439
106, -42166.18, -38453.58, -187500.02, -187500.02, -51850.32, -77478.99, -60053.08, -77138.20, 0, 21:25:10.439
107, -42462.79, -38747.60, -187500.02, -187500.02, -52108.66, -77784.85, -60015.91, -77024.04, 0, 21:25:10.439
108, -42240.06, -38525.11, -187500.02, -187500.02, -52111.32, -77667.70, -60115.55, -77172.28, 0, 21:25:10.439
109, -41920.49, -38204.56, -187500.02, -187500.02, -51853.83, -77338.35, -60185.18, -77317.41, 0, 21:25:10.439
110, -42091.29, -38380.20, -187500.02, -187500.02, -51818.09, -77401.67, -60095.93, -77192.69, 0, 21:25:10.439
111, -42421.64, -38706.31, -187500.02, -187500.02, -52079.92, -77721.88, -60028.51, -77039.62, 0, 21:25:10.439
112, -42271.08, -38552.11, -187500.02, -187500.02, -52119.80, -77671.03, -60101.27, -77137.97, 0, 21:25:10.439
113, -41939.25, -38220.12, -187500.02, -187500.02, -51877.10, -77356.28, -60173.09, -77300.98, 0, 21:25:10.440
114, -42047.05, -38328.14, -187500.02, -187500.02, -51805.73, -77366.07, -60114.37, -77225.52, 0, 21:25:10.446
115, -42385.50, -38661.95, -187500.02, -187500.02, -52028.40, -77671.62, -60026.10, -77044.78, 0, 21:25:10.446
116, -42347.43, -38619.39, -187500.02, -187500.02, -52134.14, -77717.48, -60084.21, -77100.71, 0, 21:25:10.446
117, -41985.83, -38256.57, -187500.02, -187500.02, -51926.68, -77395.39, -60170.92, -77278.67, 0, 21:25:10.446
118, -41968.44, -38243.21, -187500.02, -187500.02, -51790.02, -77295.70, -60133.12, -77249.21, 0, 21:25:10.447
119, -42298.13, -38578.08, -187500.02, -187500.02, -51974.11, -77578.03, -60022.81, -77048.70, 0, 21:25:10.447
120, -42384.96, -38662.01, -187500.02, -187500.02, -52151.22, -77734.09, -60057.73, -77051.06, 0, 21:25:10.447
121, -42030.04, -38308.50, -187500.02, -187500.02, -51972.72, -77461.58, -60147.85, -77239.36, 0, 21:25:10.447
122, -41908.04, -38181.18, -187500.02, -187500.02, -51765.05, -77268.59, -60137.95, -77264.30, 0, 21:25:10.447
123, -42280.83, -38558.77, -187500.02, -187500.02, -51918.32, -77554.27, -60022.52, -77063.42, 0, 21:25:10.447
124, -42409.68, -38694.33, -187500.02, -187500.02, -52138.50, -77737.71, -60042.82, -77025.20, 0, 21:25:10.447
125, -42084.54, -38367.57, -187500.02, -187500.02, -52002.32, -77504.54, -60135.29, -77196.48, 0, 21:25:10.447
126, -41929.75, -38211.29, -187500.02, -187500.02, -51804.99, -77313.02, -60163.12, -77278.23, 0, 21:25:10.447
127, -42215.49, -38498.91, -187500.02, -187500.02, -51877.93, -77504.76, -60053.79, -77104.77, 0, 21:25:10.447
128, -42453.14, -38733.79, -187500.02, -187500.02, -52120.71, -77777.36, -60035.35, -77013.91, 0, 21:25:10.448
129, -42178.16, -38459.44, -187500.02, -187500.02, -52063.07, -77597.19, -60130.17, -77170.13, 0, 21:25:10.448
130, -41891.44, -38173.98, -187500.02, -187500.02, -51817.85, -77289.29, -60177.40, -77288.40, 0, 21:25:10.448
131, -42159.12, -38441.24, -187500.02, -187500.02, -51844.45, -77448.39, -60068.95, -77138.93, 0, 21:25:10.448
132, -42462.70, -38747.91, -187500.02, -187500.02, -52128.27, -77752.41, -60031.55, -77017.58, 0, 21:25:10.448
133, -42204.43, -38489.68, -187500.02, -187500.02, -52082.42, -77581.07, -60111.91, -77135.09, 0, 21:25:10.448
134, -41923.60, -38208.76, -187500.02, -187500.02, -51825.63, -77302.16, -60165.15, -77267.19, 0, 21:25:10.448
135, -42040.55, -38324.90, -187500.02, -187500.02, -51770.26, -77349.80, -60074.20, -77157.05, 0, 21:25:10.448
136, -42411.65, -38692.48, -187500.02, -187500.02, -52017.87, -77689.72, -59987.21, -76986.02, 0, 21:25:10.448
137, -42317.15, -38597.48, -187500.02, -187500.02, -52115.97, -77708.67, -60064.25, -77080.28, 0, 21:25:10.448
138, -41952.93, -38232.75, -187500.02, -187500.02, -51881.26, -77370.29, -60142.38, -77255.59, 0, 21:25:10.448
139, -42032.95, -38318.29, -187500.02, -187500.02, -51799.92, -77349.53, -60096.15, -77203.75, 0, 21:25:10.449
140, -42355.46, -38641.14, -187500.02, -187500.02, -52003.28, -77632.32, -59999.59, -77021.98, 0, 21:25:10.449
141, -42357.27, -38647.28, -187500.02, -187500.02, -52134.13, -77717.62, -60044.36, -77052.98, 0, 21:25:10.449
142, -42013.12, -38298.80, -187500.02, -187500.02, -51929.76, -77415.31, -60132.38, -77228.60, 0, 21:25:10.449
143, -41995.91, -38286.05, -187500.02, -187500.02, -51789.71, -77325.61, -60123.11, -77228.83, 0, 21:25:10.449
144, -42314.02, -38604.93, -187500.02, -187500.02, -51942.08, -77581.80, -60015.91, -77041.84, 0, 21:25:10.449
145, -42377.43, -38664.16, -187500.02, -187500.02, -52114.52, -77699.96, -60037.16, -77027.10, 0, 21:25:10.449
146, -42042.29, -38330.04, -187500.02, -187500.02, -51954.21, -77434.58, -60120.54, -77195.81, 0, 21:25:10.449
147, -41920.23, -38208.90, -187500.02, -187500.02, -51762.93, -77256.77, -60128.40, -77244.38, 0, 21:25:10.449
148, -42229.46, -38516.32, -187500.02, -187500.02, -51859.64, -77483.70, -60007.44, -77056.16, 0, 21:25:10.449
149, -42477.07, -38765.19, -187500.02, -187500.02, -52141.86, -77772.22, -60014.30, -76997.78, 0, 21:25:10.450
150, -42141.20, -38435.59, -187500.02, -187500.02, -52041.03, -77535.72, -60115.06, -77171.43, 0, 21:25:10.450
151, -41914.08, -38210.82, -187500.02, -187500.02, -51796.41, -77269.73, -60146.44, -77261.41, 0, 21:25:10.450
152, -42181.25, -38477.45, -187500.02, -187500.02, -51836.58, -77433.50, -60035.24, -77092.35, 0, 21:25:10.450
153, -42466.48, -38762.30, -187500.02, -187500.02, -52102.99, -77745.09, -60006.77, -76985.91, 0, 21:25:10.450
154, -42254.68, -38553.88, -187500.02, -187500.02, -52079.07, -77634.34, -60096.21, -77130.95, 0, 21:25:10.450
155, -41936.88, -38237.53, -187500.02, -187500.02, -51826.61, -77315.69, -60157.95, -77272.77, 0, 21:25:10.450
156, -42117.99, -38419.92, -187500.02, -187500.02, -51801.82, -77397.05, -60065.33, -77144.67, 0, 21:25:10.450
157, -42435.95, -38736.04, -187500.02, -187500.02, -52063.04, -77721.64, -60002.14, -76998.65, 0, 21:25:10.450
158, -42284.71, -38578.64, -187500.02, -187500.02, -52109.49, -77671.64, -60088.33, -77109.98, 0, 21:25:10.450
159, -41920.61, -38208.34, -187500.02, -187500.02, -51840.71, -77316.24, -60163.09, -77274.59, 0, 21:25:10.450
160, -42077.63, -38366.14, -187500.02, -187500.02, -51774.11, -77365.22, -60086.09, -77180.82, 0, 21:25:10.451
161, -42425.71, -38714.83, -187500.02, -187500.02, -52029.20, -77689.59, -60002.09, -77007.48, 0, 21:25:10.451
162, -42351.88, -38638.34, -187500.02, -187500.02, -52118.37, -77704.59, -60065.42, -77073.38, 0, 21:25:10.451
163, -42015.96, -38305.79, -187500.02, -187500.02, -51909.51, -77415.29, -60154.11, -77254.24, 0, 21:25:10.451
164, -41974.47, -38269.52, -187500.02, -187500.02, -51756.47, -77300.13, -60118.25, -77227.51, 0, 21:25:10.451
165, -42343.01, -38642.34, -187500.02, -187500.02, -51939.71, -77598.80, -60000.60, -77020.84, 0, 21:25:10.451
166, -42447.95, -38743.26, -187500.02, -187500.02, -52142.57, -77762.27, -60048.56, -77034.50, 0, 21:25:10.451
167, -42070.16, -38358.90, -187500.02, -187500.02, -51965.55, -77455.16, -60153.19, -77231.48, 0, 21:25:10.451
168, -41946.33, -38238.34, -187500.02, -187500.02, -51761.83, -77268.01, -60145.39, -77256.48, 0, 21:25:10.451
169, -42270.57, -38568.31, -187500.02, -187500.02, -51886.87, -77525.66, -60019.33, -77058.30, 0, 21:25:10.451
170, -42423.16, -38720.51, -187500.02, -187500.02, -52107.88, -77730.65, -60035.06, -77023.26, 0, 21:25:10.452
171, -42088.54, -38384.58, -187500.02, -187500.02, -51972.99, -77472.51, -60128.54, -77195.70, 0, 21:25:10.452
172, -41921.52, -38218.93, -187500.02, -187500.02, -51757.61, -77265.71, -60149.04, -77262.27, 0, 21:25:10.452
173, -42233.04, -38532.39, -187500.02, -187500.02, -51849.70, -77484.91, -60034.82, -77080.91, 0, 21:25:10.452
174, -42464.00, -38762.30, -187500.02, -187500.02, -52112.06, -77752.13, -60029.07, -77005.55, 0, 21:25:10.452
175, -42211.56, -38512.46, -187500.02, -187500.02, -52060.41, -77597.88, -60130.01, -77170.11, 0, 21:25:10.452
176, -41963.10, -38256.11, -187500.02, -187500.02, -51826.43, -77318.15, -60175.21, -77292.77, 0, 21:25:10.452
177, -42158.85, -38453.47, -187500.02, -187500.02, -51825.60, -77427.27, -60067.99, -77142.26, 0, 21:25:10.452
178, -42434.61, -38729.63, -187500.02, -187500.02, -52062.04, -77718.00, -60019.08, -77010.16, 0, 21:25:10.452
179, -42228.68, -38524.04, -187500.02, -187500.02, -52057.19, -77617.37, -60103.44, -77136.72, 0, 21:25:10.453
180, -41873.15, -38163.46, -187500.02, -187500.02, -51787.85, -77259.00, -60165.29, -77278.83, 0, 21:25:10.453
181, -42051.25, -38341.49, -187500.02, -187500.02, -51748.38, -77324.54, -60073.64, -77153.68, 0, 21:25:10.453
182, -42420.91, -38712.59, -187500.02, -187500.02, -52026.23, -77683.13, -60001.04, -76968.61, 0, 21:25:10.453
183, -42279.55, -38573.66, -187500.02, -187500.02, -52079.88, -77643.92, -60075.86, -77055.22, 0, 21:25:10.453
184, -41947.81, -38239.56, -187500.02, -187500.02, -51858.28, -77333.59, -60157.33, -77236.95, 0, 21:25:10.453
185, -41997.65, -38291.98, -187500.02, -187500.02, -51766.10, -77303.53, -60109.88, -77184.28, 0, 21:25:10.453
186, -42334.38, -38627.41, -187500.02, -187500.02, -51961.05, -77593.09, -60008.98, -76998.54, 0, 21:25:10.453
187, -42343.66, -38639.86, -187500.02, -187500.02, -52097.24, -77683.51, -60064.70, -77041.68, 0, 21:25:10.454
188, -42004.78, -38296.94, -187500.02, -187500.02, -51914.65, -77395.20, -60157.46, -77228.96, 0, 21:25:10.454
189, -41957.87, -38250.23, -187500.02, -187500.02, -51757.27, -77274.56, -60133.07, -77222.73, 0, 21:25:10.454
190, -42297.08, -38591.34, -187500.02, -187500.02, -51931.19, -77547.45, -60023.44, -77030.28, 0, 21:25:10.454
191, -42398.26, -38690.38, -187500.02, -187500.02, -52132.69, -77711.13, -60063.63, -77025.07, 0, 21:25:10.454
192, -42049.98, -38338.74, -187500.02, -187500.02, -51968.41, -77439.78, -60159.50, -77206.77, 0, 21:25:10.454
193, -41934.53, -38228.57, -187500.02, -187500.02, -51767.51, -77263.07, -60154.91, -77249.57, 0, 21:25:10.914
194, -42261.54, -38557.99, -187500.02, -187500.02, -51903.57, -77520.52, -60038.15, -77062.17, 0, 21:25:10.914
195, -42422.65, -38717.91, -187500.02, -187500.02, -52128.47, -77728.79, -60043.76, -77012.30, 0, 21:25:10.914
196, -42125.32, -38421.84, -187500.02, -187500.02, -52022.81, -77517.10, -60136.34, -77178.38, 0, 21:25:10.915
197, -41905.61, -38202.21, -187500.02, -187500.02, -51796.79, -77269.71, -60170.96, -77267.90, 0, 21:25:10.915
198, -42155.03, -38452.98, -187500.02, -187500.02, -51813.69, -77414.26, -60050.78, -77098.14, 0, 21:25:10.915
199, -42429.71, -38724.17, -187500.02, -187500.02, -52082.13, -77709.91, -60021.83, -76996.02, 0, 21:25:10.915
200, -42188.18, -38486.55, -187500.02, -187500.02, -52045.48, -77563.26, -60111.01, -77137.59, 0, 21:25:10.915
201, -41904.58, -38200.18, -187500.02, -187500.02, -51800.79, -77262.63, -60162.16, -77262.16, 0, 21:25:10.915
202, -42124.50, -38420.50, -187500.02, -187500.02, -51809.13, -77382.92, -60070.13, -77127.20, 0, 21:25:10.915
203, -42409.37, -38705.64, -187500.02, -187500.02, -52063.54, -77679.15, -60013.96, -76985.82, 0, 21:25:10.915
204, -42213.95, -38512.55, -187500.02, -187500.02, -52059.31, -77579.73, -60089.67, -77093.58, 0, 21:25:10.916
205, -41904.80, -38203.02, -187500.02, -187500.02, -51820.30, -77287.62, -60157.59, -77249.10, 0, 21:25:10.916
206, -42009.54, -38311.92, -187500.02, -187500.02, -51739.95, -77297.45, -60080.77, -77157.08, 0, 21:25:10.916
207, -42385.75, -38691.38, -187500.02, -187500.02, -51994.92, -77638.73, -59992.15, -76977.66, 0, 21:25:10.916
208, -42355.59, -38658.28, -187500.02, -187500.02, -52126.55, -77703.73, -60062.71, -77048.52, 0, 21:25:10.916
209, -41964.21, -38261.04, -187500.02, -187500.02, -51891.56, -77353.87, -60157.97, -77234.04, 0, 21:25:10.916
210, -41988.13, -38285.65, -187500.02, -187500.02, -51743.84, -77288.02, -60112.27, -77195.30, 0, 21:25:10.916
211, -42358.95, -38652.22, -187500.02, -187500.02, -51946.68, -77604.83, -60001.38, -76999.73, 0, 21:25:10.916
212, -42385.50, -38678.33, -187500.02, -187500.02, -52118.72, -77711.52, -60053.86, -77028.83, 0, 21:25:10.916
213, -42015.67, -38309.35, -187500.02, -187500.02, -51918.50, -77395.46, -60149.04, -77215.44, 0, 21:25:10.917
214, -41951.03, -38250.02, -187500.02, -187500.02, -51748.54, -77253.98, -60135.94, -77228.43, 0, 21:25:10.917
215, -42317.39, -38619.84, -187500.02, -187500.02, -51910.79, -77533.86, -60019.68, -77021.23, 0, 21:25:10.917
216, -42394.80, -38693.66, -187500.02, -187500.02, -52105.94, -77685.20, -60041.93, -76987.02, 0, 21:25:10.917
217, -42034.00, -38331.27, -187500.02, -187500.02, -51932.58, -77398.01, -60126.68, -77149.13, 0, 21:25:10.917
218, -41889.52, -38182.10, -187500.02, -187500.02, -51734.38, -77202.21, -60136.00, -77199.01, 0, 21:25:10.917
219, -42197.19, -38491.00, -187500.02, -187500.02, -51830.59, -77418.66, -60009.71, -77003.68, 0, 21:25:10.917
220, -42422.29, -38716.33, -187500.02, -187500.02, -52085.35, -77675.64, -60001.11, -76928.29, 0, 21:25:10.917
221, -42179.33, -38475.15, -187500.02, -187500.02, -52029.43, -77522.75, -60097.40, -77094.67, 0, 21:25:10.917
222, -41928.54, -38223.16, -187500.02, -187500.02, -51804.43, -77258.89, -60147.07, -77214.23, 0, 21:25:10.918
223, -42180.11, -38476.49, -187500.02, -187500.02, -51832.40, -77407.02, -60041.52, -77059.20, 0, 21:25:10.918
224, -42496.45, -38791.92, -187500.02, -187500.02, -52114.43, -77736.55, -60006.25, -76938.93, 0, 21:25:10.918
225, -42239.86, -38535.99, -187500.02, -187500.02, -52085.96, -77588.40, -60098.79, -77077.17, 0, 21:25:10.918
226, -41932.25, -38230.18, -187500.02, -187500.02, -51829.54, -77278.94, -60160.52, -77219.84, 0, 21:25:10.918
227, -42098.41, -38400.59, -187500.02, -187500.02, -51793.68, -77349.30, -60073.86, -77102.20, 0, 21:25:10.918
228, -42460.73, -38764.05, -187500.02, -187500.02, -52065.57, -77696.92, -60009.43, -76943.46, 0, 21:25:10.918
229, -42350.88, -38652.33, -187500.02, -187500.02, -52144.32, -77691.80, -60092.95, -77043.63, 0, 21:25:10.918
230, -41958.67, -38258.56, -187500.02, -187500.02, -51875.29, -77331.84, -60173.71, -77217.05, 0, 21:25:10.918
231, -42050.49, -38353.07, -187500.02, -187500.02, -51774.17, -77328.18, -60110.43, -77148.27, 0, 21:25:10.918
232, -42363.50, -38666.66, -187500.02, -187500.02, -51978.67, -77611.27, -60012.89, -76966.73, 0, 21:25:10.919
233, -42353.47, -38657.56, -187500.02, -187500.02, -52098.65, -77676.60, -60063.18, -77006.25, 0, 21:25:10.919
234, -42010.01, -38314.42, -187500.02, -187500.02, -51897.78, -77381.60, -60149.39, -77183.25, 0, 21:25:10.919
235, -42000.80, -38303.60, -187500.02, -187500.02, -51755.17, -77289.42, -60118.61, -77168.19, 0, 21:25:10.919
236, -42368.25, -38668.16, -187500.02, -187500.02, -51949.21, -77592.88, -60003.34, -76968.77, 0, 21:25:10.919
237, -42444.71, -38742.30, -187500.02, -187500.02, -52142.95, -77740.80, -60041.45, -76974.42, 0, 21:25:10.919
238, -42066.05, -38360.20, -187500.02, -187500.02, -51960.52, -77436.79, -60139.71, -77164.09, 0, 21:25:10.919
239, -41951.07, -38248.73, -187500.02, -187500.02, -51760.27, -77260.01, -60137.25, -77196.58, 0, 21:25:10.919
240, -42287.11, -38587.78, -187500.02, -187500.02, -51892.59, -77514.64, -60013.20, -76997.09, 0, 21:25:10.920
241, -42454.19, -38754.37, -187500.02, -187500.02, -52126.93, -77735.66, -60022.75, -76950.35, 0, 21:25:10.920
242, -42144.41, -38448.73, -187500.02, -187500.02, -52014.54, -77511.09, -60121.30, -77128.63, 0, 21:25:10.920
243, -41944.77, -38246.61, -187500.02, -187500.02, -51796.46, -77270.72, -60157.30, -77216.13, 0, 21:25:10.920
244, -42236.41, -38536.39, -187500.02, -187500.02, -51847.91, -77458.34, -60040.61, -77038.57, 0, 21:25:10.920
245, -42520.95, -38822.68, -187500.02, -187500.02, -52127.17, -77782.73, -60014.68, -76942.93, 0, 21:25:10.920
246, -42217.06, -38521.35, -187500.02, -187500.02, -52051.38, -77573.13, -60109.56, -77097.80, 0, 21:25:10.920
247, -41963.68, -38263.93, -187500.02, -187500.02, -51821.31, -77295.28, -60165.39, -77218.70, 0, 21:25:10.920
248, -42140.39, -38439.68, -187500.02, -187500.02, -51805.35, -77385.58, -60064.77, -77075.49, 0, 21:25:10.921
249, -42447.55, -38747.13, -187500.02, -187500.02, -52056.18, -77694.13, -60004.42, -76928.91, 0, 21:25:10.921
250, -42277.99, -38577.75, -187500.02, -187500.02, -52082.38, -77627.00, -60086.94, -77047.84, 0, 21:25:10.921
251, -41926.93, -38230.13, -187500.02, -187500.02, -51822.79, -77286.95, -60157.62, -77207.23, 0, 21:25:10.921
252, -42121.82, -38422.49, -187500.02, -187500.02, -51793.10, -77371.34, -60082.45, -77109.42, 0, 21:25:10.921
253, -42472.45, -38768.18, -187500.02, -187500.02, -52066.64, -77714.48, -60009.54, -76950.95, 0, 21:25:10.921
254, -42287.96, -38585.61, -187500.02, -187500.02, -52090.05, -77631.38, -60072.41, -77030.45, 0, 21:25:10.922
255, -41958.18, -38257.29, -187500.02, -187500.02, -51838.52, -77310.91, -60138.95, -77184.30, 0, 21:25:10.922
0, -42017.19, -38318.36, -187500.02, -187500.02, -51744.33, -77290.36, -60089.62, -77131.30, 0, 21:25:10.922
1, -42368.63, -38667.24, -187500.02, -187500.02, -51957.12, -77599.87, -59988.30, -76936.94, 0, 21:25:10.922
2, -42394.62, -38692.10, -187500.02, -187500.02, -52118.01, -77700.25, -60039.31, -76965.03, 0, 21:25:10.922
3, -42014.71, -38312.77, -187500.02, -187500.02, -51913.87, -77387.75, -60136.94, -77150.66, 0, 21:25:10.922
4, -41971.30, -38269.63, -187500.02, -187500.02, -51741.02, -77270.78, -60120.54, -77155.42, 0, 21:25:10.923
5, -42310.55, -38610.60, -187500.02, -187500.02, -51894.56, -77547.05, -59998.47, -76953.95, 0, 21:25:10.923
6, -42449.47, -38753.86, -187500.02, -187500.02, -52119.62, -77749.89, -60020.15, -76929.77, 0, 21:25:10.923
7, -42059.79, -38355.23, -187500.02, -187500.02, -51955.49, -77441.23, -60118.19, -77110.45, 0, 21:25:10.923
8, -41912.36, -38209.03, -187500.02, -187500.02, -51735.73, -77240.97, -60125.95, -77160.97, 0, 21:25:10.923
9, -42208.16, -38512.93, -187500.02, -187500.02, -51821.60, -77463.37, -59999.55, -76971.23, 0, 21:25:10.923
10, -42454.07, -38756.85, -187500.02, -187500.02, -52082.42, -77742.18, -59989.38, -76900.37, 0, 21:25:10.923
11, -42160.57, -38464.11, -187500.02, -187500.02, -52006.74, -77543.98, -60092.64, -77069.93, 0, 21:25:10.924
12, -41959.07, -38263.70, -187500.02, -187500.02, -51792.72, -77303.28, -60141.97, -77178.80, 0, 21:25:10.924
13, -42200.61, -38504.16, -187500.02, -187500.02, -51837.74, -77456.08, -60041.93, -77028.00, 0, 21:25:10.924
14, -42461.36, -38763.11, -187500.02, -187500.02, -52078.54, -77727.56, -60005.36, -76911.77, 0, 21:25:10.924
15, -42245.29, -38549.94, -187500.02, -187500.02, -52074.42, -77620.84, -60098.50, -77049.55, 0, 21:25:10.924
16, -41942.06, -38245.51, -187500.02, -187500.02, -51817.46, -77315.40, -60158.67, -77189.87, 0, 21:25:10.924
17, -42130.60, -38435.59, -187500.02, -187500.02, -51798.42, -77407.30, -60070.00, -77068.90, 0, 21:25:10.925
18, -42402.69, -38706.78, -187500.02, -187500.02, -52024.60, -77672.35, -60000.21, -76912.84, 0, 21:25:10.925
19, -42301.90, -38603.45, -187500.02, -187500.02, -52082.07, -77665.05, -60071.96, -77005.47, 0, 21:25:10.925
20, -41949.86, -38244.50, -187500.02, -187500.02, -51841.07, -77341.77, -60148.41, -77176.03, 0, 21:25:10.925
21, -42058.18, -38358.72, -187500.02, -187500.02, -51761.70, -77352.61, -60082.11, -77096.80, 0, 21:25:10.925
22, -42423.52, -38727.08, -187500.02, -187500.02, -52002.81, -77685.52, -59993.78, -76912.44, 0, 21:25:10.925
23, -42384.88, -38689.01, -187500.02, -187500.02, -52127.55, -77741.17, -60061.23, -76973.51, 0, 21:25:10.926
24, -41954.83, -38266.48, -187500.02, -187500.02, -51872.27, -77379.37, -60149.39, -77156.30, 0, 21:25:10.926
25, -41994.21, -38303.38, -187500.02, -187500.02, -51731.88, -77324.38, -60109.94, -77120.73, 0, 21:25:10.926
26, -42386.10, -38689.46, -187500.02, -187500.02, -51954.21, -77656.80, -60006.61, -76929.60, 0, 21:25:10.926
27, -42438.96, -38740.96, -187500.02, -187500.02, -52135.09, -77789.86, -60051.96, -76946.44, 0, 21:25:10.926
28, -42079.88, -38378.88, -187500.02, -187500.02, -51945.61, -77497.97, -60140.61, -77128.96, 0, 21:25:10.927
29, -41978.18, -38278.86, -187500.02, -187500.02, -51760.74, -77342.46, -60138.66, -77156.63, 0, 21:25:10.927
30, -42294.39, -38597.93, -187500.02, -187500.02, -51874.87, -77591.89, -60014.81, -76957.21, 0, 21:25:10.927
31, -42449.70, -38755.09, -187500.02, -187500.02, -52100.93, -77810.60, -60023.89, -76911.61, 0, 21:25:10.927
32, -42084.73, -38389.70, -187500.02, -187500.02, -51938.50, -77534.65, -60114.93, -77086.00, 0, 21:25:10.927
33, -41942.24, -38246.94, -187500.02, -187500.02, -51736.48, -77350.47, -60139.64, -77156.79, 0, 21:25:10.927
34, -42244.89, -38550.93, -187500.02, -187500.02, -51838.86, -77582.41, -60030.61, -76982.65, 0, 21:25:10.928
35, -42458.01, -38761.77, -187500.02, -187500.02, -52087.70, -77832.68, -60010.72, -76896.95, 0, 21:25:10.928
36, -42181.85, -38479.78, -187500.02, -187500.02, -52019.70, -77653.63, -60102.03, -77050.91, 0, 21:25:10.928
37, -41946.29, -38242.85, -187500.02, -187500.02, -51788.81, -77394.19, -60150.91, -77167.92, 0, 21:25:10.928
38, -42183.53, -38479.29, -187500.02, -187500.02, -51815.79, -77539.02, -60050.71, -77025.59, 0, 21:25:10.928
39, -42501.59, -38797.31, -187500.02, -187500.02, -52080.66, -77857.45, -60001.58, -76894.49, 0, 21:25:10.928
40, -42299.69, -38598.69, -187500.02, -187500.02, -52090.18, -77755.99, -60091.01, -77023.41, 0, 21:25:10.929
41, -41994.39, -38289.23, -187500.02, -187500.02, -51857.07, -77449.26, -60168.35, -77184.52, 0, 21:25:10.929
42, -42113.01, -38409.41, -187500.02, -187500.02, -51792.72, -77472.20, -60091.59, -77084.73, 0, 21:25:10.929
43, -42426.83, -38722.72, -187500.02, -187500.02, -52018.05, -77770.52, -60005.80, -76917.60, 0, 21:25:10.929
44, -42335.84, -38629.78, -187500.02, -187500.02, -52103.28, -77780.24, -60073.91, -77004.59, 0, 21:25:10.929
45, -41990.01, -38284.78, -187500.02, -187500.02, -51878.33, -77468.71, -60157.80, -77181.78, 0, 21:25:10.929
46, -42055.41, -38354.36, -187500.02, -187500.02, -51777.25, -77439.56, -60107.28, -77126.79, 0, 21:25:10.929
47, -42416.68, -38720.33, -187500.02, -187500.02, -52002.41, -77756.98, -60007.21, -76937.34, 0, 21:25:10.930
48, -42390.28, -38687.67, -187500.02, -187500.02, -52123.08, -77799.76, -60060.77, -76975.29, 0, 21:25:10.930
49, -42060.59, -38353.85, -187500.02, -187500.02, -51929.16, -77508.96, -60153.26, -77153.66, 0, 21:25:10.930
50, -42003.51, -38298.55, -187500.02, -187500.02, -51767.62, -77391.17, -60135.98, -77155.78, 0, 21:25:10.930
51, -42381.57, -38681.28, -187500.02, -187500.02, -51945.09, -77696.16, -60019.50, -76959.36, 0, 21:25:10.930
52, -42486.57, -38783.98, -187500.02, -187500.02, -52171.47, -77874.26, -60058.64, -76958.93, 0, 21:25:10.930
53, -42110.33, -38407.89, -187500.02, -187500.02, -52002.20, -77585.88, -60159.58, -77149.77, 0, 21:25:10.931
54, -41946.67, -38236.73, -187500.02, -187500.02, -51769.97, -77354.52, -60161.39, -77200.51, 0, 21:25:10.931
55, -42276.63, -38565.56, -187500.02, -187500.02, -51884.25, -77589.30, -60037.14, -77007.81, 0, 21:25:10.931
56, -42442.61, -38732.35, -187500.02, -187500.02, -52100.62, -77804.84, -60033.50, -76946.70, 0, 21:25:10.931
57, -42182.41, -38476.45, -187500.02, -187500.02, -52019.86, -77641.76, -60130.55, -77117.70, 0, 21:25:10.931
58, -41951.00, -38241.73, -187500.02, -187500.02, -51796.90, -77385.72, -60172.14, -77218.37, 0, 21:25:11.393
