%OpenBCI Raw EEG Data
%
%Sample Rate = 250.0 Hz
%First Column = SampleIndex
%5 Columns before Timestamp are Frequency Power factors DELTA THETA ALPHA BETA GAMMA
%Last Column = Timestamp 
%Other Columns = EEG data in microvolts followed by Accel Data (in G) interleaved with Aux Data
0.000000, 0.000000, 0.000000, 0.000000, 0.000000, 0.000000, 0.000000, 0.000000, 0, 1, 1, 0, 1,0.0,0.0,0.0,0.0,0.0, 10:21:31.068
8071.460449, 8528.665039, 8192.562500, 8129.038574, 156611.531250, 187427.625000, 128503.437500, 187500.015625, 0, 1, 1, 0, 1,0.0,0.0,0.0,0.0,0.0, 10:21:31.543
8103.781250, 8568.407227, 8217.014648, 8162.789551, 156655.375000, 187462.625000, 128536.968750, 187500.015625, 0, 1, 1, 0, 1,0.0,0.0,0.0,0.0,0.0, 10:21:31.544
8068.599609, 8525.669922, 8187.913086, 8127.809082, 156605.375000, 187421.890625, 128498.898438, 187500.015625, 0, 1, 1, 0, 1,0.0,0.0,0.0,0.0,0.0, 10:21:31.544
8018.844727, 8466.125000, 8150.339844, 8083.217285, 156540.546875, 187369.281250, 128448.453125, 187500.015625, 0, 1, 1, 0, 1,0.0,0.0,0.0,0.0,0.0, 10:21:31.544
8054.338867, 8509.062500, 8180.760742, 8116.119141, 156592.218750, 187410.109375, 128487.234375, 187500.015625, 0, 1, 1, 0, 1,0.0,0.0,0.0,0.0,0.0, 10:21:31.544
8099.355469, 8563.712891, 8217.014648, 8161.962891, 156653.562500, 187459.609375, 128534.796875, 187500.015625, 0, 1, 1, 0, 1,0.0,0.0,0.0,0.0,0.0, 10:21:31.544
8075.394531, 8534.901367, 8197.144531, 8138.583008, 156619.187500, 187431.843750, 128509.140625, 187500.015625, 0, 1, 1, 0, 1,0.0,0.0,0.0,0.0,0.0, 10:21:31.544
8020.386719, 8468.874023, 8155.011230, 8088.112793, 156546.062500, 187372.796875, 128452.835938, 187500.015625, 0, 1, 1, 0, 1,0.0,0.0,0.0,0.0,0.0, 10:21:31.544
8039.966797, 8492.835938, 8172.624512, 8106.418457, 156576.515625, 187396.343750, 128474.984375, 187500.015625, 0, 1, 1, 0, 1,0.0,0.0,0.0,0.0,0.0, 10:21:31.544
8090.548828, 8554.436523, 8212.410156, 8156.151367, 156646.421875, 187451.937500, 128528.289063, 187500.015625, 0, 1, 1, 0, 1,0.0,0.0,0.0,0.0,0.0, 10:21:31.545
8078.412109, 8540.109375, 8201.502930, 8145.020020, 156628.140625, 187437.234375, 128515.039063, 187500.015625, 0, 1, 1, 0, 1,0.0,0.0,0.0,0.0,0.0, 10:21:31.545
8020.878418, 8470.864258, 8156.531250, 8091.018066, 156550.546875, 187374.531250, 128455.718750, 187500.015625, 0, 1, 1, 0, 1,0.0,0.0,0.0,0.0,0.0, 10:21:31.545
8024.365234, 8475.267578, 8161.426270, 8094.773438, 156558.937500, 187380.640625, 128461.437500, 187500.015625, 0, 1, 1, 0, 1,0.0,0.0,0.0,0.0,0.0, 10:21:31.545
8079.574219, 8542.367188, 8204.967773, 8147.590332, 156635.562500, 187441.640625, 128520.000000, 187500.015625, 0, 1, 1, 0, 1,0.0,0.0,0.0,0.0,0.0, 10:21:31.545
8082.189453, 8545.317383, 8205.906250, 8151.278809, 156636.703125, 187442.890625, 128522.187500, 187500.015625, 0, 1, 1, 0, 1,0.0,0.0,0.0,0.0,0.0, 10:21:31.545
8026.443848, 8477.994141, 8161.314453, 8097.343750, 156560.359375, 187380.921875, 128463.828125, 187500.015625, 0, 1, 1, 0, 1,0.0,0.0,0.0,0.0,0.0, 10:21:31.545
8014.418945, 8463.398438, 8153.960938, 8087.128906, 156546.968750, 187369.687500, 128453.210938, 187500.015625, 0, 1, 1, 0, 1,0.0,0.0,0.0,0.0,0.0, 10:21:31.545
8071.304199, 8531.951172, 8199.222656, 8139.968750, 156625.312500, 187432.062500, 128513.023438, 187500.015625, 0, 1, 1, 0, 1,0.0,0.0,0.0,0.0,0.0, 10:21:31.545
8082.926758, 8546.658203, 8206.688477, 8153.066895, 156640.062500, 187443.640625, 128524.625000, 187500.015625, 0, 1, 1, 0, 1,0.0,0.0,0.0,0.0,0.0, 10:21:31.545
8034.937988, 8487.962891, 8167.617676, 8105.345703, 156572.265625, 187388.906250, 128473.281250, 187500.015625, 0, 1, 1, 0, 1,0.0,0.0,0.0,0.0,0.0, 10:21:31.546
8007.958984, 8455.061523, 8148.104492, 8081.474121, 156537.515625, 187360.828125, 128446.281250, 187500.015625, 0, 1, 1, 0, 1,0.0,0.0,0.0,0.0,0.0, 10:21:31.546
8060.910645, 8518.808594, 8190.371582, 8129.910156, 156610.859375, 187419.078125, 128501.648438, 187500.015625, 0, 1, 1, 0, 1,0.0,0.0,0.0,0.0,0.0, 10:21:31.546
8087.128906, 8550.749023, 8209.706055, 8157.335938, 156644.968750, 187446.500000, 128527.937500, 187500.015625, 0, 1, 1, 0, 1,0.0,0.0,0.0,0.0,0.0, 10:21:31.546
8045.107910, 8499.943359, 8174.501953, 8114.957031, 156585.593750, 187398.156250, 128481.890625, 187500.015625, 0, 1, 1, 0, 1,0.0,0.0,0.0,0.0,0.0, 10:21:31.546
8005.321777, 8451.619141, 8144.595215, 8079.306152, 156532.765625, 187355.906250, 128440.648438, 187500.015625, 0, 1, 1, 0, 1,0.0,0.0,0.0,0.0,0.0, 10:21:31.546
8049.242676, 8504.346680, 8180.268555, 8119.315430, 156594.437500, 187405.046875, 128486.406250, 187500.015625, 0, 1, 1, 0, 1,0.0,0.0,0.0,0.0,0.0, 10:21:31.546
8085.340820, 8548.737305, 8207.694336, 8156.553711, 156643.281250, 187444.515625, 128523.242188, 187500.015625, 0, 1, 1, 0, 1,0.0,0.0,0.0,0.0,0.0, 10:21:31.546
8055.412109, 8512.036133, 8182.437012, 8126.557617, 156599.250000, 187409.515625, 128489.781250, 187500.015625, 0, 1, 1, 0, 1,0.0,0.0,0.0,0.0,0.0, 10:21:31.546
8005.724121, 8451.664063, 8144.461426, 8081.474121, 156532.484375, 187356.296875, 128438.062500, 187500.015625, 0, 1, 1, 0, 1,0.0,0.0,0.0,0.0,0.0, 10:21:31.547
8035.451660, 8487.671875, 8169.293945, 8108.497559, 156575.796875, 187390.578125, 128469.531250, 187500.015625, 0, 1, 1, 0, 1,0.0,0.0,0.0,0.0,0.0, 10:21:31.547
8080.736328, 8542.925781, 8204.073242, 8153.558594, 156637.734375, 187440.359375, 128516.515625, 187500.015625, 0, 1, 1, 0, 1,0.0,0.0,0.0,0.0,0.0, 10:21:31.547
8061.357422, 8519.210938, 8186.974121, 8134.291016, 156608.500000, 187416.937500, 128494.695313, 187500.015625, 0, 1, 1, 0, 1,0.0,0.0,0.0,0.0,0.0, 10:21:31.547
8005.187500, 8451.350586, 8142.896484, 8081.541016, 156532.687500, 187355.593750, 128436.273438, 187500.015625, 0, 1, 1, 0, 1,0.0,0.0,0.0,0.0,0.0, 10:21:31.547
8022.398438, 8471.355469, 8158.654785, 8097.120117, 156558.140625, 187375.578125, 128455.132813, 187500.015625, 0, 1, 1, 0, 1,0.0,0.0,0.0,0.0,0.0, 10:21:31.547
8076.601563, 8537.025391, 8201.391602, 8149.356445, 156632.140625, 187434.812500, 128511.867188, 187500.015625, 0, 1, 1, 0, 1,0.0,0.0,0.0,0.0,0.0, 10:21:31.547
8069.448730, 8528.375000, 8193.970703, 8142.449707, 156619.734375, 187424.828125, 128503.460938, 187500.015625, 0, 1, 1, 0, 1,0.0,0.0,0.0,0.0,0.0, 10:21:31.548
8014.083496, 8461.095703, 8150.161133, 8089.409180, 156543.437500, 187363.375000, 128445.882813, 187500.015625, 0, 1, 1, 0, 1,0.0,0.0,0.0,0.0,0.0, 10:21:31.548
8011.334473, 8457.810547, 8149.490234, 8087.218262, 156542.921875, 187362.156250, 128444.945313, 187500.015625, 0, 1, 1, 0, 1,0.0,0.0,0.0,0.0,0.0, 10:21:31.548
8067.548828, 8525.983398, 8193.657227, 8140.303711, 156620.328125, 187423.781250, 128504.398438, 187500.015625, 0, 1, 1, 0, 1,0.0,0.0,0.0,0.0,0.0, 10:21:31.549
8074.612305, 8534.387695, 8197.971680, 8148.663574, 156627.078125, 187429.562500, 128511.375000, 187500.015625, 0, 1, 1, 0, 1,0.0,0.0,0.0,0.0,0.0, 10:21:31.549
8023.180664, 8471.668945, 8156.665527, 8098.394531, 156554.703125, 187371.265625, 128457.460938, 187500.015625, 0, 1, 1, 0, 1,0.0,0.0,0.0,0.0,0.0, 10:21:31.549
8004.830078, 8449.674805, 8143.880371, 8082.166992, 156532.500000, 187352.875000, 128440.476563, 187500.015625, 0, 1, 1, 0, 1,0.0,0.0,0.0,0.0,0.0, 10:21:31.549
8059.882324, 8516.416992, 8187.711914, 8133.017090, 156608.828125, 187413.578125, 128499.390625, 187500.015625, 0, 1, 1, 0, 1,0.0,0.0,0.0,0.0,0.0, 10:21:31.550
8077.182617, 8537.918945, 8199.848633, 8151.501953, 156630.828125, 187431.265625, 128517.789063, 187500.015625, 0, 1, 1, 0, 1,0.0,0.0,0.0,0.0,0.0, 10:21:31.550
8027.449707, 8478.262695, 8158.476074, 8101.836426, 156561.781250, 187374.984375, 128465.640625, 187500.015625, 0, 1, 1, 0, 1,0.0,0.0,0.0,0.0,0.0, 10:21:31.550
7996.872559, 8440.845703, 8136.347656, 8074.746094, 156521.578125, 187342.890625, 128435.664063, 187500.015625, 0, 1, 1, 0, 1,0.0,0.0,0.0,0.0,0.0, 10:21:31.550
8046.940430, 8501.261719, 8176.759766, 8120.209473, 156591.437500, 187398.375000, 128489.312500, 187500.015625, 0, 1, 1, 0, 1,0.0,0.0,0.0,0.0,0.0, 10:21:31.550
8074.947266, 8535.884766, 8197.390625, 8149.244629, 156629.000000, 187428.281250, 128519.062500, 187500.015625, 0, 1, 1, 0, 1,0.0,0.0,0.0,0.0,0.0, 10:21:31.550
8037.172852, 8489.929688, 8165.896484, 8111.246582, 156574.562500, 187384.406250, 128478.648438, 187500.015625, 0, 1, 1, 0, 1,0.0,0.0,0.0,0.0,0.0, 10:21:31.551
7992.223633, 8435.660156, 8131.676270, 8070.611328, 156514.859375, 187336.296875, 128433.250000, 187500.015625, 0, 1, 1, 0, 1,0.0,0.0,0.0,0.0,0.0, 10:21:31.551
8029.931152, 8481.615234, 8162.454590, 8104.563477, 156568.953125, 187378.718750, 128474.000000, 187500.015625, 0, 1, 1, 0, 1,0.0,0.0,0.0,0.0,0.0, 10:21:31.551
8070.633301, 8531.079102, 8193.903320, 8145.623535, 156623.406250, 187422.703125, 128516.578125, 187500.015625, 0, 1, 1, 0, 1,0.0,0.0,0.0,0.0,0.0, 10:21:31.558
8042.537109, 8497.038086, 8169.584473, 8117.236816, 156582.218750, 187389.437500, 128485.960938, 187500.015625, 0, 1, 1, 0, 1,0.0,0.0,0.0,0.0,0.0, 10:21:31.558
7989.809570, 8433.268555, 8128.546875, 8068.666504, 156510.984375, 187332.328125, 128431.554688, 187500.015625, 0, 1, 1, 0, 1,0.0,0.0,0.0,0.0,0.0, 10:21:31.558
8017.167969, 8465.700195, 8151.703125, 8093.141602, 156549.718750, 187363.250000, 128460.726563, 187500.015625, 0, 1, 1, 0, 1,0.0,0.0,0.0,0.0,0.0, 10:21:31.558
8067.683105, 8526.720703, 8191.064453, 8142.561523, 156617.265625, 187417.890625, 128512.960938, 187500.015625, 0, 1, 1, 0, 1,0.0,0.0,0.0,0.0,0.0, 10:21:31.558
8053.802734, 8509.554688, 8178.167969, 8128.904297, 156594.390625, 187399.859375, 128496.398438, 187500.015625, 0, 1, 1, 0, 1,0.0,0.0,0.0,0.0,0.0, 10:21:31.559
7999.890137, 8443.795898, 8135.789063, 8078.367188, 156519.343750, 187340.218750, 128439.351563, 187500.015625, 0, 1, 1, 0, 1,0.0,0.0,0.0,0.0,0.0, 10:21:31.559
8010.887207, 8456.648438, 8146.092773, 8088.559570, 156535.859375, 187353.484375, 128451.132813, 187500.015625, 0, 1, 1, 0, 1,0.0,0.0,0.0,0.0,0.0, 10:21:31.559
8063.704590, 8520.909180, 8186.639160, 8138.940430, 156608.156250, 187411.078125, 128505.539063, 187500.015625, 0, 1, 1, 0, 1,0.0,0.0,0.0,0.0,0.0, 10:21:31.559
8059.502441, 8515.902344, 8180.715820, 8135.274902, 156599.328125, 187404.218750, 128499.031250, 187500.015625, 0, 1, 1, 0, 1,0.0,0.0,0.0,0.0,0.0, 10:21:31.559
8005.388672, 8449.897461, 8137.018066, 8083.038574, 156522.937500, 187343.281250, 128440.804688, 187500.015625, 0, 1, 1, 0, 1,0.0,0.0,0.0,0.0,0.0, 10:21:31.559
7999.041016, 8441.851563, 8133.330078, 8077.450684, 156515.828125, 187337.406250, 128434.328125, 187500.015625, 0, 1, 1, 0, 1,0.0,0.0,0.0,0.0,0.0, 10:21:31.559
8057.557617, 8511.991211, 8179.106445, 8131.519531, 156594.843750, 187400.687500, 128494.273438, 187500.015625, 0, 1, 1, 0, 1,0.0,0.0,0.0,0.0,0.0, 10:21:31.560
8068.398438, 8524.977539, 8185.700195, 8143.008301, 156606.421875, 187410.187500, 128503.726563, 187500.015625, 0, 1, 1, 0, 1,0.0,0.0,0.0,0.0,0.0, 10:21:31.560
8019.291504, 8464.985352, 8145.757813, 8094.169922, 156536.343750, 187353.765625, 128450.601563, 187500.015625, 0, 1, 1, 0, 1,0.0,0.0,0.0,0.0,0.0, 10:21:31.560
7995.934082, 8436.867188, 8128.703125, 8073.069824, 156506.625000, 187329.453125, 128426.929688, 187500.015625, 0, 1, 1, 0, 1,0.0,0.0,0.0,0.0,0.0, 10:21:31.561
8049.734375, 8501.798828, 8171.238770, 8121.886230, 156580.671875, 187388.218750, 128482.648438, 187500.015625, 0, 1, 1, 0, 1,0.0,0.0,0.0,0.0,0.0, 10:21:31.561
8070.678223, 8527.771484, 8185.968262, 8143.768555, 156607.421875, 187409.890625, 128503.171875, 187500.015625, 0, 1, 1, 0, 1,0.0,0.0,0.0,0.0,0.0, 10:21:31.561
8025.192383, 8472.853516, 8147.836426, 8097.857910, 156543.125000, 187357.718750, 128453.679688, 187500.015625, 0, 1, 1, 0, 1,0.0,0.0,0.0,0.0,0.0, 10:21:31.561
7991.172852, 8431.033203, 8123.115234, 8067.526367, 156497.343750, 187321.625000, 128418.726563, 187500.015625, 0, 1, 1, 0, 1,0.0,0.0,0.0,0.0,0.0, 10:21:31.561
8037.620117, 8487.158203, 8160.353516, 8109.234863, 156562.343750, 187373.078125, 128467.296875, 187500.015625, 0, 1, 1, 0, 1,0.0,0.0,0.0,0.0,0.0, 10:21:31.562
8070.991211, 8527.838867, 8185.364746, 8143.165039, 156606.421875, 187408.625000, 128501.156250, 187500.015625, 0, 1, 1, 0, 1,0.0,0.0,0.0,0.0,0.0, 10:21:31.562
8038.000000, 8487.493164, 8157.715820, 8109.369141, 156557.828125, 187369.734375, 128464.390625, 187500.015625, 0, 1, 1, 0, 1,0.0,0.0,0.0,0.0,0.0, 10:21:31.562
7990.770508, 8430.496094, 8121.640137, 8066.006836, 156494.531250, 187318.984375, 128415.195313, 187500.015625, 0, 1, 1, 0, 1,0.0,0.0,0.0,0.0,0.0, 10:21:31.562
8027.002930, 8473.880859, 8151.435059, 8098.014160, 156545.640625, 187359.640625, 128453.031250, 187500.015625, 0, 1, 1, 0, 1,0.0,0.0,0.0,0.0,0.0, 10:21:31.562
8070.477051, 8526.788086, 8184.694336, 8140.929688, 156604.093750, 187406.828125, 128497.625000, 187500.015625, 0, 1, 1, 0, 1,0.0,0.0,0.0,0.0,0.0, 10:21:31.562
8046.873535, 8498.110352, 8163.773438, 8116.834473, 156568.734375, 187378.515625, 128470.984375, 187500.015625, 0, 1, 1, 0, 1,0.0,0.0,0.0,0.0,0.0, 10:21:31.563
7994.592773, 8434.586914, 8123.271973, 8068.241699, 156497.031250, 187321.406250, 128416.195313, 187500.015625, 0, 1, 1, 0, 1,0.0,0.0,0.0,0.0,0.0, 10:21:31.563
8016.877441, 8461.275391, 8142.561523, 8088.022949, 156529.218750, 187346.906250, 128439.867188, 187500.015625, 0, 1, 1, 0, 1,0.0,0.0,0.0,0.0,0.0, 10:21:31.563
8067.884277, 8523.479492, 8182.235840, 8137.241699, 156598.796875, 187402.421875, 128492.507813, 187500.015625, 0, 1, 1, 0, 1,0.0,0.0,0.0,0.0,0.0, 10:21:31.563
8055.434082, 8508.616211, 8170.166016, 8124.791992, 156579.187500, 187386.406250, 128477.734375, 187500.015625, 0, 1, 1, 0, 1,0.0,0.0,0.0,0.0,0.0, 10:21:31.564
7998.370117, 8439.772461, 8124.836426, 8070.230957, 156501.203125, 187323.328125, 128417.671875, 187500.015625, 0, 1, 1, 0, 1,0.0,0.0,0.0,0.0,0.0, 10:21:31.564
8002.572266, 8444.869141, 8130.021973, 8073.807617, 156509.718750, 187329.703125, 128423.125000, 187500.015625, 0, 1, 1, 0, 1,0.0,0.0,0.0,0.0,0.0, 10:21:31.564
8060.642090, 8514.672852, 8176.088867, 8128.412598, 156588.531250, 187392.906250, 128483.476563, 187500.015625, 0, 1, 1, 0, 1,0.0,0.0,0.0,0.0,0.0, 10:21:31.564
8062.854980, 8517.244141, 8176.223145, 8131.251465, 156588.687500, 187393.281250, 128484.351563, 187500.015625, 0, 1, 1, 0, 1,0.0,0.0,0.0,0.0,0.0, 10:21:31.564
8008.853027, 8451.664063, 8132.726563, 8078.590820, 156513.640625, 187332.843750, 128427.109375, 187500.015625, 0, 1, 1, 0, 1,0.0,0.0,0.0,0.0,0.0, 10:21:31.564
7996.135254, 8436.286133, 8124.568359, 8067.392578, 156499.281250, 187320.906250, 128415.234375, 187500.015625, 0, 1, 1, 0, 1,0.0,0.0,0.0,0.0,0.0, 10:21:31.565
8054.205078, 8506.202148, 8170.948242, 8121.304688, 156579.078125, 187384.750000, 128476.078125, 187500.015625, 0, 1, 1, 0, 1,0.0,0.0,0.0,0.0,0.0, 10:21:31.565
8072.220703, 8527.301758, 8184.604980, 8140.437988, 156600.453125, 187402.859375, 128493.960938, 187500.015625, 0, 1, 1, 0, 1,0.0,0.0,0.0,0.0,0.0, 10:21:31.565
8023.359375, 8467.935547, 8144.774414, 8092.023926, 156531.890625, 187347.531250, 128441.906250, 187500.015625, 0, 1, 1, 0, 1,0.0,0.0,0.0,0.0,0.0, 10:21:31.565
7994.928223, 8433.648438, 8123.987305, 8066.610352, 156495.703125, 187318.203125, 128413.562500, 187500.015625, 0, 1, 1, 0, 1,0.0,0.0,0.0,0.0,0.0, 10:21:31.565
8045.554688, 8495.250000, 8164.242676, 8112.498535, 156567.281250, 187374.531250, 128467.179688, 187500.015625, 0, 1, 1, 0, 1,0.0,0.0,0.0,0.0,0.0, 10:21:31.565
8071.460449, 8527.011719, 8183.375488, 8139.566406, 156601.609375, 187402.203125, 128493.937500, 187500.015625, 0, 1, 1, 0, 1,0.0,0.0,0.0,0.0,0.0, 10:21:31.565
8033.015625, 8479.759766, 8151.613770, 8100.651855, 156545.890625, 187357.500000, 128452.187500, 187500.015625, 0, 1, 1, 0, 1,0.0,0.0,0.0,0.0,0.0, 10:21:31.566
7993.296387, 8431.591797, 8121.975586, 8064.978516, 156493.515625, 187315.453125, 128411.953125, 187500.015625, 0, 1, 1, 0, 1,0.0,0.0,0.0,0.0,0.0, 10:21:31.566
8039.564453, 8486.778320, 8160.107422, 8106.753906, 156557.984375, 187367.000000, 128460.859375, 187500.015625, 0, 1, 1, 0, 1,0.0,0.0,0.0,0.0,0.0, 10:21:31.566
8075.685059, 8531.101563, 8187.533203, 8143.500000, 156606.843750, 187406.203125, 128498.343750, 187500.015625, 0, 1, 1, 0, 1,0.0,0.0,0.0,0.0,0.0, 10:21:31.566
8045.107910, 8493.975586, 8161.604980, 8112.632324, 156562.187500, 187370.437500, 128464.945313, 187500.015625, 0, 1, 1, 0, 1,0.0,0.0,0.0,0.0,0.0, 10:21:31.566
7996.984375, 8435.458984, 8125.283691, 8068.957031, 156497.000000, 187318.609375, 128415.617188, 187500.015625, 0, 1, 1, 0, 1,0.0,0.0,0.0,0.0,0.0, 10:21:31.566
8024.924316, 8469.567383, 8148.216309, 8093.566406, 156538.453125, 187350.531250, 128445.906250, 187500.015625, 0, 1, 1, 0, 1,0.0,0.0,0.0,0.0,0.0, 10:21:31.566
8069.516113, 8524.284180, 8182.459473, 8137.733398, 156599.578125, 187399.250000, 128492.773438, 187500.015625, 0, 1, 1, 0, 1,0.0,0.0,0.0,0.0,0.0, 10:21:31.566
8048.281738, 8499.004883, 8163.773438, 8116.790039, 156568.421875, 187373.812500, 128469.687500, 187500.015625, 0, 1, 1, 0, 1,0.0,0.0,0.0,0.0,0.0, 10:21:31.567
7990.614258, 8429.781250, 8118.555664, 8063.212891, 156491.078125, 187311.093750, 128410.429688, 187500.015625, 0, 1, 1, 0, 1,0.0,0.0,0.0,0.0,0.0, 10:21:31.567
8008.182617, 8450.389648, 8134.715820, 8079.328125, 156516.937500, 187331.593750, 128430.390625, 187500.015625, 0, 1, 1, 0, 1,0.0,0.0,0.0,0.0,0.0, 10:21:31.567
8063.436035, 8516.998047, 8178.525391, 8132.749023, 156591.718750, 187391.812500, 128488.710938, 187500.015625, 0, 1, 1, 0, 1,0.0,0.0,0.0,0.0,0.0, 10:21:31.567
8053.936523, 8506.179688, 8169.025879, 8124.009277, 156577.078125, 187379.546875, 128478.359375, 187500.015625, 0, 1, 1, 0, 1,0.0,0.0,0.0,0.0,0.0, 10:21:31.567
7997.744629, 8438.163086, 8124.612793, 8070.432129, 156500.000000, 187317.156250, 128420.179688, 187500.015625, 0, 1, 1, 0, 1,0.0,0.0,0.0,0.0,0.0, 10:21:31.567
7997.386719, 8437.537109, 8126.736328, 8070.454590, 156502.125000, 187318.453125, 128421.968750, 187500.015625, 0, 1, 1, 0, 1,0.0,0.0,0.0,0.0,0.0, 10:21:31.567
8054.808594, 8506.872070, 8172.333984, 8124.344727, 156580.953125, 187381.375000, 128482.937500, 187500.015625, 0, 1, 1, 0, 1,0.0,0.0,0.0,0.0,0.0, 10:21:31.567
8063.123535, 8516.595703, 8178.056152, 8133.889160, 156589.359375, 187388.703125, 128491.617188, 187500.015625, 0, 1, 1, 0, 1,0.0,0.0,0.0,0.0,0.0, 10:21:31.567
8010.797852, 8453.161133, 8136.012207, 8082.636230, 156516.546875, 187329.937500, 128437.054688, 187500.015625, 0, 1, 1, 0, 1,0.0,0.0,0.0,0.0,0.0, 10:21:31.567
7993.676270, 8432.396484, 8124.322266, 8067.258301, 156495.796875, 187312.953125, 128421.406250, 187500.015625, 0, 1, 1, 0, 1,0.0,0.0,0.0,0.0,0.0, 10:21:31.568
8050.002930, 8500.278320, 8168.601074, 8118.309570, 156573.453125, 187374.375000, 128480.843750, 187500.015625, 0, 1, 1, 0, 1,0.0,0.0,0.0,0.0,0.0, 10:21:31.568
8069.113770, 8523.368164, 8181.654785, 8137.845215, 156597.078125, 187393.265625, 128500.265625, 187500.015625, 0, 1, 1, 0, 1,0.0,0.0,0.0,0.0,0.0, 10:21:31.568
8024.030273, 8468.204102, 8144.125977, 8091.867676, 156532.593750, 187341.031250, 128451.828125, 187500.015625, 0, 1, 1, 0, 1,0.0,0.0,0.0,0.0,0.0, 10:21:31.568
7992.760254, 8430.250977, 8120.880371, 8063.414063, 156491.750000, 187307.875000, 128420.531250, 187500.015625, 0, 1, 1, 0, 1,0.0,0.0,0.0,0.0,0.0, 10:21:31.568
8046.404297, 8494.154297, 8164.130859, 8111.671387, 156564.953125, 187366.328125, 128476.859375, 187500.015625, 0, 1, 1, 0, 1,0.0,0.0,0.0,0.0,0.0, 10:21:31.568
8077.316895, 8531.638672, 8187.085938, 8143.231934, 156605.171875, 187398.875000, 128508.804688, 187500.015625, 0, 1, 1, 0, 1,0.0,0.0,0.0,0.0,0.0, 10:21:31.568
8043.476074, 8489.549805, 8158.811035, 8108.430176, 156554.343750, 187358.265625, 128471.585938, 187500.015625, 0, 1, 1, 0, 1,0.0,0.0,0.0,0.0,0.0, 10:21:31.568
7998.772461, 8435.682617, 8124.054199, 8067.325195, 156494.687500, 187309.750000, 128425.789063, 187500.015625, 0, 1, 1, 0, 1,0.0,0.0,0.0,0.0,0.0, 10:21:32.024
8040.011719, 8485.057617, 8157.022949, 8103.378906, 156551.906250, 187354.781250, 128468.906250, 187500.015625, 0, 1, 1, 0, 1,0.0,0.0,0.0,0.0,0.0, 10:21:32.024
8084.156250, 8537.785156, 8190.260254, 8146.540039, 156609.140625, 187400.968750, 128513.406250, 187500.015625, 0, 1, 1, 0, 1,0.0,0.0,0.0,0.0,0.0, 10:21:32.024
8058.250488, 8505.643555, 8166.388184, 8118.935547, 156569.203125, 187368.250000, 128483.234375, 187500.015625, 0, 1, 1, 0, 1,0.0,0.0,0.0,0.0,0.0, 10:21:32.024
8005.992188, 8442.365234, 8124.367188, 8069.627441, 156497.796875, 187310.203125, 128427.914063, 187500.015625, 0, 1, 1, 0, 1,0.0,0.0,0.0,0.0,0.0, 10:21:32.024
8030.958984, 8472.451172, 8143.790527, 8090.526367, 156533.578125, 187337.656250, 128453.437500, 187500.015625, 0, 1, 1, 0, 1,0.0,0.0,0.0,0.0,0.0, 10:21:32.025
8082.971680, 8534.767578, 8183.442871, 8140.415527, 156602.281250, 187392.765625, 128506.257813, 187500.015625, 0, 1, 1, 0, 1,0.0,0.0,0.0,0.0,0.0, 10:21:32.025
8069.962891, 8518.383789, 8170.724609, 8126.959961, 156580.015625, 187374.984375, 128490.007813, 187500.015625, 0, 1, 1, 0, 1,0.0,0.0,0.0,0.0,0.0, 10:21:32.025
8016.810547, 8453.339844, 8128.546875, 8076.668457, 156505.703125, 187315.343750, 128433.367188, 187500.015625, 0, 1, 1, 0, 1,0.0,0.0,0.0,0.0,0.0, 10:21:32.025
8028.209961, 8466.706055, 8138.917969, 8086.749023, 156522.906250, 187328.515625, 128445.437500, 187500.015625, 0, 1, 1, 0, 1,0.0,0.0,0.0,0.0,0.0, 10:21:32.025
8083.038574, 8533.045898, 8181.229980, 8138.784180, 156597.187500, 187387.703125, 128501.562500, 187500.015625, 0, 1, 1, 0, 1,0.0,0.0,0.0,0.0,0.0, 10:21:32.025
8081.630371, 8531.079102, 8178.145508, 8138.068848, 156591.671875, 187383.515625, 128497.875000, 187500.015625, 0, 1, 1, 0, 1,0.0,0.0,0.0,0.0,0.0, 10:21:32.025
8027.896973, 8465.656250, 8135.073730, 8086.190430, 156516.312500, 187323.062500, 128440.296875, 187500.015625, 0, 1, 1, 0, 1,0.0,0.0,0.0,0.0,0.0, 10:21:32.025
8020.051270, 8456.268555, 8129.910156, 8079.060059, 156508.203125, 187315.812500, 128432.492188, 187500.015625, 0, 1, 1, 0, 1,0.0,0.0,0.0,0.0,0.0, 10:21:32.025
8077.964844, 8526.028320, 8175.395996, 8132.927734, 156587.203125, 187378.828125, 128492.085938, 187500.015625, 0, 1, 1, 0, 1,0.0,0.0,0.0,0.0,0.0, 10:21:32.026
8088.783203, 8539.103516, 8182.258301, 8144.908203, 156599.093750, 187388.562500, 128501.429688, 187500.015625, 0, 1, 1, 0, 1,0.0,0.0,0.0,0.0,0.0, 10:21:32.026
8038.089355, 8477.546875, 8140.974609, 8095.175781, 156527.546875, 187330.984375, 128446.617188, 187500.015625, 0, 1, 1, 0, 1,0.0,0.0,0.0,0.0,0.0, 10:21:32.026
8014.217773, 8449.048828, 8123.651855, 8074.098145, 156497.812500, 187306.609375, 128422.343750, 187500.015625, 0, 1, 1, 0, 1,0.0,0.0,0.0,0.0,0.0, 10:21:32.026
8069.068848, 8515.253906, 8167.416504, 8124.210449, 156573.421875, 187366.703125, 128479.140625, 187500.015625, 0, 1, 1, 0, 1,0.0,0.0,0.0,0.0,0.0, 10:21:32.027
8087.352539, 8538.589844, 8179.754883, 8144.081543, 156598.000000, 187385.828125, 128497.250000, 187500.015625, 0, 1, 1, 0, 1,0.0,0.0,0.0,0.0,0.0, 10:21:32.027
8045.666504, 8487.493164, 8145.690430, 8102.261230, 156537.515625, 187337.359375, 128451.539063, 187500.015625, 0, 1, 1, 0, 1,0.0,0.0,0.0,0.0,0.0, 10:21:32.027
8008.271973, 8442.297852, 8117.661621, 8068.733398, 156488.609375, 187297.750000, 128413.203125, 187500.015625, 0, 1, 1, 0, 1,0.0,0.0,0.0,0.0,0.0, 10:21:32.027
8054.964844, 8498.713867, 8155.301758, 8110.956055, 156554.046875, 187349.437500, 128462.085938, 187500.015625, 0, 1, 1, 0, 1,0.0,0.0,0.0,0.0,0.0, 10:21:32.027
8088.582031, 8539.863281, 8180.961914, 8145.735352, 156598.750000, 187385.468750, 128496.578125, 187500.015625, 0, 1, 1, 0, 1,0.0,0.0,0.0,0.0,0.0, 10:21:32.027
8053.869629, 8497.886719, 8151.926758, 8110.933594, 156548.734375, 187344.921875, 128458.734375, 187500.015625, 0, 1, 1, 0, 1,0.0,0.0,0.0,0.0,0.0, 10:21:32.028
8006.483887, 8440.710938, 8115.917969, 8068.107910, 156485.546875, 187293.984375, 128410.117188, 187500.015625, 0, 1, 1, 0, 1,0.0,0.0,0.0,0.0,0.0, 10:21:32.028
8041.531738, 8483.202148, 8144.975586, 8099.735352, 156535.906250, 187333.515625, 128447.398438, 187500.015625, 0, 1, 1, 0, 1,0.0,0.0,0.0,0.0,0.0, 10:21:32.028
8082.100098, 8533.470703, 8175.820801, 8140.594238, 156591.718750, 187377.890625, 128489.671875, 187500.015625, 0, 1, 1, 0, 1,0.0,0.0,0.0,0.0,0.0, 10:21:32.028
8062.072754, 8508.548828, 8158.967773, 8120.701172, 156560.156250, 187353.343750, 128466.851563, 187500.015625, 0, 1, 1, 0, 1,0.0,0.0,0.0,0.0,0.0, 10:21:32.028
8008.562500, 8443.750977, 8117.572266, 8071.684082, 156487.687500, 187295.281250, 128411.328125, 187500.015625, 0, 1, 1, 0, 1,0.0,0.0,0.0,0.0,0.0, 10:21:32.029
8028.544922, 8468.002930, 8134.894531, 8089.811523, 156517.796875, 187318.703125, 128433.250000, 187500.015625, 0, 1, 1, 0, 1,0.0,0.0,0.0,0.0,0.0, 10:21:32.029
8081.943359, 8532.420898, 8176.916016, 8142.024902, 156589.609375, 187376.765625, 128488.570313, 187500.015625, 0, 1, 1, 0, 1,0.0,0.0,0.0,0.0,0.0, 10:21:32.029
8069.158203, 8517.400391, 8164.689453, 8130.245605, 156569.828125, 187360.671875, 128473.710938, 187500.015625, 0, 1, 1, 0, 1,0.0,0.0,0.0,0.0,0.0, 10:21:32.029
8014.485840, 8450.903320, 8121.818848, 8079.015625, 156494.125000, 187300.265625, 128416.195313, 187500.015625, 0, 1, 1, 0, 1,0.0,0.0,0.0,0.0,0.0, 10:21:32.029
8018.866699, 8456.133789, 8127.228027, 8083.552734, 156502.656250, 187306.671875, 128421.875000, 187500.015625, 0, 1, 1, 0, 1,0.0,0.0,0.0,0.0,0.0, 10:21:32.030
8074.880371, 8524.060547, 8171.216309, 8136.884277, 156579.312500, 187367.828125, 128480.210938, 187500.015625, 0, 1, 1, 0, 1,0.0,0.0,0.0,0.0,0.0, 10:21:32.030
8074.791016, 8524.329102, 8169.137695, 8138.046387, 156577.046875, 187365.953125, 128478.757813, 187500.015625, 0, 1, 1, 0, 1,0.0,0.0,0.0,0.0,0.0, 10:21:32.030
8019.760742, 8457.855469, 8124.769531, 8085.005859, 156500.890625, 187304.453125, 128420.312500, 187500.015625, 0, 1, 1, 0, 1,0.0,0.0,0.0,0.0,0.0, 10:21:32.030
8006.841797, 8442.253906, 8116.141602, 8073.852051, 156485.984375, 187292.078125, 128407.796875, 187500.015625, 0, 1, 1, 0, 1,0.0,0.0,0.0,0.0,0.0, 10:21:32.030
8064.866699, 8512.169922, 8162.387207, 8127.920898, 156565.578125, 187355.750000, 128468.460938, 187500.015625, 0, 1, 1, 0, 1,0.0,0.0,0.0,0.0,0.0, 10:21:32.030
8079.328125, 8529.648438, 8172.356445, 8143.902344, 156583.015625, 187370.078125, 128482.492188, 187500.015625, 0, 1, 1, 0, 1,0.0,0.0,0.0,0.0,0.0, 10:21:32.030
8028.478027, 8468.226563, 8130.536133, 8093.946289, 156511.984375, 187312.546875, 128428.046875, 187500.015625, 0, 1, 1, 0, 1,0.0,0.0,0.0,0.0,0.0, 10:21:32.030
7999.666504, 8433.558594, 8109.257324, 8068.442871, 156475.343750, 187282.671875, 128399.078125, 187500.015625, 0, 1, 1, 0, 1,0.0,0.0,0.0,0.0,0.0, 10:21:32.030
8053.467285, 8498.177734, 8152.440918, 8117.527344, 156549.671875, 187341.750000, 128455.492188, 187500.015625, 0, 1, 1, 0, 1,0.0,0.0,0.0,0.0,0.0, 10:21:32.031
8081.071777, 8531.458984, 8173.161133, 8146.405762, 156585.156250, 187370.421875, 128483.765625, 187500.015625, 0, 1, 1, 0, 1,0.0,0.0,0.0,0.0,0.0, 10:21:32.031
8039.899902, 8481.525391, 8138.873535, 8105.077637, 156526.281250, 187322.562500, 128439.289063, 187500.015625, 0, 1, 1, 0, 1,0.0,0.0,0.0,0.0,0.0, 10:21:32.031
7999.510254, 8432.821289, 8108.452637, 8068.822754, 156472.953125, 187279.265625, 128398.164063, 187500.015625, 0, 1, 1, 0, 1,0.0,0.0,0.0,0.0,0.0, 10:21:32.031
8044.817383, 8486.957031, 8145.243652, 8109.458496, 156536.171875, 187329.203125, 128445.882813, 187500.015625, 0, 1, 1, 0, 1,0.0,0.0,0.0,0.0,0.0, 10:21:32.031
8080.312012, 8530.587891, 8171.954102, 8145.645996, 156584.484375, 187367.625000, 128482.875000, 187500.015625, 0, 1, 1, 0, 1,0.0,0.0,0.0,0.0,0.0, 10:21:32.031
8049.063965, 8492.701172, 8145.243652, 8114.040527, 156539.031250, 187330.546875, 128448.632813, 187500.015625, 0, 1, 1, 0, 1,0.0,0.0,0.0,0.0,0.0, 10:21:32.031
8001.052734, 8434.453125, 8108.720703, 8070.253418, 156473.921875, 187278.375000, 128399.210938, 187500.015625, 0, 1, 1, 0, 1,0.0,0.0,0.0,0.0,0.0, 10:21:32.031
8032.233398, 8471.914063, 8134.537109, 8098.059082, 156518.734375, 187313.562500, 128432.429688, 187500.015625, 0, 1, 1, 0, 1,0.0,0.0,0.0,0.0,0.0, 10:21:32.031
8075.394531, 8525.201172, 8167.059082, 8140.594238, 156578.531250, 187360.859375, 128477.531250, 187500.015625, 0, 1, 1, 0, 1,0.0,0.0,0.0,0.0,0.0, 10:21:32.031
8056.999023, 8502.849609, 8150.876465, 8122.399902, 156550.359375, 187338.375000, 128457.054688, 187500.015625, 0, 1, 1, 0, 1,0.0,0.0,0.0,0.0,0.0, 10:21:32.032
8002.661621, 8437.000977, 8108.720703, 8072.086426, 156476.421875, 187278.906250, 128401.023438, 187500.015625, 0, 1, 1, 0, 1,0.0,0.0,0.0,0.0,0.0, 10:21:32.032
8018.151367, 8455.753906, 8122.869629, 8086.190430, 156500.500000, 187297.484375, 128418.859375, 187500.015625, 0, 1, 1, 0, 1,0.0,0.0,0.0,0.0,0.0, 10:21:32.032
8073.024902, 8522.250000, 8166.544922, 8139.477051, 156575.234375, 187357.765625, 128476.726563, 187500.015625, 0, 1, 1, 0, 1,0.0,0.0,0.0,0.0,0.0, 10:21:32.032
8065.939453, 8513.711914, 8159.325195, 8133.195801, 156563.125000, 187348.156250, 128468.390625, 187500.015625, 0, 1, 1, 0, 1,0.0,0.0,0.0,0.0,0.0, 10:21:32.032
8009.993164, 8446.053711, 8115.158203, 8079.931641, 156486.328125, 187286.281250, 128410.117188, 187500.015625, 0, 1, 1, 0, 1,0.0,0.0,0.0,0.0,0.0, 10:21:32.032
8010.551758, 8446.298828, 8118.108398, 8080.915527, 156489.468750, 187288.656250, 128412.578125, 187500.015625, 0, 1, 1, 0, 1,0.0,0.0,0.0,0.0,0.0, 10:21:32.032
8069.023926, 8516.751953, 8165.069824, 8136.190918, 156569.531250, 187352.921875, 128474.359375, 187500.015625, 0, 1, 1, 0, 1,0.0,0.0,0.0,0.0,0.0, 10:21:32.032
8073.248535, 8522.585938, 8167.103516, 8142.091797, 156573.781250, 187356.390625, 128478.539063, 187500.015625, 0, 1, 1, 0, 1,0.0,0.0,0.0,0.0,0.0, 10:21:32.032
8022.018555, 8460.068359, 8126.535156, 8092.359375, 156501.859375, 187298.734375, 128424.359375, 187500.015625, 0, 1, 1, 0, 1,0.0,0.0,0.0,0.0,0.0, 10:21:32.032
8002.974609, 8437.492188, 8113.683105, 8075.819336, 156479.234375, 187280.156250, 128406.164063, 187500.015625, 0, 1, 1, 0, 1,0.0,0.0,0.0,0.0,0.0, 10:21:32.033
8058.295410, 8504.369141, 8157.805176, 8126.959961, 156555.968750, 187341.343750, 128464.414063, 187500.015625, 0, 1, 1, 0, 1,0.0,0.0,0.0,0.0,0.0, 10:21:32.033
8077.003906, 8527.235352, 8171.819824, 8147.747070, 156579.531250, 187361.078125, 128483.570313, 187500.015625, 0, 1, 1, 0, 1,0.0,0.0,0.0,0.0,0.0, 10:21:32.033
8029.796875, 8470.193359, 8133.285645, 8101.479004, 156513.093750, 187307.546875, 128432.937500, 187500.015625, 0, 1, 1, 0, 1,0.0,0.0,0.0,0.0,0.0, 10:21:32.033
7994.972656, 8428.686523, 8107.290527, 8070.856934, 156468.578125, 187271.328125, 128397.695313, 187500.015625, 0, 1, 1, 0, 1,0.0,0.0,0.0,0.0,0.0, 10:21:32.033
8042.805664, 8486.823242, 8145.556641, 8114.532227, 156536.171875, 187324.734375, 128447.781250, 187500.015625, 0, 1, 1, 0, 1,0.0,0.0,0.0,0.0,0.0, 10:21:32.033
8072.086426, 8522.764648, 8167.841309, 8145.847168, 156575.109375, 187356.609375, 128477.687500, 187500.015625, 0, 1, 1, 0, 1,0.0,0.0,0.0,0.0,0.0, 10:21:32.033
8035.764648, 8478.418945, 8137.957031, 8110.039551, 156522.062500, 187314.734375, 128437.679688, 187500.015625, 0, 1, 1, 0, 1,0.0,0.0,0.0,0.0,0.0, 10:21:32.033
7988.736816, 8422.249023, 8101.836426, 8067.973633, 156460.421875, 187265.125000, 128389.132813, 187500.015625, 0, 1, 1, 0, 1,0.0,0.0,0.0,0.0,0.0, 10:21:32.033
8026.443848, 8468.181641, 8132.391113, 8102.104980, 156514.375000, 187307.765625, 128428.562500, 187500.015625, 0, 1, 1, 0, 1,0.0,0.0,0.0,0.0,0.0, 10:21:32.034
8063.972656, 8514.471680, 8160.442871, 8140.371094, 156565.453125, 187348.781250, 128466.671875, 187500.015625, 0, 1, 1, 0, 1,0.0,0.0,0.0,0.0,0.0, 10:21:32.034
8039.609375, 8484.296875, 8139.700195, 8116.074707, 156527.781250, 187319.250000, 128438.546875, 187500.015625, 0, 1, 1, 0, 1,0.0,0.0,0.0,0.0,0.0, 10:21:32.034
7987.216797, 8421.064453, 8098.998047, 8068.219727, 156456.812500, 187262.500000, 128383.585938, 187500.015625, 0, 1, 1, 0, 1,0.0,0.0,0.0,0.0,0.0, 10:21:32.034
8012.496582, 8451.619141, 8120.187500, 8090.928711, 156493.703125, 187291.500000, 128410.140625, 187500.015625, 0, 1, 1, 0, 1,0.0,0.0,0.0,0.0,0.0, 10:21:32.035
8061.066895, 8510.583008, 8157.760742, 8138.739258, 156559.531250, 187344.359375, 128460.078125, 187500.015625, 0, 1, 1, 0, 1,0.0,0.0,0.0,0.0,0.0, 10:21:32.035
8045.599609, 8491.852539, 8143.857910, 8124.009277, 156535.343750, 187324.937500, 128441.945313, 187500.015625, 0, 1, 1, 0, 1,0.0,0.0,0.0,0.0,0.0, 10:21:32.035
7989.317871, 8423.992188, 8100.070801, 8071.907715, 156458.703125, 187263.562500, 128383.406250, 187500.015625, 0, 1, 1, 0, 1,0.0,0.0,0.0,0.0,0.0, 10:21:32.035
7999.062988, 8435.793945, 8110.173828, 8081.652832, 156474.875000, 187276.625000, 128395.453125, 187500.015625, 0, 1, 1, 0, 1,0.0,0.0,0.0,0.0,0.0, 10:21:32.035
8055.657715, 8503.966797, 8155.905273, 8136.750000, 156552.078125, 187339.218750, 128455.562500, 187500.015625, 0, 1, 1, 0, 1,0.0,0.0,0.0,0.0,0.0, 10:21:32.035
8051.075684, 8499.093750, 8151.859863, 8134.470215, 156544.765625, 187333.656250, 128451.250000, 187500.015625, 0, 1, 1, 0, 1,0.0,0.0,0.0,0.0,0.0, 10:21:32.036
7992.648438, 8429.290039, 8106.463379, 8079.551758, 156466.250000, 187270.312500, 128391.453125, 187500.015625, 0, 1, 1, 0, 1,0.0,0.0,0.0,0.0,0.0, 10:21:32.036
7979.438477, 8414.850586, 8098.372070, 8068.755859, 156454.343750, 187259.578125, 128381.148438, 187500.015625, 0, 1, 1, 0, 1,0.0,0.0,0.0,0.0,0.0, 10:21:32.036
8031.518066, 8479.111328, 8140.371094, 8118.354492, 156528.968750, 187318.609375, 128438.062500, 187500.015625, 0, 1, 1, 0, 1,0.0,0.0,0.0,0.0,0.0, 10:21:32.036
8037.687012, 8487.940430, 8145.020020, 8127.362305, 156537.578125, 187325.921875, 128446.171875, 187500.015625, 0, 1, 1, 0, 1,0.0,0.0,0.0,0.0,0.0, 10:21:32.036
7983.707520, 8423.500000, 8103.020996, 8076.109863, 156464.468750, 187267.203125, 128391.476563, 187500.015625, 0, 1, 1, 0, 1,0.0,0.0,0.0,0.0,0.0, 10:21:32.036
7957.108887, 8392.499023, 8085.117188, 8053.892090, 156433.265625, 187242.015625, 128367.742188, 187500.015625, 0, 1, 1, 0, 1,0.0,0.0,0.0,0.0,0.0, 10:21:32.037
8008.339355, 8455.262695, 8127.339844, 8102.149414, 156506.484375, 187300.390625, 128423.953125, 187500.015625, 0, 1, 1, 0, 1,0.0,0.0,0.0,0.0,0.0, 10:21:32.037
8027.204102, 8479.402344, 8142.002441, 8123.987305, 156532.531250, 187321.453125, 128445.234375, 187500.015625, 0, 1, 1, 0, 1,0.0,0.0,0.0,0.0,0.0, 10:21:32.037
7982.858398, 8425.735352, 8106.239746, 8080.646973, 156470.046875, 187271.375000, 128398.898438, 187500.015625, 0, 1, 1, 0, 1,0.0,0.0,0.0,0.0,0.0, 10:21:32.037
7946.737793, 8381.993164, 8080.177734, 8049.108887, 156422.937500, 187233.828125, 128363.492188, 187500.015625, 0, 1, 1, 0, 1,0.0,0.0,0.0,0.0,0.0, 10:21:32.037
7994.592773, 8439.571289, 8119.918945, 8092.940430, 156490.015625, 187287.312500, 128415.328125, 187500.015625, 0, 1, 1, 0, 1,0.0,0.0,0.0,0.0,0.0, 10:21:32.037
8023.649902, 8476.049805, 8141.823730, 8123.606934, 156530.671875, 187319.546875, 128447.023438, 187500.015625, 0, 1, 1, 0, 1,0.0,0.0,0.0,0.0,0.0, 10:21:32.037
7987.864746, 8432.977539, 8112.319336, 8088.000977, 156480.000000, 187278.593750, 128409.468750, 187500.015625, 0, 1, 1, 0, 1,0.0,0.0,0.0,0.0,0.0, 10:21:32.037
7940.077148, 8375.444336, 8076.645996, 8044.973633, 156417.031250, 187227.953125, 128361.835938, 187500.015625, 0, 1, 1, 0, 1,0.0,0.0,0.0,0.0,0.0, 10:21:32.037
7972.911621, 8415.587891, 8104.094238, 8074.478027, 156465.484375, 187265.859375, 128398.226563, 187500.015625, 0, 1, 1, 0, 1,0.0,0.0,0.0,0.0,0.0, 10:21:32.037
8014.351563, 8466.416016, 8136.459473, 8116.275879, 156522.875000, 187311.687500, 128442.710938, 187500.015625, 0, 1, 1, 0, 1,0.0,0.0,0.0,0.0,0.0, 10:21:32.038
7990.122559, 8437.224609, 8116.052246, 8092.247559, 156487.640625, 187283.359375, 128417.070313, 187500.015625, 0, 1, 1, 0, 1,0.0,0.0,0.0,0.0,0.0, 10:21:32.038
7934.869141, 8370.616211, 8073.382813, 8041.218750, 156413.453125, 187223.593750, 128360.742188, 187500.015625, 0, 1, 1, 0, 1,0.0,0.0,0.0,0.0,0.0, 10:21:32.038
7956.214844, 8396.007813, 8092.404297, 8060.307129, 156445.203125, 187248.531250, 128384.679688, 187500.015625, 0, 1, 1, 0, 1,0.0,0.0,0.0,0.0,0.0, 10:21:32.038
8006.863770, 8457.720703, 8132.413574, 8109.771484, 156514.859375, 187304.281250, 128438.304688, 187500.015625, 0, 1, 1, 0, 1,0.0,0.0,0.0,0.0,0.0, 10:21:32.038
7997.409180, 8446.031250, 8123.942383, 8101.009277, 156498.906250, 187291.937500, 128427.578125, 187500.015625, 0, 1, 1, 0, 1,0.0,0.0,0.0,0.0,0.0, 10:21:32.038
7942.558105, 8379.355469, 8081.049316, 8049.220703, 156423.453125, 187231.437500, 128370.351563, 187500.015625, 0, 1, 1, 0, 1,0.0,0.0,0.0,0.0,0.0, 10:21:32.038
7945.083984, 8382.842773, 8084.804688, 8051.522949, 156430.625000, 187236.406250, 128374.695313, 187500.015625, 0, 1, 1, 0, 1,0.0,0.0,0.0,0.0,0.0, 10:21:32.038
8001.164063, 8450.791992, 8129.351563, 8104.764648, 156507.843750, 187298.140625, 128433.585938, 187500.015625, 0, 1, 1, 0, 1,0.0,0.0,0.0,0.0,0.0, 10:21:32.038
8002.729004, 8452.803711, 8129.239746, 8107.558594, 156507.609375, 187298.375000, 128434.054688, 187500.015625, 0, 1, 1, 0, 1,0.0,0.0,0.0,0.0,0.0, 10:21:32.039
7948.749512, 8387.313477, 8086.078613, 8055.322754, 156432.500000, 187238.171875, 128376.679688, 187500.015625, 0, 1, 1, 0, 1,0.0,0.0,0.0,0.0,0.0, 10:21:32.039
7937.037109, 8373.075195, 8079.126953, 8045.375977, 156419.203125, 187227.343750, 128365.593750, 187500.015625, 0, 1, 1, 0, 1,0.0,0.0,0.0,0.0,0.0, 10:21:32.039
7994.212891, 8442.007813, 8124.925781, 8098.550781, 156498.015625, 187290.312500, 128425.343750, 187500.015625, 0, 1, 1, 0, 1,0.0,0.0,0.0,0.0,0.0, 10:21:32.039
8007.109863, 8458.078125, 8133.709961, 8112.878418, 156514.171875, 187303.187500, 128437.945313, 187500.015625, 0, 1, 1, 0, 1,0.0,0.0,0.0,0.0,0.0, 10:21:32.039
7958.830078, 8399.427734, 8094.616699, 8065.224609, 156446.015625, 187248.375000, 128386.093750, 187500.015625, 0, 1, 1, 0, 1,0.0,0.0,0.0,0.0,0.0, 10:21:32.039
7929.571777, 8364.402344, 8073.248535, 8038.960938, 156409.281250, 187218.359375, 128356.562500, 187500.015625, 0, 1, 1, 0, 1,0.0,0.0,0.0,0.0,0.0, 10:21:32.039
7981.382813, 8426.897461, 8115.068848, 8085.899902, 156481.875000, 187275.875000, 128411.015625, 187500.015625, 0, 1, 1, 0, 1,0.0,0.0,0.0,0.0,0.0, 10:21:32.039
8006.193359, 8457.475586, 8133.620605, 8111.805176, 156514.984375, 187302.562500, 128436.492188, 187500.015625, 0, 1, 1, 0, 1,0.0,0.0,0.0,0.0,0.0, 10:21:32.039
7962.920410, 8405.462891, 8097.679199, 8068.309082, 156454.359375, 187253.281250, 128389.843750, 187500.015625, 0, 1, 1, 0, 1,0.0,0.0,0.0,0.0,0.0, 10:21:32.039
7922.262695, 8356.289063, 8067.347656, 8031.495605, 156401.000000, 187210.312500, 128348.250000, 187500.015625, 0, 1, 1, 0, 1,0.0,0.0,0.0,0.0,0.0, 10:21:32.040
7964.932129, 8407.653320, 8102.104980, 8069.448730, 156461.734375, 187258.078125, 128393.242188, 187500.015625, 0, 1, 1, 0, 1,0.0,0.0,0.0,0.0,0.0, 10:21:32.040
8003.198242, 8454.010742, 8131.944336, 8108.206543, 156512.875000, 187299.609375, 128432.828125, 187500.015625, 0, 1, 1, 0, 1,0.0,0.0,0.0,0.0,0.0, 10:21:32.040
7974.297363, 8418.560547, 8107.692871, 8078.903809, 156469.937500, 187265.187500, 128400.531250, 187500.015625, 0, 1, 1, 0, 1,0.0,0.0,0.0,0.0,0.0, 10:21:32.040
7925.056641, 8358.904297, 8070.052246, 8033.663574, 156403.734375, 187211.921875, 128349.523438, 187500.015625, 0, 1, 1, 0, 1,0.0,0.0,0.0,0.0,0.0, 10:21:32.505
7956.505371, 8396.588867, 8096.382813, 8061.536133, 156448.796875, 187247.421875, 128382.734375, 187500.015625, 0, 1, 1, 0, 1,0.0,0.0,0.0,0.0,0.0, 10:21:32.505
8004.472168, 8454.703125, 8134.045410, 8108.921875, 156513.437500, 187299.609375, 128432.273438, 187500.015625, 0, 1, 1, 0, 1,0.0,0.0,0.0,0.0,0.0, 10:21:32.505
7984.467285, 8430.496094, 8116.029785, 8088.693848, 156483.343750, 187275.140625, 128409.132813, 187500.015625, 0, 1, 1, 0, 1,0.0,0.0,0.0,0.0,0.0, 10:21:32.505
7931.046875, 8365.541992, 8074.589844, 8038.894043, 156410.078125, 187216.375000, 128352.921875, 187500.015625, 0, 1, 1, 0, 1,0.0,0.0,0.0,0.0,0.0, 10:21:32.505
7945.821289, 8383.312500, 8087.710449, 8051.724121, 156433.015625, 187234.031250, 128368.906250, 187500.015625, 0, 1, 1, 0, 1,0.0,0.0,0.0,0.0,0.0, 10:21:32.505
7996.626953, 8445.427734, 8126.691895, 8100.271973, 156503.156250, 187289.640625, 128421.335938, 187500.015625, 0, 1, 1, 0, 1,0.0,0.0,0.0,0.0,0.0, 10:21:32.505
7992.491699, 8439.906250, 8122.176758, 8096.785156, 156493.750000, 187282.640625, 128415.015625, 187500.015625, 0, 1, 1, 0, 1,0.0,0.0,0.0,0.0,0.0, 10:21:32.505
7937.305176, 8372.874023, 8078.232910, 8043.811523, 156417.281250, 187221.156250, 128356.164063, 187500.015625, 0, 1, 1, 0, 1,0.0,0.0,0.0,0.0,0.0, 10:21:32.506
7937.059570, 8372.225586, 8080.132813, 8043.476074, 156419.359375, 187222.500000, 128356.585938, 187500.015625, 0, 1, 1, 0, 1,0.0,0.0,0.0,0.0,0.0, 10:21:32.506
7995.106934, 8441.962891, 8126.199707, 8097.902832, 156498.578125, 187285.859375, 128416.671875, 187500.015625, 0, 1, 1, 0, 1,0.0,0.0,0.0,0.0,0.0, 10:21:32.506
8000.113770, 8448.086914, 8128.368164, 8103.893066, 156503.265625, 187289.640625, 128420.335938, 187500.015625, 0, 1, 1, 0, 1,0.0,0.0,0.0,0.0,0.0, 10:21:32.506
7950.023438, 8386.642578, 8088.335938, 8054.942383, 156432.328125, 187232.828125, 128366.289063, 187500.015625, 0, 1, 1, 0, 1,0.0,0.0,0.0,0.0,0.0, 10:21:32.506
7931.337402, 8364.133789, 8075.438965, 8038.268066, 156409.968750, 187214.250000, 128347.757813, 187500.015625, 0, 1, 1, 0, 1,0.0,0.0,0.0,0.0,0.0, 10:21:32.506
7986.099121, 8430.429688, 8119.047363, 8088.582031, 156486.218750, 187274.734375, 128404.976563, 187500.015625, 0, 1, 1, 0, 1,0.0,0.0,0.0,0.0,0.0, 10:21:32.506
8004.762695, 8453.116211, 8132.614746, 8108.743164, 156509.875000, 187294.015625, 128423.460938, 187500.015625, 0, 1, 1, 0, 1,0.0,0.0,0.0,0.0,0.0, 10:21:32.506
7962.026367, 8400.321289, 8098.014160, 8066.274902, 156447.781250, 187244.687500, 128376.593750, 187500.015625, 0, 1, 1, 0, 1,0.0,0.0,0.0,0.0,0.0, 10:21:32.506
7928.543457, 8359.976563, 8072.913574, 8036.234375, 156404.875000, 187209.843750, 128342.390625, 187500.015625, 0, 1, 1, 0, 1,0.0,0.0,0.0,0.0,0.0, 10:21:32.507
7975.996094, 8417.532227, 8110.598633, 8078.948242, 156472.281250, 187262.734375, 128392.125000, 187500.015625, 0, 1, 1, 0, 1,0.0,0.0,0.0,0.0,0.0, 10:21:32.507
8005.880371, 8453.943359, 8133.263184, 8109.927734, 156512.203125, 187294.843750, 128422.679688, 187500.015625, 0, 1, 1, 0, 1,0.0,0.0,0.0,0.0,0.0, 10:21:32.507
7969.872070, 8409.866211, 8103.200195, 8073.472168, 156459.765625, 187252.531250, 128382.851563, 187500.015625, 0, 1, 1, 0, 1,0.0,0.0,0.0,0.0,0.0, 10:21:32.508
7928.409180, 8359.306641, 8072.354492, 8035.787109, 156404.109375, 187208.078125, 128339.937500, 187500.015625, 0, 1, 1, 0, 1,0.0,0.0,0.0,0.0,0.0, 10:21:32.508
7969.447266, 8408.368164, 8106.172852, 8072.242676, 156461.843750, 187253.921875, 128382.898438, 187500.015625, 0, 1, 1, 0, 1,0.0,0.0,0.0,0.0,0.0, 10:21:32.508
8012.250977, 8459.888672, 8139.477051, 8114.599609, 156518.953125, 187300.218750, 128426.906250, 187500.015625, 0, 1, 1, 0, 1,0.0,0.0,0.0,0.0,0.0, 10:21:32.508
7985.808594, 8427.590820, 8116.230957, 8087.128906, 156479.546875, 187268.203125, 128397.000000, 187500.015625, 0, 1, 1, 0, 1,0.0,0.0,0.0,0.0,0.0, 10:21:32.508
7932.768066, 8363.597656, 8074.478027, 8037.463379, 156408.531250, 187210.609375, 128341.921875, 187500.015625, 0, 1, 1, 0, 1,0.0,0.0,0.0,0.0,0.0, 10:21:32.508
7960.685059, 8396.701172, 8098.148438, 8061.916504, 156448.578125, 187242.250000, 128371.804688, 187500.015625, 0, 1, 1, 0, 1,0.0,0.0,0.0,0.0,0.0, 10:21:32.509
8013.435547, 8459.956055, 8139.812012, 8112.990234, 156519.265625, 187299.406250, 128426.617188, 187500.015625, 0, 1, 1, 0, 1,0.0,0.0,0.0,0.0,0.0, 10:21:32.509
7999.845703, 8443.081055, 8126.870605, 8098.796875, 156497.031250, 187281.281250, 128410.562500, 187500.015625, 0, 1, 1, 0, 1,0.0,0.0,0.0,0.0,0.0, 10:21:32.509
7944.211914, 8375.756836, 8082.413086, 8045.375977, 156420.921875, 187219.250000, 128352.250000, 187500.015625, 0, 1, 1, 0, 1,0.0,0.0,0.0,0.0,0.0, 10:21:32.509
7954.248047, 8387.714844, 8091.554688, 8053.377930, 156437.421875, 187231.109375, 128363.851563, 187500.015625, 0, 1, 1, 0, 1,0.0,0.0,0.0,0.0,0.0, 10:21:32.509
8011.065918, 8456.067383, 8136.101563, 8106.664551, 156514.390625, 187292.453125, 128422.992188, 187500.015625, 0, 1, 1, 0, 1,0.0,0.0,0.0,0.0,0.0, 10:21:32.509
8007.579102, 8452.021484, 8130.916016, 8103.088379, 156506.812500, 187285.843750, 128417.632813, 187500.015625, 0, 1, 1, 0, 1,0.0,0.0,0.0,0.0,0.0, 10:21:32.509
7954.449219, 8387.067383, 8087.889160, 8051.008789, 156431.828125, 187225.156250, 128360.703125, 187500.015625, 0, 1, 1, 0, 1,0.0,0.0,0.0,0.0,0.0, 10:21:32.509
7947.721191, 8378.640625, 8083.709473, 8044.213867, 156424.937500, 187218.546875, 128354.554688, 187500.015625, 0, 1, 1, 0, 1,0.0,0.0,0.0,0.0,0.0, 10:21:32.509
8007.333496, 8449.831055, 8130.804199, 8099.377930, 156505.203125, 187283.000000, 128416.375000, 187500.015625, 0, 1, 1, 0, 1,0.0,0.0,0.0,0.0,0.0, 10:21:32.510
8018.151367, 8462.661133, 8137.353516, 8111.358398, 156516.343750, 187292.281250, 128426.320313, 187500.015625, 0, 1, 1, 0, 1,0.0,0.0,0.0,0.0,0.0, 10:21:32.510
7965.558105, 8398.891602, 8093.610840, 8059.837402, 156441.796875, 187231.843750, 128369.507813, 187500.015625, 0, 1, 1, 0, 1,0.0,0.0,0.0,0.0,0.0, 10:21:32.510
7941.664063, 8369.990234, 8076.042480, 8038.849121, 156411.171875, 187206.765625, 128345.742188, 187500.015625, 0, 1, 1, 0, 1,0.0,0.0,0.0,0.0,0.0, 10:21:32.510
7996.425781, 8435.301758, 8119.472168, 8089.297363, 156485.359375, 187266.015625, 128402.835938, 187500.015625, 0, 1, 1, 0, 1,0.0,0.0,0.0,0.0,0.0, 10:21:32.510
8016.385742, 8459.844727, 8133.508789, 8111.224121, 156510.531250, 187286.203125, 128422.968750, 187500.015625, 0, 1, 1, 0, 1,0.0,0.0,0.0,0.0,0.0, 10:21:32.510
7973.962402, 8407.899414, 8098.416504, 8069.314941, 156447.984375, 187236.125000, 128376.390625, 187500.015625, 0, 1, 1, 0, 1,0.0,0.0,0.0,0.0,0.0, 10:21:32.510
7934.801758, 8361.429688, 8068.867676, 8034.490723, 156396.765625, 187194.640625, 128336.492188, 187500.015625, 0, 1, 1, 0, 1,0.0,0.0,0.0,0.0,0.0, 10:21:32.510
7978.968750, 8415.542969, 8104.675293, 8074.679199, 156459.359375, 187244.171875, 128383.250000, 187500.015625, 0, 1, 1, 0, 1,0.0,0.0,0.0,0.0,0.0, 10:21:32.511
8010.417969, 8454.636719, 8129.262207, 8108.139648, 156501.906250, 187279.468750, 128416.734375, 187500.015625, 0, 1, 1, 0, 1,0.0,0.0,0.0,0.0,0.0, 10:21:32.511
7976.130371, 8413.151367, 8101.434082, 8075.327148, 156451.703125, 187240.562500, 128380.257813, 187500.015625, 0, 1, 1, 0, 1,0.0,0.0,0.0,0.0,0.0, 10:21:32.511
7930.219727, 8357.831055, 8067.683105, 8033.350586, 156392.000000, 187192.859375, 128335.484375, 187500.015625, 0, 1, 1, 0, 1,0.0,0.0,0.0,0.0,0.0, 10:21:32.511
7966.250977, 8401.930664, 8099.579102, 8065.403320, 156446.515625, 187235.390625, 128376.750000, 187500.015625, 0, 1, 1, 0, 1,0.0,0.0,0.0,0.0,0.0, 10:21:32.511
8008.562500, 8454.591797, 8134.693359, 8107.133789, 156508.546875, 187283.718750, 128423.195313, 187500.015625, 0, 1, 1, 0, 1,0.0,0.0,0.0,0.0,0.0, 10:21:32.511
7987.529785, 8429.758789, 8119.293457, 8084.379883, 156481.500000, 187260.812500, 128401.445313, 187500.015625, 0, 1, 1, 0, 1,0.0,0.0,0.0,0.0,0.0, 10:21:32.511
7939.719238, 8371.979492, 8086.436035, 8037.687012, 156421.859375, 187213.109375, 128355.226563, 187500.015625, 0, 1, 1, 0, 1,0.0,0.0,0.0,0.0,0.0, 10:21:32.511
7966.072266, 8403.875977, 8113.884277, 8058.585938, 156467.437500, 187249.765625, 128389.648438, 187500.015625, 0, 1, 1, 0, 1,0.0,0.0,0.0,0.0,0.0, 10:21:32.511
8023.784180, 8473.880859, 8164.778809, 8111.492676, 156554.234375, 187320.390625, 128457.054688, 187500.015625, 0, 1, 1, 0, 1,0.0,0.0,0.0,0.0,0.0, 10:21:32.512
8020.699707, 8469.902344, 8166.634277, 8105.077637, 156555.593750, 187322.312500, 128459.851563, 187500.015625, 0, 1, 1, 0, 1,0.0,0.0,0.0,0.0,0.0, 10:21:32.512
7972.419922, 8411.564453, 8135.118164, 8055.099121, 156500.140625, 187277.765625, 128417.453125, 187500.015625, 0, 1, 1, 0, 1,0.0,0.0,0.0,0.0,0.0, 10:21:32.512
7984.467285, 8426.293945, 8154.743164, 8061.647949, 156532.718750, 187303.671875, 128441.726563, 187500.015625, 0, 1, 1, 0, 1,0.0,0.0,0.0,0.0,0.0, 10:21:32.512
8049.623047, 8505.375000, 8216.031250, 8118.354492, 156637.265625, 187387.718750, 128522.820313, 187500.015625, 0, 1, 1, 0, 1,0.0,0.0,0.0,0.0,0.0, 10:21:32.512
8060.038574, 8518.607422, 8233.018555, 8122.847168, 156666.500000, 187410.703125, 128547.312500, 187500.015625, 0, 1, 1, 0, 1,0.0,0.0,0.0,0.0,0.0, 10:21:32.512
8016.586914, 8466.348633, 8209.258789, 8072.712402, 156624.343750, 187375.671875, 128516.382813, 187500.015625, 0, 1, 1, 0, 1,0.0,0.0,0.0,0.0,0.0, 10:21:32.512
8017.727051, 8467.869141, 8225.240234, 8066.073730, 156648.328125, 187394.265625, 128535.289063, 187500.015625, 0, 1, 1, 0, 1,0.0,0.0,0.0,0.0,0.0, 10:21:32.512
8086.659668, 8551.419922, 8293.211914, 8121.059082, 156764.265625, 187486.828125, 128624.804688, 187500.015625, 0, 1, 1, 0, 1,0.0,0.0,0.0,0.0,0.0, 10:21:32.512
8113.951172, 8584.678711, 8326.560547, 8139.566406, 156820.328125, 187500.015625, 128670.515625, 187500.015625, 0, 1, 1, 0, 1,0.0,0.0,0.0,0.0,0.0, 10:21:32.512
8081.138672, 8544.378906, 8312.434570, 8096.740234, 156792.468750, 187500.015625, 128652.414063, 187500.015625, 0, 1, 1, 0, 1,0.0,0.0,0.0,0.0,0.0, 10:21:32.513
8068.129883, 8528.397461, 8317.039063, 8075.841309, 156798.171875, 187500.015625, 128657.796875, 187500.015625, 0, 1, 1, 0, 1,0.0,0.0,0.0,0.0,0.0, 10:21:32.513
8137.018066, 8611.031250, 8386.127930, 8128.904297, 156915.187500, 187500.015625, 128748.304688, 187500.015625, 0, 1, 1, 0, 1,0.0,0.0,0.0,0.0,0.0, 10:21:32.513
8179.486328, 8662.329102, 8432.955078, 8161.135742, 156994.640625, 187500.015625, 128811.265625, 187500.015625, 0, 1, 1, 0, 1,0.0,0.0,0.0,0.0,0.0, 10:21:32.513
8157.514648, 8634.500977, 8428.395508, 8127.228027, 156983.812500, 187500.015625, 128806.304688, 187500.015625, 0, 1, 1, 0, 1,0.0,0.0,0.0,0.0,0.0, 10:21:32.513
8135.229980, 8606.404297, 8426.451172, 8096.807617, 156977.171875, 187500.015625, 128804.250000, 187500.015625, 0, 1, 1, 0, 1,0.0,0.0,0.0,0.0,0.0, 10:21:32.513
8195.422852, 8678.064453, 8488.543945, 8140.862793, 157082.828125, 187500.015625, 128887.265625, 187500.015625, 0, 1, 1, 0, 1,0.0,0.0,0.0,0.0,0.0, 10:21:32.513
8248.597656, 8741.521484, 8541.584961, 8183.397949, 157173.796875, 187500.015625, 128959.929688, 187500.015625, 0, 1, 1, 0, 1,0.0,0.0,0.0,0.0,0.0, 10:21:32.513
8235.321289, 8723.594727, 8541.047852, 8157.961914, 157171.578125, 187500.015625, 128961.695313, 187500.015625, 0, 1, 1, 0, 1,0.0,0.0,0.0,0.0,0.0, 10:21:32.513
8207.538086, 8688.390625, 8536.153320, 8120.589844, 157158.890625, 187500.015625, 128956.304688, 187500.015625, 0, 1, 1, 0, 1,0.0,0.0,0.0,0.0,0.0, 10:21:32.514
8259.170898, 8749.567383, 8595.743164, 8154.497070, 157259.453125, 187500.015625, 129037.484375, 187500.015625, 0, 1, 1, 0, 1,0.0,0.0,0.0,0.0,0.0, 10:21:32.514
8324.706055, 8827.910156, 8662.910156, 8205.928711, 157374.765625, 187500.015625, 129131.031250, 187500.015625, 0, 1, 1, 0, 1,0.0,0.0,0.0,0.0,0.0, 10:21:32.514
8324.080078, 8825.072266, 8674.465820, 8192.718750, 157392.984375, 187500.015625, 129150.859375, 187500.015625, 0, 1, 1, 0, 1,0.0,0.0,0.0,0.0,0.0, 10:21:32.514
8286.730469, 8777.910156, 8658.350586, 8147.054199, 157362.562500, 187500.015625, 129132.929688, 187500.015625, 0, 1, 1, 0, 1,0.0,0.0,0.0,0.0,0.0, 10:21:32.514
8316.502930, 8812.331055, 8695.610352, 8164.220215, 157425.875000, 187500.015625, 129185.835938, 187500.015625, 0, 1, 1, 0, 1,0.0,0.0,0.0,0.0,0.0, 10:21:32.514
8383.959961, 8892.417969, 8759.894531, 8219.428711, 157536.296875, 187500.015625, 129276.046875, 187500.015625, 0, 1, 1, 0, 1,0.0,0.0,0.0,0.0,0.0, 10:21:32.514
8388.921875, 8896.753906, 8771.427734, 8215.405273, 157556.687500, 187500.015625, 129297.375000, 187500.015625, 0, 1, 1, 0, 1,0.0,0.0,0.0,0.0,0.0, 10:21:32.514
8345.403320, 8842.215820, 8744.761719, 8165.337891, 157510.406250, 187500.015625, 129266.992188, 187500.015625, 0, 1, 1, 0, 1,0.0,0.0,0.0,0.0,0.0, 10:21:32.515
8355.573242, 8852.564453, 8762.017578, 8167.260254, 157539.718750, 187500.015625, 129293.640625, 187500.015625, 0, 1, 1, 0, 1,0.0,0.0,0.0,0.0,0.0, 10:21:32.515
8423.343750, 8932.650391, 8822.434570, 8224.123047, 157643.875000, 187500.015625, 129378.687500, 187500.015625, 0, 1, 1, 0, 1,0.0,0.0,0.0,0.0,0.0, 10:21:32.515
8437.514648, 8948.676758, 8837.141602, 8232.572266, 157670.500000, 187500.015625, 129404.796875, 187500.015625, 0, 1, 1, 0, 1,0.0,0.0,0.0,0.0,0.0, 10:21:32.515
8392.878906, 8893.110352, 8804.798828, 8182.995605, 157615.312500, 187500.015625, 129367.109375, 187500.015625, 0, 1, 1, 0, 1,0.0,0.0,0.0,0.0,0.0, 10:21:32.515
8380.942383, 8876.950195, 8800.462891, 8167.260254, 157608.890625, 187500.015625, 129364.984375, 187500.015625, 0, 1, 1, 0, 1,0.0,0.0,0.0,0.0,0.0, 10:21:32.515
8441.784180, 8948.833008, 8851.983398, 8218.713867, 157699.640625, 187500.015625, 129437.742188, 187500.015625, 0, 1, 1, 0, 1,0.0,0.0,0.0,0.0,0.0, 10:21:32.515
8466.997070, 8977.711914, 8873.575195, 8240.752930, 157737.500000, 187500.015625, 129472.250000, 187500.015625, 0, 1, 1, 0, 1,0.0,0.0,0.0,0.0,0.0, 10:21:32.515
8425.355469, 8925.721680, 8840.651367, 8195.244141, 157682.281250, 187500.015625, 129434.500000, 187500.015625, 0, 1, 1, 0, 1,0.0,0.0,0.0,0.0,0.0, 10:21:32.516
8398.086914, 8890.875000, 8822.367188, 8167.416504, 157650.937500, 187500.015625, 129413.000000, 187500.015625, 0, 1, 1, 0, 1,0.0,0.0,0.0,0.0,0.0, 10:21:32.516
8451.865234, 8954.019531, 8867.316406, 8213.259766, 157729.921875, 187500.015625, 129475.335938, 187500.015625, 0, 1, 1, 0, 1,0.0,0.0,0.0,0.0,0.0, 10:21:32.516
8484.922852, 8992.463867, 8893.580078, 8244.150391, 157777.500000, 187500.015625, 129515.632813, 187500.015625, 0, 1, 1, 0, 1,0.0,0.0,0.0,0.0,0.0, 10:21:32.516
8450.970703, 8948.990234, 8865.282227, 8207.135742, 157730.015625, 187500.015625, 129484.703125, 187500.015625, 0, 1, 1, 0, 1,0.0,0.0,0.0,0.0,0.0, 10:21:32.516
8408.033203, 8895.479492, 8832.783203, 8165.918945, 157675.687500, 187500.015625, 129447.015625, 187500.015625, 0, 1, 1, 0, 1,0.0,0.0,0.0,0.0,0.0, 10:21:32.516
8448.086914, 8942.374023, 8866.131836, 8200.228516, 157735.343750, 187500.015625, 129495.031250, 187500.015625, 0, 1, 1, 0, 1,0.0,0.0,0.0,0.0,0.0, 10:21:32.516
8489.326172, 8991.234375, 8898.876953, 8240.328125, 157793.937500, 187500.015625, 129542.679688, 187500.015625, 0, 1, 1, 0, 1,0.0,0.0,0.0,0.0,0.0, 10:21:32.516
8461.766602, 8956.500000, 8874.804688, 8211.315430, 157755.281250, 187500.015625, 129516.687500, 187500.015625, 0, 1, 1, 0, 1,0.0,0.0,0.0,0.0,0.0, 10:21:32.516
8408.994141, 8891.545898, 8833.454102, 8161.582520, 157686.125000, 187500.015625, 129467.867188, 187500.015625, 0, 1, 1, 0, 1,0.0,0.0,0.0,0.0,0.0, 10:21:32.517
8433.692383, 8920.133789, 8854.062500, 8182.638184, 157724.359375, 187500.015625, 129500.726563, 187500.015625, 0, 1, 1, 0, 1,0.0,0.0,0.0,0.0,0.0, 10:21:32.517
8480.408203, 8976.326172, 8889.780273, 8228.034180, 157790.093750, 187500.015625, 129554.062500, 187500.015625, 0, 1, 1, 0, 1,0.0,0.0,0.0,0.0,0.0, 10:21:32.517
8463.800781, 8955.204102, 8873.642578, 8211.785156, 157764.984375, 187500.015625, 129537.164063, 187500.015625, 0, 1, 1, 0, 1,0.0,0.0,0.0,0.0,0.0, 10:21:32.517
8406.647461, 8885.175781, 8827.240234, 8158.028809, 157687.171875, 187500.015625, 129479.382813, 187500.015625, 0, 1, 1, 0, 1,0.0,0.0,0.0,0.0,0.0, 10:21:32.517
8415.252930, 8894.764648, 8835.018555, 8166.030762, 157702.531250, 187500.015625, 129493.125000, 187500.015625, 0, 1, 1, 0, 1,0.0,0.0,0.0,0.0,0.0, 10:21:32.517
8466.997070, 8957.215820, 8874.871094, 8216.143555, 157774.921875, 187500.015625, 129551.625000, 187500.015625, 0, 1, 1, 0, 1,0.0,0.0,0.0,0.0,0.0, 10:21:32.517
8460.850586, 8949.481445, 8866.802734, 8211.829102, 157764.578125, 187500.015625, 129546.617188, 187500.015625, 0, 1, 1, 0, 1,0.0,0.0,0.0,0.0,0.0, 10:21:32.517
8404.814453, 8880.772461, 8820.691406, 8158.877930, 157686.343750, 187500.015625, 129488.523438, 187500.015625, 0, 1, 1, 0, 1,0.0,0.0,0.0,0.0,0.0, 10:21:32.517
8395.560547, 8869.149414, 8814.186523, 8151.233887, 157677.265625, 187500.015625, 129482.218750, 187500.015625, 0, 1, 1, 0, 1,0.0,0.0,0.0,0.0,0.0, 10:21:32.518
8450.278320, 8934.796875, 8856.967773, 8203.067383, 157753.718750, 187500.015625, 129543.039063, 187500.015625, 0, 1, 1, 0, 1,0.0,0.0,0.0,0.0,0.0, 10:21:32.518
8453.943359, 8939.736328, 8856.587891, 8208.767578, 157758.500000, 187500.015625, 129549.406250, 187500.015625, 0, 1, 1, 0, 1,0.0,0.0,0.0,0.0,0.0, 10:21:32.518
8398.600586, 8872.256836, 8809.694336, 8154.966797, 157681.406250, 187500.015625, 129492.187500, 187500.015625, 0, 1, 1, 0, 1,0.0,0.0,0.0,0.0,0.0, 10:21:32.518
8373.455078, 8841.053711, 8790.739258, 8132.838379, 157650.453125, 187500.015625, 129468.851563, 187500.015625, 0, 1, 1, 0, 1,0.0,0.0,0.0,0.0,0.0, 10:21:32.518
8424.484375, 8902.029297, 8830.950195, 8180.045410, 157722.859375, 187500.015625, 129524.820313, 187500.015625, 0, 1, 1, 0, 1,0.0,0.0,0.0,0.0,0.0, 10:21:32.518
8442.208984, 8923.531250, 8842.640625, 8200.072266, 157747.031250, 187500.015625, 129545.718750, 187500.015625, 0, 1, 1, 0, 1,0.0,0.0,0.0,0.0,0.0, 10:21:32.518
8397.192383, 8867.741211, 8803.994141, 8155.972656, 157681.890625, 187500.015625, 129498.828125, 187500.015625, 0, 1, 1, 0, 1,0.0,0.0,0.0,0.0,0.0, 10:21:32.519
8360.200195, 8821.607422, 8775.182617, 8123.093262, 157632.625000, 187500.015625, 129462.664063, 187500.015625, 0, 1, 1, 0, 1,0.0,0.0,0.0,0.0,0.0, 10:21:32.519
8405.797852, 8875.698242, 8811.191406, 8164.711914, 157696.937500, 187500.015625, 129511.968750, 187500.015625, 0, 1, 1, 0, 1,0.0,0.0,0.0,0.0,0.0, 10:21:32.519
8437.873047, 8914.076172, 8834.124023, 8197.904297, 157739.734375, 187500.015625, 129545.921875, 187500.015625, 0, 1, 1, 0, 1,0.0,0.0,0.0,0.0,0.0, 10:21:32.519
8403.517578, 8871.161133, 8802.876953, 8163.281250, 157687.843750, 187500.015625, 129508.195313, 187500.015625, 0, 1, 1, 0, 1,0.0,0.0,0.0,0.0,0.0, 10:21:32.519
8354.813477, 8811.459961, 8763.090820, 8118.354492, 157621.921875, 187500.015625, 129458.414063, 187500.015625, 0, 1, 1, 0, 1,0.0,0.0,0.0,0.0,0.0, 10:21:32.519
8390.867188, 8853.882813, 8791.253906, 8150.272949, 157672.390625, 187500.015625, 129496.812500, 187500.015625, 0, 1, 1, 0, 1,0.0,0.0,0.0,0.0,0.0, 10:21:32.519
8433.648438, 8905.426758, 8822.389648, 8192.495117, 157729.968750, 187500.015625, 129540.937500, 187500.015625, 0, 1, 1, 0, 1,0.0,0.0,0.0,0.0,0.0, 10:21:32.519
8411.385742, 8877.464844, 8800.284180, 8169.830566, 157694.234375, 187500.015625, 129514.359375, 187500.015625, 0, 1, 1, 0, 1,0.0,0.0,0.0,0.0,68.8008, 10:21:32.984
8359.976563, 8814.097656, 8757.927734, 8121.707031, 157622.156250, 187500.015625, 129459.781250, 187500.015625, 0, 1, 1, 0, 1,0.0,0.0,0.0,0.0,68.8008, 10:21:32.984
8381.680664, 8839.243164, 8774.780273, 8140.639160, 157653.078125, 187500.015625, 129483.335938, 187500.015625, 0, 1, 1, 0, 1,0.0,0.0,0.0,0.0,68.8008, 10:21:32.984
8434.676758, 8902.542969, 8814.588867, 8191.601074, 157723.921875, 187500.015625, 129538.281250, 187500.015625, 0, 1, 1, 0, 1,0.0,0.0,0.0,0.0,68.8008, 10:21:32.984
8424.215820, 8888.863281, 8802.161133, 8181.386230, 157704.500000, 187500.015625, 129524.148438, 187500.015625, 0, 1, 1, 0, 1,0.0,0.0,0.0,0.0,68.8008, 10:21:32.984
8365.676758, 8817.450195, 8752.652344, 8125.641113, 157622.640625, 187500.015625, 129460.781250, 187500.015625, 0, 1, 1, 0, 1,0.0,0.0,0.0,0.0,68.8008, 10:21:32.984
8369.409180, 8821.071289, 8755.557617, 8128.971680, 157629.687500, 187500.015625, 129465.835938, 187500.015625, 0, 1, 1, 0, 1,0.0,0.0,0.0,0.0,68.8008, 10:21:32.985
8425.244141, 8887.858398, 8798.003906, 8181.676758, 157705.953125, 187500.015625, 129525.132813, 187500.015625, 0, 1, 1, 0, 1,0.0,0.0,0.0,0.0,68.8008, 10:21:32.985
8425.958984, 8887.924805, 8794.539063, 8182.906250, 157703.312500, 187500.015625, 129524.781250, 187500.015625, 0, 1, 1, 0, 1,0.0,0.0,0.0,0.0,68.8008, 10:21:32.985
8373.946289, 8823.194336, 8750.394531, 8131.810059, 157627.937500, 187500.015625, 129468.429688, 187500.015625, 0, 1, 1, 0, 1,0.0,0.0,0.0,0.0,68.8008, 10:21:32.985
8361.988281, 8807.481445, 8740.917969, 8120.433105, 157613.140625, 187500.015625, 129457.117188, 187500.015625, 0, 1, 1, 0, 1,0.0,0.0,0.0,0.0,68.8008, 10:21:32.985
8418.248047, 8874.603516, 8784.145508, 8172.043457, 157690.390625, 187500.015625, 129517.265625, 187500.015625, 0, 1, 1, 0, 1,0.0,0.0,0.0,0.0,68.8008, 10:21:32.985
8434.743164, 8893.356445, 8794.450195, 8189.276367, 157708.578125, 187500.015625, 129534.476563, 187500.015625, 0, 1, 1, 0, 1,0.0,0.0,0.0,0.0,68.8008, 10:21:32.985
8385.837891, 8832.894531, 8751.780273, 8140.415527, 157636.812500, 187500.015625, 129481.390625, 187500.015625, 0, 1, 1, 0, 1,0.0,0.0,0.0,0.0,68.8008, 10:21:32.985
8356.556641, 8796.909180, 8728.042969, 8113.548828, 157598.093750, 187500.015625, 129451.734375, 187500.015625, 0, 1, 1, 0, 1,0.0,0.0,0.0,0.0,68.8008, 10:21:32.985
8407.317383, 8857.794922, 8766.845703, 8159.526367, 157668.171875, 187500.015625, 129505.195313, 187500.015625, 0, 1, 1, 0, 1,0.0,0.0,0.0,0.0,68.8008, 10:21:32.986
8434.229492, 8890.092773, 8785.062500, 8187.711914, 157701.609375, 187500.015625, 129532.648438, 187500.015625, 0, 1, 1, 0, 1,0.0,0.0,0.0,0.0,68.8008, 10:21:32.986
8394.309570, 8840.762695, 8748.919922, 8147.702148, 157640.765625, 187500.015625, 129487.718750, 187500.015625, 0, 1, 1, 0, 1,0.0,0.0,0.0,0.0,68.8008, 10:21:32.986
8352.578125, 8790.069336, 8714.586914, 8110.017090, 157583.843750, 187500.015625, 129444.203125, 187500.015625, 0, 1, 1, 0, 1,0.0,0.0,0.0,0.0,68.8008, 10:21:32.986
8395.560547, 8841.835938, 8747.511719, 8149.043457, 157643.031250, 187500.015625, 129488.929688, 187500.015625, 0, 1, 1, 0, 1,0.0,0.0,0.0,0.0,68.8008, 10:21:32.986
8430.541016, 8884.863281, 8771.897461, 8185.141602, 157688.828125, 187500.015625, 129524.484375, 187500.015625, 0, 1, 1, 0, 1,0.0,0.0,0.0,0.0,68.8008, 10:21:32.986
8399.941406, 8847.245117, 8743.242188, 8155.033691, 157640.796875, 187500.015625, 129489.148438, 187500.015625, 0, 1, 1, 0, 1,0.0,0.0,0.0,0.0,68.8008, 10:21:32.987
8350.924805, 8787.565430, 8703.411133, 8110.464355, 157572.125000, 187500.015625, 129437.468750, 187500.015625, 0, 1, 1, 0, 1,0.0,0.0,0.0,0.0,68.8008, 10:21:32.987
8381.412109, 8823.999023, 8727.215820, 8137.710938, 157614.593750, 187500.015625, 129469.835938, 187500.015625, 0, 1, 1, 0, 1,0.0,0.0,0.0,0.0,68.8008, 10:21:32.987
8427.881836, 8880.437500, 8761.906250, 8183.800293, 157676.281250, 187500.015625, 129517.960938, 187500.015625, 0, 1, 1, 0, 1,0.0,0.0,0.0,0.0,68.8008, 10:21:32.987
8409.262695, 8857.146484, 8743.219727, 8165.516602, 157644.718750, 187500.015625, 129495.093750, 187500.015625, 0, 1, 1, 0, 1,0.0,0.0,0.0,0.0,68.8008, 10:21:32.987
8355.170898, 8791.007813, 8699.097656, 8115.180664, 157568.140625, 187500.015625, 129437.093750, 187500.015625, 0, 1, 1, 0, 1,0.0,0.0,0.0,0.0,68.8008, 10:21:32.987
8367.531250, 8806.117188, 8708.708984, 8125.842285, 157587.375000, 187500.015625, 129450.953125, 187500.015625, 0, 1, 1, 0, 1,0.0,0.0,0.0,0.0,68.8008, 10:21:32.987
8420.750977, 8870.333984, 8749.500977, 8177.027832, 157658.968750, 187500.015625, 129506.609375, 187500.015625, 0, 1, 1, 0, 1,0.0,0.0,0.0,0.0,68.8008, 10:21:32.987
8411.855469, 8859.404297, 8738.816406, 8168.802246, 157642.406250, 187500.015625, 129494.734375, 187500.015625, 0, 1, 1, 0, 1,0.0,0.0,0.0,0.0,68.8008, 10:21:32.988
8355.573242, 8790.471680, 8692.011719, 8114.822754, 157562.171875, 187500.015625, 129433.718750, 187500.015625, 0, 1, 1, 0, 1,0.0,0.0,0.0,0.0,68.8008, 10:21:32.988
8352.109375, 8786.090820, 8689.508789, 8111.313477, 157559.437500, 187500.015625, 129430.718750, 187500.015625, 0, 1, 1, 0, 1,0.0,0.0,0.0,0.0,68.8008, 10:21:32.988
8409.866211, 8855.448242, 8734.659180, 8165.583496, 157637.343750, 187500.015625, 129491.250000, 187500.015625, 0, 1, 1, 0, 1,0.0,0.0,0.0,0.0,68.8008, 10:21:32.988
8415.364258, 8862.041992, 8735.843750, 8172.177246, 157640.640625, 187500.015625, 129495.093750, 187500.015625, 0, 1, 1, 0, 1,0.0,0.0,0.0,0.0,68.8008, 10:21:32.988
8362.502930, 8797.400391, 8690.849609, 8120.634277, 157563.750000, 187500.015625, 129436.757813, 187500.015625, 0, 1, 1, 0, 1,0.0,0.0,0.0,0.0,68.8008, 10:21:32.988
8345.179688, 8775.987305, 8677.662109, 8105.502441, 157540.828125, 187500.015625, 129418.609375, 187500.015625, 0, 1, 1, 0, 1,0.0,0.0,0.0,0.0,68.8008, 10:21:32.988
8398.354492, 8840.695313, 8718.565430, 8154.765625, 157614.171875, 187500.015625, 129474.015625, 187500.015625, 0, 1, 1, 0, 1,0.0,0.0,0.0,0.0,68.8008, 10:21:32.988
8415.856445, 8862.064453, 8729.607422, 8174.300781, 157634.312500, 187500.015625, 129490.828125, 187500.015625, 0, 1, 1, 0, 1,0.0,0.0,0.0,0.0,68.8008, 10:21:32.988
8368.895508, 8804.708984, 8688.547852, 8128.412598, 157564.218750, 187500.015625, 129438.031250, 187500.015625, 0, 1, 1, 0, 1,0.0,0.0,0.0,0.0,68.8008, 10:21:32.989
8336.596680, 8765.325195, 8662.910156, 8100.070801, 157519.875000, 187500.015625, 129403.742188, 187500.015625, 0, 1, 1, 0, 1,0.0,0.0,0.0,0.0,68.8008, 10:21:32.989
8385.458008, 8824.401367, 8700.572266, 8144.751953, 157586.546875, 187500.015625, 129454.078125, 187500.015625, 0, 1, 1, 0, 1,0.0,0.0,0.0,0.0,68.8008, 10:21:32.989
8414.090820, 8859.650391, 8720.622070, 8175.395996, 157622.906250, 187500.015625, 129482.843750, 187500.015625, 0, 1, 1, 0, 1,0.0,0.0,0.0,0.0,68.8008, 10:21:32.989
8375.958008, 8813.135742, 8686.602539, 8138.270020, 157564.750000, 187500.015625, 129439.726563, 187500.015625, 0, 1, 1, 0, 1,0.0,0.0,0.0,0.0,68.8008, 10:21:32.989
8329.735352, 8757.234375, 8649.409180, 8096.852051, 157501.406250, 187500.015625, 129391.226563, 187500.015625, 0, 1, 1, 0, 1,0.0,0.0,0.0,0.0,68.8008, 10:21:32.989
8368.738281, 8804.039063, 8680.433594, 8132.592285, 157555.187500, 187500.015625, 129432.132813, 187500.015625, 0, 1, 1, 0, 1,0.0,0.0,0.0,0.0,68.8008, 10:21:32.989
8409.374023, 8853.235352, 8711.010742, 8174.300781, 157608.015625, 187500.015625, 129473.679688, 187500.015625, 0, 1, 1, 0, 1,0.0,0.0,0.0,0.0,68.8008, 10:21:32.989
8379.355469, 8816.913086, 8683.205078, 8145.176758, 157561.687500, 187500.015625, 129438.859375, 187500.015625, 0, 1, 1, 0, 1,0.0,0.0,0.0,0.0,68.8008, 10:21:32.989
8325.443359, 8751.467773, 8639.485352, 8096.136719, 157486.781250, 187500.015625, 129381.703125, 187500.015625, 0, 1, 1, 0, 1,0.0,0.0,0.0,0.0,68.8008, 10:21:32.990
8350.879883, 8781.665039, 8660.116211, 8119.605957, 157522.453125, 187500.015625, 129408.640625, 187500.015625, 0, 1, 1, 0, 1,0.0,0.0,0.0,0.0,68.8008, 10:21:32.990
8397.527344, 8838.594727, 8695.386719, 8166.455566, 157585.156250, 187500.015625, 129456.804688, 187500.015625, 0, 1, 1, 0, 1,0.0,0.0,0.0,0.0,68.8008, 10:21:32.990
8380.182617, 8817.337891, 8677.863281, 8150.965820, 157555.781250, 187500.015625, 129434.968750, 187500.015625, 0, 1, 1, 0, 1,0.0,0.0,0.0,0.0,68.8008, 10:21:32.990
8321.286133, 8745.946289, 8629.404297, 8097.209473, 157472.765625, 187500.015625, 129371.312500, 187500.015625, 0, 1, 1, 0, 1,0.0,0.0,0.0,0.0,68.8008, 10:21:32.990
8329.086914, 8755.290039, 8636.087891, 8105.412598, 157484.703125, 187500.015625, 129379.492188, 187500.015625, 0, 1, 1, 0, 1,0.0,0.0,0.0,0.0,68.8008, 10:21:32.990
8385.502930, 8823.126953, 8680.143555, 8160.308594, 157559.765625, 187500.015625, 129437.804688, 187500.015625, 0, 1, 1, 0, 1,0.0,0.0,0.0,0.0,68.8008, 10:21:32.990
8382.887695, 8819.573242, 8674.711914, 8159.481445, 157550.828125, 187500.015625, 129432.156250, 187500.015625, 0, 1, 1, 0, 1,0.0,0.0,0.0,0.0,68.8008, 10:21:32.990
8324.706055, 8749.254883, 8625.470703, 8104.384766, 157467.984375, 187500.015625, 129368.539063, 187500.015625, 0, 1, 1, 0, 1,0.0,0.0,0.0,0.0,68.8008, 10:21:32.990
8315.541992, 8738.212891, 8618.273438, 8097.030762, 157456.796875, 187500.015625, 129358.992188, 187500.015625, 0, 1, 1, 0, 1,0.0,0.0,0.0,0.0,68.8008, 10:21:32.990
8370.392578, 8804.843750, 8660.719727, 8149.602051, 157531.625000, 187500.015625, 129416.062500, 187500.015625, 0, 1, 1, 0, 1,0.0,0.0,0.0,0.0,68.8008, 10:21:32.991
8377.120117, 8813.494141, 8662.955078, 8159.593262, 157537.015625, 187500.015625, 129421.156250, 187500.015625, 0, 1, 1, 0, 1,0.0,0.0,0.0,0.0,68.8008, 10:21:32.991
8324.258789, 8749.254883, 8618.094727, 8109.838379, 157459.343750, 187500.015625, 129362.679688, 187500.015625, 0, 1, 1, 0, 1,0.0,0.0,0.0,0.0,68.8008, 10:21:32.991
8298.733398, 8718.499023, 8598.358398, 8088.895020, 157425.281250, 187500.015625, 129336.484375, 187500.015625, 0, 1, 1, 0, 1,0.0,0.0,0.0,0.0,68.8008, 10:21:32.991
8350.902344, 8781.508789, 8638.993164, 8138.202637, 157496.562500, 187500.015625, 129391.359375, 187500.015625, 0, 1, 1, 0, 1,0.0,0.0,0.0,0.0,68.8008, 10:21:32.991
8371.174805, 8806.475586, 8652.516602, 8161.225098, 157520.984375, 187500.015625, 129411.968750, 187500.015625, 0, 1, 1, 0, 1,0.0,0.0,0.0,0.0,68.8008, 10:21:32.991
8326.829102, 8752.093750, 8613.847656, 8118.175781, 157454.515625, 187500.015625, 129362.835938, 187500.015625, 0, 1, 1, 0, 1,0.0,0.0,0.0,0.0,68.8008, 10:21:32.991
8290.261719, 8707.345703, 8585.058594, 8085.854980, 157404.281250, 187500.015625, 129325.335938, 187500.015625, 0, 1, 1, 0, 1,0.0,0.0,0.0,0.0,68.8008, 10:21:32.991
8338.027344, 8764.297852, 8622.766602, 8129.217285, 157469.203125, 187500.015625, 129376.023438, 187500.015625, 0, 1, 1, 0, 1,0.0,0.0,0.0,0.0,68.8008, 10:21:32.991
8371.129883, 8804.507813, 8646.973633, 8163.795410, 157511.953125, 187500.015625, 129411.210938, 187500.015625, 0, 1, 1, 0, 1,0.0,0.0,0.0,0.0,68.8008, 10:21:32.991
8336.194336, 8761.771484, 8615.814453, 8129.642090, 157458.406250, 187500.015625, 129373.210938, 187500.015625, 0, 1, 1, 0, 1,0.0,0.0,0.0,0.0,68.8008, 10:21:32.992
8286.149414, 8701.421875, 8575.469727, 8084.334961, 157390.234375, 187500.015625, 129322.562500, 187500.015625, 0, 1, 1, 0, 1,0.0,0.0,0.0,0.0,68.8008, 10:21:32.992
8320.235352, 8742.459961, 8602.605469, 8115.046387, 157438.343750, 187500.015625, 129360.695313, 187500.015625, 0, 1, 1, 0, 1,0.0,0.0,0.0,0.0,68.8008, 10:21:32.992
8364.737305, 8796.238281, 8636.199219, 8159.638184, 157497.296875, 187500.015625, 129408.796875, 187500.015625, 0, 1, 1, 0, 1,0.0,0.0,0.0,0.0,68.8008, 10:21:32.993
8345.269531, 8771.517578, 8617.960938, 8140.594238, 157464.031250, 187500.015625, 129387.445313, 187500.015625, 0, 1, 1, 0, 1,0.0,0.0,0.0,0.0,68.8008, 10:21:32.993
8291.222656, 8705.870117, 8573.927734, 8090.437012, 157388.953125, 187500.015625, 129332.445313, 187500.015625, 0, 1, 1, 0, 1,0.0,0.0,0.0,0.0,68.8008, 10:21:32.993
8312.501953, 8731.350586, 8591.339844, 8108.854980, 157420.000000, 187500.015625, 129358.210938, 187500.015625, 0, 1, 1, 0, 1,0.0,0.0,0.0,0.0,68.8008, 10:21:32.994
8367.196289, 8797.042969, 8633.718750, 8161.001465, 157493.500000, 187500.015625, 129418.250000, 187500.015625, 0, 1, 1, 0, 1,0.0,0.0,0.0,0.0,68.8008, 10:21:32.994
8359.976563, 8787.275391, 8625.113281, 8153.223145, 157478.109375, 187500.015625, 129411.054688, 187500.015625, 0, 1, 1, 0, 1,0.0,0.0,0.0,0.0,68.8008, 10:21:32.994
8306.958008, 8722.164063, 8581.594727, 8101.903809, 157402.656250, 187500.015625, 129356.828125, 187500.015625, 0, 1, 1, 0, 1,0.0,0.0,0.0,0.0,68.8008, 10:21:32.994
8310.892578, 8726.813477, 8585.282227, 8104.138672, 157410.718750, 187500.015625, 129364.781250, 187500.015625, 0, 1, 1, 0, 1,0.0,0.0,0.0,0.0,68.8008, 10:21:32.995
8366.011719, 8793.779297, 8627.482422, 8155.056152, 157487.015625, 187500.015625, 129425.757813, 187500.015625, 0, 1, 1, 0, 1,0.0,0.0,0.0,0.0,68.8008, 10:21:32.995
8370.415039, 8798.406250, 8628.376953, 8159.593262, 157488.421875, 187500.015625, 129431.234375, 187500.015625, 0, 1, 1, 0, 1,0.0,0.0,0.0,0.0,68.8008, 10:21:32.995
8319.631836, 8735.933594, 8586.064453, 8109.592773, 157414.406250, 187500.015625, 129378.304688, 187500.015625, 0, 1, 1, 0, 1,0.0,0.0,0.0,0.0,68.8008, 10:21:32.995
8309.059570, 8722.656250, 8578.621094, 8099.400391, 157401.609375, 187500.015625, 129370.640625, 187500.015625, 0, 1, 1, 0, 1,0.0,0.0,0.0,0.0,68.8008, 10:21:32.995
8366.324219, 8791.879883, 8623.772461, 8151.904297, 157480.859375, 187500.015625, 129433.562500, 187500.015625, 0, 1, 1, 0, 1,0.0,0.0,0.0,0.0,68.8008, 10:21:32.995
8379.691406, 8808.442383, 8631.751953, 8166.366211, 157496.687500, 187500.015625, 129448.804688, 187500.015625, 0, 1, 1, 0, 1,0.0,0.0,0.0,0.0,68.8008, 10:21:32.995
8333.825195, 8752.182617, 8593.507813, 8121.528320, 157429.015625, 187500.015625, 129400.367188, 187500.015625, 0, 1, 1, 0, 1,0.0,0.0,0.0,0.0,68.8008, 10:21:32.995
8303.381836, 8716.017578, 8569.815430, 8094.058105, 157390.296875, 187500.015625, 129371.203125, 187500.015625, 0, 1, 1, 0, 1,0.0,0.0,0.0,0.0,68.8008, 10:21:32.996
8355.238281, 8779.004883, 8611.322266, 8141.533203, 157462.843750, 187500.015625, 129427.679688, 187500.015625, 0, 1, 1, 0, 1,0.0,0.0,0.0,0.0,68.8008, 10:21:32.996
8381.501953, 8811.370117, 8630.879883, 8169.562500, 157496.843750, 187500.015625, 129456.046875, 187500.015625, 0, 1, 1, 0, 1,0.0,0.0,0.0,0.0,68.8008, 10:21:32.996
8337.557617, 8758.575195, 8592.591797, 8126.132813, 157432.875000, 187500.015625, 129408.171875, 187500.015625, 0, 1, 1, 0, 1,0.0,0.0,0.0,0.0,68.8008, 10:21:32.996
8296.498047, 8708.932617, 8560.874023, 8089.229980, 157377.546875, 187500.015625, 129366.351563, 187500.015625, 0, 1, 1, 0, 1,0.0,0.0,0.0,0.0,68.8008, 10:21:32.996
8338.921875, 8760.498047, 8595.250977, 8127.339844, 157437.765625, 187500.015625, 129412.125000, 187500.015625, 0, 1, 1, 0, 1,0.0,0.0,0.0,0.0,68.8008, 10:21:32.996
8375.555664, 8805.357422, 8623.212891, 8164.622559, 157486.828125, 187500.015625, 129450.656250, 187500.015625, 0, 1, 1, 0, 1,0.0,0.0,0.0,0.0,68.8008, 10:21:32.996
8346.632813, 8769.684570, 8597.777344, 8135.744141, 157441.562500, 187500.015625, 129417.359375, 187500.015625, 0, 1, 1, 0, 1,0.0,0.0,0.0,0.0,68.8008, 10:21:32.996
8295.759766, 8708.105469, 8557.677734, 8088.895020, 157372.171875, 187500.015625, 129363.781250, 187500.015625, 0, 1, 1, 0, 1,0.0,0.0,0.0,0.0,68.8008, 10:21:32.996
8325.666992, 8744.426758, 8582.779297, 8115.225098, 157415.640625, 187500.015625, 129395.742188, 187500.015625, 0, 1, 1, 0, 1,0.0,0.0,0.0,0.0,68.8008, 10:21:32.996
8371.264648, 8800.350586, 8618.295898, 8160.375977, 157477.953125, 187500.015625, 129443.242188, 187500.015625, 0, 1, 1, 0, 1,0.0,0.0,0.0,0.0,68.8008, 10:21:32.997
8351.974609, 8776.925781, 8600.436523, 8141.466309, 157447.062500, 187500.015625, 129419.882813, 187500.015625, 0, 1, 1, 0, 1,0.0,0.0,0.0,0.0,68.8008, 10:21:32.997
8297.906250, 8711.189453, 8557.454102, 8090.861816, 157371.703125, 187500.015625, 129361.703125, 187500.015625, 0, 1, 1, 0, 1,0.0,0.0,0.0,0.0,68.8008, 10:21:32.997
8313.417969, 8730.054688, 8571.290039, 8104.272949, 157395.531250, 187500.015625, 129378.148438, 187500.015625, 0, 1, 1, 0, 1,0.0,0.0,0.0,0.0,68.8008, 10:21:32.997
8368.269531, 8796.663086, 8614.764648, 8156.821777, 157470.250000, 187500.015625, 129434.742188, 187500.015625, 0, 1, 1, 0, 1,0.0,0.0,0.0,0.0,68.8008, 10:21:32.997
8361.384766, 8788.504883, 8606.785156, 8150.518555, 157457.000000, 187500.015625, 129424.125000, 187500.015625, 0, 1, 1, 0, 1,0.0,0.0,0.0,0.0,68.8008, 10:21:32.997
8303.918945, 8719.347656, 8559.533203, 8095.376953, 157376.921875, 187500.015625, 129360.984375, 187500.015625, 0, 1, 1, 0, 1,0.0,0.0,0.0,0.0,68.8008, 10:21:32.997
8302.443359, 8717.760742, 8559.689453, 8093.610840, 157377.546875, 187500.015625, 129358.796875, 187500.015625, 0, 1, 1, 0, 1,0.0,0.0,0.0,0.0,68.8008, 10:21:32.997
8359.328125, 8787.163086, 8604.728516, 8146.875488, 157456.140625, 187500.015625, 129417.023438, 187500.015625, 0, 1, 1, 0, 1,0.0,0.0,0.0,0.0,68.8008, 10:21:32.997
8365.654297, 8795.187500, 8607.567383, 8154.519531, 157461.546875, 187500.015625, 129420.218750, 187500.015625, 0, 1, 1, 0, 1,0.0,0.0,0.0,0.0,68.8008, 10:21:32.998
8314.423828, 8732.803711, 8565.053711, 8104.876465, 157387.484375, 187500.015625, 129361.875000, 187500.015625, 0, 1, 1, 0, 1,0.0,0.0,0.0,0.0,68.8008, 10:21:32.998
8296.609375, 8711.390625, 8552.313477, 8089.140625, 157365.281250, 187500.015625, 129341.828125, 187500.015625, 0, 1, 1, 0, 1,0.0,0.0,0.0,0.0,68.8008, 10:21:32.998
8350.186523, 8776.970703, 8594.603516, 8138.649902, 157440.250000, 187500.015625, 129396.125000, 187500.015625, 0, 1, 1, 0, 1,0.0,0.0,0.0,0.0,68.8008, 10:21:32.998
8367.286133, 8798.406250, 8606.181641, 8157.916992, 157461.531250, 187500.015625, 129410.695313, 187500.015625, 0, 1, 1, 0, 1,0.0,0.0,0.0,0.0,68.8008, 10:21:32.998
8321.553711, 8742.459961, 8567.289063, 8113.437012, 157394.093750, 187500.015625, 129357.250000, 187500.015625, 0, 1, 1, 0, 1,0.0,0.0,0.0,0.0,68.8008, 10:21:32.998
8287.176758, 8701.243164, 8540.869141, 8083.440918, 157349.093750, 187500.015625, 129319.273438, 187500.015625, 0, 1, 1, 0, 1,0.0,0.0,0.0,0.0,68.8008, 10:21:32.998
8335.434570, 8760.184570, 8579.873047, 8128.256348, 157417.140625, 187500.015625, 129367.914063, 187500.015625, 0, 1, 1, 0, 1,0.0,0.0,0.0,0.0,68.8008, 10:21:32.998
8364.223633, 8795.791016, 8601.286133, 8159.526367, 157454.875000, 187500.015625, 129395.046875, 187500.015625, 0, 1, 1, 0, 1,0.0,0.0,0.0,0.0,68.8008, 10:21:32.998
8323.945313, 8747.153320, 8566.015625, 8120.812988, 157395.296875, 187500.015625, 129347.281250, 187500.015625, 0, 1, 1, 0, 1,0.0,0.0,0.0,0.0,68.8008, 10:21:32.998
8277.164063, 8690.961914, 8529.112305, 8079.752930, 157332.343750, 187500.015625, 129295.921875, 187500.015625, 0, 1, 1, 0, 1,0.0,0.0,0.0,0.0,68.8008, 10:21:32.999
8317.330078, 8739.352539, 8562.438477, 8117.661621, 157388.546875, 187500.015625, 129336.039063, 187500.015625, 0, 1, 1, 0, 1,0.0,0.0,0.0,0.0,68.8008, 10:21:32.999
8356.333008, 8787.364258, 8592.591797, 8159.146484, 157441.031250, 187500.015625, 129374.328125, 187500.015625, 0, 1, 1, 0, 1,0.0,0.0,0.0,0.0,68.8008, 10:21:32.999
8326.740234, 8751.579102, 8565.702148, 8131.676270, 157395.718750, 187500.015625, 129337.875000, 187500.015625, 0, 1, 1, 0, 1,0.0,0.0,0.0,0.0,68.8008, 10:21:32.999
8271.016602, 8684.524414, 8521.021484, 8082.211914, 157319.593750, 187500.015625, 129276.804688, 187500.015625, 0, 1, 1, 0, 1,0.0,0.0,0.0,0.0,68.8008, 10:21:32.999
8293.659180, 8712.351563, 8539.908203, 8104.272949, 157353.078125, 187500.015625, 129299.382813, 187500.015625, 0, 1, 1, 0, 1,0.0,0.0,0.0,0.0,68.8008, 10:21:32.999
8339.301758, 8768.543945, 8574.978516, 8151.099609, 157415.828125, 187500.015625, 129345.406250, 187500.015625, 0, 1, 1, 0, 1,0.0,0.0,11.027586,3.842088,1.2678972, 10:21:33.464
8321.643555, 8747.288086, 8557.856445, 8135.989746, 157387.406250, 187500.015625, 129322.742188, 187500.015625, 0, 1, 1, 0, 1,0.0,0.0,11.027586,3.842088,1.2678972, 10:21:33.464
8261.361328, 8674.711914, 8508.526367, 8081.026855, 157304.328125, 187500.015625, 129257.164063, 187500.015625, 0, 1, 1, 0, 1,0.0,0.0,11.027586,3.842088,1.2678972, 10:21:33.464
8267.552734, 8682.624023, 8514.382813, 8088.134766, 157316.015625, 187500.015625, 129263.820313, 187500.015625, 0, 1, 1, 0, 1,0.0,0.0,11.027586,3.842088,1.2678972, 10:21:33.464
8319.744141, 8746.393555, 8555.084961, 8139.767578, 157388.015625, 187500.015625, 129318.179688, 187500.015625, 0, 1, 1, 0, 1,0.0,0.0,11.027586,3.842088,1.2678972, 10:21:33.464
8314.155273, 8740.000977, 8547.887695, 8137.308594, 157377.046875, 187500.015625, 129310.156250, 187500.015625, 0, 1, 1, 0, 1,0.0,0.0,11.027586,3.842088,1.2678972, 10:21:33.464
8255.638672, 8669.146484, 8499.294922, 8083.195313, 157294.671875, 187500.015625, 129246.703125, 187500.015625, 0, 1, 1, 0, 1,0.0,0.0,11.027586,3.842088,1.2678972, 10:21:33.464
8247.234375, 8658.909180, 8494.131836, 8077.830566, 157285.546875, 187500.015625, 129238.921875, 187500.015625, 0, 1, 1, 0, 1,0.0,0.0,11.027586,3.842088,1.2678972, 10:21:33.464
8304.298828, 8727.550781, 8539.215820, 8133.017090, 157363.296875, 187500.015625, 129298.625000, 187500.015625, 0, 1, 1, 0, 1,0.0,0.0,11.027586,3.842088,1.2678972, 10:21:33.464
8312.949219, 8737.654297, 8543.104492, 8144.372070, 157371.000000, 187500.015625, 129305.617188, 187500.015625, 0, 1, 1, 0, 1,0.0,0.0,11.027586,3.842088,1.2678972, 10:21:33.465
8256.845703, 8670.173828, 8495.428711, 8091.644043, 157291.515625, 187500.015625, 129245.132813, 187500.015625, 0, 1, 1, 0, 1,0.0,0.0,11.027586,3.842088,1.2678972, 10:21:33.465
8230.291992, 8638.434570, 8475.333984, 8070.253418, 157257.906250, 187500.015625, 129219.500000, 187500.015625, 0, 1, 1, 0, 1,0.0,0.0,11.027586,3.842088,1.2678972, 10:21:33.465
8282.169922, 8701.243164, 8516.953125, 8120.231934, 157330.218750, 187500.015625, 129275.757813, 187500.015625, 0, 1, 1, 0, 1,0.0,0.0,11.027586,3.842088,1.2678972, 10:21:33.465
8301.236328, 8725.115234, 8530.364258, 8143.321289, 157354.531250, 187500.015625, 129296.609375, 187500.015625, 0, 1, 1, 0, 1,0.0,0.0,11.027586,3.842088,1.2678972, 10:21:33.465
8254.745117, 8668.721680, 8490.354492, 8099.467285, 157286.453125, 187500.015625, 129246.921875, 187500.015625, 0, 1, 1, 0, 1,0.0,0.0,11.027586,3.842088,1.2678972, 10:21:33.465
8216.299805, 8622.207031, 8461.118164, 8067.235840, 157235.156250, 187500.015625, 129209.531250, 187500.015625, 0, 1, 1, 0, 1,0.0,0.0,11.027586,3.842088,1.2678972, 10:21:33.465
8260.645508, 8676.142578, 8497.149414, 8109.570313, 157297.609375, 187500.015625, 129259.085938, 187500.015625, 0, 1, 1, 0, 1,0.0,0.0,11.027586,3.842088,1.2678972, 10:21:33.465
8290.574219, 8713.246094, 8519.299805, 8142.628418, 157337.765625, 187500.015625, 129292.812500, 187500.015625, 0, 1, 1, 0, 1,0.0,0.0,11.027586,3.842088,1.2678972, 10:21:33.465
8252.464844, 8667.178711, 8485.661133, 8106.485840, 157281.437500, 187500.015625, 129252.804688, 187500.015625, 0, 1, 1, 0, 1,0.0,0.0,11.027586,3.842088,1.2678972, 10:21:33.466
8202.956055, 8607.321289, 8446.723633, 8062.989258, 157214.140625, 187500.015625, 129203.898438, 187500.015625, 0, 1, 1, 0, 1,0.0,0.0,11.027586,3.842088,1.2678972, 10:21:33.466
8236.662109, 8648.023438, 8474.931641, 8095.711914, 157261.968750, 187500.015625, 129243.187500, 187500.015625, 0, 1, 1, 0, 1,0.0,0.0,11.027586,3.842088,1.2678972, 10:21:33.466
8274.190430, 8695.096680, 8503.295898, 8135.677246, 157314.296875, 187500.015625, 129286.039063, 187500.015625, 0, 1, 1, 0, 1,0.0,0.0,9.396048,3.200194,1.0181055, 10:21:33.466
8248.016602, 8663.871094, 8479.223633, 8111.022949, 157274.640625, 187500.015625, 129259.148438, 187500.015625, 0, 1, 1, 0, 1,0.0,0.0,9.396048,3.200194,1.0181055, 10:21:33.466
8192.987305, 8597.307617, 8435.212891, 8061.245605, 157198.625000, 187500.015625, 129203.937500, 187500.015625, 0, 1, 1, 0, 1,0.0,0.0,9.396048,3.200194,1.0181055, 10:21:33.466
8211.627930, 8620.151367, 8451.283203, 8079.439941, 157226.796875, 187500.015625, 129227.765625, 187500.015625, 0, 1, 1, 0, 1,0.0,0.0,9.396048,3.200194,1.0181055, 10:21:33.468
8259.214844, 8679.047852, 8488.119141, 8127.228027, 157292.750000, 187500.015625, 129281.187500, 187500.015625, 0, 1, 1, 0, 1,0.0,0.0,9.396048,3.200194,1.0181055, 10:21:33.468
8246.004883, 8663.536133, 8474.708008, 8116.230957, 157270.828125, 187500.015625, 129268.093750, 187500.015625, 0, 1, 1, 0, 1,0.0,0.0,9.396048,3.200194,1.0181055, 10:21:33.468
8188.248535, 8593.887695, 8427.523438, 8062.586914, 157190.140625, 187500.015625, 129209.101563, 187500.015625, 0, 1, 1, 0, 1,0.0,0.0,9.396048,3.200194,1.0181055, 10:21:33.469
8189.879883, 8596.502930, 8430.161133, 8065.313965, 157195.437500, 187500.015625, 129214.890625, 187500.015625, 0, 1, 1, 0, 1,0.0,0.0,9.396048,3.200194,1.0181055, 10:21:33.469
8245.871094, 8664.541992, 8474.752930, 8120.097656, 157272.171875, 187500.015625, 129276.875000, 187500.015625, 0, 1, 1, 0, 1,0.0,0.0,9.396048,3.200194,1.0181055, 10:21:33.469
8246.921875, 8666.173828, 8473.367188, 8123.517578, 157270.015625, 187500.015625, 129279.156250, 187500.015625, 0, 1, 1, 0, 1,0.0,0.0,9.396048,3.200194,1.0181055, 10:21:33.469
8191.824707, 8599.565430, 8427.255859, 8070.208984, 157191.781250, 187500.015625, 129221.734375, 187500.015625, 0, 1, 1, 0, 1,0.0,0.0,9.396048,3.200194,1.0181055, 10:21:33.469
8179.039551, 8584.522461, 8418.650391, 8059.166992, 157177.031250, 187500.015625, 129212.164063, 187500.015625, 0, 1, 1, 0, 1,0.0,0.0,9.396048,3.200194,1.0181055, 10:21:33.469
8234.181641, 8651.779297, 8462.727539, 8111.112305, 157253.562500, 187500.015625, 129272.875000, 187500.015625, 0, 1, 1, 0, 1,0.0,0.0,9.396048,3.200194,1.0181055, 10:21:33.469
8247.078125, 8668.163086, 8471.176758, 8125.976563, 157268.671875, 187500.015625, 129287.562500, 187500.015625, 0, 1, 1, 0, 1,0.0,0.0,9.396048,3.200194,1.0181055, 10:21:33.470
8198.552734, 8609.333008, 8430.206055, 8077.808594, 157198.203125, 187500.015625, 129235.789063, 187500.015625, 0, 1, 1, 0, 1,0.0,0.0,9.396048,3.200194,1.0181055, 10:21:33.470
8169.875000, 8575.067383, 8408.546875, 8051.857910, 157161.187500, 187500.015625, 129208.234375, 187500.015625, 0, 1, 1, 0, 1,0.0,0.0,9.396048,3.200194,1.0181055, 10:21:33.470
8218.892578, 8635.506836, 8447.885742, 8097.388672, 157230.406250, 187500.015625, 129261.968750, 187500.015625, 0, 1, 1, 0, 1,0.0,0.0,9.396048,3.200194,1.0181055, 10:21:33.470
8245.938477, 8668.699219, 8468.181641, 8126.311523, 157264.765625, 187500.015625, 129290.796875, 187500.015625, 0, 1, 1, 0, 1,0.0,0.0,9.396048,3.200194,1.0181055, 10:21:33.471
8206.375977, 8620.597656, 8433.804688, 8086.324219, 157205.375000, 187500.015625, 129246.968750, 187500.015625, 0, 1, 1, 0, 1,0.0,0.0,9.396048,3.200194,1.0181055, 10:21:33.471
8163.817871, 8569.748047, 8400.209961, 8046.985352, 157148.890625, 187500.015625, 129202.960938, 187500.015625, 0, 1, 1, 0, 1,0.0,0.0,9.396048,3.200194,1.0181055, 10:21:33.471
8205.079102, 8620.441406, 8433.849609, 8084.871582, 157207.453125, 187500.015625, 129247.304688, 187500.015625, 0, 1, 1, 0, 1,0.0,0.0,9.396048,3.200194,1.0181055, 10:21:33.471
8244.038086, 8668.028320, 8464.180664, 8125.216309, 157258.281250, 187500.015625, 129287.539063, 187500.015625, 0, 1, 1, 0, 1,0.0,0.0,9.396048,3.200194,1.0181055, 10:21:33.471
8214.421875, 8632.064453, 8437.649414, 8095.220215, 157212.359375, 187500.015625, 129252.914063, 187500.015625, 0, 1, 1, 0, 1,0.0,0.0,9.396048,3.200194,1.0181055, 10:21:33.471
8165.203613, 8572.720703, 8398.756836, 8049.623047, 157144.875000, 187500.015625, 129200.343750, 187500.015625, 0, 1, 1, 0, 1,0.0,0.0,9.396048,3.200194,1.0181055, 10:21:33.471
8193.456055, 8607.500000, 8422.830078, 8076.087402, 157185.937500, 187500.015625, 129230.203125, 187500.015625, 0, 1, 1, 0, 1,0.0,0.0,9.396048,3.200194,1.0181055, 10:21:33.472
8238.025391, 8662.462891, 8457.921875, 8121.975586, 157246.125000, 187500.015625, 129275.937500, 187500.015625, 0, 1, 1, 0, 1,0.0,0.0,9.396048,3.200194,1.0181055, 10:21:33.472
8220.546875, 8641.072266, 8441.694336, 8105.144531, 157216.828125, 187500.015625, 129253.296875, 187500.015625, 0, 1, 1, 0, 1,0.0,0.0,9.396048,3.200194,1.0181055, 10:21:33.472
8167.505859, 8576.453125, 8399.070313, 8054.942383, 157142.562500, 187500.015625, 129194.890625, 187500.015625, 0, 1, 1, 0, 1,0.0,0.0,9.396048,3.200194,1.0181055, 10:21:33.472
8178.480469, 8590.266602, 8408.368164, 8064.687988, 157160.500000, 187500.015625, 129205.304688, 187500.015625, 0, 1, 1, 0, 1,0.0,0.0,9.396048,3.200194,1.0181055, 10:21:33.472
8228.280273, 8651.599609, 8447.640625, 8114.509766, 157229.046875, 187500.015625, 129256.109375, 187500.015625, 0, 1, 1, 0, 1,0.0,0.0,9.396048,3.200194,1.0181055, 10:21:33.472
8218.802734, 8640.848633, 8437.380859, 8106.619629, 157212.828125, 187500.015625, 129242.187500, 187500.015625, 0, 1, 1, 0, 1,0.0,0.0,9.396048,3.200194,1.0181055, 10:21:33.472
8164.734375, 8574.956055, 8393.347656, 8054.383789, 157136.093750, 187500.015625, 129181.585938, 187500.015625, 0, 1, 1, 0, 1,0.0,0.0,9.396048,3.200194,1.0181055, 10:21:33.472
8162.588379, 8572.385742, 8393.325195, 8052.751953, 157135.484375, 187500.015625, 129178.304688, 187500.015625, 0, 1, 1, 0, 1,0.0,0.0,9.396048,3.200194,1.0181055, 10:21:33.472
8218.065430, 8640.043945, 8438.163086, 8107.089355, 157211.796875, 187500.015625, 129235.125000, 187500.015625, 0, 1, 1, 0, 1,0.0,0.0,9.396048,3.200194,1.0181055, 10:21:33.472
8223.966797, 8647.487305, 8440.889648, 8114.845215, 157216.281250, 187500.015625, 129237.734375, 187500.015625, 0, 1, 1, 0, 1,0.0,0.0,9.396048,3.200194,1.0181055, 10:21:33.473
8173.004395, 8585.372070, 8398.019531, 8063.972656, 157143.125000, 187500.015625, 129179.578125, 187500.015625, 0, 1, 1, 0, 1,0.0,0.0,9.396048,3.200194,1.0181055, 10:21:33.473
8154.519531, 8563.333008, 8384.183594, 8046.649902, 157120.593750, 187500.015625, 129158.789063, 187500.015625, 0, 1, 1, 0, 1,0.0,0.0,9.396048,3.200194,1.0181055, 10:21:33.473
8209.706055, 8630.276367, 8428.485352, 8098.685059, 157196.218750, 187500.015625, 129214.625000, 187500.015625, 0, 1, 1, 0, 1,0.0,0.0,9.396048,3.200194,1.0181055, 10:21:33.473
8227.922852, 8652.829102, 8441.135742, 8118.980469, 157218.296875, 187500.015625, 129230.226563, 187500.015625, 0, 1, 1, 0, 1,0.0,0.0,9.396048,3.200194,1.0181055, 10:21:33.473
8182.951172, 8597.888672, 8402.109375, 8073.248535, 157152.046875, 187500.015625, 129177.406250, 187500.015625, 0, 1, 1, 0, 1,0.0,0.0,9.396048,3.200194,1.0181055, 10:21:33.473
8152.820801, 8561.187500, 8379.154297, 8045.666504, 157111.906250, 187500.015625, 129143.992188, 187500.015625, 0, 1, 1, 0, 1,0.0,0.0,9.396048,3.200194,1.0181055, 10:21:33.473
8203.783203, 8622.654297, 8421.064453, 8093.812012, 157182.046875, 187500.015625, 129195.875000, 187500.015625, 0, 1, 1, 0, 1,0.0,0.0,9.396048,3.200194,1.0181055, 10:21:33.473
8234.740234, 8660.362305, 8444.711914, 8127.294922, 157221.781250, 187500.015625, 129225.468750, 187500.015625, 0, 1, 1, 0, 1,0.0,0.0,9.396048,3.200194,1.0181055, 10:21:33.473
8197.278320, 8614.764648, 8411.498047, 8089.073730, 157166.390625, 187500.015625, 129181.140625, 187500.015625, 0, 1, 1, 0, 1,0.0,0.0,9.396048,3.200194,1.0181055, 10:21:33.474
8152.150391, 8560.471680, 8375.466797, 8046.649902, 157106.828125, 187500.015625, 129132.328125, 187500.015625, 0, 1, 1, 0, 1,0.0,0.0,9.396048,3.200194,1.0181055, 10:21:33.474
8189.969238, 8606.561523, 8406.557617, 8081.362305, 157160.937500, 187500.015625, 129171.578125, 187500.015625, 0, 1, 1, 0, 1,0.0,0.0,9.396048,3.200194,1.0181055, 10:21:33.474
8230.940430, 8656.427734, 8438.520508, 8123.674316, 157215.734375, 187500.015625, 129213.218750, 187500.015625, 0, 1, 1, 0, 1,0.0,0.0,9.396048,3.200194,1.0181055, 10:21:33.474
8208.164063, 8627.706055, 8417.868164, 8100.070801, 157179.093750, 187500.015625, 129185.125000, 187500.015625, 0, 1, 1, 0, 1,0.0,0.0,9.396048,3.200194,1.0181055, 10:21:33.474
8160.710938, 8569.368164, 8380.383789, 8054.719238, 157113.484375, 187500.015625, 129133.937500, 187500.015625, 0, 1, 1, 0, 1,0.0,0.0,9.396048,3.200194,1.0181055, 10:21:33.474
8184.001465, 8597.933594, 8400.053711, 8075.685059, 157148.984375, 187500.015625, 129158.992188, 187500.015625, 0, 1, 1, 0, 1,0.0,0.0,9.396048,3.200194,1.0181055, 10:21:33.474
8228.951172, 8653.611328, 8435.011719, 8121.260254, 157211.609375, 187500.015625, 129206.195313, 187500.015625, 0, 1, 1, 0, 1,0.0,0.0,9.396048,3.200194,1.0181055, 10:21:33.474
8214.623047, 8635.998047, 8421.086914, 8107.424316, 157187.781250, 187500.015625, 129188.335938, 187500.015625, 0, 1, 1, 0, 1,0.0,0.0,9.396048,3.200194,1.0181055, 10:21:33.474
8162.096680, 8571.603516, 8378.751953, 8056.931641, 157114.203125, 187500.015625, 129131.882813, 187500.015625, 0, 1, 1, 0, 1,0.0,0.0,9.396048,3.200194,1.0181055, 10:21:33.475
8171.171875, 8582.555664, 8387.313477, 8065.000977, 157129.562500, 187500.015625, 129142.500000, 187500.015625, 0, 1, 1, 0, 1,0.0,0.0,9.396048,3.200194,1.0181055, 10:21:33.475
8223.117188, 8646.235352, 8428.261719, 8116.186523, 157201.531250, 187500.015625, 129197.570313, 187500.015625, 0, 1, 1, 0, 1,0.0,0.0,9.396048,3.200194,1.0181055, 10:21:33.475
8219.787109, 8642.435547, 8423.232422, 8114.733398, 157193.671875, 187500.015625, 129192.476563, 187500.015625, 0, 1, 1, 0, 1,0.0,0.0,9.396048,3.200194,1.0181055, 10:21:33.475
8165.784668, 8576.565430, 8378.260742, 8062.072754, 157117.203125, 187500.015625, 129134.117188, 187500.015625, 0, 1, 1, 0, 1,0.0,0.0,9.396048,3.200194,1.0181055, 10:21:33.481
8159.995605, 8569.278320, 8375.109375, 8057.222656, 157111.531250, 187500.015625, 129129.578125, 187500.015625, 0, 1, 1, 0, 1,0.0,0.0,9.396048,3.200194,1.0181055, 10:21:33.481
8216.657227, 8638.054688, 8420.952148, 8112.498535, 157189.640625, 187500.015625, 129190.484375, 187500.015625, 0, 1, 1, 0, 1,0.0,0.0,9.396048,3.200194,1.0181055, 10:21:33.482
8225.240234, 8649.006836, 8425.624023, 8123.606934, 157198.937500, 187500.015625, 129199.203125, 187500.015625, 0, 1, 1, 0, 1,0.0,0.0,9.396048,3.200194,1.0181055, 10:21:33.482
8173.854004, 8586.712891, 8381.970703, 8072.846191, 157125.843750, 187500.015625, 129143.968750, 187500.015625, 0, 1, 1, 0, 1,0.0,0.0,9.396048,3.200194,1.0181055, 10:21:33.482
8148.618652, 8556.784180, 8362.725586, 8050.248535, 157095.046875, 187500.015625, 129120.101563, 187500.015625, 0, 1, 1, 0, 1,0.0,0.0,9.396048,3.200194,1.0181055, 10:21:33.482
8201.010742, 8620.709961, 8405.149414, 8100.182617, 157168.609375, 187500.015625, 129177.250000, 187500.015625, 0, 1, 1, 0, 1,0.0,0.0,9.396048,3.200194,1.0181055, 10:21:33.482
8222.446289, 8647.241211, 8420.863281, 8124.411621, 157196.546875, 187500.015625, 129200.945313, 187500.015625, 0, 1, 1, 0, 1,0.0,0.0,9.396048,3.200194,1.0181055, 10:21:33.482
8182.503906, 8597.799805, 8387.133789, 8084.647949, 157136.921875, 187500.015625, 129157.937500, 187500.015625, 0, 1, 1, 0, 1,0.0,0.0,9.396048,3.200194,1.0181055, 10:21:33.482
8149.311523, 8556.940430, 8362.368164, 8054.875488, 157092.406250, 187500.015625, 129125.375000, 187500.015625, 0, 1, 1, 0, 1,0.0,0.0,9.396048,3.200194,1.0181055, 10:21:33.482
8191.824707, 8609.086914, 8396.991211, 8094.773438, 157153.828125, 187500.015625, 129172.781250, 187500.015625, 0, 1, 1, 0, 1,0.0,0.0,9.396048,3.200194,1.0181055, 10:21:33.482
8220.479492, 8645.118164, 8418.359375, 8126.132813, 157193.484375, 187500.015625, 129204.632813, 187500.015625, 0, 1, 1, 0, 1,0.0,0.0,9.396048,3.200194,1.0181055, 10:21:33.482
8184.895508, 8601.957031, 8386.932617, 8090.861816, 157140.968750, 187500.015625, 129166.320313, 187500.015625, 0, 1, 1, 0, 1,0.0,0.0,9.396048,3.200194,1.0181055, 10:21:33.483
8139.789551, 8546.725586, 8352.086914, 8049.846191, 157079.578125, 187500.015625, 129120.703125, 187500.015625, 0, 1, 1, 0, 1,0.0,0.0,9.396048,3.200194,1.0181055, 10:21:33.483
8173.854004, 8587.987305, 8380.674805, 8081.697754, 157128.687500, 187500.015625, 129158.906250, 187500.015625, 0, 1, 1, 0, 1,0.0,0.0,9.396048,3.200194,1.0181055, 10:21:33.483
8215.204102, 8638.859375, 8412.838867, 8124.836426, 157185.015625, 187500.015625, 129203.851563, 187500.015625, 0, 1, 1, 0, 1,0.0,0.0,9.396048,3.200194,1.0181055, 10:21:33.483
8191.086914, 8609.623047, 8390.666016, 8101.657715, 157147.890625, 187500.015625, 129177.343750, 187500.015625, 0, 1, 1, 0, 1,0.0,0.0,9.396048,3.200194,1.0181055, 10:21:33.483
8139.521484, 8546.815430, 8349.695313, 8053.914551, 157076.562500, 187500.015625, 129123.945313, 187500.015625, 0, 1, 1, 0, 1,0.0,0.0,9.396048,3.200194,1.0181055, 10:21:33.483
8158.989746, 8570.620117, 8366.972656, 8072.600586, 157106.156250, 187500.015625, 129146.812500, 187500.015625, 0, 1, 1, 0, 1,0.0,0.0,9.396048,3.200194,1.0181055, 10:21:33.483
8205.727539, 8628.644531, 8403.629883, 8120.478027, 157171.468750, 187500.015625, 129197.523438, 187500.015625, 0, 1, 1, 0, 1,0.0,0.0,9.396048,3.200194,1.0181055, 10:21:33.483
8193.076172, 8613.646484, 8390.912109, 8109.860840, 157150.609375, 187500.015625, 129182.929688, 187500.015625, 0, 1, 1, 0, 1,0.0,0.0,9.396048,3.200194,1.0181055, 10:21:33.484
8139.745117, 8548.513672, 8347.951172, 8059.569336, 157075.296875, 187500.015625, 129126.382813, 187500.015625, 0, 1, 1, 0, 1,0.0,0.0,9.396048,3.200194,1.0181055, 10:21:33.484
8141.220215, 8550.860352, 8350.387695, 8061.514160, 157080.859375, 187500.015625, 129130.070313, 187500.015625, 0, 1, 1, 0, 1,0.0,0.0,9.396048,3.200194,1.0181055, 10:21:33.484
8192.472656, 8614.294922, 8390.933594, 8112.163086, 157152.812500, 187500.015625, 129185.476563, 187500.015625, 0, 1, 1, 0, 1,0.0,0.0,9.396048,3.200194,1.0181055, 10:21:33.484
8191.176270, 8613.601563, 8387.714844, 8113.101563, 157148.656250, 187500.015625, 129183.242188, 187500.015625, 0, 1, 1, 0, 1,0.0,0.0,9.396048,3.200194,1.0181055, 10:21:33.484
8137.420410, 8548.357422, 8343.167969, 8060.642090, 157072.609375, 187500.015625, 129125.289063, 187500.015625, 0, 1, 1, 0, 1,0.0,0.0,9.396048,3.200194,1.0181055, 10:21:33.484
8124.456543, 8532.844727, 8334.496094, 8049.354492, 157058.015625, 187500.015625, 129113.304688, 187500.015625, 0, 1, 1, 0, 1,0.0,0.0,9.396048,3.200194,1.0181055, 10:21:33.484
8177.363281, 8597.754883, 8377.209961, 8099.981445, 157132.312500, 187500.015625, 129170.164063, 187500.015625, 0, 1, 1, 0, 1,0.0,0.0,9.396048,3.200194,1.0181055, 10:21:33.485
8191.489258, 8615.122070, 8387.334961, 8116.454590, 157149.031250, 187500.015625, 129184.492188, 187500.015625, 0, 1, 1, 0, 1,0.0,0.0,9.396048,3.200194,1.0181055, 10:21:33.485
8144.282715, 8557.365234, 8347.683594, 8069.694824, 157080.437500, 187500.015625, 129133.000000, 187500.015625, 0, 1, 1, 0, 1,0.0,0.0,9.396048,3.200194,1.0181055, 10:21:33.485
8118.421387, 8525.714844, 8329.019531, 8046.784180, 157046.531250, 187500.015625, 129107.359375, 187500.015625, 0, 1, 1, 0, 1,0.0,0.0,9.396048,3.200194,1.0181055, 10:21:33.485
8169.160156, 8587.316406, 8370.482422, 8094.460449, 157117.687500, 187500.015625, 129161.765625, 187500.015625, 0, 1, 1, 0, 1,0.0,0.0,9.396048,3.200194,1.0181055, 10:21:33.485
8192.964844, 8617.111328, 8387.983398, 8120.544922, 157149.390625, 187500.015625, 129186.890625, 187500.015625, 0, 1, 1, 0, 1,0.0,0.0,9.396048,3.200194,1.0181055, 10:21:33.485
8152.708984, 8568.161133, 8353.115234, 8080.155273, 157089.937500, 187500.015625, 129141.867188, 187500.015625, 0, 1, 1, 0, 1,0.0,0.0,9.396048,3.200194,1.0181055, 10:21:33.486
8111.269043, 8518.160156, 8320.906250, 8042.425781, 157035.078125, 187500.015625, 129099.023438, 187500.015625, 0, 1, 1, 0, 1,0.0,0.0,9.396048,3.200194,1.0181055, 10:21:33.486
8152.329102, 8568.339844, 8354.880859, 8080.893066, 157093.843750, 187500.015625, 129143.210938, 187500.015625, 0, 1, 1, 0, 1,0.0,0.0,9.396048,3.200194,1.0181055, 10:21:33.486
8188.427246, 8612.752930, 8382.931641, 8119.293457, 157142.296875, 187500.015625, 129180.828125, 187500.015625, 0, 1, 1, 0, 1,0.0,0.0,9.396048,3.200194,1.0181055, 10:21:33.486
8158.185059, 8575.738281, 8356.176758, 8089.341797, 157096.015625, 187500.015625, 129145.718750, 187500.015625, 0, 1, 1, 0, 1,0.0,0.0,9.396048,3.200194,1.0181055, 10:21:33.486
8109.838379, 8516.998047, 8318.313477, 8045.085449, 157029.578125, 187500.015625, 129094.085938, 187500.015625, 0, 1, 1, 0, 1,0.0,0.0,9.396048,3.200194,1.0181055, 10:21:33.486
8138.873535, 8552.425781, 8342.922852, 8072.421387, 157071.765625, 187500.015625, 129124.953125, 187500.015625, 0, 1, 1, 0, 1,0.0,0.0,9.396048,3.200194,1.0181055, 10:21:33.486
8181.006348, 8604.907227, 8375.310547, 8115.560547, 157130.203125, 187500.015625, 129168.734375, 187500.015625, 0, 1, 1, 0, 1,0.0,0.0,9.396048,3.200194,1.0181055, 10:21:33.486
8160.822754, 8580.700195, 8356.199219, 8095.868652, 157098.687500, 187500.015625, 129144.265625, 187500.015625, 0, 1, 1, 0, 1,0.0,0.0,9.396048,3.200194,1.0181055, 10:21:33.486
8108.475098, 8516.707031, 8314.200195, 8046.471191, 157025.718750, 187500.015625, 129087.375000, 187500.015625, 0, 1, 1, 0, 1,0.0,0.0,9.396048,3.200194,1.0181055, 10:21:33.487
8122.780273, 8534.252930, 8327.142578, 8059.837402, 157048.250000, 187500.015625, 129102.554688, 187500.015625, 0, 1, 1, 0, 1,28.448092,7.220302,0.79401386,0.26617822,0.093241945, 10:21:33.945
8172.400879, 8595.385742, 8365.944336, 8108.698730, 157117.140625, 187500.015625, 129153.875000, 187500.015625, 0, 1, 1, 0, 1,28.448092,7.220302,0.79401386,0.26617822,0.093241945, 10:21:33.945
8166.142578, 8587.673828, 8358.590820, 8103.244629, 157104.375000, 187500.015625, 129143.789063, 187500.015625, 0, 1, 1, 0, 1,28.448092,7.220302,0.79401386,0.26617822,0.093241945, 10:21:33.945
8113.280762, 8522.875977, 8315.452148, 8052.148438, 157029.156250, 187500.015625, 129085.320313, 187500.015625, 0, 1, 1, 0, 1,28.448092,7.220302,0.79401386,0.26617822,0.093241945, 10:21:33.946
8112.028809, 8521.266602, 8315.944336, 8051.120605, 157029.968750, 187500.015625, 129083.734375, 187500.015625, 0, 1, 1, 0, 1,28.448092,7.220302,0.79401386,0.26617822,0.093241945, 10:21:33.946
8167.796387, 8589.149414, 8360.491211, 8104.854004, 157106.859375, 187500.015625, 129141.335938, 187500.015625, 0, 1, 1, 0, 1,28.448092,7.220302,0.79401386,0.26617822,0.093241945, 10:21:33.946
8174.725586, 8597.620117, 8364.178711, 8113.124023, 157112.890625, 187500.015625, 129145.554688, 187500.015625, 0, 1, 1, 0, 1,28.448092,7.220302,0.79401386,0.26617822,0.093241945, 10:21:33.946
8126.937500, 8538.433594, 8324.415039, 8065.358398, 157043.000000, 187500.015625, 129091.242188, 187500.015625, 0, 1, 1, 0, 1,28.448092,7.220302,0.79401386,0.26617822,0.093241945, 10:21:33.946
8113.503906, 8521.446289, 8315.563477, 8052.930664, 157025.968750, 187500.015625, 129076.515625, 187500.015625, 0, 1, 1, 0, 1,28.448092,7.220302,0.79401386,0.26617822,0.093241945, 10:21:33.946
8169.853027, 8589.529297, 8360.937500, 8105.345703, 157103.906250, 187500.015625, 129134.828125, 187500.015625, 0, 1, 1, 0, 1,28.448092,7.220302,0.79401386,0.26617822,0.093241945, 10:21:33.946
8188.918945, 8612.775391, 8374.237305, 8125.395020, 157127.703125, 187500.015625, 129152.796875, 187500.015625, 0, 1, 1, 0, 1,28.448092,7.220302,0.79401386,0.26617822,0.093241945, 10:21:33.946
8146.897461, 8560.650391, 8338.339844, 8082.189453, 157065.390625, 187500.015625, 129104.656250, 187500.015625, 0, 1, 1, 0, 1,28.448092,7.220302,0.79401386,0.26617822,0.093241945, 10:21:33.946
8117.639160, 8524.575195, 8316.055664, 8054.719238, 157026.812500, 187500.015625, 129073.359375, 187500.015625, 0, 1, 1, 0, 1,28.448092,7.220302,0.79401386,0.26617822,0.093241945, 10:21:33.947
8166.097656, 8583.471680, 8355.148438, 8098.953125, 157095.453125, 187500.015625, 129124.164063, 187500.015625, 0, 1, 1, 0, 1,28.448092,7.220302,0.79401386,0.26617822,0.093241945, 10:21:33.947
8195.200195, 8619.502930, 8377.053711, 8129.597168, 157134.343750, 187500.015625, 129153.671875, 187500.015625, 0, 1, 1, 0, 1,28.448092,7.220302,0.79401386,0.26617822,0.093241945, 10:21:33.947
8159.973633, 8576.229492, 8346.297852, 8093.521484, 157081.390625, 187500.015625, 129113.304688, 187500.015625, 0, 1, 1, 0, 1,28.448092,7.220302,0.79401386,0.26617822,0.093241945, 10:21:33.947
8118.555664, 8525.625977, 8314.491211, 8055.545898, 157025.640625, 187500.015625, 129070.031250, 187500.015625, 0, 1, 1, 0, 1,28.448092,7.220302,0.79401386,0.26617822,0.093241945, 10:21:33.947
8154.072754, 8569.524414, 8343.547852, 8088.179688, 157078.156250, 187500.015625, 129108.500000, 187500.015625, 0, 1, 1, 0, 1,28.448092,7.220302,0.79401386,0.26617822,0.093241945, 10:21:33.947
8191.265625, 8615.748047, 8372.024414, 8126.959961, 157129.562500, 187500.015625, 129147.906250, 187500.015625, 0, 1, 1, 0, 1,28.448092,7.220302,0.79401386,0.26617822,0.093241945, 10:21:33.947
8167.237793, 8585.840820, 8350.522461, 8102.708008, 157091.656250, 187500.015625, 129120.078125, 187500.015625, 0, 1, 1, 0, 1,28.448092,7.220302,0.79401386,0.26617822,0.093241945, 10:21:33.948
8115.828613, 8523.636719, 8309.551758, 8054.584961, 157022.078125, 187500.015625, 129066.476563, 187500.015625, 0, 1, 1, 0, 1,28.448092,7.220302,0.79401386,0.26617822,0.093241945, 10:21:33.948
8140.750977, 8554.056641, 8330.852539, 8077.294434, 157059.281250, 187500.015625, 129094.375000, 187500.015625, 0, 1, 1, 0, 1,28.448092,7.220302,0.79401386,0.26617822,0.093241945, 10:21:33.948
8189.365723, 8613.378906, 8369.051758, 8125.909180, 157125.687500, 187500.015625, 129146.226563, 187500.015625, 0, 1, 1, 0, 1,28.448092,7.220302,0.79401386,0.26617822,0.093241945, 10:21:33.948
8174.837402, 8595.497070, 8354.746094, 8111.604004, 157101.578125, 187500.015625, 129129.218750, 187500.015625, 0, 1, 1, 0, 1,28.448092,7.220302,0.79401386,0.26617822,0.093241945, 10:21:33.948
8123.405762, 8532.308594, 8313.775391, 8062.765625, 157029.031250, 187500.015625, 129075.195313, 187500.015625, 0, 1, 1, 0, 1,28.448092,7.220302,0.79401386,0.26617822,0.093241945, 10:21:33.948
8131.921875, 8543.037109, 8322.269531, 8070.834473, 157044.062500, 187500.015625, 129086.664063, 187500.015625, 0, 1, 1, 0, 1,28.448092,7.220302,0.79401386,0.26617822,0.093241945, 10:21:33.948
8183.688477, 8606.650391, 8363.262695, 8121.327148, 157116.125000, 187500.015625, 129142.609375, 187500.015625, 0, 1, 1, 0, 1,28.448092,7.220302,0.79401386,0.26617822,0.093241945, 10:21:33.948
8179.218262, 8601.666016, 8356.892578, 8117.728516, 157107.203125, 187500.015625, 129137.242188, 187500.015625, 0, 1, 1, 0, 1,28.448092,7.220302,0.79401386,0.26617822,0.093241945, 10:21:33.949
8125.842285, 8536.443359, 8312.926758, 8065.515137, 157031.703125, 187500.015625, 129080.539063, 187500.015625, 0, 1, 1, 0, 1,28.448092,7.220302,0.79401386,0.26617822,0.093241945, 10:21:33.949
8120.231934, 8529.537109, 8310.311523, 8060.396484, 157026.609375, 187500.015625, 129077.226563, 187500.015625, 0, 1, 1, 0, 1,28.448092,7.220302,0.79401386,0.26617822,0.093241945, 10:21:33.949
8178.279297, 8599.833008, 8357.584961, 8115.873535, 157106.406250, 187500.015625, 129140.148438, 187500.015625, 0, 1, 1, 0, 1,28.448092,7.220302,0.79401386,0.26617822,0.093241945, 10:21:33.949
8187.242676, 8611.053711, 8362.636719, 8126.400879, 157116.484375, 187500.015625, 129149.875000, 187500.015625, 0, 1, 1, 0, 1,28.448092,7.220302,0.79401386,0.26617822,0.093241945, 10:21:33.949
8136.526367, 8549.408203, 8319.922852, 8076.176758, 157044.218750, 187500.015625, 129095.710938, 187500.015625, 0, 1, 1, 0, 1,28.448092,7.220302,0.79401386,0.26617822,0.093241945, 10:21:33.949
8115.336914, 8523.770508, 8304.924805, 8057.065918, 157017.875000, 187500.015625, 129076.085938, 187500.015625, 0, 1, 1, 0, 1,28.448092,7.220302,0.79401386,0.26617822,0.093241945, 10:21:33.949
8168.645996, 8588.568359, 8348.174805, 8106.910156, 157092.656250, 187500.015625, 129134.117188, 187500.015625, 0, 1, 1, 0, 1,28.448092,7.220302,0.79401386,0.26617822,0.093241945, 10:21:33.949
8190.595215, 8615.680664, 8364.291016, 8130.804199, 157120.906250, 187500.015625, 129157.695313, 187500.015625, 0, 1, 1, 0, 1,28.448092,7.220302,0.79401386,0.26617822,0.093241945, 10:21:33.949
8150.697266, 8566.461914, 8330.316406, 8090.392578, 157061.359375, 187500.015625, 129113.929688, 187500.015625, 0, 1, 1, 0, 1,28.448092,7.220302,0.79401386,0.26617822,0.093241945, 10:21:33.949
8116.521484, 8524.708984, 8304.276367, 8059.233887, 157015.968750, 187500.015625, 129079.640625, 187500.015625, 0, 1, 1, 0, 1,28.448092,7.220302,0.79401386,0.26617822,0.093241945, 10:21:33.950
8159.906250, 8577.928711, 8339.345703, 8099.467285, 157078.265625, 187500.015625, 129126.875000, 187500.015625, 0, 1, 1, 0, 1,28.448092,7.220302,0.79401386,0.26617822,0.093241945, 10:21:33.950
8192.741211, 8618.407227, 8364.447266, 8134.514648, 157122.093750, 187500.015625, 129161.804688, 187500.015625, 0, 1, 1, 0, 1,28.448092,7.220302,0.79401386,0.26617822,0.093241945, 10:21:33.950
8159.392090, 8577.727539, 8335.166016, 8101.188477, 157072.093750, 187500.015625, 129124.593750, 187500.015625, 0, 1, 1, 0, 1,28.448092,7.220302,0.79401386,0.26617822,0.093241945, 10:21:33.950
8112.990234, 8521.467773, 8298.889648, 8058.675293, 157009.640625, 187500.015625, 129076.562500, 187500.015625, 0, 1, 1, 0, 1,28.448092,7.220302,0.79401386,0.26617822,0.093241945, 10:21:33.950
8145.288086, 8561.321289, 8325.957031, 8089.028809, 157057.250000, 187500.015625, 129111.984375, 187500.015625, 0, 1, 1, 0, 1,28.448092,7.220302,0.79401386,0.26617822,0.093241945, 10:21:33.950
8185.029785, 8610.606445, 8356.892578, 8130.603027, 157112.218750, 187500.015625, 129154.164063, 187500.015625, 0, 1, 1, 0, 1,28.448092,7.220302,0.79401386,0.26617822,0.093241945, 10:21:33.950
8160.420410, 8580.856445, 8334.383789, 8106.440918, 157074.843750, 187500.015625, 129125.757813, 187500.015625, 0, 1, 1, 0, 1,28.448092,7.220302,0.79401386,0.26617822,0.093241945, 10:21:33.950
8107.960938, 8517.265625, 8292.988281, 8057.781250, 157003.046875, 187500.015625, 129070.320313, 187500.015625, 0, 1, 1, 0, 1,28.448092,7.220302,0.79401386,0.26617822,0.093241945, 10:21:33.950
8129.038574, 8542.635742, 8312.009766, 8077.919922, 157034.453125, 187500.015625, 129093.609375, 187500.015625, 0, 1, 1, 0, 1,28.448092,7.220302,0.79401386,0.26617822,0.093241945, 10:21:33.951
8175.395996, 8600.124023, 8348.488281, 8124.948242, 157099.468750, 187500.015625, 129142.718750, 187500.015625, 0, 1, 1, 0, 1,28.448092,7.220302,0.79401386,0.26617822,0.093241945, 10:21:33.951
8162.208496, 8584.455078, 8335.389648, 8113.124023, 157078.312500, 187500.015625, 129126.562500, 187500.015625, 0, 1, 1, 0, 1,28.448092,7.220302,0.79401386,0.26617822,0.093241945, 10:21:33.951
8107.000000, 8517.445313, 8290.865234, 8060.955078, 157001.375000, 187500.015625, 129067.328125, 187500.015625, 0, 1, 1, 0, 1,28.448092,7.220302,0.79401386,0.26617822,0.093241945, 10:21:33.951
8110.375000, 8521.736328, 8295.738281, 8065.447754, 157008.796875, 187500.015625, 129072.023438, 187500.015625, 0, 1, 1, 0, 1,28.448092,7.220302,0.79401386,0.26617822,0.093241945, 10:21:33.951
8161.471191, 8584.834961, 8336.775391, 8116.588867, 157080.390625, 187500.015625, 129126.265625, 187500.015625, 0, 1, 1, 0, 1,28.448092,7.220302,0.79401386,0.26617822,0.093241945, 10:21:33.951
8161.381348, 8585.058594, 8334.898438, 8118.801270, 157077.328125, 187500.015625, 129124.328125, 187500.015625, 0, 1, 1, 0, 1,28.448092,7.220302,0.79401386,0.26617822,0.093241945, 10:21:33.952
8109.346680, 8521.512695, 8292.295898, 8068.197266, 157003.203125, 187500.015625, 129067.437500, 187500.015625, 0, 1, 1, 0, 1,28.448092,7.220302,0.79401386,0.26617822,0.093241945, 10:21:33.952
8095.019043, 8504.771484, 8282.528320, 8055.948242, 156986.984375, 187500.015625, 129053.468750, 187500.015625, 0, 1, 1, 0, 1,28.448092,7.220302,0.79401386,0.26617822,0.093241945, 10:21:33.952
8146.293945, 8567.892578, 8323.856445, 8106.127930, 157059.265625, 187500.015625, 129108.007813, 187500.015625, 0, 1, 1, 0, 1,28.448092,7.220302,0.79401386,0.26617822,0.093241945, 10:21:33.952
8157.134766, 8581.929688, 8330.852539, 8120.142578, 157072.390625, 187500.015625, 129118.179688, 187500.015625, 0, 1, 1, 0, 1,28.448092,7.220302,0.79401386,0.26617822,0.093241945, 10:21:33.952
8111.604004, 8525.983398, 8293.145508, 8075.372070, 157005.593750, 187500.015625, 129067.507813, 187500.015625, 0, 1, 1, 0, 1,28.448092,7.220302,0.79401386,0.26617822,0.093241945, 10:21:33.952
8083.709473, 8492.456055, 8272.581055, 8050.740234, 156970.000000, 187500.015625, 129039.164063, 187500.015625, 0, 1, 1, 0, 1,28.448092,7.220302,0.79401386,0.26617822,0.093241945, 10:21:33.952
8131.698242, 8551.218750, 8311.853516, 8097.165039, 157037.859375, 187500.015625, 129090.390625, 187500.015625, 0, 1, 1, 0, 1,28.448092,7.220302,0.79401386,0.26617822,0.093241945, 10:21:33.953
8154.832520, 8580.252930, 8329.354492, 8123.853027, 157068.250000, 187500.015625, 129114.156250, 187500.015625, 0, 1, 1, 0, 1,28.448092,7.220302,0.79401386,0.26617822,0.093241945, 10:21:33.953
8115.403809, 8532.018555, 8295.625977, 8084.536133, 157009.843750, 187500.015625, 129069.671875, 187500.015625, 0, 1, 1, 0, 1,28.448092,7.220302,0.79401386,0.26617822,0.093241945, 10:21:33.953
8076.444824, 8484.699219, 8265.764648, 8049.108887, 156957.937500, 187500.015625, 129029.265625, 187500.015625, 0, 1, 1, 0, 1,28.448092,7.220302,0.79401386,0.26617822,0.093241945, 10:21:33.953
8114.934570, 8532.197266, 8297.325195, 8085.720703, 157013.640625, 187500.015625, 129070.750000, 187500.015625, 0, 1, 1, 0, 1,28.448092,7.220302,0.79401386,0.26617822,0.093241945, 10:21:33.953
8147.680176, 8573.123047, 8322.493164, 8121.550781, 157058.296875, 187500.015625, 129105.187500, 187500.015625, 0, 1, 1, 0, 1,28.448092,7.220302,0.79401386,0.26617822,0.093241945, 10:21:33.953
8118.220215, 8536.845703, 8296.520508, 8092.247559, 157013.062500, 187500.015625, 129071.257813, 187500.015625, 0, 1, 1, 0, 1,28.448092,7.220302,0.79401386,0.26617822,0.093241945, 10:21:33.953
8067.683105, 8475.848633, 8256.197266, 8045.264160, 156945.203125, 187500.015625, 129018.132813, 187500.015625, 0, 1, 1, 0, 1,28.448092,7.220302,0.79401386,0.26617822,0.093241945, 10:21:33.953
8093.946289, 8508.503906, 8278.348633, 8070.141602, 156984.859375, 187500.015625, 129046.851563, 187500.015625, 0, 1, 1, 0, 1,28.448092,7.220302,0.79401386,0.26617822,0.093241945, 10:21:33.953
8139.096680, 8563.712891, 8314.423828, 8117.303711, 157045.765625, 187500.015625, 129093.882813, 187500.015625, 0, 1, 1, 0, 1,28.448092,7.220302,0.79401386,0.26617822,0.093241945, 10:21:33.954
8121.170898, 8541.651367, 8297.816406, 8099.958984, 157016.375000, 187500.015625, 129071.867188, 187500.015625, 0, 1, 1, 0, 1,28.448092,7.220302,0.79401386,0.26617822,0.093241945, 10:21:33.954
8066.386719, 8475.401367, 8253.314453, 8047.700684, 156941.265625, 187500.015625, 129013.125000, 187500.015625, 0, 1, 1, 0, 1,28.448092,7.220302,0.79401386,0.26617822,0.093241945, 10:21:33.954
8081.451660, 8493.707031, 8266.949219, 8061.938477, 156964.515625, 187500.015625, 129029.640625, 187500.015625, 0, 1, 1, 0, 1,28.448092,7.220302,0.79401386,0.26617822,0.093241945, 10:21:33.954
8131.944336, 8555.733398, 8307.316406, 8113.146484, 157034.093750, 187500.015625, 129082.664063, 187500.015625, 0, 1, 1, 0, 1,28.448092,7.220302,0.79401386,0.26617822,0.093241945, 10:21:33.954
8126.490723, 8548.804688, 8300.967773, 8109.011230, 157022.109375, 187500.015625, 129074.164063, 187500.015625, 0, 1, 1, 0, 1,28.448092,7.220302,0.79401386,0.26617822,0.093241945, 10:21:33.954
8071.706543, 8482.128906, 8255.862305, 8055.680176, 156945.468750, 187500.015625, 129014.468750, 187500.015625, 0, 1, 1, 0, 1,28.448092,7.220302,0.79401386,0.26617822,0.093241945, 10:21:33.954
8069.359375, 8479.513672, 8255.661133, 8053.869629, 156945.562500, 187500.015625, 129012.898438, 187500.015625, 0, 1, 1, 0, 1,28.448092,7.220302,0.79401386,0.26617822,0.093241945, 10:21:33.954
8121.886230, 8543.976563, 8297.838867, 8105.658691, 157018.890625, 187500.015625, 129068.601563, 187500.015625, 0, 1, 1, 0, 1,28.448092,7.220302,0.79401386,0.26617822,0.093241945, 10:21:33.954
8128.010254, 8551.375000, 8301.191406, 8114.107422, 157024.000000, 187500.015625, 129073.585938, 187500.015625, 0, 1, 1, 0, 1,28.448092,7.220302,0.79401386,0.26617822,0.093241945, 10:21:33.954
8077.383789, 8489.326172, 8259.103516, 8063.995117, 156951.687500, 187500.015625, 129018.085938, 187500.015625, 0, 1, 1, 0, 1,28.448092,7.220302,0.79401386,0.26617822,0.093241945, 10:21:33.955
8059.368164, 8467.689453, 8246.452148, 8047.946289, 156930.281250, 187500.015625, 129000.476563, 187500.015625, 0, 1, 1, 0, 1,28.448092,7.220302,0.79401386,0.26617822,0.093241945, 10:21:33.955
8111.045410, 8531.012695, 8288.563477, 8097.902832, 157002.937500, 187500.015625, 129055.656250, 187500.015625, 0, 1, 1, 0, 1,28.448092,7.220302,0.79401386,0.26617822,0.093241945, 10:21:33.955
8124.568359, 8548.581055, 8297.727539, 8114.532227, 157020.640625, 187500.015625, 129069.492188, 187500.015625, 0, 1, 1, 0, 1,28.448092,7.220302,0.79401386,0.26617822,0.093241945, 10:21:33.955
8078.523438, 8492.477539, 8258.633789, 8068.510254, 156954.171875, 187500.015625, 129018.664063, 187500.015625, 0, 1, 1, 0, 1,28.448092,7.220302,0.79401386,0.26617822,0.093241945, 10:21:33.955
8048.549805, 8455.843750, 8236.573242, 8041.285645, 156915.125000, 187500.015625, 128988.492188, 187500.015625, 0, 1, 1, 0, 1,28.448092,7.220302,0.79401386,0.26617822,0.093241945, 10:21:33.955
8095.242676, 8512.974609, 8275.107422, 8085.653809, 156981.437500, 187500.015625, 129039.031250, 187500.015625, 0, 1, 1, 0, 1,28.448092,7.220302,0.79401386,0.26617822,0.093241945, 10:21:33.955
8120.835449, 8545.116211, 8294.307617, 8114.152344, 157016.109375, 187500.015625, 129066.031250, 187500.015625, 0, 1, 1, 0, 1,28.448092,7.220302,0.79401386,0.26617822,0.093241945, 10:21:33.955
8084.334961, 8500.501953, 8262.657227, 8076.914551, 156961.968750, 187500.015625, 129025.062500, 187500.015625, 0, 1, 1, 0, 1,28.448092,7.220302,0.79401386,0.26617822,0.093241945, 10:21:33.955
8041.621094, 8448.690430, 8229.107422, 8036.681152, 156905.171875, 187500.015625, 128980.671875, 187500.015625, 0, 1, 1, 0, 1,28.448092,7.220302,0.79401386,0.26617822,0.093241945, 10:21:33.956
8079.864746, 8495.383789, 8261.025391, 8072.041504, 156960.140625, 187500.015625, 129022.179688, 187500.015625, 0, 1, 1, 0, 1,28.448092,7.220302,0.79401386,0.26617822,0.093241945, 10:21:33.956
8116.521484, 8541.160156, 8289.412109, 8110.531250, 157010.687500, 187500.015625, 129061.179688, 187500.015625, 0, 1, 1, 0, 1,28.448092,7.220302,0.79401386,0.26617822,0.093241945, 10:21:33.956
8091.420410, 8510.269531, 8266.791992, 8084.670410, 156971.734375, 187500.015625, 129032.007813, 187500.015625, 0, 1, 1, 0, 1,28.448092,7.220302,0.79401386,0.26617822,0.093241945, 10:21:33.956
8046.761719, 8454.926758, 8232.281250, 8042.269043, 156909.281250, 187500.015625, 128984.804688, 187500.015625, 0, 1, 1, 0, 1,28.448092,7.220302,0.79401386,0.26617822,0.093241945, 10:21:33.956
8071.416016, 8485.258789, 8253.493164, 8064.799805, 156946.203125, 187500.015625, 129012.093750, 187500.015625, 0, 1, 1, 0, 1,28.448092,7.220302,0.79401386,0.26617822,0.093241945, 10:21:33.956
8116.454590, 8541.070313, 8289.077148, 8110.844238, 157008.859375, 187500.015625, 129060.109375, 187500.015625, 0, 1, 1, 0, 1,28.448092,7.220302,0.79401386,0.26617822,0.093241945, 10:21:33.956
8101.367188, 8522.652344, 8274.660156, 8095.846191, 156984.593750, 187500.015625, 129042.023438, 187500.015625, 0, 1, 1, 0, 1,28.448092,7.220302,0.79401386,0.26617822,0.093241945, 10:21:33.956
8051.455566, 8461.319336, 8235.030273, 8047.454590, 156914.781250, 187500.015625, 128988.804688, 187500.015625, 0, 1, 1, 0, 1,28.448092,7.220302,0.79401386,0.26617822,0.093241945, 10:21:33.956
8063.033691, 8475.132813, 8246.429688, 8057.959961, 156933.515625, 187500.015625, 129002.398438, 187500.015625, 0, 1, 1, 0, 1,28.448092,7.220302,0.79401386,0.26617822,0.093241945, 10:21:33.956
8114.509766, 8538.276367, 8287.601563, 8109.101074, 157005.000000, 187500.015625, 129057.312500, 187500.015625, 0, 1, 1, 0, 1,28.448092,7.220302,0.79401386,0.26617822,0.093241945, 10:21:33.957
8108.921875, 8532.041016, 8280.627930, 8104.719727, 156995.156250, 187500.015625, 129050.140625, 187500.015625, 0, 1, 1, 0, 1,28.448092,7.220302,0.79401386,0.26617822,0.093241945, 10:21:33.957
8056.663574, 8468.025391, 8237.846680, 8053.087402, 156921.687500, 187500.015625, 128993.789063, 187500.015625, 0, 1, 1, 0, 1,28.448092,7.220302,0.79401386,0.26617822,0.093241945, 10:21:33.957
8050.963867, 8461.140625, 8235.231445, 8048.125488, 156917.000000, 187500.015625, 128989.429688, 187500.015625, 0, 1, 1, 0, 1,28.448092,7.220302,0.79401386,0.26617822,0.093241945, 10:21:33.957
8104.742188, 8526.833008, 8278.794922, 8100.964844, 156992.015625, 187500.015625, 129047.007813, 187500.015625, 0, 1, 1, 0, 1,28.448092,7.220302,0.79401386,0.26617822,0.093241945, 10:21:33.957
8112.252441, 8536.533203, 8283.109375, 8111.358398, 157000.171875, 187500.015625, 129054.070313, 187500.015625, 0, 1, 1, 0, 1,28.448092,7.220302,0.79401386,0.26617822,0.093241945, 10:21:33.957
8065.335938, 8478.597656, 8244.417969, 8065.000977, 156931.859375, 187500.015625, 129002.664063, 187500.015625, 0, 1, 1, 0, 1,28.448092,7.220302,0.79401386,0.26617822,0.093241945, 10:21:33.957
8044.437012, 8453.004883, 8229.509766, 8046.426758, 156905.484375, 187500.015625, 128982.125000, 187500.015625, 0, 1, 1, 0, 1,28.448092,7.220302,0.79401386,0.26617822,0.093241945, 10:21:33.957
8092.784180, 8512.728516, 8268.378906, 8092.940430, 156974.640625, 187500.015625, 129034.382813, 187500.015625, 0, 1, 1, 0, 1,28.448092,7.220302,0.79401386,0.26617822,0.093241945, 10:21:33.957
8110.419434, 8535.237305, 8280.740234, 8113.593750, 156997.984375, 187500.015625, 129052.796875, 187500.015625, 0, 1, 1, 0, 1,28.448092,7.220302,0.79401386,0.26617822,0.093241945, 10:21:33.958
8067.996094, 8483.469727, 8244.485352, 8070.879395, 156936.078125, 187500.015625, 129005.796875, 187500.015625, 0, 1, 1, 0, 1,28.448092,7.220302,0.79401386,0.26617822,0.093241945, 10:21:33.958
