%OpenBCI Raw EEG Data
%
%Sample Rate = 1000.0 Hz
%First Column = SampleIndex
%Last Column = Timestamp 
%Other Columns = EEG data in microvolts followed by Accel Data (in G) interleaved with Aux Data
40, -31679.73, 28674.81, 28755.16, 28791.53, -33582.85, -37171.84, -130465.41, -150568.91, 0.000, 0.000, 0.000, 16:34:51.160
0, 0.00, 0.00, 0.00, 0.00, 0.00, 0.00, 0.00, 0.00, 0.094, -0.062, 1.008, 16:34:51.167
1, -7188.70, -7407.46, -7283.56, -7200.03, -100274.59, -95519.23, -129464.67, -149533.09, 0.000, 0.000, 0.000, 16:34:51.168
2, -7189.77, -7408.53, -7284.63, -7200.88, -100275.53, -95520.22, -129465.39, -149534.06, 0.000, 0.000, 0.000, 16:34:51.168
3, -7189.93, -7408.75, -7284.75, -7201.08, -100275.78, -95520.58, -129465.63, -149534.28, 0.000, 0.000, 0.000, 16:34:51.169
4, -7188.61, -7407.66, -7283.74, -7200.03, -100274.82, -95519.53, -129464.63, -149533.09, 0.000, 0.000, 0.000, 16:34:51.169
5, -7189.01, -7407.95, -7284.10, -7200.44, -100275.27, -95519.95, -129465.08, -149533.34, 0.000, 0.000, 0.000, 16:34:51.169
6, -7190.56, -7409.54, -7285.55, -7201.66, -100276.65, -95521.43, -129466.46, -149534.89, 0.000, 0.000, 0.000, 16:34:51.169
7, -7191.16, -7410.12, -7286.36, -7202.47, -100277.63, -95522.32, -129467.16, -149535.72, 0.000, 0.000, 0.000, 16:34:51.170
8, -7192.05, -7411.17, -7287.27, -7203.61, -100278.66, -95523.30, -129468.12, -149536.72, 0.000, 0.000, 0.000, 16:34:51.177
9, -7193.04, -7412.15, -7288.17, -7204.64, -100279.65, -95524.52, -129469.01, -149537.80, 0.000, 0.000, 0.000, 16:34:51.178
10, -7190.91, -7409.98, -7286.20, -7202.60, -100277.61, -95522.57, -129467.20, -149535.69, 0.000, 0.000, 0.000, 16:34:51.178
11, -7187.85, -7407.10, -7283.29, -7199.68, -100274.86, -95519.82, -129464.30, -149532.88, 0.000, 0.000, 0.000, 16:34:51.178
12, -7187.20, -7406.41, -7282.53, -7198.98, -100274.35, -95519.22, -129463.52, -149532.09, 0.000, 0.000, 0.000, 16:34:51.179
13, -7186.51, -7405.62, -7281.89, -7198.29, -100273.72, -95518.41, -129462.95, -149531.56, 0.000, 0.000, 0.000, 16:34:51.179
14, -7186.11, -7405.22, -7281.33, -7197.71, -100273.37, -95518.10, -129462.51, -149531.11, 0.000, 0.000, 0.000, 16:34:51.179
15, -7188.39, -7407.39, -7283.58, -7199.99, -100275.60, -95520.49, -129464.67, -149533.09, 0.000, 0.000, 0.000, 16:34:51.179
16, -7188.66, -7407.57, -7283.76, -7200.21, -100275.94, -95520.67, -129464.90, -149533.19, 0.000, 0.000, 0.000, 16:34:51.179
17, -7188.28, -7407.28, -7283.25, -7199.72, -100275.64, -95520.27, -129464.30, -149532.66, 0.000, 0.000, 0.000, 16:34:51.180
18, -7186.53, -7405.45, -7281.33, -7197.73, -100273.66, -95518.27, -129462.28, -149530.77, 0.000, 0.000, 0.000, 16:34:51.187
19, -7188.70, -7407.41, -7283.36, -7199.76, -100275.78, -95520.27, -129464.30, -149532.66, 0.000, 0.000, 0.000, 16:34:51.188
20, -7189.01, -7407.73, -7283.92, -7200.06, -100276.12, -95520.53, -129464.41, -149532.72, 0.000, 0.000, 0.000, 16:34:51.188
21, -7187.78, -7406.41, -7282.69, -7198.69, -100274.86, -95519.38, -129463.13, -149531.73, 0.000, 0.000, 0.000, 16:34:51.188
22, -7187.69, -7406.45, -7282.47, -7198.85, -100275.17, -95519.64, -129463.27, -149531.89, 0.000, 0.000, 0.000, 16:34:51.189
23, -7189.37, -7408.17, -7284.19, -7200.68, -100276.96, -95521.65, -129465.16, -149533.72, 0.000, 0.000, 0.000, 16:34:51.189
24, -7191.07, -7409.83, -7285.93, -7202.38, -100278.82, -95523.30, -129466.84, -149535.38, 0.000, 0.000, 0.000, 16:34:51.189
25, -7190.35, -7409.09, -7285.31, -7201.84, -100278.26, -95522.84, -129466.26, -149534.81, 0.000, 0.000, 0.000, 16:34:51.189
26, -7189.35, -7408.24, -7284.41, -7200.82, -100277.27, -95521.95, -129465.52, -149533.86, 0.000, 0.000, 0.000, 16:34:51.189
27, -7189.59, -7408.51, -7284.63, -7201.11, -100277.68, -95522.23, -129465.75, -149534.42, 0.000, 0.000, 0.000, 16:34:51.190
28, -7188.57, -7407.46, -7283.79, -7200.15, -100276.94, -95521.49, -129464.72, -149533.52, 0.000, 0.000, 0.000, 16:34:51.200
29, -7188.77, -7407.59, -7283.79, -7200.26, -100277.19, -95521.83, -129464.80, -149533.52, 0.000, 0.000, 0.000, 16:34:51.200
30, -7188.92, -7407.68, -7283.85, -7200.26, -100277.14, -95521.90, -129464.97, -149533.41, 0.000, 0.000, 0.000, 16:34:51.200
31, -7190.35, -7409.22, -7285.51, -7201.75, -100278.88, -95523.41, -129466.51, -149535.09, 0.000, 0.000, 0.000, 16:34:51.200
32, -7192.39, -7411.37, -7287.65, -7203.81, -100281.19, -95525.74, -129468.66, -149537.17, 0.000, 0.000, 0.000, 16:34:51.201
33, -7193.06, -7411.82, -7288.14, -7204.50, -100281.59, -95526.26, -129469.05, -149537.61, 0.000, 0.000, 0.000, 16:34:51.201
34, -7193.93, -7412.55, -7288.88, -7205.11, -100282.35, -95527.04, -129469.88, -149538.33, 0.000, 0.000, 0.000, 16:34:51.201
35, -7193.66, -7412.26, -7288.43, -7204.66, -100282.02, -95526.57, -129469.48, -149537.84, 0.000, 0.000, 0.000, 16:34:51.201
36, -7192.61, -7411.19, -7287.38, -7203.77, -100281.03, -95525.59, -129468.27, -149536.61, 0.094, -0.054, 1.006, 16:34:51.201
37, -7189.46, -7408.11, -7284.39, -7200.68, -100277.99, -95522.61, -129465.21, -149533.75, 0.000, 0.000, 0.000, 16:34:51.201
38, -7189.62, -7408.46, -7284.68, -7200.99, -100278.35, -95522.95, -129465.41, -149533.92, 0.000, 0.000, 0.000, 16:34:51.208
39, -7189.95, -7408.71, -7284.81, -7201.35, -100278.75, -95523.33, -129465.79, -149534.17, 0.000, 0.000, 0.000, 16:34:51.208
40, -7188.57, -7407.35, -7283.41, -7199.81, -100277.32, -95521.90, -129464.12, -149532.45, 0.000, 0.000, 0.000, 16:34:51.208
41, -7190.24, -7409.02, -7285.19, -7201.64, -100279.09, -95523.66, -129465.86, -149534.27, 0.000, 0.000, 0.000, 16:34:51.208
42, -7190.49, -7409.22, -7285.55, -7202.00, -100279.65, -95524.29, -129466.26, -149534.78, 0.000, 0.000, 0.000, 16:34:51.209
43, -7187.09, -7405.96, -7282.18, -7198.89, -100276.60, -95521.27, -129463.38, -149531.75, 0.000, 0.000, 0.000, 16:34:51.209
44, -7187.56, -7406.32, -7282.58, -7199.23, -100276.98, -95521.79, -129463.84, -149532.30, 0.000, 0.000, 0.000, 16:34:51.209
45, -7188.30, -7407.17, -7283.29, -7199.85, -100277.95, -95522.63, -129464.49, -149532.97, 0.000, 0.000, 0.000, 16:34:51.209
46, -7186.76, -7405.83, -7281.75, -7198.40, -100276.83, -95521.32, -129463.20, -149531.75, 0.000, 0.000, 0.000, 16:34:51.209
47, -7186.40, -7405.45, -7281.46, -7198.09, -100276.56, -95520.87, -129462.73, -149531.36, 0.000, 0.000, 0.000, 16:34:51.209
48, -7184.23, -7403.17, -7279.29, -7195.79, -100274.21, -95518.59, -129460.27, -149528.77, 0.000, 0.000, 0.000, 16:34:51.218
49, -7185.95, -7404.73, -7280.92, -7197.28, -100275.82, -95520.24, -129461.91, -149530.33, 0.000, 0.000, 0.000, 16:34:51.218
50, -7188.70, -7407.55, -7283.63, -7200.01, -100278.48, -95522.91, -129464.56, -149533.05, 0.000, 0.000, 0.000, 16:34:51.218
51, -7188.70, -7407.46, -7283.63, -7199.88, -100278.51, -95522.88, -129464.41, -149532.86, 0.000, 0.000, 0.000, 16:34:51.219
52, -7189.04, -7407.79, -7283.92, -7200.10, -100278.98, -95523.33, -129464.80, -149533.23, 0.000, 0.000, 0.000, 16:34:51.219
53, -7188.81, -7407.61, -7283.83, -7199.92, -100278.91, -95523.35, -129464.63, -149533.08, 0.000, 0.000, 0.000, 16:34:51.219
54, -7189.93, -7408.49, -7284.70, -7200.82, -100279.89, -95524.24, -129465.57, -149534.16, 0.000, 0.000, 0.000, 16:34:51.219
55, -7188.86, -7407.46, -7283.65, -7199.85, -100278.95, -95523.41, -129464.61, -149532.92, 0.000, 0.000, 0.000, 16:34:51.219
56, -7187.74, -7406.52, -7282.69, -7198.96, -100278.10, -95522.48, -129463.63, -149532.00, 0.000, 0.000, 0.000, 16:34:51.219
57, -7188.39, -7407.28, -7283.41, -7199.74, -100278.88, -95523.33, -129464.25, -149532.77, 0.000, 0.000, 0.000, 16:34:51.220
58, -7185.26, -7404.08, -7280.34, -7196.73, -100276.02, -95520.49, -129461.26, -149529.61, 0.000, 0.000, 0.000, 16:34:51.228
59, -7186.24, -7405.27, -7281.39, -7197.71, -100277.23, -95521.61, -129462.46, -149530.69, 0.000, 0.000, 0.000, 16:34:51.228
60, -7186.51, -7405.47, -7281.80, -7198.11, -100277.84, -95522.05, -129462.73, -149531.28, 0.000, 0.000, 0.000, 16:34:51.228
61, -7186.29, -7405.20, -7281.66, -7197.91, -100277.73, -95521.95, -129462.57, -149531.17, 0.000, 0.000, 0.000, 16:34:51.229
62, -7187.52, -7406.50, -7282.85, -7199.07, -100278.80, -95523.26, -129463.89, -149532.38, 0.000, 0.000, 0.000, 16:34:51.229
63, -7184.34, -7403.28, -7279.74, -7196.12, -100275.78, -95520.18, -129460.85, -149529.19, 0.000, 0.000, 0.000, 16:34:51.229
64, -7184.50, -7403.30, -7279.67, -7196.08, -100275.89, -95520.27, -129460.98, -149529.39, 0.000, 0.000, 0.000, 16:34:51.230
65, -7185.88, -7404.80, -7281.06, -7197.35, -100277.43, -95521.79, -129462.10, -149530.61, 0.000, 0.000, 0.000, 16:34:51.236
66, -7185.88, -7404.60, -7280.95, -7197.35, -100277.30, -95521.77, -129461.91, -149530.58, 0.000, 0.000, 0.000, 16:34:51.236
67, -7188.37, -7407.01, -7283.32, -7199.65, -100279.63, -95524.24, -129464.25, -149532.97, 0.000, 0.000, 0.000, 16:34:51.237
68, -7187.11, -7405.89, -7282.06, -7198.29, -100278.64, -95523.02, -129463.09, -149531.56, 0.000, 0.000, 0.000, 16:34:51.239
69, -7187.02, -7405.60, -7281.95, -7198.18, -100278.55, -95522.77, -129462.80, -149531.27, 0.000, 0.000, 0.000, 16:34:51.239
70, -7188.14, -7406.61, -7282.96, -7199.36, -100279.76, -95523.98, -129463.73, -149532.20, 0.000, 0.000, 0.000, 16:34:51.239
71, -7187.34, -7405.92, -7282.18, -7198.45, -100278.84, -95523.10, -129462.80, -149531.25, 0.000, 0.000, 0.000, 16:34:51.240
72, -7187.63, -7406.27, -7282.67, -7198.89, -100279.24, -95523.51, -129463.34, -149531.78, 0.000, 0.000, 0.000, 16:34:51.240
73, -7189.48, -7407.97, -7284.46, -7200.55, -100281.12, -95525.34, -129465.19, -149533.70, 0.000, 0.000, 0.000, 16:34:51.240
74, -7189.86, -7408.24, -7284.81, -7200.82, -100281.68, -95525.98, -129465.48, -149534.08, 0.000, 0.000, 0.000, 16:34:51.240
75, -7186.91, -7405.45, -7281.84, -7198.13, -100278.82, -95523.10, -129462.73, -149531.41, 0.090, -0.054, 1.004, 16:34:51.240
76, -7182.22, -7400.93, -7277.21, -7193.69, -100274.41, -95518.92, -129458.41, -149526.89, 0.000, 0.000, 0.000, 16:34:51.241
77, -7182.08, -7400.86, -7277.19, -7193.71, -100274.48, -95518.99, -129458.39, -149526.86, 0.000, 0.000, 0.000, 16:34:51.241
78, -7184.83, -7403.48, -7279.87, -7196.39, -100277.23, -95521.80, -129461.12, -149529.61, 0.000, 0.000, 0.000, 16:34:51.248
79, -7186.44, -7405.07, -7281.44, -7197.95, -100278.95, -95523.35, -129462.59, -149531.11, 0.000, 0.000, 0.000, 16:34:51.248
80, -7185.30, -7404.10, -7280.45, -7196.88, -100278.08, -95522.41, -129461.57, -149530.17, 0.000, 0.000, 0.000, 16:34:51.249
81, -7184.54, -7403.25, -7279.69, -7195.96, -100277.16, -95521.43, -129460.65, -149529.05, 0.000, 0.000, 0.000, 16:34:51.249
82, -7186.56, -7405.29, -7281.66, -7198.04, -100279.24, -95523.62, -129462.71, -149531.05, 0.000, 0.000, 0.000, 16:34:51.249
83, -7186.13, -7404.98, -7281.17, -7197.51, -100279.06, -95523.51, -129462.23, -149530.61, 0.000, 0.000, 0.000, 16:34:51.249
84, -7185.53, -7404.24, -7280.57, -7196.90, -100278.28, -95522.68, -129461.39, -149530.06, 0.000, 0.000, 0.000, 16:34:51.250
85, -7184.43, -7403.08, -7279.58, -7195.83, -100277.25, -95521.43, -129460.25, -149528.72, 0.000, 0.000, 0.000, 16:34:51.250
86, -7186.89, -7405.40, -7281.84, -7198.09, -100279.80, -95523.89, -129462.44, -149530.89, 0.000, 0.000, 0.000, 16:34:51.250
87, -7185.57, -7404.35, -7280.59, -7196.95, -100278.62, -95522.91, -129461.27, -149529.86, 0.000, 0.000, 0.000, 16:34:51.250
88, -7182.38, -7401.02, -7277.21, -7193.55, -100275.33, -95519.73, -129457.95, -149526.69, 0.000, 0.000, 0.000, 16:34:51.258
89, -7184.05, -7402.43, -7278.78, -7195.18, -100276.90, -95521.27, -129459.53, -149528.22, 0.000, 0.000, 0.000, 16:34:51.258
90, -7186.78, -7405.22, -7281.68, -7198.02, -100280.00, -95524.22, -129462.51, -149530.89, 0.000, 0.000, 0.000, 16:34:51.258
91, -7185.46, -7404.04, -7280.50, -7196.70, -100278.77, -95523.15, -129461.34, -149529.72, 0.000, 0.000, 0.000, 16:34:51.259
92, -7186.11, -7404.84, -7281.06, -7197.57, -100279.63, -95523.84, -129462.02, -149530.61, 0.000, 0.000, 0.000, 16:34:51.259
93, -7188.01, -7406.72, -7282.89, -7199.63, -100281.77, -95525.85, -129464.07, -149532.63, 0.000, 0.000, 0.000, 16:34:51.259
94, -7187.29, -7406.07, -7282.24, -7198.94, -100281.23, -95525.50, -129463.45, -149532.06, 0.000, 0.000, 0.000, 16:34:51.259
95, -7185.21, -7404.10, -7280.32, -7196.90, -100279.22, -95523.48, -129461.45, -149530.11, 0.000, 0.000, 0.000, 16:34:51.259
96, -7184.10, -7402.96, -7279.18, -7195.88, -100278.28, -95522.52, -129460.38, -149528.97, 0.000, 0.000, 0.000, 16:34:51.260
97, -7186.11, -7404.89, -7281.21, -7197.73, -100280.36, -95524.70, -129462.39, -149530.86, 0.000, 0.000, 0.000, 16:34:51.260
98, -7185.55, -7404.17, -7280.72, -7197.02, -100279.73, -95524.13, -129461.68, -149530.13, 0.000, 0.000, 0.000, 16:34:51.260
99, -7187.29, -7405.94, -7282.40, -7198.69, -100281.50, -95525.92, -129463.45, -149531.80, 0.000, 0.000, 0.000, 16:34:51.268
100, -7185.15, -7403.75, -7280.23, -7196.50, -100279.49, -95523.62, -129461.30, -149529.50, 0.000, 0.000, 0.000, 16:34:51.268
101, -7185.01, -7403.50, -7280.05, -7196.28, -100279.06, -95523.33, -129460.67, -149529.05, 0.000, 0.000, 0.000, 16:34:51.268
102, -7186.35, -7404.82, -7281.24, -7197.62, -100280.36, -95524.71, -129462.10, -149530.53, 0.000, 0.000, 0.000, 16:34:51.268
103, -7187.67, -7406.34, -7282.47, -7198.96, -100281.75, -95525.97, -129463.18, -149531.80, 0.000, 0.000, 0.000, 16:34:51.269
104, -7187.47, -7406.07, -7282.24, -7198.56, -100281.68, -95525.72, -129462.77, -149531.25, 0.000, 0.000, 0.000, 16:34:51.269
105, -7188.25, -7406.85, -7283.11, -7199.32, -100282.53, -95526.79, -129463.69, -149532.11, 0.000, 0.000, 0.000, 16:34:51.269
106, -7189.82, -7408.37, -7284.70, -7201.04, -100284.34, -95528.49, -129465.45, -149533.86, 0.000, 0.000, 0.000, 16:34:51.269
107, -7190.98, -7409.42, -7285.69, -7202.20, -100285.55, -95529.92, -129466.71, -149535.11, 0.000, 0.000, 0.000, 16:34:51.269
108, -7189.15, -7407.55, -7283.96, -7200.37, -100283.76, -95528.16, -129464.85, -149533.30, 0.000, 0.000, 0.000, 16:34:51.269
109, -7185.77, -7404.33, -7280.70, -7197.17, -100280.67, -95525.01, -129461.66, -149530.08, 0.000, 0.000, 0.000, 16:34:51.278
110, -7185.28, -7404.15, -7280.28, -7196.73, -100280.38, -95524.73, -129461.34, -149529.75, 0.000, 0.000, 0.000, 16:34:51.279
111, -7187.09, -7405.89, -7282.00, -7198.51, -100282.06, -95526.52, -129463.06, -149531.63, 0.000, 0.000, 0.000, 16:34:51.279
112, -7188.97, -7407.75, -7283.94, -7200.55, -100284.18, -95528.63, -129465.03, -149533.66, 0.000, 0.000, 0.000, 16:34:51.279
113, -7188.23, -7407.05, -7283.45, -7200.08, -100283.73, -95528.11, -129464.41, -149532.81, 0.088, -0.056, 1.002, 16:34:51.279
114, -7187.05, -7405.96, -7282.24, -7198.71, -100282.75, -95527.04, -129463.34, -149531.83, 0.000, 0.000, 0.000, 16:34:51.279
115, -7186.80, -7405.60, -7281.84, -7198.29, -100282.35, -95526.59, -129462.93, -149531.36, 0.000, 0.000, 0.000, 16:34:51.280
116, -7188.01, -7406.83, -7282.96, -7199.59, -100283.53, -95527.75, -129464.02, -149532.41, 0.000, 0.000, 0.000, 16:34:51.280
117, -7189.39, -7408.15, -7284.19, -7200.82, -100285.05, -95529.14, -129465.30, -149533.70, 0.000, 0.000, 0.000, 16:34:51.280
118, -7188.23, -7406.72, -7283.00, -7199.32, -100283.89, -95527.95, -129463.91, -149532.55, 0.000, 0.000, 0.000, 16:34:51.280
119, -7188.43, -7406.81, -7283.11, -7199.54, -100283.98, -95528.09, -129464.18, -149532.63, 0.000, 0.000, 0.000, 16:34:51.288
120, -7190.00, -7408.40, -7284.66, -7201.20, -100285.55, -95529.54, -129465.57, -149534.19, 0.000, 0.000, 0.000, 16:34:51.288
121, -7185.95, -7404.42, -7280.79, -7197.26, -100281.63, -95525.56, -129461.32, -149529.92, 0.000, 0.000, 0.000, 16:34:51.288
122, -7184.10, -7402.43, -7278.85, -7195.14, -100279.73, -95523.80, -129459.51, -149528.00, 0.000, 0.000, 0.000, 16:34:51.289
123, -7186.24, -7404.73, -7281.10, -7197.35, -100282.04, -95526.26, -129461.97, -149530.28, 0.000, 0.000, 0.000, 16:34:51.289
124, -7186.51, -7405.11, -7281.21, -7197.73, -100282.71, -95526.77, -129462.26, -149530.80, 0.000, 0.000, 0.000, 16:34:51.289
125, -7185.28, -7403.99, -7280.07, -7196.68, -100281.68, -95525.63, -129461.16, -149529.64, 0.000, 0.000, 0.000, 16:34:51.289
126, -7185.48, -7404.28, -7280.34, -7196.88, -100281.92, -95526.13, -129461.48, -149529.98, 0.000, 0.000, 0.000, 16:34:51.289
127, -7186.94, -7405.67, -7281.80, -7198.36, -100283.58, -95527.91, -129463.02, -149531.56, 0.000, 0.000, 0.000, 16:34:51.289
128, -7187.63, -7406.41, -7282.69, -7199.30, -100284.63, -95528.73, -129463.87, -149532.55, 0.000, 0.000, 0.000, 16:34:51.290
129, -7185.79, -7404.60, -7280.70, -7197.31, -100282.80, -95526.75, -129461.99, -149530.50, 0.000, 0.000, 0.000, 16:34:51.298
130, -7184.50, -7403.46, -7279.61, -7196.17, -100281.68, -95525.85, -129460.83, -149529.30, 0.000, 0.000, 0.000, 16:34:51.299
131, -7185.59, -7404.53, -7280.68, -7197.24, -100282.59, -95526.75, -129461.55, -149530.23, 0.000, 0.000, 0.000, 16:34:51.299
132, -7188.59, -7407.52, -7283.63, -7200.10, -100285.70, -95529.79, -129464.67, -149533.30, 0.000, 0.000, 0.000, 16:34:51.299
133, -7189.10, -7407.97, -7284.08, -7200.66, -100286.22, -95530.37, -129465.14, -149533.77, 0.000, 0.000, 0.000, 16:34:51.299
134, -7191.76, -7410.54, -7286.67, -7203.23, -100288.85, -95533.05, -129467.70, -149536.27, 0.000, 0.000, 0.000, 16:34:51.299
135, -7193.82, -7412.33, -7288.61, -7205.11, -100290.80, -95534.95, -129469.63, -149538.16, 0.000, 0.000, 0.000, 16:34:51.299
136, -7192.43, -7410.92, -7287.14, -7203.72, -100289.52, -95533.50, -129468.20, -149536.67, 0.000, 0.000, 0.000, 16:34:51.300
137, -7191.58, -7409.98, -7286.04, -7202.67, -100288.79, -95532.49, -129467.09, -149535.48, 0.000, 0.000, 0.000, 16:34:51.300
138, -7190.62, -7409.00, -7285.19, -7201.73, -100287.89, -95531.82, -129466.17, -149534.64, 0.000, 0.000, 0.000, 16:34:51.300
139, -7192.32, -7410.65, -7286.91, -7203.45, -100289.63, -95533.50, -129467.89, -149536.23, 0.000, 0.000, 0.000, 16:34:51.309
140, -7192.55, -7410.85, -7287.25, -7203.65, -100289.77, -95533.79, -129468.12, -149536.34, 0.000, 0.000, 0.000, 16:34:51.309
141, -7192.70, -7410.99, -7287.47, -7203.90, -100290.09, -95534.08, -129468.16, -149536.66, 0.000, 0.000, 0.000, 16:34:51.309
142, -7194.18, -7412.49, -7288.93, -7205.42, -100291.80, -95535.73, -129469.81, -149538.39, 0.000, 0.000, 0.000, 16:34:51.309
143, -7192.08, -7410.65, -7287.03, -7203.54, -100289.99, -95534.15, -129468.16, -149536.66, 0.000, 0.000, 0.000, 16:34:51.310
144, -7190.06, -7408.75, -7285.04, -7201.46, -100288.12, -95532.23, -129466.35, -149534.63, 0.000, 0.000, 0.000, 16:34:51.310
145, -7188.70, -7407.39, -7283.63, -7200.03, -100286.77, -95530.84, -129464.85, -149533.30, 0.000, 0.000, 0.000, 16:34:51.310
146, -7190.24, -7408.93, -7285.19, -7201.60, -100288.34, -95532.45, -129466.30, -149534.86, 0.000, 0.000, 0.000, 16:34:51.310
147, -7191.70, -7410.18, -7286.62, -7202.98, -100289.97, -95534.03, -129467.73, -149536.39, 0.000, 0.000, 0.000, 16:34:51.310
148, -7190.82, -7409.40, -7285.69, -7202.13, -100289.05, -95533.12, -129466.75, -149535.44, 0.000, 0.000, 0.000, 16:34:51.310
149, -7187.85, -7406.47, -7282.65, -7199.23, -100286.20, -95530.15, -129463.78, -149532.36, 0.000, 0.000, 0.000, 16:34:51.318
150, -7188.19, -7406.90, -7283.14, -7199.54, -100286.66, -95530.66, -129464.09, -149532.77, 0.000, 0.000, 0.000, 16:34:51.319
151, -7188.16, -7406.56, -7282.89, -7199.30, -100286.28, -95530.21, -129463.55, -149532.20, 0.096, -0.056, 1.002, 16:34:51.319
152, -7188.37, -7406.61, -7282.87, -7199.32, -100286.35, -95530.28, -129463.58, -149532.14, 0.000, 0.000, 0.000, 16:34:51.319
153, -7187.58, -7405.87, -7282.22, -7198.60, -100285.84, -95529.61, -129463.00, -149531.58, 0.000, 0.000, 0.000, 16:34:51.319
154, -7186.78, -7405.07, -7281.51, -7197.82, -100285.10, -95528.89, -129462.20, -149530.75, 0.000, 0.000, 0.000, 16:34:51.320
155, -7185.10, -7403.50, -7279.94, -7196.19, -100283.69, -95527.55, -129460.67, -149529.13, 0.000, 0.000, 0.000, 16:34:51.320
156, -7186.17, -7404.66, -7280.97, -7197.22, -100284.95, -95528.60, -129461.91, -149530.17, 0.000, 0.000, 0.000, 16:34:51.320
157, -7189.46, -7407.79, -7284.10, -7200.39, -100288.18, -95531.77, -129464.90, -149533.36, 0.000, 0.000, 0.000, 16:34:51.320
158, -7187.49, -7405.94, -7282.18, -7198.56, -100286.46, -95530.28, -129463.18, -149531.69, 0.000, 0.000, 0.000, 16:34:51.321
159, -7185.17, -7403.66, -7280.12, -7196.52, -100284.38, -95528.20, -129460.98, -149529.52, 0.000, 0.000, 0.000, 16:34:51.328
160, -7185.21, -7403.84, -7280.25, -7196.61, -100284.56, -95528.38, -129461.23, -149529.86, 0.000, 0.000, 0.000, 16:34:51.328
161, -7186.85, -7405.38, -7281.97, -7198.16, -100286.17, -95530.21, -129462.80, -149531.47, 0.000, 0.000, 0.000, 16:34:51.329
162, -7188.03, -7406.50, -7283.14, -7199.47, -100287.60, -95531.55, -129463.98, -149532.70, 0.000, 0.000, 0.000, 16:34:51.329
163, -7185.62, -7404.19, -7280.61, -7197.26, -100285.39, -95529.45, -129461.75, -149530.42, 0.000, 0.000, 0.000, 16:34:51.329
164, -7184.21, -7402.79, -7279.07, -7195.94, -100283.91, -95527.98, -129460.16, -149528.97, 0.000, 0.000, 0.000, 16:34:51.329
165, -7185.28, -7403.70, -7280.16, -7196.68, -100285.05, -95528.89, -129461.12, -149529.72, 0.000, 0.000, 0.000, 16:34:51.329
166, -7185.57, -7404.06, -7280.43, -7196.90, -100285.44, -95529.14, -129461.52, -149529.95, 0.000, 0.000, 0.000, 16:34:51.329
167, -7184.83, -7403.21, -7279.38, -7196.05, -100284.56, -95528.52, -129460.59, -149529.05, 0.000, 0.000, 0.000, 16:34:51.329
168, -7183.96, -7402.29, -7278.71, -7195.12, -100283.84, -95527.64, -129459.80, -149528.09, 0.000, 0.000, 0.000, 16:34:51.330
169, -7186.29, -7404.44, -7280.83, -7197.24, -100286.13, -95529.63, -129461.70, -149530.17, 0.000, 0.000, 0.000, 16:34:51.338
170, -7187.14, -7405.13, -7281.55, -7198.07, -100286.75, -95530.44, -129462.41, -149530.80, 0.000, 0.000, 0.000, 16:34:51.339
171, -7186.60, -7404.82, -7281.26, -7197.66, -100286.40, -95530.05, -129462.10, -149530.42, 0.000, 0.000, 0.000, 16:34:51.339
172, -7186.98, -7405.27, -7281.66, -7197.95, -100286.77, -95530.62, -129462.44, -149530.73, 0.000, 0.000, 0.000, 16:34:51.339
173, -7185.44, -7403.72, -7279.99, -7196.46, -100285.41, -95529.16, -129461.03, -149529.33, 0.000, 0.000, 0.000, 16:34:51.339
174, -7185.24, -7403.48, -7279.87, -7196.39, -100285.61, -95529.05, -129460.88, -149529.39, 0.000, 0.000, 0.000, 16:34:51.339
175, -7185.93, -7404.04, -7280.72, -7197.10, -100286.35, -95530.03, -129461.73, -149529.97, 0.000, 0.000, 0.000, 16:34:51.339
176, -7185.46, -7403.81, -7280.34, -7196.75, -100285.99, -95529.79, -129461.23, -149529.67, 0.000, 0.000, 0.000, 16:34:51.340
177, -7188.19, -7406.52, -7282.98, -7199.52, -100288.85, -95532.56, -129464.12, -149532.73, 0.000, 0.000, 0.000, 16:34:51.340
178, -7190.02, -7408.24, -7284.97, -7201.44, -100291.11, -95534.91, -129466.22, -149534.80, 0.000, 0.000, 0.000, 16:34:51.340
179, -7192.05, -7410.39, -7287.03, -7203.65, -100293.21, -95537.05, -129468.25, -149536.56, 0.000, 0.000, 0.000, 16:34:51.348
180, -7190.58, -7409.09, -7285.64, -7202.09, -100291.85, -95535.64, -129466.62, -149535.16, 0.000, 0.000, 0.000, 16:34:51.348
181, -7193.17, -7411.61, -7288.21, -7204.46, -100294.55, -95538.20, -129469.05, -149537.75, 0.000, 0.000, 0.000, 16:34:51.349
182, -7192.61, -7410.99, -7287.58, -7203.79, -100293.75, -95537.55, -129468.52, -149537.02, 0.000, 0.000, 0.000, 16:34:51.349
183, -7192.50, -7410.74, -7287.50, -7203.63, -100293.77, -95537.52, -129468.54, -149536.88, 0.000, 0.000, 0.000, 16:34:51.349
184, -7191.85, -7410.14, -7286.80, -7202.89, -100293.16, -95536.76, -129467.60, -149536.11, 0.000, 0.000, 0.000, 16:34:51.349
185, -7192.93, -7411.19, -7287.67, -7203.85, -100293.99, -95537.88, -129468.52, -149536.94, 0.000, 0.000, 0.000, 16:34:51.349
186, -7191.27, -7409.40, -7285.93, -7202.22, -100292.32, -95536.23, -129466.75, -149535.16, 0.000, 0.000, 0.000, 16:34:51.349
187, -7190.82, -7408.82, -7285.48, -7201.69, -100291.94, -95535.64, -129466.20, -149534.70, 0.000, 0.000, 0.000, 16:34:51.349
188, -7190.49, -7408.49, -7285.17, -7201.35, -100291.73, -95535.31, -129465.66, -149534.31, 0.000, 0.000, 0.000, 16:34:51.350
189, -7188.46, -7406.52, -7283.07, -7199.36, -100289.86, -95533.56, -129463.78, -149532.36, 0.000, 0.000, 0.000, 16:34:51.359
190, -7189.95, -7408.11, -7284.59, -7200.97, -100291.72, -95535.38, -129465.50, -149534.03, 0.092, -0.064, 1.002, 16:34:51.359
191, -7187.96, -7406.16, -7282.82, -7199.21, -100289.84, -95533.63, -129463.42, -149532.11, 0.000, 0.000, 0.000, 16:34:51.359
192, -7187.96, -7406.23, -7282.69, -7199.14, -100289.81, -95533.45, -129463.53, -149532.20, 0.000, 0.000, 0.000, 16:34:51.359
193, -7188.25, -7406.65, -7282.96, -7199.36, -100290.28, -95534.02, -129464.25, -149532.70, 0.000, 0.000, 0.000, 16:34:51.359
194, -7187.47, -7406.12, -7282.51, -7198.87, -100289.91, -95533.81, -129463.63, -149532.20, 0.000, 0.000, 0.000, 16:34:51.360
195, -7185.64, -7404.31, -7280.90, -7197.19, -100288.18, -95531.98, -129461.84, -149530.53, 0.000, 0.000, 0.000, 16:34:51.360
196, -7186.58, -7404.95, -7281.68, -7198.11, -100288.97, -95532.85, -129462.75, -149531.28, 0.000, 0.000, 0.000, 16:34:51.360
197, -7186.87, -7405.38, -7282.11, -7198.38, -100289.44, -95533.38, -129463.13, -149531.58, 0.000, 0.000, 0.000, 16:34:51.360
198, -7187.81, -7406.18, -7283.00, -7199.18, -100290.55, -95534.10, -129463.83, -149532.31, 0.000, 0.000, 0.000, 16:34:51.360
199, -7187.11, -7405.49, -7282.11, -7198.49, -100289.91, -95533.54, -129463.13, -149531.75, 0.000, 0.000, 0.000, 16:34:51.368
200, -7185.93, -7404.46, -7281.10, -7197.46, -100289.01, -95532.72, -129462.06, -149530.58, 0.000, 0.000, 0.000, 16:34:51.368
201, -7187.23, -7405.71, -7282.31, -7198.56, -100290.09, -95533.79, -129463.36, -149531.69, 0.000, 0.000, 0.000, 16:34:51.369
202, -7188.10, -7406.41, -7283.07, -7199.50, -100290.89, -95534.62, -129464.02, -149532.36, 0.000, 0.000, 0.000, 16:34:51.369
203, -7189.01, -7407.41, -7283.96, -7200.32, -100291.85, -95535.40, -129464.80, -149533.14, 0.000, 0.000, 0.000, 16:34:51.369
204, -7188.48, -7407.08, -7283.49, -7199.76, -100291.49, -95535.02, -129464.18, -149532.72, 0.000, 0.000, 0.000, 16:34:51.369
205, -7187.67, -7406.21, -7282.73, -7198.96, -100290.62, -95534.28, -129463.34, -149531.72, 0.000, 0.000, 0.000, 16:34:51.369
206, -7187.69, -7406.18, -7282.85, -7199.14, -100290.98, -95534.55, -129463.42, -149531.88, 0.000, 0.000, 0.000, 16:34:51.369
207, -7187.81, -7406.34, -7282.85, -7199.30, -100291.24, -95534.80, -129463.63, -149532.09, 0.000, 0.000, 0.000, 16:34:51.369
208, -7188.81, -7407.26, -7283.94, -7200.01, -100292.52, -95536.07, -129464.56, -149533.23, 0.000, 0.000, 0.000, 16:34:51.370
209, -7189.06, -7407.35, -7284.23, -7200.44, -100292.74, -95536.31, -129464.95, -149533.44, 0.000, 0.000, 0.000, 16:34:51.378
210, -7188.48, -7407.01, -7283.85, -7200.15, -100292.41, -95535.98, -129464.67, -149533.19, 0.000, 0.000, 0.000, 16:34:51.378
211, -7187.90, -7406.52, -7283.23, -7199.47, -100291.83, -95535.58, -129464.20, -149532.77, 0.000, 0.000, 0.000, 16:34:51.379
212, -7189.93, -7408.66, -7285.35, -7201.71, -100294.22, -95537.77, -129466.35, -149534.94, 0.000, 0.000, 0.000, 16:34:51.379
213, -7190.09, -7408.84, -7285.46, -7202.04, -100294.45, -95538.05, -129466.53, -149535.00, 0.000, 0.000, 0.000, 16:34:51.379
214, -7189.01, -7407.79, -7284.37, -7200.88, -100293.41, -95537.09, -129465.48, -149533.86, 0.000, 0.000, 0.000, 16:34:51.379
215, -7189.71, -7408.33, -7284.99, -7201.37, -100294.02, -95537.68, -129465.91, -149534.48, 0.000, 0.000, 0.000, 16:34:51.379
216, -7189.06, -7407.93, -7284.43, -7200.86, -100293.46, -95537.08, -129465.21, -149533.92, 0.000, 0.000, 0.000, 16:34:51.379
217, -7189.24, -7407.93, -7284.41, -7200.93, -100293.66, -95537.30, -129465.52, -149534.03, 0.000, 0.000, 0.000, 16:34:51.380
218, -7189.53, -7408.31, -7284.79, -7201.24, -100293.99, -95537.59, -129465.59, -149534.19, 0.000, 0.000, 0.000, 16:34:51.380
219, -7189.75, -7408.53, -7284.95, -7201.42, -100294.27, -95537.74, -129465.75, -149534.28, 0.000, 0.000, 0.000, 16:34:51.388
220, -7191.18, -7409.87, -7286.36, -7202.74, -100295.60, -95539.16, -129467.05, -149535.53, 0.000, 0.000, 0.000, 16:34:51.389
221, -7190.27, -7408.80, -7285.48, -7201.75, -100294.89, -95538.30, -129466.30, -149534.75, 0.000, 0.000, 0.000, 16:34:51.389
222, -7189.46, -7407.90, -7284.84, -7201.04, -100294.15, -95537.61, -129465.50, -149533.72, 0.000, 0.000, 0.000, 16:34:51.389
223, -7190.87, -7409.63, -7286.36, -7202.72, -100296.01, -95539.53, -129467.16, -149535.48, 0.000, 0.000, 0.000, 16:34:51.389
224, -7189.44, -7408.19, -7284.68, -7201.17, -100294.53, -95538.13, -129465.68, -149534.16, 0.000, 0.000, 0.000, 16:34:51.389
225, -7187.07, -7405.89, -7282.38, -7198.92, -100292.30, -95535.76, -129463.55, -149532.03, 0.000, 0.000, 0.000, 16:34:51.389
226, -7185.21, -7404.06, -7280.77, -7197.08, -100290.69, -95534.19, -129461.79, -149530.30, 0.000, 0.000, 0.000, 16:34:51.390
227, -7182.71, -7401.85, -7278.44, -7194.83, -100288.59, -95532.07, -129459.38, -149528.05, 0.000, 0.000, 0.000, 16:34:51.390
228, -7183.20, -7402.43, -7278.89, -7195.50, -100289.37, -95532.65, -129460.02, -149528.69, 0.088, -0.062, 1.004, 16:34:51.390
229, -7185.15, -7404.13, -7280.66, -7197.26, -100291.09, -95534.73, -129461.84, -149530.39, 0.000, 0.000, 0.000, 16:34:51.398
230, -7186.53, -7405.42, -7282.13, -7198.69, -100292.70, -95536.20, -129463.38, -149531.73, 0.000, 0.000, 0.000, 16:34:51.399
231, -7183.65, -7402.38, -7279.38, -7195.65, -100289.68, -95533.38, -129460.36, -149528.84, 0.000, 0.000, 0.000, 16:34:51.399
232, -7184.39, -7403.34, -7280.19, -7196.48, -100290.48, -95534.19, -129461.01, -149529.61, 0.000, 0.000, 0.000, 16:34:51.399
233, -7187.85, -7406.72, -7283.43, -7199.85, -100293.97, -95537.41, -129464.14, -149532.72, 0.000, 0.000, 0.000, 16:34:51.399
234, -7186.96, -7405.87, -7282.44, -7198.92, -100293.10, -95536.52, -129463.16, -149531.73, 0.000, 0.000, 0.000, 16:34:51.399
235, -7185.10, -7404.04, -7280.61, -7196.90, -100291.36, -95534.80, -129461.32, -149529.75, 0.000, 0.000, 0.000, 16:34:51.399
236, -7187.87, -7406.79, -7283.47, -7199.74, -100294.29, -95537.70, -129464.18, -149532.52, 0.000, 0.000, 0.000, 16:34:51.400
237, -7189.73, -7408.75, -7285.42, -7201.66, -100296.27, -95539.53, -129466.02, -149534.44, 0.000, 0.000, 0.000, 16:34:51.400
238, -7189.80, -7408.62, -7285.39, -7201.51, -100296.23, -95539.49, -129465.97, -149534.53, 0.000, 0.000, 0.000, 16:34:51.400
239, -7189.62, -7408.57, -7285.22, -7201.53, -100296.43, -95539.63, -129466.04, -149534.64, 0.000, 0.000, 0.000, 16:34:51.400
240, -7187.20, -7406.36, -7282.98, -7199.25, -100294.22, -95537.43, -129463.73, -149532.36, 0.000, 0.000, 0.000, 16:34:51.408
241, -7187.45, -7406.56, -7283.11, -7199.63, -100294.48, -95537.88, -129464.12, -149532.58, 0.000, 0.000, 0.000, 16:34:51.409
242, -7188.41, -7407.41, -7284.05, -7200.66, -100295.42, -95538.86, -129465.01, -149533.36, 0.000, 0.000, 0.000, 16:34:51.409
243, -7187.56, -7406.76, -7283.38, -7199.97, -100294.87, -95538.33, -129464.43, -149532.81, 0.000, 0.000, 0.000, 16:34:51.409
244, -7186.38, -7405.83, -7282.58, -7199.03, -100294.15, -95537.66, -129463.55, -149532.06, 0.000, 0.000, 0.000, 16:34:51.409
245, -7185.42, -7404.84, -7281.55, -7198.02, -100293.30, -95536.78, -129462.55, -149531.25, 0.000, 0.000, 0.000, 16:34:51.410
246, -7186.15, -7405.45, -7282.13, -7198.54, -100293.97, -95537.55, -129463.13, -149531.73, 0.000, 0.000, 0.000, 16:34:51.410
247, -7187.27, -7406.45, -7283.14, -7199.74, -100295.09, -95538.62, -129464.18, -149532.58, 0.000, 0.000, 0.000, 16:34:51.410
248, -7187.11, -7406.16, -7282.98, -7199.59, -100295.00, -95538.46, -129464.00, -149532.50, 0.000, 0.000, 0.000, 16:34:51.410
249, -7186.35, -7405.60, -7282.24, -7198.87, -100294.42, -95537.81, -129463.11, -149531.80, 0.000, 0.000, 0.000, 16:34:51.410
250, -7185.10, -7404.44, -7280.95, -7197.24, -100293.30, -95536.52, -129461.86, -149530.50, 0.000, 0.000, 0.000, 16:34:51.418
251, -7187.14, -7406.21, -7282.80, -7199.18, -100295.23, -95538.41, -129463.73, -149532.19, 0.000, 0.000, 0.000, 16:34:51.419
252, -7189.04, -7408.11, -7284.70, -7201.02, -100296.66, -95540.18, -129465.28, -149533.83, 0.000, 0.000, 0.000, 16:34:51.419
253, -7189.01, -7408.08, -7284.63, -7200.99, -100296.95, -95540.25, -129465.37, -149533.98, 0.000, 0.000, 0.000, 16:34:51.419
254, -7187.20, -7406.29, -7282.78, -7199.41, -100295.27, -95538.48, -129463.69, -149532.19, 0.000, 0.000, 0.000, 16:34:51.419
255, -7187.54, -7406.45, -7282.98, -7199.54, -100295.45, -95538.55, -129463.73, -149532.41, 0.000, 0.000, 0.000, 16:34:51.419
0, -7188.19, -7407.23, -7283.83, -7200.19, -100296.38, -95539.49, -129464.45, -149533.19, 0.000, 0.000, 0.000, 16:34:51.419
1, -7187.72, -7406.76, -7283.54, -7199.81, -100296.07, -95539.33, -129464.18, -149532.89, 0.000, 0.000, 0.000, 16:34:51.420
2, -7187.67, -7406.79, -7283.45, -7199.83, -100296.16, -95539.42, -129464.14, -149532.77, 0.000, 0.000, 0.000, 16:34:51.420
3, -7188.23, -7407.35, -7283.81, -7200.35, -100296.84, -95540.00, -129464.79, -149533.48, 0.000, 0.000, 0.000, 16:34:51.420
4, -7188.50, -7407.88, -7284.34, -7200.97, -100297.57, -95540.67, -129465.50, -149534.16, 0.000, 0.000, 0.000, 16:34:51.428
5, -7188.70, -7408.06, -7284.72, -7201.17, -100297.82, -95541.01, -129465.84, -149534.55, 0.000, 0.000, 0.000, 16:34:51.429
6, -7187.38, -7406.67, -7283.36, -7199.99, -100296.34, -95539.78, -129464.41, -149533.08, 0.000, 0.000, 0.000, 16:34:51.429
7, -7187.94, -7407.37, -7284.01, -7200.86, -100297.19, -95540.65, -129465.16, -149533.81, 0.000, 0.000, 0.000, 16:34:51.429
8, -7189.75, -7409.13, -7285.82, -7202.42, -100299.18, -95542.57, -129466.93, -149535.56, 0.000, 0.000, 0.000, 16:34:51.429
9, -7190.53, -7409.71, -7286.47, -7202.94, -100299.85, -95543.13, -129467.40, -149536.16, 0.000, 0.000, 0.000, 16:34:51.429
10, -7188.14, -7407.23, -7283.92, -7200.41, -100297.39, -95540.74, -129464.72, -149533.64, 0.084, -0.058, 0.998, 16:34:51.429
11, -7188.50, -7407.55, -7284.19, -7200.75, -100297.84, -95541.27, -129465.03, -149533.88, 0.000, 0.000, 0.000, 16:34:51.429
12, -7189.57, -7408.69, -7285.15, -7201.64, -100298.91, -95542.13, -129466.04, -149534.78, 0.000, 0.000, 0.000, 16:34:51.430
13, -7189.86, -7408.89, -7285.55, -7201.98, -100299.13, -95542.39, -129466.22, -149534.84, 0.000, 0.000, 0.000, 16:34:51.430
14, -7188.46, -7407.46, -7284.19, -7200.73, -100297.84, -95541.12, -129464.72, -149533.48, 0.000, 0.000, 0.000, 16:34:51.440
15, -7190.85, -7409.83, -7286.53, -7202.94, -100300.30, -95543.47, -129467.13, -149535.98, 0.000, 0.000, 0.000, 16:34:51.440
16, -7190.65, -7409.54, -7286.42, -7202.56, -100300.08, -95543.35, -129466.87, -149535.67, 0.000, 0.000, 0.000, 16:34:51.440
17, -7189.26, -7408.22, -7284.84, -7201.22, -100298.84, -95541.99, -129465.45, -149534.39, 0.000, 0.000, 0.000, 16:34:51.441
18, -7187.99, -7407.03, -7283.58, -7200.03, -100297.66, -95540.80, -129464.25, -149532.98, 0.000, 0.000, 0.000, 16:34:51.441
19, -7187.61, -7406.74, -7283.47, -7199.81, -100297.46, -95540.77, -129464.12, -149532.81, 0.000, 0.000, 0.000, 16:34:51.441
20, -7187.43, -7406.41, -7283.23, -7199.76, -100297.52, -95540.77, -129464.09, -149532.97, 0.000, 0.000, 0.000, 16:34:51.441
21, -7187.14, -7406.34, -7283.02, -7199.63, -100297.39, -95540.83, -129464.00, -149532.81, 0.000, 0.000, 0.000, 16:34:51.441
22, -7185.88, -7405.11, -7281.89, -7198.36, -100296.23, -95539.60, -129463.09, -149531.41, 0.000, 0.000, 0.000, 16:34:51.441
23, -7186.35, -7405.60, -7282.22, -7198.71, -100296.95, -95540.05, -129463.42, -149531.95, 0.000, 0.000, 0.000, 16:34:51.441
24, -7187.00, -7406.25, -7282.91, -7199.54, -100297.88, -95541.01, -129464.02, -149532.72, 0.000, 0.000, 0.000, 16:34:51.448
25, -7186.87, -7406.34, -7282.89, -7199.61, -100297.75, -95540.88, -129464.02, -149532.70, 0.000, 0.000, 0.000, 16:34:51.449
26, -7187.36, -7406.63, -7283.29, -7199.81, -100298.11, -95541.12, -129464.23, -149532.86, 0.000, 0.000, 0.000, 16:34:51.449
27, -7188.07, -7407.26, -7283.79, -7200.50, -100298.71, -95541.88, -129464.67, -149533.25, 0.000, 0.000, 0.000, 16:34:51.449
28, -7189.26, -7408.42, -7285.01, -7201.69, -100299.85, -95543.13, -129465.55, -149534.38, 0.000, 0.000, 0.000, 16:34:51.449
29, -7189.68, -7408.71, -7285.28, -7201.89, -100300.25, -95543.52, -129466.06, -149534.80, 0.000, 0.000, 0.000, 16:34:51.449
30, -7190.80, -7409.74, -7286.44, -7202.85, -100301.44, -95544.59, -129467.11, -149535.80, 0.000, 0.000, 0.000, 16:34:51.449
31, -7190.82, -7409.71, -7286.38, -7202.83, -100301.57, -95544.74, -129467.13, -149535.64, 0.000, 0.000, 0.000, 16:34:51.449
32, -7189.89, -7408.71, -7285.22, -7201.73, -100300.56, -95543.63, -129465.95, -149534.66, 0.000, 0.000, 0.000, 16:34:51.450
33, -7190.24, -7409.18, -7285.75, -7202.16, -100301.05, -95544.14, -129466.46, -149535.05, 0.000, 0.000, 0.000, 16:34:51.450
34, -7191.07, -7410.16, -7286.71, -7203.01, -100302.02, -95545.12, -129467.27, -149536.11, 0.000, 0.000, 0.000, 16:34:51.459
35, -7190.56, -7409.45, -7286.15, -7202.45, -100301.70, -95544.70, -129466.71, -149535.48, 0.000, 0.000, 0.000, 16:34:51.459
36, -7186.85, -7405.94, -7282.60, -7199.14, -100298.33, -95541.30, -129463.29, -149531.95, 0.000, 0.000, 0.000, 16:34:51.459
37, -7187.67, -7406.70, -7283.47, -7199.99, -100299.23, -95542.35, -129464.23, -149532.92, 0.000, 0.000, 0.000, 16:34:51.459
38, -7190.04, -7409.25, -7286.02, -7202.49, -100301.91, -95545.12, -129466.98, -149535.69, 0.000, 0.000, 0.000, 16:34:51.460
39, -7190.94, -7410.32, -7287.03, -7203.45, -100302.96, -95546.04, -129467.91, -149536.70, 0.000, 0.000, 0.000, 16:34:51.460
40, -7191.94, -7410.97, -7287.79, -7204.35, -100303.88, -95546.77, -129468.61, -149537.44, 0.000, 0.000, 0.000, 16:34:51.460
41, -7192.43, -7411.44, -7288.17, -7204.79, -100304.41, -95547.36, -129469.21, -149537.84, 0.000, 0.000, 0.000, 16:34:51.460
42, -7189.57, -7408.69, -7285.35, -7201.98, -100301.57, -95544.67, -129466.33, -149535.09, 0.000, 0.000, 0.000, 16:34:51.460
43, -7189.44, -7408.42, -7285.15, -7201.69, -100301.53, -95544.67, -129466.09, -149534.69, 0.000, 0.000, 0.000, 16:34:51.460
44, -7188.54, -7407.68, -7284.28, -7200.93, -100300.68, -95543.89, -129465.26, -149533.86, 0.000, 0.000, 0.000, 16:34:51.469
45, -7188.19, -7406.94, -7283.56, -7200.08, -100300.05, -95543.18, -129464.67, -149533.30, 0.000, 0.000, 0.000, 16:34:51.469
46, -7189.95, -7408.87, -7285.53, -7201.87, -100301.91, -95544.92, -129466.15, -149534.81, 0.000, 0.000, 0.000, 16:34:51.469
47, -7189.30, -7408.35, -7285.04, -7201.46, -100301.53, -95544.45, -129465.52, -149534.08, 0.000, 0.000, 0.000, 16:34:51.469
48, -7189.04, -7408.02, -7284.66, -7201.13, -100301.35, -95544.14, -129465.34, -149533.86, 0.000, 0.000, 0.000, 16:34:51.469
49, -7189.35, -7408.35, -7284.97, -7201.40, -100301.82, -95544.63, -129465.79, -149534.27, 0.094, -0.062, 1.002, 16:34:51.470
50, -7192.37, -7411.26, -7287.81, -7204.12, -100304.77, -95547.65, -129468.63, -149537.20, 0.000, 0.000, 0.000, 16:34:51.470
51, -7192.28, -7411.30, -7288.01, -7204.19, -100304.86, -95547.76, -129468.66, -149537.39, 0.000, 0.000, 0.000, 16:34:51.470
52, -7190.94, -7409.96, -7286.80, -7202.94, -100303.67, -95546.62, -129467.52, -149536.19, 0.000, 0.000, 0.000, 16:34:51.470
53, -7190.11, -7409.11, -7286.04, -7202.27, -100302.89, -95546.13, -129466.80, -149535.47, 0.000, 0.000, 0.000, 16:34:51.470
54, -7189.93, -7408.93, -7285.66, -7202.20, -100302.76, -95546.06, -129466.59, -149535.27, 0.000, 0.000, 0.000, 16:34:51.479
55, -7189.10, -7408.24, -7284.84, -7201.33, -100302.16, -95545.34, -129465.88, -149534.58, 0.000, 0.000, 0.000, 16:34:51.479
56, -7189.89, -7408.95, -7285.64, -7202.25, -100303.05, -95546.15, -129466.87, -149535.42, 0.000, 0.000, 0.000, 16:34:51.479
57, -7190.00, -7409.07, -7285.84, -7202.31, -100303.23, -95546.35, -129466.98, -149535.44, 0.000, 0.000, 0.000, 16:34:51.479
58, -7190.60, -7409.76, -7286.62, -7203.03, -100304.10, -95547.24, -129467.63, -149536.27, 0.000, 0.000, 0.000, 16:34:51.479
59, -7189.42, -7408.46, -7285.31, -7201.87, -100303.05, -95545.91, -129466.26, -149534.86, 0.000, 0.000, 0.000, 16:34:51.480
60, -7188.34, -7407.35, -7284.08, -7200.64, -100301.93, -95544.80, -129465.05, -149533.70, 0.000, 0.000, 0.000, 16:34:51.480
61, -7188.77, -7407.73, -7284.46, -7200.82, -100302.27, -95545.19, -129465.41, -149533.97, 0.000, 0.000, 0.000, 16:34:51.480
62, -7187.02, -7405.71, -7282.58, -7198.98, -100300.34, -95543.34, -129463.55, -149531.98, 0.000, 0.000, 0.000, 16:34:51.480
63, -7187.56, -7406.41, -7283.05, -7199.56, -100301.02, -95544.14, -129464.00, -149532.47, 0.000, 0.000, 0.000, 16:34:51.480
64, -7186.38, -7405.20, -7281.77, -7198.20, -100299.74, -95542.66, -129462.46, -149531.13, 0.000, 0.000, 0.000, 16:34:51.489
65, -7187.67, -7406.45, -7283.07, -7199.54, -100301.10, -95543.89, -129463.89, -149532.38, 0.000, 0.000, 0.000, 16:34:51.489
66, -7190.09, -7409.09, -7285.57, -7202.20, -100303.78, -95546.62, -129466.46, -149535.06, 0.000, 0.000, 0.000, 16:34:51.490
67, -7190.38, -7409.36, -7286.00, -7202.60, -100304.21, -95547.22, -129466.77, -149535.38, 0.000, 0.000, 0.000, 16:34:51.490
68, -7191.20, -7410.21, -7286.82, -7203.45, -100305.41, -95548.50, -129467.89, -149536.52, 0.000, 0.000, 0.000, 16:34:51.490
69, -7192.10, -7411.08, -7287.88, -7204.44, -100306.31, -95549.32, -129468.77, -149537.45, 0.000, 0.000, 0.000, 16:34:51.490
70, -7190.31, -7409.07, -7285.91, -7202.60, -100304.45, -95547.58, -129466.87, -149535.47, 0.000, 0.000, 0.000, 16:34:51.490
71, -7188.63, -7407.41, -7284.34, -7200.93, -100303.14, -95546.06, -129465.45, -149533.92, 0.000, 0.000, 0.000, 16:34:51.491
72, -7188.90, -7407.93, -7284.66, -7201.26, -100303.65, -95546.64, -129465.93, -149534.48, 0.000, 0.000, 0.000, 16:34:51.491
73, -7188.01, -7406.94, -7283.61, -7200.19, -100302.69, -95545.75, -129464.70, -149533.41, 0.000, 0.000, 0.000, 16:34:51.491
74, -7189.86, -7408.80, -7285.71, -7202.09, -100304.66, -95547.71, -129466.48, -149535.36, 0.000, 0.000, 0.000, 16:34:51.499
75, -7189.08, -7407.86, -7284.84, -7201.22, -100303.85, -95547.05, -129465.79, -149534.63, 0.000, 0.000, 0.000, 16:34:51.499
76, -7189.80, -7408.69, -7285.42, -7201.89, -100304.73, -95547.70, -129466.58, -149535.33, 0.000, 0.000, 0.000, 16:34:51.499
77, -7186.85, -7405.89, -7282.78, -7199.16, -100302.00, -95544.98, -129463.69, -149532.55, 0.000, 0.000, 0.000, 16:34:51.500
78, -7190.02, -7409.07, -7286.15, -7202.38, -100305.06, -95548.23, -129466.69, -149535.42, 0.000, 0.000, 0.000, 16:34:51.500
79, -7193.10, -7411.93, -7288.93, -7205.11, -100307.98, -95551.02, -129469.48, -149538.22, 0.000, 0.000, 0.000, 16:34:51.500
80, -7193.93, -7412.64, -7289.40, -7205.82, -100308.86, -95551.73, -129470.11, -149538.69, 0.000, 0.000, 0.000, 16:34:51.500
81, -7191.16, -7409.87, -7286.65, -7203.05, -100306.16, -95549.10, -129467.38, -149536.08, 0.000, 0.000, 0.000, 16:34:51.500
82, -7188.39, -7407.01, -7283.79, -7200.19, -100303.41, -95546.24, -129464.41, -149533.28, 0.000, 0.000, 0.000, 16:34:51.501
83, -7188.57, -7407.14, -7283.94, -7200.37, -100303.63, -95546.69, -129464.65, -149533.33, 0.000, 0.000, 0.000, 16:34:51.501
84, -7189.71, -7408.33, -7285.19, -7201.55, -100304.84, -95547.87, -129465.75, -149534.53, 0.000, 0.000, 0.000, 16:34:51.509
85, -7189.93, -7408.57, -7285.44, -7201.98, -100305.33, -95548.32, -129466.13, -149534.86, 0.000, 0.000, 0.000, 16:34:51.509
86, -7189.17, -7407.77, -7284.72, -7201.08, -100304.57, -95547.58, -129465.37, -149533.98, 0.000, 0.000, 0.000, 16:34:51.510
87, -7188.03, -7406.63, -7283.63, -7200.08, -100303.61, -95546.57, -129464.34, -149533.14, 0.094, -0.060, 1.000, 16:34:51.510
88, -7190.71, -7409.54, -7286.42, -7202.98, -100306.71, -95549.66, -129467.38, -149536.23, 0.000, 0.000, 0.000, 16:34:51.510
89, -7191.56, -7410.56, -7287.36, -7203.99, -100307.83, -95550.77, -129468.43, -149537.33, 0.000, 0.000, 0.000, 16:34:51.510
90, -7192.08, -7411.21, -7287.99, -7204.55, -100308.52, -95551.45, -129468.88, -149537.69, 0.000, 0.000, 0.000, 16:34:51.510
91, -7190.62, -7409.67, -7286.53, -7203.10, -100307.05, -95549.93, -129467.34, -149536.16, 0.000, 0.000, 0.000, 16:34:51.510
92, -7190.80, -7409.58, -7286.47, -7202.89, -100306.89, -95549.88, -129467.29, -149536.16, 0.000, 0.000, 0.000, 16:34:51.510
93, -7190.91, -7409.58, -7286.49, -7202.94, -100307.05, -95549.95, -129467.47, -149536.09, 0.000, 0.000, 0.000, 16:34:51.510
94, -7191.74, -7410.43, -7287.43, -7203.88, -100307.98, -95550.73, -129468.07, -149536.97, 0.000, 0.000, 0.000, 16:34:51.519
95, -7192.12, -7411.10, -7287.94, -7204.35, -100308.45, -95551.42, -129468.63, -149537.53, 0.000, 0.000, 0.000, 16:34:51.519
96, -7192.19, -7411.19, -7287.83, -7204.28, -100308.57, -95551.29, -129468.70, -149537.41, 0.000, 0.000, 0.000, 16:34:51.519
97, -7190.71, -7409.42, -7286.27, -7202.76, -100307.07, -95549.63, -129466.71, -149535.59, 0.000, 0.000, 0.000, 16:34:51.520
98, -7192.12, -7410.68, -7287.43, -7203.94, -100308.41, -95551.09, -129468.02, -149536.94, 0.000, 0.000, 0.000, 16:34:51.520
99, -7192.14, -7410.88, -7287.54, -7204.12, -100308.70, -95551.45, -129468.43, -149537.14, 0.000, 0.000, 0.000, 16:34:51.520
100, -7193.26, -7411.93, -7288.66, -7205.29, -100309.95, -95552.56, -129469.57, -149538.23, 0.000, 0.000, 0.000, 16:34:51.520
101, -7192.25, -7410.68, -7287.58, -7204.03, -100309.02, -95551.54, -129468.50, -149536.98, 0.000, 0.000, 0.000, 16:34:51.520
102, -7189.95, -7408.53, -7285.46, -7201.96, -100307.02, -95549.39, -129466.30, -149534.89, 0.000, 0.000, 0.000, 16:34:51.521
103, -7190.65, -7409.13, -7286.09, -7202.72, -100307.72, -95550.35, -129467.16, -149535.77, 0.000, 0.000, 0.000, 16:34:51.521
104, -7189.64, -7408.42, -7285.31, -7201.98, -100306.89, -95549.81, -129466.13, -149535.05, 0.000, 0.000, 0.000, 16:34:51.529
105, -7187.92, -7406.83, -7283.79, -7200.41, -100305.55, -95548.36, -129464.77, -149533.66, 0.000, 0.000, 0.000, 16:34:51.529
106, -7187.58, -7406.36, -7283.32, -7200.06, -100305.17, -95547.98, -129464.36, -149533.14, 0.000, 0.000, 0.000, 16:34:51.529
107, -7188.77, -7407.64, -7284.59, -7201.26, -100306.45, -95549.39, -129465.70, -149534.34, 0.000, 0.000, 0.000, 16:34:51.529
108, -7189.37, -7408.22, -7285.17, -7201.87, -100307.14, -95550.04, -129466.28, -149534.97, 0.000, 0.000, 0.000, 16:34:51.529
109, -7189.77, -7408.51, -7285.42, -7202.04, -100307.56, -95550.27, -129466.46, -149535.20, 0.000, 0.000, 0.000, 16:34:51.530
110, -7188.86, -7407.64, -7284.63, -7201.26, -100306.71, -95549.32, -129465.52, -149534.22, 0.000, 0.000, 0.000, 16:34:51.530
111, -7190.47, -7409.13, -7286.27, -7202.98, -100308.26, -95551.11, -129467.13, -149535.67, 0.000, 0.000, 0.000, 16:34:51.530
112, -7190.38, -7408.80, -7285.98, -7202.56, -100308.13, -95551.00, -129466.91, -149535.53, 0.000, 0.000, 0.000, 16:34:51.530
113, -7192.68, -7410.97, -7288.17, -7204.64, -100310.27, -95553.08, -129468.88, -149537.69, 0.000, 0.000, 0.000, 16:34:51.530
114, -7192.37, -7410.63, -7287.65, -7204.21, -100310.06, -95552.68, -129468.41, -149537.25, 0.000, 0.000, 0.000, 16:34:51.539
115, -7191.09, -7409.85, -7286.53, -7203.07, -100309.06, -95551.60, -129467.38, -149536.09, 0.000, 0.000, 0.000, 16:34:51.539
116, -7190.35, -7409.13, -7285.75, -7202.47, -100308.50, -95551.00, -129466.64, -149535.42, 0.000, 0.000, 0.000, 16:34:51.539
117, -7190.24, -7408.87, -7285.60, -7202.16, -100308.23, -95550.89, -129466.40, -149535.20, 0.000, 0.000, 0.000, 16:34:51.540
118, -7191.03, -7409.65, -7286.53, -7202.98, -100309.24, -95551.96, -129467.40, -149536.05, 0.000, 0.000, 0.000, 16:34:51.540
119, -7189.08, -7407.68, -7284.66, -7200.99, -100307.49, -95550.13, -129465.59, -149534.27, 0.000, 0.000, 0.000, 16:34:51.540
120, -7188.28, -7406.97, -7283.85, -7200.32, -100306.73, -95549.55, -129464.90, -149533.55, 0.000, 0.000, 0.000, 16:34:51.540
121, -7187.83, -7406.74, -7283.58, -7200.08, -100306.73, -95549.44, -129464.85, -149533.41, 0.000, 0.000, 0.000, 16:34:51.540
122, -7190.35, -7409.18, -7286.31, -7202.74, -100309.41, -95552.05, -129467.31, -149536.09, 0.000, 0.000, 0.000, 16:34:51.540
123, -7191.32, -7410.18, -7287.25, -7203.90, -100310.42, -95553.30, -129468.43, -149537.05, 0.000, 0.000, 0.000, 16:34:51.540
124, -7192.17, -7410.97, -7287.99, -7204.62, -100311.36, -95554.13, -129469.16, -149537.84, 0.000, 0.000, 0.000, 16:34:51.549
125, -7191.52, -7410.25, -7287.29, -7203.81, -100310.89, -95553.57, -129468.63, -149537.23, 0.094, -0.062, 1.006, 16:34:51.549
126, -7190.53, -7409.22, -7286.11, -7202.83, -100309.77, -95552.45, -129467.49, -149536.20, 0.000, 0.000, 0.000, 16:34:51.550
127, -7191.43, -7410.09, -7287.05, -7203.59, -100310.55, -95553.28, -129468.02, -149536.89, 0.000, 0.000, 0.000, 16:34:51.550
128, -7191.16, -7409.85, -7286.65, -7203.30, -100310.40, -95553.15, -129467.70, -149536.50, 0.000, 0.000, 0.000, 16:34:51.550
129, -7190.11, -7408.80, -7285.44, -7202.20, -100309.41, -95551.85, -129466.55, -149535.48, 0.000, 0.000, 0.000, 16:34:51.550
130, -7191.38, -7409.96, -7286.76, -7203.43, -100310.80, -95553.13, -129467.87, -149536.67, 0.000, 0.000, 0.000, 16:34:51.550
131, -7192.41, -7410.92, -7287.94, -7204.55, -100311.74, -95554.42, -129468.88, -149537.69, 0.000, 0.000, 0.000, 16:34:51.550
132, -7191.18, -7409.78, -7286.69, -7203.23, -100310.47, -95553.37, -129467.54, -149536.39, 0.000, 0.000, 0.000, 16:34:51.550
133, -7188.90, -7407.52, -7284.25, -7200.99, -100308.26, -95551.07, -129465.41, -149534.16, 0.000, 0.000, 0.000, 16:34:51.551
134, -7190.02, -7408.80, -7285.57, -7202.13, -100309.69, -95552.20, -129466.66, -149535.28, 0.000, 0.000, 0.000, 16:34:51.551
135, -7189.48, -7408.35, -7285.19, -7201.78, -100309.28, -95551.89, -129466.20, -149534.84, 0.000, 0.000, 0.000, 16:34:51.561
136, -7188.43, -7407.23, -7284.23, -7200.77, -100308.28, -95550.93, -129465.19, -149533.72, 0.000, 0.000, 0.000, 16:34:51.561
137, -7187.92, -7406.59, -7283.74, -7200.12, -100308.01, -95550.64, -129464.77, -149533.36, 0.000, 0.000, 0.000, 16:34:51.562
138, -7188.46, -7407.30, -7284.30, -7200.82, -100309.02, -95551.45, -129465.45, -149534.13, 0.000, 0.000, 0.000, 16:34:51.562
139, -7191.03, -7409.51, -7286.71, -7203.21, -100311.63, -95554.17, -129467.98, -149536.78, 0.000, 0.000, 0.000, 16:34:51.562
140, -7188.86, -7407.50, -7284.70, -7201.42, -100309.38, -95552.20, -129465.81, -149534.66, 0.000, 0.000, 0.000, 16:34:51.562
141, -7189.13, -7407.97, -7284.95, -7201.66, -100309.87, -95552.56, -129466.26, -149535.02, 0.000, 0.000, 0.000, 16:34:51.562
142, -7189.35, -7408.17, -7284.90, -7201.82, -100310.06, -95552.66, -129466.35, -149535.00, 0.000, 0.000, 0.000, 16:34:51.562
143, -7189.80, -7408.69, -7285.46, -7202.11, -100310.63, -95553.10, -129466.80, -149535.36, 0.000, 0.000, 0.000, 16:34:51.562
144, -7190.58, -7409.31, -7286.31, -7202.98, -100311.48, -95554.09, -129467.49, -149536.19, 0.000, 0.000, 0.000, 16:34:51.562
145, -7191.65, -7410.32, -7287.29, -7204.08, -100312.44, -95555.09, -129468.48, -149537.09, 0.000, 0.000, 0.000, 16:34:51.570
146, -7189.17, -7407.95, -7285.01, -7201.60, -100310.18, -95552.66, -129465.79, -149534.63, 0.000, 0.000, 0.000, 16:34:51.570
147, -7188.25, -7406.90, -7283.92, -7200.30, -100309.20, -95551.52, -129464.52, -149533.23, 0.000, 0.000, 0.000, 16:34:51.570
148, -7188.86, -7407.52, -7284.46, -7200.97, -100309.91, -95552.38, -129465.34, -149533.97, 0.000, 0.000, 0.000, 16:34:51.570
149, -7191.45, -7410.14, -7286.98, -7203.61, -100312.55, -95555.02, -129467.94, -149536.50, 0.000, 0.000, 0.000, 16:34:51.570
150, -7191.70, -7410.32, -7287.34, -7203.83, -100312.84, -95555.25, -129468.01, -149536.78, 0.000, 0.000, 0.000, 16:34:51.570
151, -7193.06, -7411.75, -7288.64, -7205.02, -100314.42, -95556.77, -129469.62, -149538.39, 0.000, 0.000, 0.000, 16:34:51.571
152, -7192.34, -7410.92, -7287.90, -7204.59, -100313.77, -95556.37, -129468.92, -149537.72, 0.000, 0.000, 0.000, 16:34:51.571
153, -7191.58, -7410.05, -7287.21, -7203.88, -100313.13, -95555.76, -129468.25, -149536.98, 0.000, 0.000, 0.000, 16:34:51.571
154, -7191.83, -7410.41, -7287.32, -7203.88, -100313.51, -95555.94, -129468.54, -149537.23, 0.000, 0.000, 0.000, 16:34:51.571
155, -7192.55, -7411.26, -7288.32, -7204.88, -100314.45, -95556.99, -129469.48, -149538.22, 0.000, 0.000, 0.000, 16:34:51.579
156, -7190.11, -7408.91, -7285.93, -7202.63, -100312.30, -95554.73, -129467.27, -149535.94, 0.000, 0.000, 0.000, 16:34:51.580
157, -7190.89, -7409.85, -7286.85, -7203.50, -100313.38, -95555.72, -129468.12, -149536.81, 0.000, 0.000, 0.000, 16:34:51.580
158, -7190.33, -7409.22, -7286.40, -7202.78, -100312.77, -95555.11, -129467.47, -149536.41, 0.000, 0.000, 0.000, 16:34:51.580
159, -7188.59, -7407.55, -7284.46, -7201.08, -100311.18, -95553.46, -129465.81, -149534.59, 0.000, 0.000, 0.000, 16:34:51.580
160, -7189.66, -7408.51, -7285.53, -7201.98, -100312.14, -95554.51, -129466.69, -149535.44, 0.000, 0.000, 0.000, 16:34:51.580
161, -7188.41, -7407.12, -7284.19, -7200.59, -100310.76, -95553.13, -129465.34, -149534.08, 0.000, 0.000, 0.000, 16:34:51.580
162, -7189.97, -7408.69, -7285.64, -7202.13, -100312.28, -95554.42, -129466.75, -149535.56, 0.000, 0.000, 0.000, 16:34:51.580
163, -7193.77, -7412.40, -7289.15, -7205.80, -100316.16, -95558.27, -129470.46, -149539.17, 0.092, -0.060, 1.004, 16:34:51.580
164, -7193.95, -7412.62, -7289.48, -7206.09, -100316.23, -95558.60, -129470.71, -149539.48, 0.000, 0.000, 0.000, 16:34:51.580
165, -7192.43, -7410.99, -7287.88, -7204.44, -100314.83, -95556.99, -129469.05, -149537.77, 0.000, 0.000, 0.000, 16:34:51.589
166, -7190.15, -7408.71, -7285.73, -7202.09, -100312.70, -95554.80, -129466.69, -149535.48, 0.000, 0.000, 0.000, 16:34:51.590
167, -7190.15, -7408.64, -7285.73, -7202.25, -100312.66, -95554.73, -129466.53, -149535.31, 0.000, 0.000, 0.000, 16:34:51.590
168, -7191.05, -7409.31, -7286.49, -7203.07, -100313.59, -95555.85, -129467.45, -149536.27, 0.000, 0.000, 0.000, 16:34:51.590
169, -7192.79, -7411.10, -7288.34, -7204.84, -100315.56, -95557.88, -129469.39, -149538.17, 0.000, 0.000, 0.000, 16:34:51.590
170, -7192.93, -7411.59, -7288.70, -7205.22, -100316.21, -95558.42, -129469.81, -149538.84, 0.000, 0.000, 0.000, 16:34:51.590
171, -7191.58, -7410.54, -7287.52, -7203.99, -100315.14, -95557.34, -129468.66, -149537.61, 0.000, 0.000, 0.000, 16:34:51.590
172, -7188.39, -7407.41, -7284.46, -7200.93, -100312.01, -95554.42, -129465.61, -149534.64, 0.000, 0.000, 0.000, 16:34:51.590
173, -7185.35, -7404.33, -7281.28, -7197.86, -100308.97, -95551.40, -129462.69, -149531.52, 0.000, 0.000, 0.000, 16:34:51.590
174, -7183.36, -7402.43, -7279.31, -7196.03, -100307.27, -95549.77, -129460.85, -149529.48, 0.000, 0.000, 0.000, 16:34:51.591
175, -7184.07, -7402.90, -7279.96, -7196.46, -100307.98, -95550.33, -129461.32, -149530.13, 0.000, 0.000, 0.000, 16:34:51.599
176, -7185.24, -7403.77, -7280.81, -7197.53, -100309.02, -95551.23, -129462.30, -149531.16, 0.000, 0.000, 0.000, 16:34:51.599
177, -7185.95, -7404.53, -7281.59, -7198.29, -100309.89, -95551.98, -129462.95, -149531.94, 0.000, 0.000, 0.000, 16:34:51.600
178, -7187.67, -7406.12, -7283.43, -7199.94, -100311.54, -95553.86, -129464.70, -149533.66, 0.000, 0.000, 0.000, 16:34:51.600
179, -7187.49, -7406.00, -7283.18, -7199.52, -100311.52, -95553.68, -129464.41, -149533.09, 0.000, 0.000, 0.000, 16:34:51.600
180, -7187.67, -7406.00, -7283.29, -7199.43, -100311.54, -95553.59, -129464.43, -149533.08, 0.000, 0.000, 0.000, 16:34:51.600
181, -7188.12, -7406.50, -7283.74, -7200.08, -100311.97, -95553.99, -129464.79, -149533.70, 0.000, 0.000, 0.000, 16:34:51.600
182, -7188.30, -7406.85, -7283.81, -7200.26, -100312.30, -95554.35, -129464.85, -149533.81, 0.000, 0.000, 0.000, 16:34:51.600
183, -7188.28, -7406.79, -7283.85, -7200.21, -100312.37, -95554.73, -129464.83, -149533.77, 0.000, 0.000, 0.000, 16:34:51.600
184, -7189.64, -7408.31, -7285.31, -7201.75, -100313.87, -95556.03, -129466.48, -149535.22, 0.000, 0.000, 0.000, 16:34:51.600
185, -7188.86, -7407.52, -7284.66, -7201.11, -100313.35, -95555.54, -129465.93, -149534.80, 0.000, 0.000, 0.000, 16:34:51.609
186, -7189.26, -7407.86, -7284.92, -7201.49, -100313.77, -95556.03, -129466.35, -149535.13, 0.000, 0.000, 0.000, 16:34:51.610
187, -7185.68, -7404.40, -7281.44, -7197.95, -100310.40, -95552.68, -129462.82, -149531.73, 0.000, 0.000, 0.000, 16:34:51.610
188, -7184.32, -7403.21, -7280.10, -7196.70, -100309.28, -95551.49, -129461.55, -149530.73, 0.000, 0.000, 0.000, 16:34:51.610
189, -7186.89, -7405.71, -7282.80, -7199.41, -100311.97, -95554.40, -129464.30, -149533.30, 0.000, 0.000, 0.000, 16:34:51.610
190, -7187.25, -7405.96, -7283.14, -7199.79, -100312.52, -95554.82, -129464.70, -149533.59, 0.000, 0.000, 0.000, 16:34:51.610
191, -7186.15, -7405.07, -7282.18, -7198.63, -100311.59, -95553.68, -129463.69, -149532.50, 0.000, 0.000, 0.000, 16:34:51.611
192, -7187.47, -7406.47, -7283.52, -7200.03, -100313.11, -95555.25, -129465.05, -149533.92, 0.000, 0.000, 0.000, 16:34:51.611
193, -7187.27, -7406.18, -7283.25, -7199.74, -100312.75, -95555.09, -129464.67, -149533.61, 0.000, 0.000, 0.000, 16:34:51.611
194, -7188.01, -7406.72, -7283.85, -7200.32, -100313.38, -95555.63, -129465.34, -149533.98, 0.000, 0.000, 0.000, 16:34:51.611
195, -7191.16, -7409.65, -7286.76, -7203.27, -100316.33, -95558.71, -129468.32, -149536.89, 0.000, 0.000, 0.000, 16:34:51.620
196, -7190.49, -7409.20, -7286.04, -7202.58, -100315.88, -95558.09, -129467.49, -149536.34, 0.000, 0.000, 0.000, 16:34:51.620
197, -7188.10, -7406.81, -7283.72, -7200.21, -100313.51, -95555.88, -129465.01, -149533.81, 0.000, 0.000, 0.000, 16:34:51.620
198, -7189.21, -7407.75, -7284.81, -7201.11, -100314.58, -95556.90, -129465.97, -149534.94, 0.000, 0.000, 0.000, 16:34:51.620
199, -7189.71, -7408.24, -7285.01, -7201.49, -100315.14, -95557.26, -129466.51, -149535.27, 0.000, 0.000, 0.000, 16:34:51.621
200, -7188.34, -7407.08, -7283.79, -7200.35, -100314.05, -95556.19, -129465.45, -149534.03, 0.000, 0.000, 0.000, 16:34:51.621
201, -7187.54, -7406.25, -7282.96, -7199.63, -100313.33, -95555.70, -129464.49, -149533.55, 0.000, 0.000, 0.000, 16:34:51.621
202, -7190.20, -7408.84, -7285.57, -7202.25, -100316.16, -95558.48, -129467.36, -149536.19, 0.092, -0.062, 1.002, 16:34:51.621
203, -7188.01, -7406.90, -7283.61, -7200.37, -100314.49, -95556.70, -129465.30, -149534.31, 0.000, 0.000, 0.000, 16:34:51.622
204, -7188.37, -7407.10, -7284.01, -7200.70, -100314.89, -95557.17, -129465.93, -149534.81, 0.000, 0.000, 0.000, 16:34:51.629
205, -7190.15, -7409.07, -7285.93, -7202.58, -100316.77, -95559.18, -129467.78, -149536.77, 0.000, 0.000, 0.000, 16:34:51.630
206, -7189.46, -7408.44, -7285.39, -7201.91, -100316.28, -95558.64, -129467.05, -149536.05, 0.000, 0.000, 0.000, 16:34:51.630
207, -7190.67, -7409.29, -7286.36, -7202.87, -100317.35, -95559.72, -129468.07, -149536.98, 0.000, 0.000, 0.000, 16:34:51.630
208, -7192.70, -7411.41, -7288.43, -7204.86, -100319.63, -95561.91, -129469.91, -149539.11, 0.000, 0.000, 0.000, 16:34:51.630
209, -7190.31, -7409.02, -7285.98, -7202.49, -100317.15, -95559.49, -129467.65, -149536.61, 0.000, 0.000, 0.000, 16:34:51.631
210, -7188.05, -7406.81, -7283.61, -7200.37, -100315.01, -95557.21, -129465.44, -149534.44, 0.000, 0.000, 0.000, 16:34:51.631
211, -7188.25, -7406.83, -7283.74, -7200.44, -100315.23, -95557.39, -129465.41, -149534.31, 0.000, 0.000, 0.000, 16:34:51.631
212, -7187.47, -7406.12, -7283.14, -7199.63, -100314.47, -95556.77, -129464.54, -149533.48, 0.000, 0.000, 0.000, 16:34:51.631
213, -7188.19, -7406.79, -7283.63, -7200.15, -100315.16, -95557.46, -129465.23, -149534.11, 0.000, 0.000, 0.000, 16:34:51.631
214, -7188.63, -7407.08, -7284.08, -7200.59, -100315.72, -95557.86, -129465.55, -149534.50, 0.000, 0.000, 0.000, 16:34:51.639
215, -7191.85, -7410.45, -7287.32, -7203.83, -100319.05, -95561.23, -129468.81, -149537.84, 0.000, 0.000, 0.000, 16:34:51.640
216, -7189.95, -7408.40, -7285.24, -7201.66, -100316.99, -95559.11, -129466.87, -149535.80, 0.000, 0.000, 0.000, 16:34:51.640
217, -7188.34, -7406.85, -7283.79, -7200.35, -100315.54, -95557.77, -129465.44, -149534.22, 0.000, 0.000, 0.000, 16:34:51.640
218, -7189.86, -7408.44, -7285.35, -7201.87, -100317.29, -95559.59, -129466.98, -149535.83, 0.000, 0.000, 0.000, 16:34:51.640
219, -7190.09, -7408.73, -7285.69, -7202.07, -100317.62, -95559.94, -129467.38, -149536.27, 0.000, 0.000, 0.000, 16:34:51.641
220, -7187.07, -7405.80, -7282.82, -7199.34, -100314.94, -95557.08, -129464.67, -149533.55, 0.000, 0.000, 0.000, 16:34:51.641
221, -7185.82, -7404.66, -7281.62, -7198.16, -100314.00, -95556.25, -129463.73, -149532.42, 0.000, 0.000, 0.000, 16:34:51.641
222, -7188.48, -7407.35, -7284.14, -7200.77, -100316.70, -95559.09, -129466.41, -149535.16, 0.000, 0.000, 0.000, 16:34:51.641
223, -7187.54, -7406.36, -7283.20, -7199.90, -100315.88, -95558.27, -129465.34, -149534.17, 0.000, 0.000, 0.000, 16:34:51.642
224, -7188.25, -7407.19, -7283.96, -7200.75, -100316.81, -95558.95, -129466.20, -149535.06, 0.000, 0.000, 0.000, 16:34:51.649
225, -7189.37, -7408.28, -7284.97, -7201.71, -100317.84, -95559.98, -129467.20, -149535.95, 0.000, 0.000, 0.000, 16:34:51.650
226, -7192.70, -7411.32, -7288.37, -7205.04, -100320.91, -95563.05, -129470.17, -149539.11, 0.000, 0.000, 0.000, 16:34:51.650
227, -7190.69, -7409.25, -7286.38, -7202.94, -100318.91, -95561.02, -129468.02, -149536.88, 0.000, 0.000, 0.000, 16:34:51.650
228, -7190.24, -7408.87, -7285.75, -7202.31, -100318.56, -95560.59, -129467.49, -149536.42, 0.000, 0.000, 0.000, 16:34:51.650
229, -7188.50, -7407.05, -7284.03, -7200.48, -100316.99, -95558.95, -129465.68, -149534.55, 0.000, 0.000, 0.000, 16:34:51.650
230, -7189.35, -7407.93, -7284.81, -7201.37, -100318.05, -95559.85, -129466.53, -149535.38, 0.000, 0.000, 0.000, 16:34:51.650
231, -7190.91, -7409.42, -7286.36, -7202.83, -100319.50, -95561.55, -129468.02, -149536.88, 0.000, 0.000, 0.000, 16:34:51.650
232, -7192.66, -7411.12, -7287.99, -7204.57, -100321.15, -95563.18, -129469.77, -149538.66, 0.000, 0.000, 0.000, 16:34:51.650
233, -7192.41, -7410.99, -7287.83, -7204.57, -100321.06, -95563.13, -129469.66, -149538.55, 0.000, 0.000, 0.000, 16:34:51.651
234, -7188.57, -7407.08, -7283.74, -7200.70, -100317.48, -95559.34, -129465.81, -149534.73, 0.000, 0.000, 0.000, 16:34:51.659
235, -7188.28, -7406.81, -7283.63, -7200.39, -100317.33, -95559.05, -129465.57, -149534.47, 0.000, 0.000, 0.000, 16:34:51.660
236, -7188.63, -7407.48, -7284.25, -7201.08, -100317.95, -95559.96, -129466.13, -149535.11, 0.000, 0.000, 0.000, 16:34:51.660
237, -7187.18, -7406.00, -7282.73, -7199.56, -100316.39, -95558.60, -129464.67, -149533.56, 0.000, 0.000, 0.000, 16:34:51.660
238, -7184.23, -7402.83, -7279.76, -7196.55, -100313.69, -95555.85, -129462.02, -149530.97, 0.000, 0.000, 0.000, 16:34:51.660
239, -7181.77, -7400.44, -7277.37, -7194.04, -100311.66, -95553.68, -129459.66, -149528.50, 0.092, -0.064, 1.000, 16:34:51.660
240, -7182.40, -7400.98, -7278.04, -7194.71, -100312.37, -95554.30, -129460.30, -149529.14, 0.000, 0.000, 0.000, 16:34:51.660
241, -7183.67, -7402.47, -7279.52, -7196.03, -100313.82, -95555.72, -129461.52, -149530.55, 0.000, 0.000, 0.000, 16:34:51.661
242, -7183.67, -7402.41, -7279.23, -7195.96, -100313.71, -95555.72, -129461.50, -149530.34, 0.000, 0.000, 0.000, 16:34:51.661
243, -7185.46, -7403.95, -7281.01, -7197.69, -100315.27, -95557.41, -129463.02, -149531.98, 0.000, 0.000, 0.000, 16:34:51.661
244, -7187.96, -7406.34, -7283.34, -7199.92, -100317.69, -95559.74, -129465.34, -149534.33, 0.000, 0.000, 0.000, 16:34:51.669
245, -7186.96, -7405.27, -7282.31, -7198.96, -100316.88, -95558.71, -129464.49, -149533.25, 0.000, 0.000, 0.000, 16:34:51.669
246, -7185.17, -7403.59, -7280.66, -7197.31, -100315.27, -95557.13, -129462.73, -149531.52, 0.000, 0.000, 0.000, 16:34:51.670
247, -7188.12, -7406.59, -7283.56, -7200.10, -100318.23, -95560.08, -129465.37, -149534.27, 0.000, 0.000, 0.000, 16:34:51.670
248, -7186.64, -7405.18, -7282.29, -7198.58, -100316.95, -95558.55, -129464.23, -149533.05, 0.000, 0.000, 0.000, 16:34:51.670
249, -7183.20, -7401.65, -7278.87, -7195.18, -100313.64, -95555.41, -129460.88, -149529.61, 0.000, 0.000, 0.000, 16:34:51.670
250, -7181.28, -7399.63, -7276.79, -7193.17, -100311.81, -95553.62, -129458.70, -149527.59, 0.000, 0.000, 0.000, 16:34:51.670
251, -7180.48, -7399.01, -7275.92, -7192.57, -100311.14, -95553.15, -129458.10, -149526.95, 0.000, 0.000, 0.000, 16:34:51.670
252, -7179.69, -7398.23, -7275.02, -7191.72, -100310.47, -95552.41, -129457.25, -149526.28, 0.000, 0.000, 0.000, 16:34:51.670
253, -7183.76, -7402.47, -7279.31, -7195.94, -100314.85, -95556.74, -129461.52, -149530.69, 0.000, 0.000, 0.000, 16:34:51.670
254, -7184.12, -7402.79, -7279.78, -7196.46, -100315.27, -95557.23, -129461.95, -149531.20, 0.000, 0.000, 0.000, 16:34:51.680
255, -7181.91, -7400.80, -7277.79, -7194.38, -100313.24, -95555.25, -129460.05, -149529.05, 0.000, 0.000, 0.000, 16:34:51.680
0, -7181.32, -7400.26, -7277.21, -7193.77, -100312.79, -95554.80, -129459.53, -149528.42, 0.000, 0.000, 0.000, 16:34:51.681
1, -7182.11, -7401.09, -7278.06, -7194.51, -100313.59, -95555.65, -129460.27, -149529.19, 0.000, 0.000, 0.000, 16:34:51.681
2, -7186.13, -7405.18, -7282.02, -7198.58, -100317.91, -95559.78, -129464.36, -149533.36, 0.000, 0.000, 0.000, 16:34:51.681
3, -7189.71, -7408.40, -7285.22, -7201.89, -100321.27, -95563.12, -129467.70, -149536.66, 0.000, 0.000, 0.000, 16:34:51.681
4, -7188.50, -7407.08, -7283.96, -7200.59, -100320.19, -95562.00, -129466.53, -149535.36, 0.000, 0.000, 0.000, 16:34:51.681
5, -7186.76, -7405.29, -7282.15, -7198.78, -100318.36, -95560.16, -129464.56, -149533.55, 0.000, 0.000, 0.000, 16:34:51.682
6, -7186.78, -7405.07, -7282.02, -7198.74, -100318.25, -95560.05, -129464.48, -149533.41, 0.000, 0.000, 0.000, 16:34:51.682
7, -7186.06, -7404.28, -7281.33, -7197.84, -100317.62, -95559.45, -129463.78, -149532.50, 0.000, 0.000, 0.000, 16:34:51.682
8, -7185.12, -7403.37, -7280.45, -7196.97, -100316.80, -95558.42, -129462.80, -149531.53, 0.000, 0.000, 0.000, 16:34:51.689
9, -7186.20, -7404.40, -7281.53, -7198.13, -100317.89, -95559.88, -129463.89, -149532.56, 0.000, 0.000, 0.000, 16:34:51.690
10, -7186.51, -7404.80, -7281.86, -7198.58, -100318.34, -95560.23, -129464.27, -149532.86, 0.000, 0.000, 0.000, 16:34:51.690
11, -7189.15, -7407.59, -7284.75, -7201.24, -100321.09, -95562.91, -129466.91, -149535.59, 0.000, 0.000, 0.000, 16:34:51.690
12, -7188.57, -7406.94, -7283.96, -7200.46, -100320.64, -95562.51, -129466.41, -149535.27, 0.000, 0.000, 0.000, 16:34:51.690
13, -7186.47, -7404.75, -7281.80, -7198.54, -100318.67, -95560.66, -129464.48, -149533.14, 0.000, 0.000, 0.000, 16:34:51.690
14, -7186.47, -7404.91, -7281.84, -7198.65, -100319.01, -95560.79, -129464.59, -149533.44, 0.000, 0.000, 0.000, 16:34:51.690
15, -7191.61, -7410.27, -7287.29, -7204.01, -100324.48, -95566.18, -129469.88, -149538.80, 0.000, 0.000, 0.000, 16:34:51.691
16, -7193.71, -7412.44, -7289.48, -7206.25, -100326.80, -95568.73, -129472.23, -149541.23, 0.000, 0.000, 0.000, 16:34:51.691
17, -7191.45, -7410.07, -7287.21, -7203.94, -100324.55, -95566.49, -129469.84, -149538.94, 0.000, 0.000, 0.000, 16:34:51.691
18, -7189.37, -7408.04, -7285.01, -7201.93, -100322.65, -95564.41, -129467.83, -149536.77, 0.000, 0.000, 0.000, 16:34:51.699
19, -7189.19, -7407.84, -7284.63, -7201.55, -100322.43, -95564.19, -129467.34, -149536.42, 0.000, 0.000, 0.000, 16:34:51.700
20, -7189.19, -7407.86, -7284.75, -7201.53, -100322.34, -95564.32, -129467.29, -149536.36, 0.000, 0.000, 0.000, 16:34:51.700
21, -7189.68, -7408.19, -7285.15, -7202.04, -100322.88, -95564.55, -129467.76, -149536.67, 0.094, -0.058, 0.994, 16:34:51.700
22, -7188.61, -7406.97, -7284.17, -7200.88, -100321.94, -95563.49, -129466.64, -149535.48, 0.000, 0.000, 0.000, 16:34:51.700
23, -7188.46, -7406.83, -7283.79, -7200.52, -100321.55, -95563.25, -129466.20, -149535.05, 0.000, 0.000, 0.000, 16:34:51.700
24, -7189.80, -7408.17, -7285.04, -7201.75, -100322.94, -95564.48, -129467.31, -149536.23, 0.000, 0.000, 0.000, 16:34:51.700
25, -7191.72, -7409.94, -7286.98, -7203.59, -100324.93, -95566.53, -129469.37, -149538.19, 0.000, 0.000, 0.000, 16:34:51.700
26, -7192.21, -7410.41, -7287.54, -7204.10, -100325.51, -95567.09, -129469.95, -149538.84, 0.000, 0.000, 0.000, 16:34:51.700
27, -7191.92, -7410.30, -7287.32, -7203.90, -100325.27, -95567.18, -129469.86, -149538.50, 0.000, 0.000, 0.000, 16:34:51.700
28, -7192.66, -7410.88, -7288.10, -7204.59, -100326.12, -95567.92, -129470.71, -149539.47, 0.000, 0.000, 0.000, 16:34:51.701
29, -7191.65, -7410.05, -7287.07, -7203.72, -100325.55, -95567.31, -129469.79, -149538.66, 0.000, 0.000, 0.000, 16:34:51.709
30, -7191.87, -7410.39, -7287.47, -7204.17, -100325.98, -95567.61, -129470.11, -149539.11, 0.000, 0.000, 0.000, 16:34:51.710
31, -7191.03, -7409.60, -7286.65, -7203.27, -100325.16, -95566.96, -129469.19, -149538.23, 0.000, 0.000, 0.000, 16:34:51.710
32, -7189.13, -7407.61, -7284.57, -7201.51, -100323.43, -95564.99, -129467.42, -149536.39, 0.000, 0.000, 0.000, 16:34:51.710
33, -7190.27, -7408.80, -7285.73, -7202.60, -100324.70, -95566.31, -129468.88, -149537.61, 0.000, 0.000, 0.000, 16:34:51.710
34, -7189.01, -7407.57, -7284.61, -7201.31, -100323.81, -95565.41, -129467.70, -149536.42, 0.000, 0.000, 0.000, 16:34:51.710
35, -7190.71, -7409.00, -7286.29, -7202.72, -100325.31, -95566.94, -129468.98, -149537.97, 0.000, 0.000, 0.000, 16:34:51.710
36, -7191.92, -7410.18, -7287.50, -7203.99, -100326.52, -95568.03, -129470.15, -149539.22, 0.000, 0.000, 0.000, 16:34:51.710
37, -7191.52, -7409.74, -7286.87, -7203.63, -100326.12, -95567.74, -129469.68, -149538.89, 0.000, 0.000, 0.000, 16:34:51.710
38, -7190.09, -7408.40, -7285.24, -7201.87, -100324.59, -95566.29, -129468.05, -149537.09, 0.000, 0.000, 0.000, 16:34:51.711
39, -7189.42, -7407.75, -7284.48, -7201.26, -100323.92, -95565.59, -129467.38, -149536.20, 0.000, 0.000, 0.000, 16:34:51.720
40, -7188.79, -7407.03, -7283.85, -7200.73, -100323.27, -95564.97, -129466.75, -149535.58, 0.000, 0.000, 0.000, 16:34:51.720
41, -7190.31, -7408.69, -7285.46, -7202.18, -100325.00, -95566.53, -129468.02, -149536.88, 0.000, 0.000, 0.000, 16:34:51.720
42, -7192.46, -7410.79, -7287.50, -7204.21, -100327.30, -95568.88, -129470.22, -149539.05, 0.000, 0.000, 0.000, 16:34:51.720
43, -7190.82, -7408.98, -7285.80, -7202.54, -100325.65, -95567.25, -129468.54, -149537.55, 0.000, 0.000, 0.000, 16:34:51.720
44, -7187.36, -7405.54, -7282.56, -7199.18, -100322.43, -95563.98, -129465.26, -149534.08, 0.000, 0.000, 0.000, 16:34:51.720
45, -7188.75, -7406.90, -7283.92, -7200.59, -100323.92, -95565.41, -129466.66, -149535.52, 0.000, 0.000, 0.000, 16:34:51.720
46, -7187.58, -7406.00, -7283.11, -7199.76, -100323.12, -95564.59, -129465.75, -149534.86, 0.000, 0.000, 0.000, 16:34:51.721
47, -7186.09, -7404.71, -7281.73, -7198.40, -100321.91, -95563.23, -129464.45, -149533.41, 0.000, 0.000, 0.000, 16:34:51.721
48, -7183.67, -7402.20, -7279.16, -7196.05, -100319.70, -95561.15, -129462.23, -149531.16, 0.000, 0.000, 0.000, 16:34:51.721
49, -7182.67, -7401.20, -7278.20, -7194.96, -100318.80, -95560.32, -129461.39, -149530.34, 0.000, 0.000, 0.000, 16:34:51.730
50, -7184.57, -7403.17, -7280.14, -7196.93, -100320.77, -95562.47, -129463.40, -149532.31, 0.000, 0.000, 0.000, 16:34:51.730
51, -7188.01, -7406.74, -7283.65, -7200.41, -100324.17, -95565.82, -129466.58, -149535.44, 0.000, 0.000, 0.000, 16:34:51.730
52, -7189.39, -7407.79, -7284.86, -7201.49, -100325.69, -95567.23, -129467.85, -149536.81, 0.000, 0.000, 0.000, 16:34:51.730
53, -7191.27, -7409.69, -7286.58, -7203.23, -100327.55, -95569.17, -129469.68, -149538.69, 0.000, 0.000, 0.000, 16:34:51.730
54, -7189.04, -7407.55, -7284.34, -7201.15, -100325.17, -95567.07, -129467.49, -149536.42, 0.000, 0.000, 0.000, 16:34:51.730
55, -7189.75, -7408.13, -7285.08, -7201.89, -100326.02, -95567.61, -129468.16, -149536.92, 0.000, 0.000, 0.000, 16:34:51.730
56, -7188.59, -7406.94, -7283.99, -7200.52, -100324.95, -95566.40, -129466.82, -149535.83, 0.000, 0.000, 0.000, 16:34:51.731
57, -7186.94, -7405.20, -7282.29, -7198.80, -100323.34, -95564.79, -129465.21, -149534.19, 0.000, 0.000, 0.000, 16:34:51.731
58, -7187.14, -7405.29, -7282.33, -7198.89, -100323.48, -95564.92, -129465.30, -149534.11, 0.000, 0.000, 0.000, 16:34:51.731
59, -7187.45, -7405.51, -7282.62, -7199.25, -100323.88, -95565.30, -129465.59, -149534.53, 0.000, 0.000, 0.000, 16:34:51.740
60, -7190.38, -7408.57, -7285.53, -7202.00, -100327.03, -95568.21, -129468.32, -149537.34, 0.092, -0.062, 0.992, 16:34:51.740
61, -7191.47, -7409.80, -7286.71, -7203.32, -100328.04, -95569.55, -129469.66, -149538.48, 0.000, 0.000, 0.000, 16:34:51.740
62, -7189.01, -7407.30, -7284.25, -7200.97, -100325.73, -95567.27, -129467.27, -149536.23, 0.000, 0.000, 0.000, 16:34:51.740
63, -7187.67, -7405.83, -7283.00, -7199.56, -100324.62, -95566.06, -129466.15, -149535.09, 0.000, 0.000, 0.000, 16:34:51.740
64, -7190.20, -7408.46, -7285.75, -7202.20, -100327.52, -95569.06, -129468.95, -149537.95, 0.000, 0.000, 0.000, 16:34:51.740
65, -7189.19, -7407.75, -7284.99, -7201.37, -100326.72, -95568.39, -129468.07, -149537.09, 0.000, 0.000, 0.000, 16:34:51.740
66, -7188.12, -7406.74, -7283.83, -7200.37, -100325.73, -95567.25, -129466.82, -149535.89, 0.000, 0.000, 0.000, 16:34:51.741
67, -7188.03, -7406.52, -7283.58, -7200.28, -100325.71, -95567.27, -129466.62, -149535.72, 0.000, 0.000, 0.000, 16:34:51.741
68, -7188.01, -7406.16, -7283.43, -7199.97, -100325.53, -95567.18, -129466.48, -149535.47, 0.000, 0.000, 0.000, 16:34:51.741
69, -7187.18, -7405.36, -7282.40, -7198.92, -100324.66, -95566.34, -129465.66, -149534.58, 0.000, 0.000, 0.000, 16:34:51.750
70, -7186.51, -7404.86, -7281.77, -7198.22, -100324.15, -95565.66, -129465.08, -149533.92, 0.000, 0.000, 0.000, 16:34:51.750
71, -7184.57, -7403.05, -7280.03, -7196.68, -100322.38, -95563.83, -129463.11, -149532.09, 0.000, 0.000, 0.000, 16:34:51.750
72, -7184.16, -7402.45, -7279.52, -7196.17, -100321.91, -95563.34, -129462.55, -149531.58, 0.000, 0.000, 0.000, 16:34:51.750
73, -7186.31, -7404.62, -7281.64, -7198.40, -100324.04, -95565.53, -129464.63, -149533.59, 0.000, 0.000, 0.000, 16:34:51.750
74, -7185.88, -7403.97, -7281.04, -7197.82, -100323.48, -95565.02, -129464.02, -149532.97, 0.000, 0.000, 0.000, 16:34:51.750
75, -7187.27, -7405.47, -7282.49, -7199.03, -100325.04, -95566.58, -129465.52, -149534.42, 0.000, 0.000, 0.000, 16:34:51.751
76, -7188.46, -7406.56, -7283.85, -7200.19, -100326.45, -95568.05, -129466.71, -149535.63, 0.000, 0.000, 0.000, 16:34:51.751
77, -7188.68, -7406.79, -7283.96, -7200.28, -100326.74, -95568.01, -129466.73, -149535.59, 0.000, 0.000, 0.000, 16:34:51.751
78, -7186.33, -7404.37, -7281.68, -7198.09, -100324.37, -95565.59, -129464.45, -149533.48, 0.000, 0.000, 0.000, 16:34:51.751
79, -7184.95, -7403.08, -7280.34, -7196.70, -100323.16, -95564.57, -129463.27, -149532.30, 0.000, 0.000, 0.000, 16:34:51.760
80, -7184.99, -7403.34, -7280.57, -7196.95, -100323.77, -95565.06, -129463.58, -149532.52, 0.000, 0.000, 0.000, 16:34:51.760
81, -7184.21, -7402.74, -7279.90, -7196.46, -100322.96, -95564.63, -129462.80, -149532.03, 0.000, 0.000, 0.000, 16:34:51.760
82, -7183.63, -7402.25, -7279.27, -7195.96, -100322.36, -95564.26, -129462.46, -149531.67, 0.000, 0.000, 0.000, 16:34:51.760
83, -7182.67, -7401.27, -7278.26, -7194.96, -100321.73, -95563.41, -129461.50, -149530.75, 0.000, 0.000, 0.000, 16:34:51.760
84, -7182.67, -7401.04, -7278.20, -7194.91, -100321.91, -95563.47, -129461.57, -149530.70, 0.000, 0.000, 0.000, 16:34:51.760
85, -7185.91, -7404.17, -7281.13, -7197.86, -100324.98, -95566.49, -129464.63, -149533.77, 0.000, 0.000, 0.000, 16:34:51.760
86, -7184.79, -7402.99, -7280.03, -7196.68, -100323.88, -95565.48, -129463.42, -149532.52, 0.000, 0.000, 0.000, 16:34:51.761
87, -7186.76, -7405.11, -7282.06, -7198.76, -100326.16, -95567.61, -129465.48, -149534.50, 0.000, 0.000, 0.000, 16:34:51.761
88, -7188.39, -7406.83, -7283.87, -7200.50, -100327.84, -95569.51, -129467.22, -149536.36, 0.000, 0.000, 0.000, 16:34:51.761
89, -7188.86, -7407.19, -7284.17, -7200.79, -100328.17, -95569.77, -129467.40, -149536.67, 0.000, 0.000, 0.000, 16:34:51.770
90, -7189.44, -7407.68, -7284.59, -7201.37, -100328.80, -95570.13, -129467.83, -149537.05, 0.000, 0.000, 0.000, 16:34:51.770
91, -7188.81, -7407.05, -7283.96, -7200.75, -100328.17, -95569.48, -129467.16, -149536.16, 0.000, 0.000, 0.000, 16:34:51.770
92, -7189.39, -7407.59, -7284.54, -7201.24, -100328.84, -95570.34, -129467.91, -149537.02, 0.000, 0.000, 0.000, 16:34:51.770
93, -7188.63, -7406.83, -7283.81, -7200.52, -100328.20, -95569.62, -129467.00, -149536.39, 0.000, 0.000, 0.000, 16:34:51.770
94, -7188.77, -7407.17, -7284.19, -7200.86, -100328.71, -95570.09, -129467.52, -149536.67, 0.000, 0.000, 0.000, 16:34:51.770
95, -7190.40, -7408.64, -7285.60, -7202.38, -100330.25, -95571.79, -129468.97, -149538.11, 0.000, 0.000, 0.000, 16:34:51.771
96, -7190.04, -7408.17, -7285.31, -7201.98, -100329.94, -95571.54, -129468.70, -149537.66, 0.000, 0.000, 0.000, 16:34:51.771
97, -7187.00, -7405.31, -7282.35, -7199.07, -100327.23, -95568.55, -129465.81, -149534.66, 0.000, 0.000, 0.000, 16:34:51.771
98, -7185.75, -7404.15, -7281.13, -7197.91, -100326.20, -95567.38, -129464.52, -149533.61, 0.094, -0.058, 0.996, 16:34:51.771
99, -7187.56, -7406.00, -7283.18, -7199.94, -100328.35, -95569.71, -129466.80, -149535.78, 0.000, 0.000, 0.000, 16:34:51.780
100, -7188.63, -7407.12, -7284.37, -7201.11, -100329.69, -95571.12, -129467.94, -149537.03, 0.000, 0.000, 0.000, 16:34:51.780
101, -7187.29, -7405.67, -7282.80, -7199.52, -100328.17, -95569.64, -129466.33, -149535.47, 0.000, 0.000, 0.000, 16:34:51.780
102, -7187.90, -7406.18, -7283.25, -7199.97, -100328.71, -95569.98, -129466.71, -149535.83, 0.000, 0.000, 0.000, 16:34:51.780
103, -7187.40, -7405.80, -7282.87, -7199.54, -100328.22, -95569.71, -129466.35, -149535.42, 0.000, 0.000, 0.000, 16:34:51.780
104, -7186.13, -7404.53, -7281.44, -7198.31, -100327.10, -95568.57, -129465.14, -149534.28, 0.000, 0.000, 0.000, 16:34:51.780
105, -7188.03, -7406.18, -7283.23, -7199.97, -100328.93, -95570.29, -129466.84, -149535.84, 0.000, 0.000, 0.000, 16:34:51.780
106, -7186.94, -7405.15, -7282.24, -7198.85, -100327.91, -95569.22, -129465.48, -149534.55, 0.000, 0.000, 0.000, 16:34:51.781
107, -7187.67, -7405.78, -7282.78, -7199.41, -100328.38, -95569.77, -129465.93, -149535.05, 0.000, 0.000, 0.000, 16:34:51.781
108, -7191.61, -7409.74, -7286.60, -7203.25, -100332.41, -95573.84, -129469.95, -149539.00, 0.000, 0.000, 0.000, 16:34:51.781
109, -7191.38, -7409.54, -7286.29, -7203.03, -100332.51, -95573.75, -129469.77, -149538.94, 0.000, 0.000, 0.000, 16:34:51.790
110, -7188.43, -7406.85, -7283.72, -7200.52, -100329.76, -95571.05, -129467.27, -149536.09, 0.000, 0.000, 0.000, 16:34:51.791
111, -7187.38, -7405.78, -7282.85, -7199.54, -100328.71, -95570.18, -129466.15, -149535.20, 0.000, 0.000, 0.000, 16:34:51.791
112, -7189.35, -7407.59, -7284.57, -7201.22, -100330.52, -95571.97, -129467.94, -149536.88, 0.000, 0.000, 0.000, 16:34:51.791
113, -7189.24, -7407.37, -7284.43, -7201.11, -100330.56, -95571.97, -129467.98, -149536.94, 0.000, 0.000, 0.000, 16:34:51.791
114, -7186.85, -7405.20, -7282.18, -7198.94, -100328.64, -95569.91, -129465.91, -149534.84, 0.000, 0.000, 0.000, 16:34:51.791
115, -7187.23, -7405.74, -7282.62, -7199.47, -100329.40, -95570.60, -129466.33, -149535.48, 0.000, 0.000, 0.000, 16:34:51.791
116, -7188.57, -7407.01, -7283.85, -7200.75, -100330.85, -95571.98, -129467.71, -149536.83, 0.000, 0.000, 0.000, 16:34:51.791
117, -7190.49, -7409.09, -7285.89, -7202.83, -100332.66, -95574.07, -129469.66, -149538.78, 0.000, 0.000, 0.000, 16:34:51.791
118, -7192.12, -7410.70, -7287.63, -7204.39, -100334.45, -95575.79, -129471.29, -149540.39, 0.000, 0.000, 0.000, 16:34:51.792
119, -7191.94, -7410.14, -7287.09, -7203.99, -100334.23, -95575.66, -129470.77, -149539.98, 0.000, 0.000, 0.000, 16:34:51.800
120, -7188.52, -7406.72, -7283.70, -7200.48, -100330.88, -95572.28, -129467.36, -149536.50, 0.000, 0.000, 0.000, 16:34:51.800
121, -7189.13, -7407.52, -7284.34, -7201.31, -100331.59, -95573.02, -129468.09, -149537.20, 0.000, 0.000, 0.000, 16:34:51.800
122, -7188.68, -7406.85, -7283.72, -7200.52, -100330.92, -95572.34, -129467.36, -149536.34, 0.000, 0.000, 0.000, 16:34:51.800
123, -7189.13, -7407.35, -7284.23, -7200.97, -100331.41, -95572.70, -129467.94, -149536.81, 0.000, 0.000, 0.000, 16:34:51.801
124, -7189.26, -7407.59, -7284.30, -7201.08, -100331.70, -95572.79, -129468.05, -149536.92, 0.000, 0.000, 0.000, 16:34:51.801
125, -7187.56, -7405.74, -7282.67, -7199.41, -100330.18, -95571.25, -129466.26, -149535.38, 0.000, 0.000, 0.000, 16:34:51.801
126, -7184.95, -7402.81, -7279.76, -7196.55, -100327.37, -95568.66, -129463.52, -149532.63, 0.000, 0.000, 0.000, 16:34:51.801
127, -7186.24, -7404.17, -7281.08, -7197.95, -100328.87, -95569.95, -129464.72, -149533.81, 0.000, 0.000, 0.000, 16:34:51.801
128, -7185.64, -7403.72, -7280.63, -7197.51, -100328.62, -95569.48, -129464.41, -149533.44, 0.000, 0.000, 0.000, 16:34:51.801
129, -7185.53, -7403.50, -7280.54, -7197.40, -100328.51, -95569.62, -129464.34, -149533.28, 0.000, 0.000, 0.000, 16:34:51.810
130, -7184.79, -7403.10, -7279.99, -7196.81, -100328.06, -95569.30, -129463.69, -149532.86, 0.000, 0.000, 0.000, 16:34:51.810
131, -7183.60, -7401.94, -7279.00, -7195.72, -100327.12, -95568.21, -129462.71, -149531.88, 0.000, 0.000, 0.000, 16:34:51.810
132, -7183.94, -7402.23, -7279.31, -7196.12, -100327.48, -95568.63, -129463.16, -149532.38, 0.000, 0.000, 0.000, 16:34:51.810
133, -7183.67, -7401.82, -7278.98, -7196.01, -100327.34, -95568.52, -129463.09, -149532.25, 0.000, 0.000, 0.000, 16:34:51.811
134, -7182.53, -7400.68, -7277.77, -7194.74, -100326.30, -95567.56, -129461.77, -149530.95, 0.000, 0.000, 0.000, 16:34:51.811
135, -7183.67, -7401.94, -7279.11, -7195.83, -100327.57, -95568.79, -129462.87, -149532.06, 0.000, 0.000, 0.000, 16:34:51.811
136, -7187.00, -7405.22, -7282.38, -7199.05, -100330.95, -95572.01, -129466.24, -149535.31, 0.086, -0.054, 1.002, 16:34:51.811
137, -7184.59, -7402.65, -7280.03, -7196.79, -100328.57, -95569.57, -129463.89, -149532.97, 0.000, 0.000, 0.000, 16:34:51.811
138, -7182.93, -7400.95, -7278.20, -7194.94, -100326.74, -95568.03, -129462.13, -149531.00, 0.000, 0.000, 0.000, 16:34:51.812
139, -7187.00, -7405.04, -7282.06, -7198.83, -100331.08, -95571.95, -129465.99, -149535.06, 0.000, 0.000, 0.000, 16:34:51.820
140, -7188.83, -7406.92, -7284.01, -7200.55, -100332.77, -95573.84, -129467.60, -149536.78, 0.000, 0.000, 0.000, 16:34:51.820
141, -7188.86, -7406.61, -7283.92, -7200.52, -100332.55, -95573.82, -129467.36, -149536.56, 0.000, 0.000, 0.000, 16:34:51.820
142, -7187.94, -7405.62, -7282.80, -7199.56, -100331.63, -95572.75, -129466.35, -149535.56, 0.000, 0.000, 0.000, 16:34:51.821
143, -7187.99, -7405.85, -7282.91, -7199.54, -100331.99, -95573.06, -129466.51, -149535.88, 0.000, 0.000, 0.000, 16:34:51.821
144, -7190.91, -7408.84, -7285.98, -7202.67, -100335.21, -95576.23, -129469.70, -149538.94, 0.000, 0.000, 0.000, 16:34:51.821
145, -7192.03, -7409.98, -7287.05, -7203.79, -100336.40, -95577.40, -129471.00, -149540.00, 0.000, 0.000, 0.000, 16:34:51.821
146, -7192.55, -7410.70, -7287.65, -7204.62, -100337.36, -95578.27, -129471.89, -149540.81, 0.000, 0.000, 0.000, 16:34:51.821
147, -7192.84, -7410.88, -7287.96, -7204.86, -100337.73, -95578.73, -129472.09, -149541.08, 0.000, 0.000, 0.000, 16:34:51.821
148, -7193.06, -7411.19, -7288.30, -7205.15, -100338.03, -95579.01, -129472.27, -149541.44, 0.000, 0.000, 0.000, 16:34:51.821
149, -7191.58, -7409.85, -7287.03, -7203.77, -100336.82, -95577.82, -129471.18, -149540.11, 0.000, 0.000, 0.000, 16:34:51.830
150, -7190.69, -7409.07, -7286.15, -7203.03, -100336.13, -95577.13, -129470.27, -149539.41, 0.000, 0.000, 0.000, 16:34:51.830
151, -7192.39, -7410.72, -7287.63, -7204.66, -100337.80, -95578.83, -129471.88, -149541.06, 0.000, 0.000, 0.000, 16:34:51.830
152, -7191.65, -7409.83, -7286.87, -7203.88, -100337.07, -95578.18, -129470.93, -149540.14, 0.000, 0.000, 0.000, 16:34:51.831
153, -7190.09, -7408.08, -7285.37, -7202.02, -100335.75, -95576.59, -129469.37, -149538.66, 0.000, 0.000, 0.000, 16:34:51.831
154, -7189.55, -7407.46, -7284.79, -7201.42, -100334.92, -95575.81, -129468.63, -149537.88, 0.000, 0.000, 0.000, 16:34:51.831
155, -7189.80, -7407.73, -7284.97, -7201.60, -100335.23, -95576.32, -129468.77, -149538.13, 0.000, 0.000, 0.000, 16:34:51.831
156, -7187.94, -7405.94, -7283.07, -7199.70, -100333.45, -95574.52, -129466.95, -149536.27, 0.000, 0.000, 0.000, 16:34:51.831
157, -7186.38, -7404.24, -7281.51, -7198.13, -100331.84, -95572.84, -129465.45, -149534.50, 0.000, 0.000, 0.000, 16:34:51.831
158, -7185.84, -7403.72, -7280.90, -7197.46, -100331.34, -95572.23, -129464.56, -149533.66, 0.000, 0.000, 0.000, 16:34:51.831
159, -7183.56, -7401.42, -7278.60, -7195.07, -100329.09, -95569.89, -129462.30, -149531.44, 0.000, 0.000, 0.000, 16:34:51.840
160, -7184.88, -7402.81, -7279.92, -7196.52, -100330.59, -95571.36, -129463.84, -149533.08, 0.000, 0.000, 0.000, 16:34:51.840
161, -7184.72, -7402.54, -7279.78, -7196.41, -100330.72, -95571.50, -129463.67, -149532.81, 0.000, 0.000, 0.000, 16:34:51.841
162, -7184.16, -7402.27, -7279.31, -7196.08, -100330.18, -95571.09, -129463.02, -149532.11, 0.000, 0.000, 0.000, 16:34:51.841
163, -7184.95, -7403.01, -7280.03, -7196.77, -100330.98, -95572.01, -129463.96, -149532.98, 0.000, 0.000, 0.000, 16:34:51.841
164, -7182.76, -7400.86, -7277.84, -7194.58, -100328.87, -95570.00, -129461.88, -149531.02, 0.000, 0.000, 0.000, 16:34:51.841
165, -7180.88, -7399.16, -7276.12, -7192.81, -100327.34, -95568.14, -129460.00, -149529.48, 0.000, 0.000, 0.000, 16:34:51.841
166, -7180.36, -7398.58, -7275.65, -7192.52, -100327.16, -95568.05, -129459.89, -149529.20, 0.000, 0.000, 0.000, 16:34:51.841
167, -7181.75, -7399.86, -7277.10, -7194.04, -100328.46, -95569.55, -129461.21, -149530.55, 0.000, 0.000, 0.000, 16:34:51.841
168, -7180.03, -7398.11, -7275.49, -7192.21, -100326.85, -95567.88, -129459.45, -149528.78, 0.000, 0.000, 0.000, 16:34:51.842
169, -7183.47, -7401.56, -7278.76, -7195.50, -100330.34, -95571.23, -129463.00, -149532.25, 0.000, 0.000, 0.000, 16:34:51.850
170, -7184.66, -7402.76, -7279.92, -7196.59, -100331.44, -95572.62, -129464.25, -149533.48, 0.000, 0.000, 0.000, 16:34:51.850
171, -7184.23, -7402.38, -7279.65, -7196.10, -100331.14, -95572.41, -129463.65, -149532.89, 0.000, 0.000, 0.000, 16:34:51.851
172, -7183.58, -7401.53, -7279.09, -7195.47, -100330.54, -95571.61, -129462.77, -149532.09, 0.000, 0.000, 0.000, 16:34:51.851
173, -7185.97, -7403.70, -7281.24, -7197.75, -100332.80, -95573.80, -129464.97, -149534.27, 0.000, 0.000, 0.000, 16:34:51.851
174, -7184.01, -7401.87, -7279.16, -7195.79, -100330.98, -95571.81, -129462.95, -149532.20, 0.000, 0.000, 0.000, 16:34:51.851
175, -7184.74, -7402.61, -7279.83, -7196.57, -100331.84, -95572.68, -129463.80, -149532.98, 0.086, -0.060, 1.002, 16:34:51.851
176, -7185.01, -7402.74, -7280.07, -7196.64, -100332.15, -95572.79, -129464.07, -149533.25, 0.000, 0.000, 0.000, 16:34:51.851
177, -7182.15, -7399.81, -7277.44, -7193.75, -100329.31, -95570.13, -129461.05, -149530.33, 0.000, 0.000, 0.000, 16:34:51.851
178, -7182.20, -7399.86, -7277.30, -7193.84, -100329.35, -95570.52, -129461.10, -149530.30, 0.000, 0.000, 0.000, 16:34:51.851
179, -7181.64, -7399.37, -7276.74, -7193.31, -100328.84, -95570.02, -129460.65, -149529.80, 0.000, 0.000, 0.000, 16:34:51.851
180, -7181.19, -7399.03, -7276.41, -7192.81, -100328.69, -95569.59, -129460.25, -149529.44, 0.000, 0.000, 0.000, 16:34:51.861
181, -7182.20, -7400.15, -7277.53, -7194.09, -100330.02, -95571.12, -129461.59, -149530.95, 0.000, 0.000, 0.000, 16:34:51.861
182, -7180.99, -7398.94, -7276.32, -7193.06, -100328.84, -95570.09, -129460.56, -149529.64, 0.000, 0.000, 0.000, 16:34:51.861
183, -7180.34, -7398.47, -7275.74, -7192.37, -100328.39, -95569.57, -129460.09, -149529.05, 0.000, 0.000, 0.000, 16:34:51.861
184, -7181.64, -7399.77, -7277.12, -7193.66, -100329.94, -95571.16, -129461.34, -149530.64, 0.000, 0.000, 0.000, 16:34:51.862
185, -7180.56, -7398.56, -7275.96, -7192.50, -100328.69, -95569.84, -129460.05, -149529.45, 0.000, 0.000, 0.000, 16:34:51.862
186, -7184.39, -7402.47, -7279.99, -7196.39, -100332.75, -95573.75, -129464.16, -149533.41, 0.000, 0.000, 0.000, 16:34:51.862
187, -7185.12, -7403.05, -7280.54, -7197.19, -100333.76, -95574.58, -129464.88, -149533.95, 0.000, 0.000, 0.000, 16:34:51.862
188, -7183.05, -7401.09, -7278.40, -7195.07, -100331.59, -95572.46, -129462.77, -149531.78, 0.000, 0.000, 0.000, 16:34:51.862
189, -7183.98, -7402.05, -7279.29, -7195.96, -100332.41, -95573.30, -129463.34, -149532.55, 0.000, 0.000, 0.000, 16:34:51.862
190, -7185.10, -7402.88, -7280.34, -7196.75, -100333.52, -95574.40, -129464.20, -149533.48, 0.000, 0.000, 0.000, 16:34:51.871
191, -7183.56, -7401.33, -7278.69, -7195.12, -100331.97, -95572.99, -129462.73, -149531.91, 0.000, 0.000, 0.000, 16:34:51.871
192, -7182.38, -7400.17, -7277.42, -7194.00, -100330.95, -95571.74, -129461.45, -149530.64, 0.000, 0.000, 0.000, 16:34:51.871
193, -7181.41, -7399.50, -7276.70, -7193.33, -100330.34, -95571.12, -129460.70, -149530.02, 0.000, 0.000, 0.000, 16:34:51.872
194, -7181.39, -7399.21, -7276.63, -7193.31, -100330.25, -95571.02, -129460.65, -149529.80, 0.000, 0.000, 0.000, 16:34:51.872
195, -7182.15, -7399.95, -7277.35, -7194.13, -100331.19, -95571.81, -129461.39, -149530.45, 0.000, 0.000, 0.000, 16:34:51.872
196, -7183.31, -7401.31, -7278.78, -7195.41, -100332.59, -95573.27, -129462.80, -149532.11, 0.000, 0.000, 0.000, 16:34:51.872
197, -7185.06, -7403.10, -7280.43, -7196.97, -100334.18, -95575.20, -129464.65, -149533.92, 0.000, 0.000, 0.000, 16:34:51.872
198, -7184.21, -7402.41, -7279.67, -7196.46, -100333.65, -95574.70, -129464.07, -149533.20, 0.000, 0.000, 0.000, 16:34:51.872
199, -7185.91, -7403.99, -7281.21, -7198.18, -100335.63, -95576.68, -129465.93, -149535.05, 0.000, 0.000, 0.000, 16:34:51.872
200, -7188.30, -7406.25, -7283.56, -7200.35, -100338.07, -95578.80, -129468.09, -149537.33, 0.000, 0.000, 0.000, 16:34:51.881
201, -7186.67, -7404.71, -7281.93, -7198.83, -100336.59, -95577.20, -129466.41, -149535.72, 0.000, 0.000, 0.000, 16:34:51.882
202, -7185.19, -7403.17, -7280.50, -7197.33, -100335.05, -95575.70, -129464.97, -149534.06, 0.000, 0.000, 0.000, 16:34:51.882
203, -7183.83, -7401.78, -7279.29, -7195.88, -100333.67, -95574.60, -129463.58, -149532.73, 0.000, 0.000, 0.000, 16:34:51.882
204, -7182.80, -7400.64, -7277.97, -7194.74, -100332.66, -95573.46, -129462.46, -149531.80, 0.000, 0.000, 0.000, 16:34:51.882
205, -7183.65, -7401.47, -7278.82, -7195.52, -100333.55, -95574.49, -129463.42, -149532.77, 0.000, 0.000, 0.000, 16:34:51.882
206, -7184.77, -7402.41, -7279.90, -7196.64, -100334.67, -95575.61, -129464.32, -149533.55, 0.000, 0.000, 0.000, 16:34:51.882
207, -7184.45, -7402.14, -7279.54, -7196.28, -100334.34, -95575.07, -129463.78, -149532.92, 0.000, 0.000, 0.000, 16:34:51.882
208, -7186.71, -7404.26, -7281.82, -7198.47, -100336.80, -95577.38, -129466.06, -149535.25, 0.000, 0.000, 0.000, 16:34:51.882
209, -7187.99, -7405.56, -7282.85, -7199.56, -100338.09, -95578.65, -129467.31, -149536.55, 0.000, 0.000, 0.000, 16:34:51.882
210, -7188.61, -7406.34, -7283.45, -7200.23, -100338.74, -95579.54, -129467.87, -149537.14, 0.000, 0.000, 0.000, 16:34:51.891
211, -7188.59, -7406.16, -7283.41, -7200.17, -100338.79, -95579.59, -129467.71, -149537.05, 0.000, 0.000, 0.000, 16:34:51.892
212, -7187.94, -7405.58, -7282.87, -7199.54, -100338.30, -95578.94, -129467.13, -149536.50, 0.000, 0.000, 0.000, 16:34:51.892
213, -7189.19, -7406.94, -7284.25, -7200.93, -100339.91, -95580.46, -129468.83, -149538.06, 0.088, -0.056, 1.000, 16:34:51.892
214, -7190.71, -7408.46, -7285.86, -7202.56, -100341.60, -95582.20, -129470.44, -149539.67, 0.000, 0.000, 0.000, 16:34:51.892
215, -7189.06, -7407.12, -7284.34, -7201.08, -100340.22, -95580.80, -129468.83, -149538.31, 0.000, 0.000, 0.000, 16:34:51.892
216, -7186.24, -7404.48, -7281.80, -7198.54, -100337.58, -95578.47, -129466.35, -149535.88, 0.000, 0.000, 0.000, 16:34:51.892
217, -7187.00, -7405.09, -7282.35, -7199.21, -100338.45, -95579.16, -129467.13, -149536.61, 0.000, 0.000, 0.000, 16:34:51.892
218, -7186.13, -7404.15, -7281.64, -7198.45, -100337.70, -95578.47, -129466.20, -149535.58, 0.000, 0.000, 0.000, 16:34:51.892
219, -7185.88, -7403.84, -7281.17, -7197.98, -100337.38, -95578.05, -129465.77, -149535.11, 0.000, 0.000, 0.000, 16:34:51.892
220, -7185.39, -7403.30, -7280.68, -7197.24, -100336.89, -95577.42, -129465.08, -149534.38, 0.000, 0.000, 0.000, 16:34:51.902
221, -7187.16, -7404.95, -7282.33, -7198.85, -100338.63, -95579.45, -129466.77, -149536.08, 0.000, 0.000, 0.000, 16:34:51.902
222, -7187.23, -7405.15, -7282.40, -7198.98, -100338.68, -95579.48, -129466.71, -149536.00, 0.000, 0.000, 0.000, 16:34:51.902
223, -7187.40, -7405.18, -7282.62, -7199.14, -100338.88, -95579.68, -129466.98, -149536.11, 0.000, 0.000, 0.000, 16:34:51.902
224, -7185.55, -7403.25, -7280.52, -7197.17, -100336.98, -95577.87, -129464.90, -149534.13, 0.000, 0.000, 0.000, 16:34:51.902
225, -7187.11, -7404.62, -7282.15, -7198.58, -100338.68, -95579.32, -129466.22, -149535.58, 0.000, 0.000, 0.000, 16:34:51.903
226, -7189.84, -7407.35, -7284.75, -7201.08, -100341.36, -95581.95, -129468.85, -149538.31, 0.000, 0.000, 0.000, 16:34:51.903
227, -7189.64, -7407.32, -7284.63, -7200.90, -100341.45, -95581.91, -129468.90, -149538.33, 0.000, 0.000, 0.000, 16:34:51.903
228, -7188.39, -7406.12, -7283.54, -7200.01, -100340.51, -95581.11, -129467.98, -149537.25, 0.000, 0.000, 0.000, 16:34:51.903
229, -7186.56, -7404.26, -7281.62, -7198.38, -100338.70, -95579.30, -129466.24, -149535.36, 0.000, 0.000, 0.000, 16:34:51.903
230, -7187.14, -7404.84, -7282.40, -7198.87, -100339.52, -95579.84, -129466.82, -149536.05, 0.000, 0.000, 0.000, 16:34:51.911
231, -7185.12, -7402.94, -7280.39, -7196.84, -100337.70, -95578.00, -129464.85, -149534.11, 0.000, 0.000, 0.000, 16:34:51.912
232, -7183.16, -7401.13, -7278.67, -7195.27, -100335.88, -95576.37, -129463.06, -149532.42, 0.000, 0.000, 0.000, 16:34:51.912
233, -7185.46, -7403.43, -7281.01, -7197.48, -100338.34, -95578.90, -129465.63, -149534.84, 0.000, 0.000, 0.000, 16:34:51.912
234, -7185.10, -7403.23, -7280.70, -7197.13, -100338.23, -95578.90, -129465.32, -149534.66, 0.000, 0.000, 0.000, 16:34:51.912
235, -7184.97, -7403.10, -7280.45, -7196.93, -100338.12, -95578.67, -129465.14, -149534.33, 0.000, 0.000, 0.000, 16:34:51.912
236, -7185.88, -7403.84, -7281.24, -7197.84, -100339.05, -95579.61, -129465.97, -149535.16, 0.000, 0.000, 0.000, 16:34:51.912
237, -7186.56, -7404.51, -7281.82, -7198.42, -100339.66, -95580.28, -129466.58, -149535.78, 0.000, 0.000, 0.000, 16:34:51.912
238, -7186.91, -7404.62, -7282.11, -7198.65, -100339.95, -95580.73, -129466.84, -149536.03, 0.000, 0.000, 0.000, 16:34:51.912
239, -7186.58, -7404.48, -7281.95, -7198.36, -100339.84, -95580.39, -129466.66, -149535.59, 0.000, 0.000, 0.000, 16:34:51.912
240, -7187.18, -7405.02, -7282.51, -7198.80, -100340.24, -95580.68, -129466.82, -149535.98, 0.000, 0.000, 0.000, 16:34:51.921
241, -7187.18, -7404.93, -7282.56, -7198.74, -100340.33, -95580.84, -129466.69, -149536.11, 0.000, 0.000, 0.000, 16:34:51.921
242, -7186.29, -7403.99, -7281.51, -7197.86, -100339.59, -95579.97, -129465.75, -149535.00, 0.000, 0.000, 0.000, 16:34:51.922
243, -7185.62, -7403.46, -7280.83, -7197.22, -100338.90, -95579.34, -129465.01, -149534.27, 0.000, 0.000, 0.000, 16:34:51.922
244, -7186.67, -7404.28, -7281.97, -7198.25, -100339.93, -95580.48, -129466.26, -149535.53, 0.000, 0.000, 0.000, 16:34:51.922
245, -7187.67, -7405.33, -7283.05, -7199.25, -100341.18, -95581.69, -129467.27, -149536.67, 0.000, 0.000, 0.000, 16:34:51.922
246, -7188.70, -7406.52, -7284.03, -7200.39, -100342.48, -95582.80, -129468.43, -149537.70, 0.000, 0.000, 0.000, 16:34:51.922
247, -7188.81, -7406.63, -7284.03, -7200.55, -100342.72, -95583.03, -129468.61, -149537.95, 0.000, 0.000, 0.000, 16:34:51.922
248, -7186.73, -7404.75, -7282.13, -7198.60, -100340.82, -95581.40, -129466.87, -149535.92, 0.000, 0.000, 0.000, 16:34:51.922
249, -7184.25, -7402.14, -7279.61, -7196.12, -100338.16, -95578.96, -129464.27, -149533.55, 0.000, 0.000, 0.000, 16:34:51.922
250, -7186.78, -7404.46, -7282.04, -7198.40, -100340.84, -95581.40, -129466.69, -149536.00, 0.000, 0.000, 0.000, 16:34:51.932
251, -7187.05, -7404.84, -7282.35, -7198.80, -100341.38, -95582.02, -129467.24, -149536.50, 0.088, -0.058, 0.998, 16:34:51.932
252, -7185.17, -7403.08, -7280.50, -7197.04, -100339.50, -95580.15, -129465.34, -149534.58, 0.000, 0.000, 0.000, 16:34:51.932
253, -7187.90, -7405.96, -7283.25, -7199.81, -100342.32, -95582.96, -129467.98, -149537.20, 0.000, 0.000, 0.000, 16:34:51.932
254, -7190.38, -7408.22, -7285.64, -7202.13, -100344.87, -95585.53, -129470.24, -149539.52, 0.000, 0.000, 0.000, 16:34:51.932
255, -7188.79, -7406.70, -7283.99, -7200.55, -100343.26, -95583.88, -129468.66, -149538.02, 0.000, 0.000, 0.000, 16:34:51.932
0, -7187.85, -7405.76, -7282.85, -7199.54, -100342.27, -95582.70, -129467.63, -149536.89, 0.000, 0.000, 0.000, 16:34:51.933
1, -7188.19, -7405.94, -7282.91, -7199.59, -100342.66, -95582.91, -129467.73, -149536.97, 0.000, 0.000, 0.000, 16:34:51.933
2, -7186.78, -7404.44, -7281.66, -7198.09, -100341.31, -95581.66, -129466.26, -149535.44, 0.000, 0.000, 0.000, 16:34:51.933
3, -7187.45, -7405.29, -7282.49, -7198.83, -100342.12, -95582.47, -129467.13, -149536.39, 0.000, 0.000, 0.000, 16:34:51.933
4, -7189.53, -7407.46, -7284.59, -7201.08, -100344.33, -95584.75, -129469.23, -149538.44, 0.000, 0.000, 0.000, 16:34:51.942
5, -7191.09, -7408.64, -7286.22, -7202.49, -100345.98, -95586.45, -129470.69, -149540.00, 0.000, 0.000, 0.000, 16:34:51.942
6, -7189.04, -7406.50, -7284.21, -7200.59, -100344.11, -95584.41, -129468.74, -149538.03, 0.000, 0.000, 0.000, 16:34:51.942
7, -7185.10, -7402.67, -7280.23, -7196.75, -100340.30, -95580.46, -129464.79, -149534.27, 0.000, 0.000, 0.000, 16:34:51.942
8, -7185.37, -7403.23, -7280.54, -7197.13, -100340.91, -95581.27, -129465.28, -149534.81, 0.000, 0.000, 0.000, 16:34:51.942
9, -7185.46, -7403.59, -7280.88, -7197.28, -100341.16, -95581.78, -129465.59, -149535.22, 0.000, 0.000, 0.000, 16:34:51.943
10, -7184.77, -7402.72, -7280.21, -7196.73, -100340.53, -95581.11, -129465.08, -149534.58, 0.000, 0.000, 0.000, 16:34:51.943
11, -7183.60, -7401.53, -7278.98, -7195.45, -100339.41, -95580.03, -129463.96, -149533.33, 0.000, 0.000, 0.000, 16:34:51.943
12, -7181.86, -7399.81, -7277.19, -7193.71, -100337.78, -95578.31, -129462.23, -149531.52, 0.000, 0.000, 0.000, 16:34:51.943
13, -7184.66, -7402.43, -7279.99, -7196.46, -100340.58, -95581.06, -129464.90, -149534.22, 0.000, 0.000, 0.000, 16:34:51.943
14, -7184.79, -7402.43, -7280.01, -7196.55, -100340.69, -95581.24, -129464.79, -149534.44, 0.000, 0.000, 0.000, 16:34:51.953
15, -7185.68, -7403.46, -7281.10, -7197.44, -100341.76, -95582.09, -129465.66, -149535.27, 0.000, 0.000, 0.000, 16:34:51.953
16, -7188.21, -7406.14, -7283.72, -7199.99, -100344.40, -95584.59, -129468.27, -149537.72, 0.000, 0.000, 0.000, 16:34:51.953
17, -7189.51, -7407.28, -7284.90, -7201.20, -100345.52, -95585.91, -129469.39, -149538.81, 0.000, 0.000, 0.000, 16:34:51.953
18, -7188.03, -7405.71, -7283.34, -7199.52, -100344.24, -95584.51, -129467.98, -149537.23, 0.000, 0.000, 0.000, 16:34:51.953
19, -7186.20, -7404.10, -7281.66, -7197.82, -100342.59, -95582.91, -129466.33, -149535.69, 0.000, 0.000, 0.000, 16:34:51.953
20, -7184.16, -7402.03, -7279.38, -7195.83, -100340.62, -95580.84, -129463.94, -149533.44, 0.000, 0.000, 0.000, 16:34:51.953
21, -7183.09, -7400.84, -7278.26, -7194.74, -100339.57, -95579.79, -129462.84, -149532.36, 0.000, 0.000, 0.000, 16:34:51.953
22, -7182.44, -7400.19, -7277.59, -7193.89, -100338.92, -95579.12, -129462.06, -149531.56, 0.000, 0.000, 0.000, 16:34:51.953
23, -7183.31, -7401.02, -7278.42, -7194.80, -100340.09, -95580.17, -129463.18, -149532.63, 0.000, 0.000, 0.000, 16:34:51.953
24, -7185.17, -7402.94, -7280.54, -7196.84, -100341.83, -95582.38, -129465.23, -149534.59, 0.000, 0.000, 0.000, 16:34:51.962
25, -7184.68, -7402.50, -7280.05, -7196.48, -100341.54, -95582.13, -129464.83, -149534.27, 0.000, 0.000, 0.000, 16:34:51.962
26, -7185.57, -7403.52, -7280.92, -7197.57, -100342.79, -95583.34, -129465.91, -149535.44, 0.000, 0.000, 0.000, 16:34:51.962
27, -7184.95, -7402.81, -7280.25, -7196.84, -100342.25, -95582.67, -129465.37, -149534.66, 0.000, 0.000, 0.000, 16:34:51.962
28, -7184.95, -7402.94, -7280.34, -7196.95, -100342.38, -95582.85, -129465.45, -149534.81, 0.000, 0.000, 0.000, 16:34:51.962
29, -7185.71, -7403.66, -7280.95, -7197.62, -100343.21, -95583.56, -129466.06, -149535.47, 0.000, 0.000, 0.000, 16:34:51.962
30, -7188.19, -7406.05, -7283.41, -7200.08, -100345.63, -95586.02, -129468.54, -149537.77, 0.000, 0.000, 0.000, 16:34:51.962
31, -7187.58, -7405.45, -7282.98, -7199.34, -100345.05, -95585.58, -129467.87, -149537.30, 0.000, 0.000, 0.000, 16:34:51.963
32, -7187.36, -7405.29, -7282.78, -7199.16, -100344.89, -95585.40, -129467.60, -149537.03, 0.000, 0.000, 0.000, 16:34:51.963
33, -7187.45, -7405.18, -7282.65, -7199.23, -100344.91, -95585.29, -129467.55, -149536.83, 0.000, 0.000, 0.000, 16:34:51.963
34, -7187.38, -7405.18, -7282.42, -7199.16, -100345.00, -95585.22, -129467.38, -149536.72, 0.082, -0.060, 0.998, 16:34:51.972
35, -7186.87, -7404.89, -7281.97, -7198.63, -100344.80, -95584.98, -129466.95, -149536.30, 0.000, 0.000, 0.000, 16:34:51.972
36, -7186.60, -7404.44, -7281.86, -7198.31, -100344.66, -95584.80, -129466.71, -149535.98, 0.000, 0.000, 0.000, 16:34:51.972
37, -7185.73, -7403.64, -7280.99, -7197.42, -100343.62, -95583.72, -129465.63, -149534.80, 0.000, 0.000, 0.000, 16:34:51.972
38, -7185.82, -7403.41, -7280.88, -7197.19, -100343.73, -95583.79, -129465.79, -149534.95, 0.000, 0.000, 0.000, 16:34:51.972
39, -7187.09, -7404.64, -7282.22, -7198.60, -100345.09, -95585.27, -129467.13, -149536.39, 0.000, 0.000, 0.000, 16:34:51.972
40, -7188.90, -7406.61, -7284.01, -7200.52, -100346.90, -95587.26, -129468.92, -149538.28, 0.000, 0.000, 0.000, 16:34:51.972
41, -7188.41, -7406.18, -7283.70, -7200.15, -100346.68, -95587.01, -129468.74, -149538.03, 0.000, 0.000, 0.000, 16:34:51.972
42, -7187.23, -7404.95, -7282.58, -7199.12, -100345.76, -95586.23, -129467.58, -149537.02, 0.000, 0.000, 0.000, 16:34:51.972
43, -7187.43, -7405.33, -7282.82, -7199.32, -100346.21, -95586.65, -129467.89, -149537.28, 0.000, 0.000, 0.000, 16:34:51.972
44, -7187.34, -7405.27, -7282.78, -7199.36, -100346.19, -95586.59, -129467.91, -149537.28, 0.000, 0.000, 0.000, 16:34:51.982
45, -7186.91, -7404.77, -7282.20, -7198.87, -100345.83, -95586.20, -129467.49, -149536.77, 0.000, 0.000, 0.000, 16:34:51.982
46, -7185.79, -7403.81, -7281.17, -7197.71, -100344.82, -95585.13, -129466.35, -149535.56, 0.000, 0.000, 0.000, 16:34:51.982
47, -7184.79, -7402.65, -7280.01, -7196.52, -100343.59, -95583.95, -129465.13, -149534.42, 0.000, 0.000, 0.000, 16:34:51.982
48, -7187.47, -7405.29, -7282.65, -7199.16, -100346.27, -95586.61, -129467.94, -149537.14, 0.000, 0.000, 0.000, 16:34:51.982
49, -7188.92, -7406.52, -7284.21, -7200.57, -100347.95, -95588.26, -129469.13, -149538.48, 0.000, 0.000, 0.000, 16:34:51.983
50, -7189.15, -7406.74, -7284.28, -7200.66, -100348.29, -95588.23, -129469.10, -149538.23, 0.000, 0.000, 0.000, 16:34:51.983
51, -7192.14, -7409.87, -7287.29, -7203.70, -100351.41, -95591.30, -129472.16, -149541.39, 0.000, 0.000, 0.000, 16:34:51.983
52, -7193.06, -7410.88, -7288.21, -7204.68, -100352.34, -95592.30, -129473.23, -149542.48, 0.000, 0.000, 0.000, 16:34:51.983
53, -7190.27, -7407.95, -7285.17, -7201.75, -100349.41, -95589.27, -129470.27, -149539.52, 0.000, 0.000, 0.000, 16:34:51.983
54, -7189.66, -7407.37, -7284.70, -7201.02, -100348.89, -95588.95, -129469.48, -149538.70, 0.000, 0.000, 0.000, 16:34:51.992
55, -7190.13, -7407.93, -7285.35, -7201.69, -100349.49, -95589.84, -129470.24, -149539.47, 0.000, 0.000, 0.000, 16:34:51.992
56, -7193.84, -7411.55, -7288.81, -7205.24, -100353.23, -95593.38, -129473.91, -149543.11, 0.000, 0.000, 0.000, 16:34:51.992
57, -7191.36, -7409.09, -7286.40, -7202.76, -100350.92, -95590.90, -129471.54, -149540.42, 0.000, 0.000, 0.000, 16:34:51.992
58, -7187.92, -7405.78, -7283.14, -7199.45, -100347.80, -95587.74, -129468.14, -149537.39, 0.000, 0.000, 0.000, 16:34:51.992
59, -7186.35, -7404.28, -7281.66, -7197.91, -100346.39, -95586.54, -129466.82, -149536.23, 0.000, 0.000, 0.000, 16:34:51.992
60, -7184.68, -7402.50, -7279.90, -7196.37, -100344.82, -95584.93, -129465.23, -149534.48, 0.000, 0.000, 0.000, 16:34:51.992
61, -7186.60, -7404.53, -7281.71, -7198.31, -100347.02, -95587.03, -129467.31, -149536.52, 0.000, 0.000, 0.000, 16:34:51.993
62, -7188.21, -7406.23, -7283.52, -7199.99, -100348.76, -95588.80, -129468.83, -149538.19, 0.000, 0.000, 0.000, 16:34:51.993
63, -7186.62, -7404.55, -7281.95, -7198.31, -100347.20, -95587.30, -129467.05, -149536.41, 0.000, 0.000, 0.000, 16:34:51.993
64, -7184.72, -7402.47, -7280.05, -7196.41, -100345.38, -95585.31, -129465.13, -149534.53, 0.000, 0.000, 0.000, 16:34:51.993
65, -7187.72, -7405.31, -7282.78, -7199.05, -100348.24, -95588.22, -129467.96, -149537.19, 0.000, 0.000, 0.000, 16:34:52.002
66, -7189.59, -7407.26, -7284.66, -7201.04, -100350.30, -95590.07, -129469.81, -149539.02, 0.000, 0.000, 0.000, 16:34:52.002
67, -7189.28, -7406.81, -7284.30, -7200.59, -100349.85, -95589.55, -129469.16, -149538.58, 0.000, 0.000, 0.000, 16:34:52.002
68, -7190.56, -7407.90, -7285.31, -7201.60, -100350.92, -95590.85, -129470.42, -149539.72, 0.000, 0.000, 0.000, 16:34:52.002
69, -7188.14, -7405.74, -7283.11, -7199.36, -100348.65, -95588.62, -129468.09, -149537.28, 0.000, 0.000, 0.000, 16:34:52.002
70, -7187.25, -7404.82, -7282.15, -7198.47, -100347.80, -95587.81, -129467.20, -149536.45, 0.000, 0.000, 0.000, 16:34:52.002
71, -7186.35, -7403.77, -7281.24, -7197.64, -100347.02, -95587.01, -129466.35, -149535.47, 0.000, 0.000, 0.000, 16:34:52.002
72, -7184.01, -7401.53, -7278.98, -7195.27, -100344.87, -95584.80, -129464.02, -149533.14, 0.086, -0.058, 0.998, 16:34:52.002
73, -7182.93, -7400.64, -7277.95, -7194.20, -100343.93, -95583.74, -129462.95, -149532.19, 0.000, 0.000, 0.000, 16:34:52.002
74, -7183.67, -7401.47, -7278.64, -7195.12, -100344.91, -95584.84, -129463.98, -149533.14, 0.000, 0.000, 0.000, 16:34:52.003
75, -7185.53, -7403.32, -7280.63, -7197.02, -100346.97, -95586.83, -129465.86, -149535.00, 0.000, 0.000, 0.000, 16:34:52.012
76, -7183.60, -7401.44, -7278.91, -7195.18, -100345.05, -95585.13, -129463.91, -149533.25, 0.000, 0.000, 0.000, 16:34:52.012
77, -7182.49, -7400.30, -7277.68, -7194.20, -100343.99, -95584.08, -129462.73, -149532.06, 0.000, 0.000, 0.000, 16:34:52.012
78, -7182.24, -7399.95, -7277.24, -7193.89, -100343.84, -95583.86, -129462.51, -149531.91, 0.000, 0.000, 0.000, 16:34:52.012
79, -7186.02, -7403.66, -7281.10, -7197.62, -100347.64, -95587.66, -129466.51, -149535.67, 0.000, 0.000, 0.000, 16:34:52.012
80, -7185.28, -7402.96, -7280.32, -7196.84, -100346.88, -95586.98, -129465.73, -149534.84, 0.000, 0.000, 0.000, 16:34:52.012
81, -7186.29, -7404.17, -7281.35, -7197.86, -100348.06, -95588.20, -129466.71, -149535.73, 0.000, 0.000, 0.000, 16:34:52.013
82, -7188.66, -7406.52, -7283.76, -7200.19, -100350.59, -95590.49, -129469.03, -149538.13, 0.000, 0.000, 0.000, 16:34:52.013
83, -7189.37, -7407.08, -7284.37, -7200.77, -100351.13, -95591.05, -129469.62, -149538.66, 0.000, 0.000, 0.000, 16:34:52.013
84, -7189.97, -7407.52, -7284.92, -7201.20, -100351.95, -95591.91, -129470.17, -149539.20, 0.000, 0.000, 0.000, 16:34:52.013
85, -7187.40, -7404.95, -7282.33, -7198.45, -100349.52, -95589.40, -129467.54, -149536.55, 0.000, 0.000, 0.000, 16:34:52.022
86, -7185.59, -7403.25, -7280.34, -7196.66, -100347.62, -95587.68, -129465.63, -149534.66, 0.000, 0.000, 0.000, 16:34:52.022
87, -7187.52, -7405.04, -7282.42, -7198.69, -100349.45, -95589.40, -129467.54, -149536.50, 0.000, 0.000, 0.000, 16:34:52.022
88, -7188.90, -7406.29, -7283.87, -7200.03, -100350.99, -95590.85, -129468.95, -149538.02, 0.000, 0.000, 0.000, 16:34:52.022
89, -7188.79, -7406.43, -7283.49, -7199.85, -100351.13, -95590.88, -129468.90, -149538.00, 0.000, 0.000, 0.000, 16:34:52.022
90, -7188.14, -7405.83, -7282.98, -7199.38, -100350.70, -95590.61, -129468.50, -149537.45, 0.000, 0.000, 0.000, 16:34:52.022
91, -7186.62, -7404.08, -7281.51, -7197.89, -100349.16, -95589.00, -129466.80, -149535.78, 0.000, 0.000, 0.000, 16:34:52.022
92, -7186.24, -7403.72, -7281.21, -7197.48, -100348.87, -95588.77, -129466.41, -149535.52, 0.000, 0.000, 0.000, 16:34:52.023
93, -7190.13, -7407.64, -7285.13, -7201.75, -100352.98, -95593.09, -129470.62, -149539.78, 0.000, 0.000, 0.000, 16:34:52.023
94, -7188.90, -7406.65, -7284.12, -7200.86, -100352.11, -95592.17, -129469.66, -149538.80, 0.000, 0.000, 0.000, 16:34:52.023
95, -7186.69, -7404.44, -7281.89, -7198.51, -100349.96, -95589.98, -129467.42, -149536.66, 0.000, 0.000, 0.000, 16:34:52.032
96, -7185.01, -7402.67, -7280.12, -7196.52, -100348.17, -95588.33, -129465.63, -149534.75, 0.000, 0.000, 0.000, 16:34:52.032
97, -7183.16, -7401.00, -7278.26, -7194.58, -100346.45, -95586.45, -129463.63, -149532.73, 0.000, 0.000, 0.000, 16:34:52.033
98, -7181.55, -7399.46, -7276.72, -7193.06, -100345.00, -95584.82, -129462.10, -149531.13, 0.000, 0.000, 0.000, 16:34:52.033
99, -7182.73, -7400.37, -7277.66, -7193.95, -100345.96, -95585.80, -129462.95, -149532.03, 0.000, 0.000, 0.000, 16:34:52.033
100, -7182.69, -7400.35, -7277.62, -7193.93, -100345.78, -95585.66, -129462.62, -149531.73, 0.000, 0.000, 0.000, 16:34:52.033
101, -7184.66, -7402.25, -7279.67, -7195.79, -100348.11, -95587.79, -129464.65, -149534.03, 0.000, 0.000, 0.000, 16:34:52.033
102, -7185.53, -7403.03, -7280.39, -7196.55, -100348.91, -95588.59, -129465.48, -149534.78, 0.000, 0.000, 0.000, 16:34:52.033
103, -7186.56, -7404.15, -7281.46, -7197.80, -100350.10, -95589.80, -129466.59, -149535.80, 0.000, 0.000, 0.000, 16:34:52.033
104, -7186.89, -7404.55, -7282.06, -7198.29, -100350.73, -95590.20, -129467.00, -149536.19, 0.000, 0.000, 0.000, 16:34:52.033
105, -7186.80, -7404.35, -7281.73, -7198.04, -100350.50, -95590.00, -129466.84, -149536.00, 0.000, 0.000, 0.000, 16:34:52.042
106, -7189.44, -7406.99, -7284.30, -7200.52, -100353.16, -95592.87, -129469.44, -149538.63, 0.000, 0.000, 0.000, 16:34:52.042
107, -7189.24, -7406.67, -7284.14, -7200.26, -100353.14, -95592.87, -129469.19, -149538.50, 0.000, 0.000, 0.000, 16:34:52.042
108, -7188.75, -7406.16, -7283.70, -7199.92, -100352.83, -95592.53, -129468.83, -149538.00, 0.000, 0.000, 0.000, 16:34:52.042
109, -7188.79, -7406.23, -7283.85, -7200.10, -100353.02, -95592.69, -129469.16, -149538.63, 0.000, 0.000, 0.000, 16:34:52.042
110, -7187.96, -7405.56, -7283.11, -7199.38, -100352.34, -95592.17, -129468.52, -149538.02, 0.092, -0.052, 1.000, 16:34:52.042
111, -7188.70, -7406.27, -7283.76, -7200.10, -100353.12, -95593.16, -129469.37, -149538.55, 0.000, 0.000, 0.000, 16:34:52.043
112, -7188.92, -7406.52, -7284.03, -7200.32, -100353.56, -95593.49, -129469.59, -149538.80, 0.000, 0.000, 0.000, 16:34:52.043
113, -7189.91, -7407.61, -7285.15, -7201.26, -100354.57, -95594.59, -129470.55, -149539.80, 0.000, 0.000, 0.000, 16:34:52.043
114, -7190.82, -7408.51, -7286.02, -7201.89, -100355.35, -95595.14, -129471.31, -149540.34, 0.000, 0.000, 0.000, 16:34:52.043
115, -7189.13, -7406.81, -7284.10, -7200.26, -100353.70, -95593.55, -129469.48, -149538.80, 0.000, 0.000, 0.000, 16:34:52.057
116, -7190.80, -7408.35, -7285.84, -7201.89, -100355.55, -95595.30, -129471.23, -149540.56, 0.000, 0.000, 0.000, 16:34:52.057
117, -7190.31, -7407.86, -7285.51, -7201.49, -100355.38, -95595.03, -129470.77, -149539.95, 0.000, 0.000, 0.000, 16:34:52.057
118, -7190.20, -7407.59, -7285.37, -7201.33, -100355.13, -95594.81, -129470.40, -149539.73, 0.000, 0.000, 0.000, 16:34:52.057
119, -7192.32, -7409.63, -7287.07, -7203.16, -100357.02, -95596.66, -129472.23, -149541.38, 0.000, 0.000, 0.000, 16:34:52.057
120, -7189.37, -7406.61, -7284.03, -7200.10, -100354.16, -95593.73, -129469.19, -149538.44, 0.000, 0.000, 0.000, 16:34:52.057
121, -7189.48, -7407.03, -7284.46, -7200.48, -100354.63, -95594.14, -129469.57, -149539.02, 0.000, 0.000, 0.000, 16:34:52.057
122, -7190.51, -7408.04, -7285.48, -7201.60, -100355.87, -95595.37, -129470.76, -149539.92, 0.000, 0.000, 0.000, 16:34:52.057
123, -7189.57, -7406.88, -7284.46, -7200.48, -100354.97, -95594.36, -129469.88, -149539.06, 0.000, 0.000, 0.000, 16:34:52.057
124, -7188.48, -7405.89, -7283.58, -7199.43, -100353.95, -95593.55, -129468.81, -149538.13, 0.000, 0.000, 0.000, 16:34:52.058
125, -7188.07, -7405.74, -7283.36, -7199.32, -100353.77, -95593.55, -129468.74, -149537.86, 0.000, 0.000, 0.000, 16:34:52.062
126, -7186.80, -7404.44, -7282.02, -7198.18, -100352.67, -95592.51, -129467.49, -149536.81, 0.000, 0.000, 0.000, 16:34:52.062
127, -7187.67, -7405.29, -7283.00, -7199.14, -100353.67, -95593.38, -129468.41, -149537.55, 0.000, 0.000, 0.000, 16:34:52.062
128, -7188.32, -7405.94, -7283.47, -7199.76, -100354.44, -95594.09, -129469.15, -149538.23, 0.000, 0.000, 0.000, 16:34:52.063
129, -7187.74, -7405.33, -7282.85, -7199.16, -100353.85, -95593.55, -129468.41, -149537.77, 0.000, 0.000, 0.000, 16:34:52.063
130, -7186.47, -7404.10, -7281.57, -7197.73, -100352.45, -95592.13, -129466.89, -149536.19, 0.000, 0.000, 0.000, 16:34:52.063
131, -7187.58, -7405.13, -7282.58, -7198.87, -100353.67, -95593.20, -129467.87, -149536.98, 0.000, 0.000, 0.000, 16:34:52.063
132, -7188.23, -7405.67, -7283.07, -7199.52, -100354.21, -95593.69, -129468.30, -149537.34, 0.000, 0.000, 0.000, 16:34:52.063
133, -7187.56, -7405.07, -7282.51, -7198.87, -100353.65, -95593.20, -129467.71, -149537.03, 0.000, 0.000, 0.000, 16:34:52.063
134, -7189.46, -7406.92, -7284.37, -7200.52, -100355.69, -95595.10, -129469.50, -149538.80, 0.000, 0.000, 0.000, 16:34:52.063
135, -7190.24, -7407.50, -7285.10, -7201.28, -100356.67, -95595.93, -129470.22, -149539.47, 0.000, 0.000, 0.000, 16:34:52.072
136, -7190.62, -7407.88, -7285.37, -7201.66, -100357.01, -95596.48, -129470.89, -149539.98, 0.000, 0.000, 0.000, 16:34:52.072
137, -7191.23, -7408.42, -7285.98, -7202.25, -100357.56, -95597.07, -129471.34, -149540.42, 0.000, 0.000, 0.000, 16:34:52.072
138, -7188.79, -7406.07, -7283.52, -7199.74, -100355.06, -95594.41, -129468.61, -149537.77, 0.000, 0.000, 0.000, 16:34:52.073
139, -7186.02, -7403.17, -7280.72, -7196.64, -100352.58, -95591.84, -129465.93, -149535.27, 0.000, 0.000, 0.000, 16:34:52.073
140, -7187.38, -7404.55, -7282.06, -7198.09, -100354.05, -95593.52, -129467.38, -149536.73, 0.000, 0.000, 0.000, 16:34:52.073
141, -7190.15, -7407.52, -7284.75, -7201.08, -100357.01, -95596.38, -129470.22, -149539.48, 0.000, 0.000, 0.000, 16:34:52.073
142, -7189.28, -7406.63, -7283.96, -7200.08, -100356.16, -95595.63, -129469.48, -149538.70, 0.000, 0.000, 0.000, 16:34:52.073
143, -7187.90, -7405.45, -7282.78, -7199.00, -100355.15, -95594.67, -129468.45, -149537.72, 0.000, 0.000, 0.000, 16:34:52.073
144, -7189.13, -7406.74, -7284.14, -7200.32, -100356.67, -95596.20, -129470.02, -149539.11, 0.000, 0.000, 0.000, 16:34:52.073
145, -7187.92, -7405.47, -7282.89, -7199.14, -100355.51, -95594.97, -129468.70, -149537.91, 0.000, 0.000, 0.000, 16:34:52.082
146, -7186.38, -7403.88, -7281.33, -7197.46, -100354.05, -95593.47, -129466.89, -149536.20, 0.000, 0.000, 0.000, 16:34:52.082
147, -7186.51, -7403.95, -7281.33, -7197.37, -100354.01, -95593.42, -129466.87, -149536.05, 0.000, 0.000, 0.000, 16:34:52.082
148, -7187.85, -7405.33, -7282.67, -7198.80, -100355.46, -95594.97, -129468.25, -149537.36, 0.000, 0.000, 0.000, 16:34:52.082
149, -7188.72, -7406.34, -7283.58, -7199.81, -100356.47, -95595.93, -129469.10, -149538.38, 0.094, -0.060, 1.002, 16:34:52.083
150, -7188.79, -7406.29, -7283.56, -7199.76, -100356.47, -95595.99, -129469.03, -149538.39, 0.000, 0.000, 0.000, 16:34:52.083
151, -7189.13, -7406.45, -7284.03, -7200.03, -100356.96, -95596.28, -129469.41, -149538.70, 0.000, 0.000, 0.000, 16:34:52.083
152, -7188.63, -7405.89, -7283.41, -7199.47, -100356.47, -95595.73, -129468.70, -149538.02, 0.000, 0.000, 0.000, 16:34:52.083
153, -7188.21, -7405.67, -7283.00, -7199.09, -100356.11, -95595.52, -129468.23, -149537.55, 0.000, 0.000, 0.000, 16:34:52.083
154, -7186.85, -7404.33, -7281.80, -7197.86, -100354.97, -95594.20, -129467.09, -149536.23, 0.000, 0.000, 0.000, 16:34:52.083
155, -7186.58, -7403.93, -7281.46, -7197.53, -100354.73, -95593.98, -129466.75, -149535.77, 0.000, 0.000, 0.000, 16:34:52.092
156, -7185.93, -7403.17, -7280.61, -7196.73, -100353.98, -95593.34, -129465.97, -149535.25, 0.000, 0.000, 0.000, 16:34:52.092
157, -7185.44, -7402.58, -7280.01, -7196.23, -100353.61, -95592.95, -129465.57, -149534.84, 0.000, 0.000, 0.000, 16:34:52.092
158, -7184.92, -7402.38, -7279.67, -7195.99, -100353.31, -95592.73, -129465.23, -149534.42, 0.000, 0.000, 0.000, 16:34:52.092
159, -7184.19, -7401.76, -7279.14, -7195.27, -100352.71, -95592.22, -129464.80, -149533.83, 0.000, 0.000, 0.000, 16:34:52.093
160, -7184.90, -7402.56, -7279.74, -7196.08, -100353.83, -95593.16, -129465.73, -149534.94, 0.000, 0.000, 0.000, 16:34:52.093
161, -7184.59, -7402.16, -7279.49, -7195.83, -100353.67, -95592.89, -129465.48, -149534.58, 0.000, 0.000, 0.000, 16:34:52.093
162, -7184.32, -7401.96, -7279.52, -7195.61, -100353.45, -95592.73, -129465.30, -149534.34, 0.000, 0.000, 0.000, 16:34:52.093
163, -7184.45, -7402.07, -7279.49, -7195.72, -100353.54, -95592.98, -129465.28, -149534.33, 0.000, 0.000, 0.000, 16:34:52.093
164, -7184.79, -7402.18, -7279.61, -7195.76, -100353.80, -95593.40, -129465.44, -149534.44, 0.000, 0.000, 0.000, 16:34:52.093
165, -7186.42, -7403.59, -7281.13, -7197.24, -100355.35, -95594.72, -129466.98, -149535.95, 0.000, 0.000, 0.000, 16:34:52.102
166, -7187.45, -7404.71, -7282.29, -7198.36, -100356.52, -95595.70, -129467.96, -149537.17, 0.000, 0.000, 0.000, 16:34:52.102
167, -7186.78, -7404.06, -7281.59, -7197.64, -100355.89, -95595.08, -129466.98, -149536.31, 0.000, 0.000, 0.000, 16:34:52.102
168, -7187.36, -7404.82, -7282.09, -7198.31, -100356.47, -95595.66, -129467.60, -149536.78, 0.000, 0.000, 0.000, 16:34:52.102
169, -7188.92, -7406.38, -7283.67, -7199.97, -100358.13, -95597.29, -129469.19, -149538.28, 0.000, 0.000, 0.000, 16:34:52.102
170, -7185.88, -7403.03, -7280.54, -7196.57, -100355.04, -95594.23, -129465.97, -149535.09, 0.000, 0.000, 0.000, 16:34:52.103
171, -7185.66, -7402.92, -7280.45, -7196.48, -100355.06, -95594.27, -129465.79, -149534.97, 0.000, 0.000, 0.000, 16:34:52.103
172, -7185.79, -7403.14, -7280.68, -7196.68, -100355.44, -95594.54, -129465.97, -149535.22, 0.000, 0.000, 0.000, 16:34:52.103
173, -7184.19, -7401.74, -7279.00, -7195.16, -100353.96, -95593.16, -129464.45, -149533.66, 0.000, 0.000, 0.000, 16:34:52.103
174, -7183.94, -7401.42, -7278.69, -7194.76, -100354.05, -95593.06, -129464.56, -149533.72, 0.000, 0.000, 0.000, 16:34:52.112
175, -7185.53, -7403.14, -7280.41, -7196.64, -100355.77, -95594.88, -129466.46, -149535.69, 0.000, 0.000, 0.000, 16:34:52.112
176, -7187.38, -7404.95, -7282.22, -7198.51, -100357.74, -95597.00, -129468.18, -149537.41, 0.000, 0.000, 0.000, 16:34:52.112
177, -7185.68, -7403.25, -7280.59, -7196.79, -100356.13, -95595.44, -129466.38, -149535.72, 0.000, 0.000, 0.000, 16:34:52.113
178, -7186.51, -7404.02, -7281.35, -7197.64, -100357.09, -95596.33, -129467.24, -149536.39, 0.000, 0.000, 0.000, 16:34:52.113
179, -7189.28, -7406.74, -7284.23, -7200.37, -100359.98, -95599.30, -129469.99, -149539.33, 0.000, 0.000, 0.000, 16:34:52.113
180, -7189.97, -7407.39, -7284.77, -7201.20, -100360.73, -95599.95, -129470.64, -149540.09, 0.000, 0.000, 0.000, 16:34:52.113
181, -7189.10, -7406.45, -7283.79, -7200.35, -100359.80, -95599.10, -129469.70, -149538.91, 0.000, 0.000, 0.000, 16:34:52.113
182, -7189.91, -7407.17, -7284.52, -7200.79, -100360.42, -95599.70, -129470.28, -149539.61, 0.000, 0.000, 0.000, 16:34:52.113
183, -7190.69, -7408.02, -7285.24, -7201.51, -100361.27, -95600.40, -129471.00, -149540.25, 0.000, 0.000, 0.000, 16:34:52.113
184, -7188.92, -7406.21, -7283.65, -7199.59, -100359.59, -95598.61, -129469.10, -149538.39, 0.000, 0.000, 0.000, 16:34:52.122
