%OpenBCI Raw EEG Data
%
%Sample Rate = 250.0 Hz
%First Column = SampleIndex
%5 Columns before Timestamp are Frequency Power factors DELTA THETA ALPHA BETA GAMMA
%Last Column = Timestamp 
%Other Columns = EEG data in microvolts followed by Accel Data (in G) interleaved with Aux Data
0.000000, 0.000000, 0.000000, 0.000000, 0.000000, 0.000000, 0.000000, 0.000000, 0, 1, 1, 0, 1,0.0,0.0,0.0,0.0,0.0, 12:58:40.214
77259.273438, 98426.507813, 187500.015625, 187500.015625, 120213.132813, 88635.664063, 97494.867188, 149463.046875, 0, 1, 1, 0, 1,0.0,0.0,0.0,0.0,0.0, 12:58:40.698
77204.445313, 98362.960938, 187500.015625, 187500.015625, 120178.554688, 88709.625000, 97535.882813, 149403.390625, 0, 1, 1, 0, 1,0.0,0.0,0.0,0.0,0.0, 12:58:40.699
77100.101563, 98254.601563, 187500.015625, 187500.015625, 120072.250000, 88762.640625, 97501.414063, 149292.093750, 0, 1, 1, 0, 1,0.0,0.0,0.0,0.0,0.0, 12:58:40.699
77139.375000, 98300.312500, 187500.015625, 187500.015625, 120090.265625, 88695.007813, 97462.367188, 149331.781250, 0, 1, 1, 0, 1,0.0,0.0,0.0,0.0,0.0, 12:58:40.700
77262.421875, 98429.835938, 187500.015625, 187500.015625, 120211.570313, 88635.992188, 97499.804688, 149458.875000, 0, 1, 1, 0, 1,0.0,0.0,0.0,0.0,0.0, 12:58:40.701
77245.703125, 98408.070313, 187500.015625, 187500.015625, 120213.984375, 88704.882813, 97557.203125, 149449.609375, 0, 1, 1, 0, 1,0.0,0.0,0.0,0.0,0.0, 12:58:40.703
77105.265625, 98259.695313, 187500.015625, 187500.015625, 120086.531250, 88772.609375, 97521.953125, 149314.468750, 0, 1, 1, 0, 1,0.0,0.0,0.0,0.0,0.0, 12:58:40.703
77104.507813, 98260.992188, 187500.015625, 187500.015625, 120069.031250, 88717.625000, 97461.898438, 149311.296875, 0, 1, 1, 0, 1,0.0,0.0,0.0,0.0,0.0, 12:58:40.704
77237.101563, 98401.851563, 187500.015625, 187500.015625, 120198.734375, 88642.343750, 97487.937500, 149446.031250, 0, 1, 1, 0, 1,0.0,0.0,0.0,0.0,0.0, 12:58:40.705
77238.687500, 98405.093750, 187500.015625, 187500.015625, 120215.812500, 88681.820313, 97537.976563, 149448.296875, 0, 1, 1, 0, 1,0.0,0.0,0.0,0.0,0.0, 12:58:40.705
77122.703125, 98283.257813, 187500.015625, 187500.015625, 120100.187500, 88763.937500, 97524.164063, 149327.843750, 0, 1, 1, 0, 1,0.0,0.0,0.0,0.0,0.0, 12:58:40.705
77093.757813, 98260.750000, 187500.015625, 187500.015625, 120059.421875, 88735.726563, 97469.179688, 149303.484375, 0, 1, 1, 0, 1,0.0,0.0,0.0,0.0,0.0, 12:58:40.706
77221.007813, 98397.023438, 187500.015625, 187500.015625, 120173.414063, 88646.281250, 97472.867188, 149424.515625, 0, 1, 1, 0, 1,0.0,0.0,0.0,0.0,0.0, 12:58:40.707
77259.406250, 98433.210938, 187500.015625, 187500.015625, 120226.031250, 88666.101563, 97530.093750, 149470.375000, 0, 1, 1, 0, 1,0.0,0.0,0.0,0.0,0.0, 12:58:40.708
77132.382813, 98302.320313, 187500.015625, 187500.015625, 120116.750000, 88748.515625, 97522.648438, 149335.109375, 0, 1, 1, 0, 1,0.0,0.0,0.0,0.0,0.0, 12:58:40.708
77071.468750, 98245.390625, 187500.015625, 187500.015625, 120043.992188, 88731.726563, 97461.515625, 149268.453125, 0, 1, 1, 0, 1,0.0,0.0,0.0,0.0,0.0, 12:58:40.709
77193.218750, 98377.156250, 187500.015625, 187500.015625, 120150.101563, 88645.585938, 97462.859375, 149392.015625, 0, 1, 1, 0, 1,0.0,0.0,0.0,0.0,0.0, 12:58:40.709
77266.781250, 98446.664063, 187500.015625, 187500.015625, 120236.156250, 88646.632813, 97528.343750, 149469.437500, 0, 1, 1, 0, 1,0.0,0.0,0.0,0.0,0.0, 12:58:40.709
77162.781250, 98333.968750, 187500.015625, 187500.015625, 120152.781250, 88741.429688, 97550.046875, 149368.031250, 0, 1, 1, 0, 1,0.0,0.0,0.0,0.0,0.0, 12:58:40.710
77071.851563, 98246.195313, 187500.015625, 187500.015625, 120061.515625, 88750.992188, 97497.765625, 149275.859375, 0, 1, 1, 0, 1,0.0,0.0,0.0,0.0,0.0, 12:58:40.710
77149.031250, 98332.898438, 187500.015625, 187500.015625, 120119.742188, 88662.859375, 97454.093750, 149353.609375, 0, 1, 1, 0, 1,0.0,0.0,0.0,0.0,0.0, 12:58:40.710
77254.820313, 98439.492188, 187500.015625, 187500.015625, 120223.460938, 88637.539063, 97503.109375, 149463.546875, 0, 1, 1, 0, 1,0.0,0.0,0.0,0.0,0.0, 12:58:40.711
77175.609375, 98352.296875, 187500.015625, 187500.015625, 120167.445313, 88725.898438, 97540.906250, 149389.687500, 0, 1, 1, 0, 1,0.0,0.0,0.0,0.0,0.0, 12:58:40.711
77066.554688, 98240.296875, 187500.015625, 187500.015625, 120057.632813, 88761.500000, 97492.648438, 149278.000000, 0, 1, 1, 0, 1,0.0,0.0,0.0,0.0,0.0, 12:58:40.711
77119.843750, 98300.109375, 187500.015625, 187500.015625, 120091.898438, 88685.125000, 97448.375000, 149331.281250, 0, 1, 1, 0, 1,0.0,0.0,0.0,0.0,0.0, 12:58:40.711
77233.812500, 98418.234375, 187500.015625, 187500.015625, 120207.140625, 88634.367188, 97491.757813, 149447.984375, 0, 1, 1, 0, 1,0.0,0.0,0.0,0.0,0.0, 12:58:40.712
77206.656250, 98385.804688, 187500.015625, 187500.015625, 120194.085938, 88707.320313, 97544.507813, 149423.171875, 0, 1, 1, 0, 1,0.0,0.0,0.0,0.0,0.0, 12:58:40.712
77083.382813, 98255.585938, 187500.015625, 187500.015625, 120075.984375, 88766.953125, 97507.132813, 149294.343750, 0, 1, 1, 0, 1,0.0,0.0,0.0,0.0,0.0, 12:58:40.712
77102.718750, 98278.117188, 187500.015625, 187500.015625, 120075.671875, 88702.562500, 97455.546875, 149314.656250, 0, 1, 1, 0, 1,0.0,0.0,0.0,0.0,0.0, 12:58:40.713
77230.210938, 98409.789063, 187500.015625, 187500.015625, 120197.304688, 88634.523438, 97489.390625, 149436.421875, 0, 1, 1, 0, 1,0.0,0.0,0.0,0.0,0.0, 12:58:40.714
77220.492188, 98393.625000, 187500.015625, 187500.015625, 120209.375000, 88690.843750, 97550.320313, 149430.796875, 0, 1, 1, 0, 1,0.0,0.0,0.0,0.0,0.0, 12:58:40.714
77094.898438, 98265.843750, 187500.015625, 187500.015625, 120094.664063, 88766.328125, 97527.679688, 149307.125000, 0, 1, 1, 0, 1,0.0,0.0,0.0,0.0,0.0, 12:58:40.714
77081.304688, 98254.554688, 187500.015625, 187500.015625, 120062.593750, 88719.523438, 97467.148438, 149292.187500, 0, 1, 1, 0, 1,0.0,0.0,0.0,0.0,0.0, 12:58:40.715
77213.296875, 98396.820313, 187500.015625, 187500.015625, 120185.304688, 88642.101563, 97488.984375, 149430.343750, 0, 1, 1, 0, 1,0.0,0.0,0.0,0.0,0.0, 12:58:40.715
77239.156250, 98418.210938, 187500.015625, 187500.015625, 120225.648438, 88677.234375, 97546.296875, 149454.000000, 0, 1, 1, 0, 1,0.0,0.0,0.0,0.0,0.0, 12:58:40.716
77109.671875, 98281.085938, 187500.015625, 187500.015625, 120111.500000, 88763.000000, 97536.507813, 149321.062500, 0, 1, 1, 0, 1,0.0,0.0,0.0,0.0,0.0, 12:58:40.716
77068.585938, 98240.406250, 187500.015625, 187500.015625, 120061.515625, 88737.117188, 97480.335938, 149287.671875, 0, 1, 1, 0, 1,0.0,0.0,0.0,0.0,0.0, 12:58:40.716
77202.812500, 98379.921875, 187500.015625, 187500.015625, 120181.343750, 88657.679688, 97489.117188, 149426.718750, 0, 1, 1, 0, 1,0.0,0.0,0.0,0.0,0.0, 12:58:40.717
77253.390625, 98427.335938, 187500.015625, 187500.015625, 120238.921875, 88667.492188, 97540.078125, 149470.062500, 0, 1, 1, 0, 1,0.0,0.0,0.0,0.0,0.0, 12:58:40.717
77126.304688, 98295.750000, 187500.015625, 187500.015625, 120132.890625, 88755.578125, 97539.546875, 149348.250000, 0, 1, 1, 0, 1,0.0,0.0,0.0,0.0,0.0, 12:58:40.718
77052.140625, 98222.882813, 187500.015625, 187500.015625, 120051.796875, 88750.835938, 97478.304688, 149272.609375, 0, 1, 1, 0, 1,0.0,0.0,0.0,0.0,0.0, 12:58:40.718
77165.414063, 98344.117188, 187500.015625, 187500.015625, 120142.273438, 88660.937500, 97464.890625, 149385.000000, 0, 1, 1, 0, 1,0.0,0.0,0.0,0.0,0.0, 12:58:40.718
77250.734375, 98427.851563, 187500.015625, 187500.015625, 120233.179688, 88654.125000, 97525.109375, 149471.406250, 0, 1, 1, 0, 1,0.0,0.0,0.0,0.0,0.0, 12:58:40.719
77164.257813, 98333.835938, 187500.015625, 187500.015625, 120166.437500, 88743.015625, 97547.164063, 149383.468750, 0, 1, 1, 0, 1,0.0,0.0,0.0,0.0,0.0, 12:58:40.719
77069.531250, 98238.796875, 187500.015625, 187500.015625, 120068.179688, 88767.851563, 97494.171875, 149288.859375, 0, 1, 1, 0, 1,0.0,0.0,0.0,0.0,0.0, 12:58:40.720
77149.414063, 98326.210938, 187500.015625, 187500.015625, 120126.648438, 88687.359375, 97467.906250, 149371.312500, 0, 1, 1, 0, 1,5.9187564E-6,7.840215E-6,9.637154E-6,3.0318133E-5,3.8504702E-5, 12:58:40.720
77269.664063, 98444.812500, 187500.015625, 187500.015625, 120244.601563, 88656.984375, 97527.296875, 149483.640625, 0, 1, 1, 0, 1,5.9187564E-6,7.840215E-6,9.637154E-6,3.0318133E-5,3.8504702E-5, 12:58:40.720
77208.398438, 98376.796875, 187500.015625, 187500.015625, 120199.718750, 88740.359375, 97556.953125, 149419.734375, 0, 1, 1, 0, 1,5.9187564E-6,7.840215E-6,9.637154E-6,3.0318133E-5,3.8504702E-5, 12:58:40.721
77095.007813, 98262.531250, 187500.015625, 187500.015625, 120093.171875, 88784.679688, 97517.148438, 149308.906250, 0, 1, 1, 0, 1,5.9187564E-6,7.840215E-6,9.637154E-6,3.0318133E-5,3.8504702E-5, 12:58:40.721
77143.554688, 98321.367188, 187500.015625, 187500.015625, 120124.078125, 88714.960938, 97481.007813, 149359.203125, 0, 1, 1, 0, 1,5.9187564E-6,7.840215E-6,9.637154E-6,3.0318133E-5,3.8504702E-5, 12:58:40.729
77272.125000, 98451.898438, 187500.015625, 187500.015625, 120244.695313, 88663.132813, 97523.828125, 149484.234375, 0, 1, 1, 0, 1,5.9187564E-6,7.840215E-6,9.637154E-6,3.0318133E-5,3.8504702E-5, 12:58:40.729
77229.031250, 98400.289063, 187500.015625, 187500.015625, 120218.226563, 88728.289063, 97563.843750, 149439.484375, 0, 1, 1, 0, 1,5.9187564E-6,7.840215E-6,9.637154E-6,3.0318133E-5,3.8504702E-5, 12:58:40.730
77089.976563, 98257.976563, 187500.015625, 187500.015625, 120084.453125, 88786.671875, 97520.789063, 149298.734375, 0, 1, 1, 0, 1,5.9187564E-6,7.840215E-6,9.637154E-6,3.0318133E-5,3.8504702E-5, 12:58:40.730
77115.570313, 98289.554688, 187500.015625, 187500.015625, 120085.882813, 88724.617188, 97471.507813, 149323.968750, 0, 1, 1, 0, 1,5.9187564E-6,7.840215E-6,9.637154E-6,3.0318133E-5,3.8504702E-5, 12:58:40.730
77235.781250, 98416.132813, 187500.015625, 187500.015625, 120201.015625, 88653.968750, 97497.234375, 149447.453125, 0, 1, 1, 0, 1,5.9187564E-6,7.840215E-6,9.637154E-6,3.0318133E-5,3.8504702E-5, 12:58:40.731
77247.156250, 98425.656250, 187500.015625, 187500.015625, 120228.062500, 88703.117188, 97555.773438, 149457.593750, 0, 1, 1, 0, 1,5.9187564E-6,7.840215E-6,9.637154E-6,3.0318133E-5,3.8504702E-5, 12:58:40.731
77112.554688, 98284.687500, 187500.015625, 187500.015625, 120111.945313, 88783.515625, 97536.437500, 149327.125000, 0, 1, 1, 0, 1,5.9187564E-6,7.840215E-6,9.637154E-6,3.0318133E-5,3.8504702E-5, 12:58:40.731
77090.359375, 98266.890625, 187500.015625, 187500.015625, 120072.312500, 88737.960938, 97475.242188, 149307.328125, 0, 1, 1, 0, 1,5.9187564E-6,7.840215E-6,9.637154E-6,3.0318133E-5,3.8504702E-5, 12:58:40.731
77215.078125, 98398.632813, 187500.015625, 187500.015625, 120185.304688, 88656.671875, 97486.570313, 149438.187500, 0, 1, 1, 0, 1,5.9187564E-6,7.840215E-6,9.637154E-6,3.0318133E-5,3.8504702E-5, 12:58:40.732
77256.992188, 98436.539063, 187500.015625, 187500.015625, 120243.617188, 88689.796875, 97558.921875, 149481.687500, 0, 1, 1, 0, 1,5.9187564E-6,7.840215E-6,9.637154E-6,3.0318133E-5,3.8504702E-5, 12:58:40.734
77142.796875, 98316.718750, 187500.015625, 187500.015625, 120141.406250, 88779.671875, 97555.617188, 149356.671875, 0, 1, 1, 0, 1,5.9187564E-6,7.840215E-6,9.637154E-6,3.0318133E-5,3.8504702E-5, 12:58:40.734
77090.289063, 98265.015625, 187500.015625, 187500.015625, 120076.828125, 88758.375000, 97489.703125, 149303.234375, 0, 1, 1, 0, 1,5.9187564E-6,7.840215E-6,9.637154E-6,3.0318133E-5,3.8504702E-5, 12:58:40.735
77205.804688, 98388.171875, 187500.015625, 187500.015625, 120176.187500, 88673.031250, 97484.984375, 149422.328125, 0, 1, 1, 0, 1,5.9187564E-6,7.840215E-6,9.637154E-6,3.0318133E-5,3.8504702E-5, 12:58:40.735
77269.351563, 98450.515625, 187500.015625, 187500.015625, 120248.851563, 88679.203125, 97549.023438, 149483.140625, 0, 1, 1, 0, 1,5.9187564E-6,7.840215E-6,9.637154E-6,3.0318133E-5,3.8504702E-5, 12:58:40.736
77151.421875, 98324.335938, 187500.015625, 187500.015625, 120147.640625, 88762.375000, 97553.578125, 149360.875000, 0, 1, 1, 0, 1,5.9187564E-6,7.840215E-6,9.637154E-6,3.0318133E-5,3.8504702E-5, 12:58:40.736
77070.937500, 98244.562500, 187500.015625, 187500.015625, 120054.500000, 88762.507813, 97484.695313, 149281.125000, 0, 1, 1, 0, 1,5.9187564E-6,7.840215E-6,9.637154E-6,3.0318133E-5,3.8504702E-5, 12:58:40.736
77183.703125, 98367.382813, 187500.015625, 187500.015625, 120147.976563, 88681.820313, 97476.132813, 149400.640625, 0, 1, 1, 0, 1,5.9187564E-6,7.840215E-6,9.637154E-6,3.0318133E-5,3.8504702E-5, 12:58:40.737
77279.234375, 98460.484375, 187500.015625, 187500.015625, 120256.562500, 88672.476563, 97547.632813, 149503.687500, 0, 1, 1, 0, 1,5.9187564E-6,7.840215E-6,9.637154E-6,3.0318133E-5,3.8504702E-5, 12:58:40.737
77192.460938, 98367.273438, 187500.015625, 187500.015625, 120191.742188, 88764.296875, 97576.671875, 149419.281250, 0, 1, 1, 0, 1,5.9187564E-6,7.840215E-6,9.637154E-6,3.0318133E-5,3.8504702E-5, 12:58:40.738
77075.492188, 98247.070313, 187500.015625, 187500.015625, 120069.609375, 88780.054688, 97506.375000, 149289.781250, 0, 1, 1, 0, 1,5.9187564E-6,7.840215E-6,9.637154E-6,3.0318133E-5,3.8504702E-5, 12:58:40.738
77129.250000, 98308.468750, 187500.015625, 187500.015625, 120104.570313, 88689.039063, 97462.343750, 149344.625000, 0, 1, 1, 0, 1,5.9187564E-6,7.840215E-6,9.637154E-6,3.0318133E-5,3.8504702E-5, 12:58:40.738
77248.898438, 98434.328125, 187500.015625, 187500.015625, 120224.085938, 88651.304688, 97518.804688, 149472.093750, 0, 1, 1, 0, 1,5.9187564E-6,7.840215E-6,9.637154E-6,3.0318133E-5,3.8504702E-5, 12:58:40.739
77203.726563, 98380.773438, 187500.015625, 187500.015625, 120195.203125, 88735.726563, 97561.296875, 149429.875000, 0, 1, 1, 0, 1,5.9187564E-6,7.840215E-6,9.637154E-6,3.0318133E-5,3.8504702E-5, 12:58:40.739
77071.335938, 98244.562500, 187500.015625, 187500.015625, 120068.000000, 88782.289063, 97504.742188, 149297.593750, 0, 1, 1, 0, 1,5.9187564E-6,7.840215E-6,9.637154E-6,3.0318133E-5,3.8504702E-5, 12:58:40.740
77101.335938, 98283.078125, 187500.015625, 187500.015625, 120082.640625, 88707.367188, 97451.234375, 149327.312500, 0, 1, 1, 0, 1,5.9187564E-6,7.840215E-6,9.637154E-6,3.0318133E-5,3.8504702E-5, 12:58:40.740
77242.242188, 98428.695313, 187500.015625, 187500.015625, 120215.476563, 88652.179688, 97496.875000, 149467.812500, 0, 1, 1, 0, 1,5.9187564E-6,7.840215E-6,9.637154E-6,3.0318133E-5,3.8504702E-5, 12:58:40.740
77234.375000, 98412.601563, 187500.015625, 187500.015625, 120225.757813, 88726.679688, 97565.789063, 149462.218750, 0, 1, 1, 0, 1,5.9187564E-6,7.840215E-6,9.637154E-6,3.0318133E-5,3.8504702E-5, 12:58:40.740
77103.367188, 98273.265625, 187500.015625, 187500.015625, 120107.695313, 88797.781250, 97544.710938, 149331.906250, 0, 1, 1, 0, 1,5.9187564E-6,7.840215E-6,9.637154E-6,3.0318133E-5,3.8504702E-5, 12:58:40.741
77106.609375, 98279.296875, 187500.015625, 187500.015625, 120093.054688, 88733.312500, 97485.968750, 149331.625000, 0, 1, 1, 0, 1,5.9187564E-6,7.840215E-6,9.637154E-6,3.0318133E-5,3.8504702E-5, 12:58:40.741
77245.187500, 98425.164063, 187500.015625, 187500.015625, 120218.648438, 88661.296875, 97504.429688, 149468.046875, 0, 1, 1, 0, 1,5.9187564E-6,7.840215E-6,9.637154E-6,3.0318133E-5,3.8504702E-5, 12:58:40.741
77254.914063, 98429.281250, 187500.015625, 187500.015625, 120244.359375, 88706.601563, 97565.226563, 149477.125000, 0, 1, 1, 0, 1,5.9187564E-6,7.840215E-6,9.637154E-6,3.0318133E-5,3.8504702E-5, 12:58:40.742
77115.796875, 98282.226563, 187500.015625, 187500.015625, 120113.734375, 88784.609375, 97541.039063, 149335.437500, 0, 1, 1, 0, 1,5.9187564E-6,7.840215E-6,9.637154E-6,3.0318133E-5,3.8504702E-5, 12:58:40.743
77091.210938, 98259.765625, 187500.015625, 187500.015625, 120070.437500, 88746.460938, 97472.804688, 149309.109375, 0, 1, 1, 0, 1,5.9187564E-6,7.840215E-6,9.637154E-6,3.0318133E-5,3.8504702E-5, 12:58:40.743
77220.445313, 98396.757813, 187500.015625, 187500.015625, 120190.195313, 88666.820313, 97482.968750, 149441.562500, 0, 1, 1, 0, 1,5.9187564E-6,7.840215E-6,9.637154E-6,3.0318133E-5,3.8504702E-5, 12:58:40.743
77261.710938, 98437.414063, 187500.015625, 187500.015625, 120248.601563, 88692.414063, 97551.656250, 149488.546875, 0, 1, 1, 0, 1,5.9187564E-6,7.840215E-6,9.637154E-6,3.0318133E-5,3.8504702E-5, 12:58:40.743
77130.078125, 98298.382813, 187500.015625, 187500.015625, 120129.601563, 88776.250000, 97541.375000, 149351.765625, 0, 1, 1, 0, 1,5.9187564E-6,7.840215E-6,9.637154E-6,3.0318133E-5,3.8504702E-5, 12:58:40.744
77055.890625, 98230.593750, 187500.015625, 187500.015625, 120045.671875, 88751.781250, 97465.406250, 149273.687500, 0, 1, 1, 0, 1,5.9187564E-6,7.840215E-6,9.637154E-6,3.0318133E-5,3.8504702E-5, 12:58:40.744
77165.882813, 98350.218750, 187500.015625, 187500.015625, 120140.375000, 88658.929688, 97454.070313, 149389.890625, 0, 1, 1, 0, 1,5.9187564E-6,7.840215E-6,9.637154E-6,3.0318133E-5,3.8504702E-5, 12:58:40.744
77245.257813, 98427.671875, 187500.015625, 187500.015625, 120231.234375, 88662.859375, 97524.007813, 149472.968750, 0, 1, 1, 0, 1,5.9187564E-6,7.840215E-6,9.637154E-6,3.0318133E-5,3.8504702E-5, 12:58:40.744
77147.757813, 98323.062500, 187500.015625, 187500.015625, 120156.132813, 88759.828125, 97547.125000, 149378.953125, 0, 1, 1, 0, 1,5.9187564E-6,7.840215E-6,9.637154E-6,3.0318133E-5,3.8504702E-5, 12:58:40.745
77059.890625, 98231.109375, 187500.015625, 187500.015625, 120063.281250, 88769.210938, 97490.906250, 149292.234375, 0, 1, 1, 0, 1,5.9187564E-6,7.840215E-6,9.637154E-6,3.0318133E-5,3.8504702E-5, 12:58:40.745
77147.398438, 98325.742188, 187500.015625, 187500.015625, 120132.640625, 88684.789063, 97465.984375, 149380.750000, 0, 1, 1, 0, 1,5.9187564E-6,7.840215E-6,9.637154E-6,3.0318133E-5,3.8504702E-5, 12:58:40.745
77263.179688, 98442.351563, 187500.015625, 187500.015625, 120249.562500, 88666.375000, 97532.078125, 149497.890625, 0, 1, 1, 0, 1,5.9187564E-6,7.840215E-6,9.637154E-6,3.0318133E-5,3.8504702E-5, 12:58:40.745
77166.734375, 98336.515625, 187500.015625, 187500.015625, 120173.187500, 88745.187500, 97549.335938, 149394.500000, 0, 1, 1, 0, 1,5.9187564E-6,7.840215E-6,9.637154E-6,3.0318133E-5,3.8504702E-5, 12:58:40.745
77075.671875, 98241.906250, 187500.015625, 187500.015625, 120077.609375, 88776.476563, 97505.054688, 149298.515625, 0, 1, 1, 0, 1,5.9187564E-6,7.840215E-6,9.637154E-6,3.0318133E-5,3.8504702E-5, 12:58:40.746
77140.468750, 98312.445313, 187500.015625, 187500.015625, 120121.984375, 88699.453125, 97472.515625, 149363.875000, 0, 1, 1, 0, 1,5.9187564E-6,7.840215E-6,9.637154E-6,3.0318133E-5,3.8504702E-5, 12:58:40.747
77254.914063, 98430.085938, 187500.015625, 187500.015625, 120234.093750, 88656.070313, 97513.953125, 149479.343750, 0, 1, 1, 0, 1,5.9187564E-6,7.840215E-6,9.637154E-6,3.0318133E-5,3.8504702E-5, 12:58:40.747
77211.546875, 98379.210938, 187500.015625, 187500.015625, 120215.187500, 88737.960938, 97567.726563, 149443.250000, 0, 1, 1, 0, 1,5.9187564E-6,7.840215E-6,9.637154E-6,3.0318133E-5,3.8504702E-5, 12:58:40.747
77089.976563, 98256.476563, 187500.015625, 187500.015625, 120102.218750, 88792.570313, 97529.914063, 149321.562500, 0, 1, 1, 0, 1,5.9187564E-6,7.840215E-6,9.637154E-6,3.0318133E-5,3.8504702E-5, 12:58:40.748
77105.671875, 98284.062500, 187500.015625, 187500.015625, 120095.429688, 88716.820313, 97463.171875, 149331.734375, 0, 1, 1, 0, 1,5.9187564E-6,7.840215E-6,9.637154E-6,3.0318133E-5,3.8504702E-5, 12:58:40.748
77234.796875, 98421.453125, 187500.015625, 187500.015625, 120219.882813, 88651.125000, 97501.007813, 149466.484375, 0, 1, 1, 0, 1,5.9187564E-6,7.840215E-6,9.637154E-6,3.0318133E-5,3.8504702E-5, 12:58:40.749
77207.148438, 98387.835938, 187500.015625, 187500.015625, 120220.218750, 88707.562500, 97552.914063, 149445.906250, 0, 1, 1, 0, 1,5.9187564E-6,7.840215E-6,9.637154E-6,3.0318133E-5,3.8504702E-5, 12:58:40.749
77067.757813, 98243.335938, 187500.015625, 187500.015625, 120098.289063, 88780.429688, 97527.500000, 149318.765625, 0, 1, 1, 0, 1,5.9187564E-6,7.840215E-6,9.637154E-6,3.0318133E-5,3.8504702E-5, 12:58:40.749
77055.734375, 98235.687500, 187500.015625, 187500.015625, 120070.976563, 88724.820313, 97461.250000, 149303.328125, 0, 1, 1, 0, 1,5.9187564E-6,7.840215E-6,9.637154E-6,3.0318133E-5,3.8504702E-5, 12:58:40.750
77183.523438, 98367.562500, 187500.015625, 187500.015625, 120191.671875, 88641.960938, 97476.492188, 149432.296875, 0, 1, 1, 0, 1,5.9187564E-6,7.840215E-6,9.637154E-6,3.0318133E-5,3.8504702E-5, 12:58:40.750
77186.515625, 98362.804688, 187500.015625, 187500.015625, 120212.882813, 88679.804688, 97529.242188, 149441.593750, 0, 1, 1, 0, 1,5.9187564E-6,7.840215E-6,9.637154E-6,3.0318133E-5,3.8504702E-5, 12:58:40.750
77077.414063, 98250.132813, 187500.015625, 187500.015625, 120111.500000, 88763.937500, 97524.367188, 149329.343750, 0, 1, 1, 0, 1,5.9187564E-6,7.840215E-6,9.637154E-6,3.0318133E-5,3.8504702E-5, 12:58:40.751
77051.601563, 98224.226563, 187500.015625, 187500.015625, 120077.523438, 88738.906250, 97479.109375, 149306.984375, 0, 1, 1, 0, 1,5.9187564E-6,7.840215E-6,9.637154E-6,3.0318133E-5,3.8504702E-5, 12:58:40.751
77174.312500, 98354.062500, 187500.015625, 187500.015625, 120196.656250, 88662.078125, 97493.296875, 149437.765625, 0, 1, 1, 0, 1,5.9187564E-6,7.840215E-6,9.637154E-6,3.0318133E-5,3.8504702E-5, 12:58:40.751
77213.070313, 98391.304688, 187500.015625, 187500.015625, 120248.398438, 88679.960938, 97548.687500, 149478.937500, 0, 1, 1, 0, 1,5.9187564E-6,7.840215E-6,9.637154E-6,3.0318133E-5,3.8504702E-5, 12:58:40.751
77091.765625, 98265.617188, 187500.015625, 187500.015625, 120143.546875, 88766.710938, 97546.968750, 149360.203125, 0, 1, 1, 0, 1,5.9187564E-6,7.840215E-6,9.637154E-6,3.0318133E-5,3.8504702E-5, 12:58:40.751
77027.953125, 98202.921875, 187500.015625, 187500.015625, 120061.992188, 88753.835938, 97480.132813, 149294.265625, 0, 1, 1, 0, 1,5.9187564E-6,7.840215E-6,9.637154E-6,3.0318133E-5,3.8504702E-5, 12:58:40.752
77132.070313, 98313.226563, 187500.015625, 187500.015625, 120145.140625, 88668.789063, 97466.429688, 149406.515625, 0, 1, 1, 0, 1,5.9187564E-6,7.840215E-6,9.637154E-6,3.0318133E-5,3.8504702E-5, 12:58:40.752
77208.218750, 98387.835938, 187500.015625, 187500.015625, 120229.515625, 88659.953125, 97525.351563, 149475.187500, 0, 1, 1, 0, 1,5.9187564E-6,7.840215E-6,9.637154E-6,3.0318133E-5,3.8504702E-5, 12:58:40.752
77124.531250, 98296.843750, 187500.015625, 187500.015625, 120161.054688, 88753.210938, 97554.718750, 149387.609375, 0, 1, 1, 0, 1,5.9187564E-6,7.840215E-6,9.637154E-6,3.0318133E-5,3.8504702E-5, 12:58:40.752
77023.859375, 98198.117188, 187500.015625, 187500.015625, 120053.406250, 88762.976563, 97489.679688, 149275.765625, 0, 1, 1, 0, 1,5.9187564E-6,7.840215E-6,9.637154E-6,3.0318133E-5,3.8504702E-5, 12:58:40.753
77126.789063, 98305.429688, 187500.015625, 187500.015625, 120131.929688, 88680.187500, 97476.312500, 149382.609375, 0, 1, 1, 0, 1,5.9187564E-6,7.840215E-6,9.637154E-6,3.0318133E-5,3.8504702E-5, 12:58:40.754
77235.265625, 98417.679688, 187500.015625, 187500.015625, 120247.796875, 88658.859375, 97540.375000, 149496.125000, 0, 1, 1, 0, 1,5.9187564E-6,7.840215E-6,9.637154E-6,3.0318133E-5,3.8504702E-5, 12:58:40.755
77144.671875, 98321.539063, 187500.015625, 187500.015625, 120183.179688, 88737.898438, 97567.085938, 149410.515625, 0, 1, 1, 0, 1,5.9187564E-6,7.840215E-6,9.637154E-6,3.0318133E-5,3.8504702E-5, 12:58:40.755
77035.265625, 98215.039063, 187500.015625, 187500.015625, 120070.750000, 88772.679688, 97513.843750, 149298.218750, 0, 1, 1, 0, 1,5.9187564E-6,7.840215E-6,9.637154E-6,3.0318133E-5,3.8504702E-5, 12:58:40.756
77084.523438, 98269.085938, 187500.015625, 187500.015625, 120097.054688, 88693.484375, 97468.062500, 149349.484375, 0, 1, 1, 0, 1,0.0,0.0,0.0,0.0,0.0, 12:58:41.179
77190.312500, 98374.921875, 187500.015625, 187500.015625, 120208.773438, 88638.343750, 97504.742188, 149457.843750, 0, 1, 1, 0, 1,0.0,0.0,0.0,0.0,0.0, 12:58:41.179
77169.085938, 98349.125000, 187500.015625, 187500.015625, 120207.992188, 88710.718750, 97563.593750, 149434.531250, 0, 1, 1, 0, 1,0.0,0.0,0.0,0.0,0.0, 12:58:41.179
77048.781250, 98223.437500, 187500.015625, 187500.015625, 120094.843750, 88775.695313, 97532.679688, 149311.906250, 0, 1, 1, 0, 1,0.0,0.0,0.0,0.0,0.0, 12:58:41.180
77076.859375, 98253.664063, 187500.015625, 187500.015625, 120102.312500, 88714.718750, 97485.007813, 149335.375000, 0, 1, 1, 0, 1,0.0,0.0,0.0,0.0,0.0, 12:58:41.180
77207.976563, 98388.953125, 187500.015625, 187500.015625, 120221.242188, 88650.968750, 97515.023438, 149468.031250, 0, 1, 1, 0, 1,0.0,0.0,0.0,0.0,0.0, 12:58:41.180
77196.750000, 98373.171875, 187500.015625, 187500.015625, 120219.296875, 88701.687500, 97562.742188, 149456.140625, 0, 1, 1, 0, 1,0.0,0.0,0.0,0.0,0.0, 12:58:41.180
77067.625000, 98241.523438, 187500.015625, 187500.015625, 120108.992188, 88778.820313, 97544.843750, 149332.609375, 0, 1, 1, 0, 1,0.0,0.0,0.0,0.0,0.0, 12:58:41.181
77048.695313, 98223.867188, 187500.015625, 187500.015625, 120079.804688, 88730.093750, 97481.835938, 149317.890625, 0, 1, 1, 0, 1,0.0,0.0,0.0,0.0,0.0, 12:58:41.181
77182.984375, 98366.250000, 187500.015625, 187500.015625, 120197.554688, 88654.882813, 97496.921875, 149453.078125, 0, 1, 1, 0, 1,0.0,0.0,0.0,0.0,0.0, 12:58:41.182
77208.328125, 98388.421875, 187500.015625, 187500.015625, 120235.039063, 88689.078125, 97556.625000, 149478.265625, 0, 1, 1, 0, 1,0.0,0.0,0.0,0.0,0.0, 12:58:41.182
77093.890625, 98268.929688, 187500.015625, 187500.015625, 120134.296875, 88779.648438, 97556.062500, 149365.062500, 0, 1, 1, 0, 1,0.0,0.0,0.0,0.0,0.0, 12:58:41.182
77049.187500, 98227.640625, 187500.015625, 187500.015625, 120075.625000, 88755.578125, 97495.156250, 149320.640625, 0, 1, 1, 0, 1,0.0,0.0,0.0,0.0,0.0, 12:58:41.182
77169.773438, 98354.937500, 187500.015625, 187500.015625, 120182.617188, 88673.164063, 97495.671875, 149443.218750, 0, 1, 1, 0, 1,0.0,0.0,0.0,0.0,0.0, 12:58:41.183
77224.515625, 98405.875000, 187500.015625, 187500.015625, 120248.382813, 88685.054688, 97554.656250, 149497.140625, 0, 1, 1, 0, 1,0.0,0.0,0.0,0.0,0.0, 12:58:41.183
77114.789063, 98289.421875, 187500.015625, 187500.015625, 120153.273438, 88780.257813, 97565.960938, 149389.156250, 0, 1, 1, 0, 1,0.0,0.0,0.0,0.0,0.0, 12:58:41.183
77046.570313, 98223.531250, 187500.015625, 187500.015625, 120086.757813, 88783.609375, 97520.593750, 149329.250000, 0, 1, 1, 0, 1,0.0,0.0,0.0,0.0,0.0, 12:58:41.184
77155.937500, 98335.867188, 187500.015625, 187500.015625, 120176.023438, 88695.046875, 97511.203125, 149434.328125, 0, 1, 1, 0, 1,0.0,0.0,0.0,0.0,0.0, 12:58:41.184
77236.140625, 98416.898438, 187500.015625, 187500.015625, 120262.304688, 88678.687500, 97562.679688, 149508.328125, 0, 1, 1, 0, 1,0.0,0.0,0.0,0.0,0.0, 12:58:41.184
77147.000000, 98323.796875, 187500.015625, 187500.015625, 120189.507813, 88765.125000, 97582.664063, 149418.921875, 0, 1, 1, 0, 1,0.0,0.0,0.0,0.0,0.0, 12:58:41.185
77057.546875, 98235.757813, 187500.015625, 187500.015625, 120092.992188, 88789.085938, 97531.585938, 149328.828125, 0, 1, 1, 0, 1,0.0,0.0,0.0,0.0,0.0, 12:58:41.185
77122.546875, 98305.515625, 187500.015625, 187500.015625, 120147.929688, 88704.726563, 97500.007813, 149395.093750, 0, 1, 1, 0, 1,0.0,0.0,0.0,0.0,0.0, 12:58:41.185
77229.164063, 98415.398438, 187500.015625, 187500.015625, 120249.898438, 88664.742188, 97542.695313, 149491.015625, 0, 1, 1, 0, 1,0.0,0.0,0.0,0.0,0.0, 12:58:41.186
77168.281250, 98347.937500, 187500.015625, 187500.015625, 120198.695313, 88742.054688, 97575.218750, 149420.484375, 0, 1, 1, 0, 1,0.0,0.0,0.0,0.0,0.0, 12:58:41.186
77048.945313, 98222.304688, 187500.015625, 187500.015625, 120082.304688, 88785.257813, 97534.093750, 149301.468750, 0, 1, 1, 0, 1,0.0,0.0,0.0,0.0,0.0, 12:58:41.187
77099.921875, 98279.500000, 187500.015625, 187500.015625, 120113.554688, 88710.828125, 97496.476563, 149359.921875, 0, 1, 1, 0, 1,0.0,0.0,0.0,0.0,0.0, 12:58:41.187
77235.804688, 98417.609375, 187500.015625, 187500.015625, 120245.007813, 88661.007813, 97543.140625, 149489.828125, 0, 1, 1, 0, 1,0.0,0.0,0.0,0.0,0.0, 12:58:41.188
77212.062500, 98386.656250, 187500.015625, 187500.015625, 120237.203125, 88729.757813, 97593.210938, 149460.921875, 0, 1, 1, 0, 1,0.0,0.0,0.0,0.0,0.0, 12:58:41.188
77082.046875, 98249.007813, 187500.015625, 187500.015625, 120110.828125, 88787.609375, 97556.757813, 149325.812500, 0, 1, 1, 0, 1,0.0,0.0,0.0,0.0,0.0, 12:58:41.188
77073.328125, 98247.625000, 187500.015625, 187500.015625, 120090.484375, 88719.343750, 97495.109375, 149315.765625, 0, 1, 1, 0, 1,0.0,0.0,0.0,0.0,0.0, 12:58:41.189
77209.625000, 98392.625000, 187500.015625, 187500.015625, 120217.671875, 88653.093750, 97527.632813, 149456.968750, 0, 1, 1, 0, 1,0.0,0.0,0.0,0.0,0.0, 12:58:41.189
77221.476563, 98401.335938, 187500.015625, 187500.015625, 120245.226563, 88708.906250, 97595.289063, 149471.500000, 0, 1, 1, 0, 1,0.0,0.0,0.0,0.0,0.0, 12:58:41.189
77092.257813, 98264.437500, 187500.015625, 187500.015625, 120126.476563, 88783.789063, 97574.390625, 149338.078125, 0, 1, 1, 0, 1,0.0,0.0,0.0,0.0,0.0, 12:58:41.189
77066.625000, 98240.804688, 187500.015625, 187500.015625, 120081.296875, 88743.734375, 97511.070313, 149309.953125, 0, 1, 1, 0, 1,0.0,0.0,0.0,0.0,0.0, 12:58:41.190
77198.359375, 98379.164063, 187500.015625, 187500.015625, 120198.312500, 88666.710938, 97526.445313, 149447.796875, 0, 1, 1, 0, 1,0.0,0.0,0.0,0.0,0.0, 12:58:41.190
77238.593750, 98418.101563, 187500.015625, 187500.015625, 120256.585938, 88691.984375, 97592.585938, 149491.859375, 0, 1, 1, 0, 1,0.0,0.0,0.0,0.0,0.0, 12:58:41.190
77116.132813, 98288.796875, 187500.015625, 187500.015625, 120151.460938, 88780.078125, 97591.648438, 149372.750000, 0, 1, 1, 0, 1,0.0,0.0,0.0,0.0,0.0, 12:58:41.191
77054.328125, 98229.742188, 187500.015625, 187500.015625, 120079.890625, 88761.992188, 97527.296875, 149313.968750, 0, 1, 1, 0, 1,0.0,0.0,0.0,0.0,0.0, 12:58:41.191
77173.328125, 98357.773438, 187500.015625, 187500.015625, 120179.718750, 88677.812500, 97524.546875, 149436.312500, 0, 1, 1, 0, 1,0.0,0.0,0.0,0.0,0.0, 12:58:41.191
77237.500000, 98419.710938, 187500.015625, 187500.015625, 120248.070313, 88681.640625, 97584.312500, 149492.625000, 0, 1, 1, 0, 1,0.0,0.0,0.0,0.0,0.0, 12:58:41.192
77148.765625, 98323.578125, 187500.015625, 187500.015625, 120172.632813, 88777.687500, 97608.968750, 149399.640625, 0, 1, 1, 0, 1,0.0,0.0,0.0,0.0,0.0, 12:58:41.192
77059.890625, 98229.812500, 187500.015625, 187500.015625, 120085.210938, 88782.843750, 97551.992188, 149313.984375, 0, 1, 1, 0, 1,0.0,0.0,0.0,0.0,0.0, 12:58:41.192
77138.859375, 98314.679688, 187500.015625, 187500.015625, 120144.218750, 88691.023438, 97515.937500, 149391.875000, 0, 1, 1, 0, 1,0.0,0.0,0.0,0.0,0.0, 12:58:41.193
77230.523438, 98408.757813, 187500.015625, 187500.015625, 120240.445313, 88669.812500, 97570.304688, 149481.015625, 0, 1, 1, 0, 1,0.0,0.0,0.0,0.0,0.0, 12:58:41.193
77166.843750, 98337.257813, 187500.015625, 187500.015625, 120187.226563, 88756.585938, 97605.617188, 149402.250000, 0, 1, 1, 0, 1,0.0,0.0,0.0,0.0,0.0, 12:58:41.193
77066.062500, 98231.421875, 187500.015625, 187500.015625, 120088.523438, 88789.484375, 97559.367188, 149304.156250, 0, 1, 1, 0, 1,0.0,0.0,0.0,0.0,0.0, 12:58:41.194
77130.125000, 98302.945313, 187500.015625, 187500.015625, 120127.546875, 88707.273438, 97523.359375, 149367.781250, 0, 1, 1, 0, 1,0.0,0.0,0.0,0.0,0.0, 12:58:41.194
77249.617188, 98425.835938, 187500.015625, 187500.015625, 120251.507813, 88668.945313, 97582.843750, 149492.734375, 0, 1, 1, 0, 1,0.0,0.0,0.0,0.0,0.0, 12:58:41.194
77197.085938, 98366.937500, 187500.015625, 187500.015625, 120227.257813, 88751.265625, 97635.593750, 149448.421875, 0, 1, 1, 0, 1,0.0,0.0,0.0,0.0,0.0, 12:58:41.194
77086.156250, 98244.828125, 187500.015625, 187500.015625, 120115.273438, 88809.781250, 97600.250000, 149333.875000, 0, 1, 1, 0, 1,0.0,0.0,0.0,0.0,0.0, 12:58:41.195
77121.429688, 98280.796875, 187500.015625, 187500.015625, 120121.890625, 88739.710938, 97544.906250, 149358.796875, 0, 1, 1, 0, 1,0.0,0.0,0.0,0.0,0.0, 12:58:41.195
77256.585938, 98420.898438, 187500.015625, 187500.015625, 120244.601563, 88677.906250, 97579.843750, 149486.250000, 0, 1, 1, 0, 1,0.0,0.0,0.0,0.0,0.0, 12:58:41.196
77232.023438, 98387.500000, 187500.015625, 187500.015625, 120238.789063, 88737.804688, 97634.140625, 149460.359375, 0, 1, 1, 0, 1,0.0,0.0,0.0,0.0,0.0, 12:58:41.196
77091.390625, 98239.757813, 187500.015625, 187500.015625, 120111.250000, 88803.257813, 97600.093750, 149322.656250, 0, 1, 1, 0, 1,0.0,0.0,0.0,0.0,0.0, 12:58:41.196
77087.921875, 98242.085938, 187500.015625, 187500.015625, 120098.023438, 88748.492188, 97546.007813, 149328.062500, 0, 1, 1, 0, 1,0.0,0.0,0.0,0.0,0.0, 12:58:41.197
77227.781250, 98386.031250, 187500.015625, 187500.015625, 120224.820313, 88677.187500, 97572.265625, 149466.734375, 0, 1, 1, 0, 1,0.0,0.0,0.0,0.0,0.0, 12:58:41.197
77236.382813, 98388.015625, 187500.015625, 187500.015625, 120251.531250, 88719.945313, 97632.546875, 149475.593750, 0, 1, 1, 0, 1,0.0,0.0,0.0,0.0,0.0, 12:58:41.198
77106.718750, 98253.257813, 187500.015625, 187500.015625, 120143.390625, 88800.148438, 97621.664063, 149349.718750, 0, 1, 1, 0, 1,0.0,0.0,0.0,0.0,0.0, 12:58:41.198
77077.617188, 98228.960938, 187500.015625, 187500.015625, 120090.085938, 88762.375000, 97558.234375, 149311.453125, 0, 1, 1, 0, 1,0.0,0.0,0.0,0.0,0.0, 12:58:41.198
77218.476563, 98375.257813, 187500.015625, 187500.015625, 120218.140625, 88683.273438, 97581.609375, 149456.765625, 0, 1, 1, 0, 1,0.0,0.0,0.0,0.0,0.0, 12:58:41.199
77264.101563, 98413.500000, 187500.015625, 187500.015625, 120280.898438, 88710.851563, 97656.445313, 149518.328125, 0, 1, 1, 0, 1,0.0,0.0,0.0,0.0,0.0, 12:58:41.199
77143.218750, 98283.726563, 187500.015625, 187500.015625, 120169.765625, 88792.773438, 97651.546875, 149379.515625, 0, 1, 1, 0, 1,0.0,0.0,0.0,0.0,0.0, 12:58:41.200
77076.390625, 98218.906250, 187500.015625, 187500.015625, 120091.359375, 88777.523438, 97587.687500, 149310.656250, 0, 1, 1, 0, 1,0.0,0.0,0.0,0.0,0.0, 12:58:41.200
77187.390625, 98337.968750, 187500.015625, 187500.015625, 120186.625000, 88693.890625, 97584.359375, 149435.953125, 0, 1, 1, 0, 1,0.0,0.0,0.0,0.0,0.0, 12:58:41.201
77263.765625, 98410.078125, 187500.015625, 187500.015625, 120274.914063, 88692.609375, 97647.328125, 149497.640625, 0, 1, 1, 0, 1,0.0,0.0,0.0,0.0,0.0, 12:58:41.201
77174.757813, 98309.804688, 187500.015625, 187500.015625, 120202.671875, 88779.468750, 97670.820313, 149403.062500, 0, 1, 1, 0, 1,0.0,0.0,0.0,0.0,0.0, 12:58:41.201
77091.656250, 98226.812500, 187500.015625, 187500.015625, 120113.953125, 88792.796875, 97623.945313, 149314.312500, 0, 1, 1, 0, 1,0.0,0.0,0.0,0.0,0.0, 12:58:41.202
77166.804688, 98313.226563, 187500.015625, 187500.015625, 120172.828125, 88704.437500, 97589.437500, 149396.843750, 0, 1, 1, 0, 1,0.0,0.0,0.0,0.0,0.0, 12:58:41.202
77256.570313, 98402.257813, 187500.015625, 187500.015625, 120264.335938, 88675.890625, 97639.882813, 149489.671875, 0, 1, 1, 0, 1,0.0,0.0,0.0,0.0,0.0, 12:58:41.203
77191.234375, 98329.164063, 187500.015625, 187500.015625, 120213.625000, 88763.062500, 97686.101563, 149425.453125, 0, 1, 1, 0, 1,0.0,0.0,0.0,0.0,0.0, 12:58:41.207
77067.671875, 98206.875000, 187500.015625, 187500.015625, 120089.187500, 88794.156250, 97625.890625, 149304.343750, 0, 1, 1, 0, 1,0.0,0.0,0.0,0.0,0.0, 12:58:41.209
77129.515625, 98276.679688, 187500.015625, 187500.015625, 120130.765625, 88711.367188, 97586.796875, 149368.718750, 0, 1, 1, 0, 1,0.0,0.0,0.0,0.0,0.0, 12:58:41.210
77260.789063, 98410.750000, 187500.015625, 187500.015625, 120254.664063, 88667.375000, 97642.343750, 149502.406250, 0, 1, 1, 0, 1,0.0,0.0,0.0,0.0,0.0, 12:58:41.210
77212.156250, 98353.304688, 187500.015625, 187500.015625, 120236.085938, 88742.773438, 97692.117188, 149458.875000, 0, 1, 1, 0, 1,0.0,0.0,0.0,0.0,0.0, 12:58:41.210
77080.617188, 98218.789063, 187500.015625, 187500.015625, 120108.414063, 88800.703125, 97648.664063, 149326.453125, 0, 1, 1, 0, 1,0.0,0.0,0.0,0.0,0.0, 12:58:41.211
77111.953125, 98256.546875, 187500.015625, 187500.015625, 120113.265625, 88734.320313, 97597.007813, 149354.500000, 0, 1, 1, 0, 1,0.0,0.0,0.0,0.0,0.0, 12:58:41.211
77254.554688, 98402.210938, 187500.015625, 187500.015625, 120242.031250, 88673.882813, 97630.960938, 149492.984375, 0, 1, 1, 0, 1,0.0,0.0,0.0,0.0,0.0, 12:58:41.212
77240.203125, 98378.945313, 187500.015625, 187500.015625, 120244.781250, 88733.609375, 97685.546875, 149477.156250, 0, 1, 1, 0, 1,0.0,0.0,0.0,0.0,0.0, 12:58:41.212
77102.718750, 98234.234375, 187500.015625, 187500.015625, 120124.906250, 88805.375000, 97660.000000, 149346.843750, 0, 1, 1, 0, 1,0.0,0.0,0.0,0.0,0.0, 12:58:41.213
77102.562500, 98240.382813, 187500.015625, 187500.015625, 120106.289063, 88757.789063, 97605.703125, 149343.437500, 0, 1, 1, 0, 1,0.0,0.0,0.0,0.0,0.0, 12:58:41.213
77242.125000, 98384.281250, 187500.015625, 187500.015625, 120231.187500, 88683.203125, 97621.843750, 149475.703125, 0, 1, 1, 0, 1,0.0,0.0,0.0,0.0,0.0, 12:58:41.213
77255.625000, 98393.226563, 187500.015625, 187500.015625, 120258.570313, 88715.703125, 97674.015625, 149489.250000, 0, 1, 1, 0, 1,0.0,0.0,0.0,0.0,0.0, 12:58:41.214
77140.093750, 98271.656250, 187500.015625, 187500.015625, 120151.460938, 88805.023438, 97671.351563, 149374.781250, 0, 1, 1, 0, 1,0.0,0.0,0.0,0.0,0.0, 12:58:41.214
77108.507813, 98243.625000, 187500.015625, 187500.015625, 120103.046875, 88780.609375, 97617.304688, 149343.437500, 0, 1, 1, 0, 1,0.0,0.0,0.0,0.0,0.0, 12:58:41.214
77226.882813, 98375.703125, 187500.015625, 187500.015625, 120212.390625, 88696.656250, 97615.851563, 149464.187500, 0, 1, 1, 0, 1,0.0,0.0,0.0,0.0,0.0, 12:58:41.215
77271.679688, 98409.585938, 187500.015625, 187500.015625, 120267.179688, 88704.773438, 97673.007813, 149517.140625, 0, 1, 1, 0, 1,0.0,0.0,0.0,0.0,0.0, 12:58:41.215
77176.929688, 98303.390625, 187500.015625, 187500.015625, 120185.523438, 88797.507813, 97692.718750, 149402.812500, 0, 1, 1, 0, 1,0.0,0.0,0.0,0.0,0.0, 12:58:41.216
77101.085938, 98233.031250, 187500.015625, 187500.015625, 120103.296875, 88794.695313, 97633.867188, 149330.796875, 0, 1, 1, 0, 1,0.0,0.0,0.0,0.0,0.0, 12:58:41.216
77201.937500, 98343.562500, 187500.015625, 187500.015625, 120185.703125, 88703.250000, 97619.140625, 149435.421875, 0, 1, 1, 0, 1,0.0,0.0,0.0,0.0,0.0, 12:58:41.217
77285.218750, 98425.726563, 187500.015625, 187500.015625, 120278.109375, 88690.492188, 97676.585938, 149521.750000, 0, 1, 1, 0, 1,0.0,0.0,0.0,0.0,0.0, 12:58:41.217
77182.828125, 98316.984375, 187500.015625, 187500.015625, 120196.632813, 88779.671875, 97698.531250, 149421.562500, 0, 1, 1, 0, 1,0.0,0.0,0.0,0.0,0.0, 12:58:41.217
77083.523438, 98216.421875, 187500.015625, 187500.015625, 120097.148438, 88804.195313, 97647.976563, 149348.515625, 0, 1, 1, 0, 1,0.0,0.0,0.0,0.0,0.0, 12:58:41.217
77171.562500, 98312.265625, 187500.015625, 187500.015625, 120164.718750, 88715.726563, 97620.054688, 149412.281250, 0, 1, 1, 0, 1,0.0,0.0,0.0,0.0,0.0, 12:58:41.218
77288.750000, 98430.976563, 187500.015625, 187500.015625, 120283.828125, 88679.179688, 97682.171875, 149513.984375, 0, 1, 1, 0, 1,0.0,0.0,0.0,0.0,0.0, 12:58:41.218
77219.039063, 98351.898438, 187500.015625, 187500.015625, 120228.710938, 88760.156250, 97718.023438, 149446.593750, 0, 1, 1, 0, 1,0.0,0.0,0.0,0.0,0.0, 12:58:41.218
77100.593750, 98231.085938, 187500.015625, 187500.015625, 120110.515625, 88805.039063, 97671.445313, 149330.703125, 0, 1, 1, 0, 1,0.0,0.0,0.0,0.0,0.0, 12:58:41.219
77158.015625, 98298.164063, 187500.015625, 187500.015625, 120153.007813, 88731.015625, 97630.382813, 149395.078125, 0, 1, 1, 0, 1,0.0,0.0,0.0,0.0,0.0, 12:58:41.219
77289.156250, 98431.203125, 187500.015625, 187500.015625, 120287.335938, 88682.328125, 97680.718750, 149534.500000, 0, 1, 1, 0, 1,0.0,0.0,0.0,0.0,0.0, 12:58:41.219
77251.000000, 98385.492188, 187500.015625, 187500.015625, 120257.007813, 88752.273438, 97717.421875, 149491.015625, 0, 1, 1, 0, 1,0.0,0.0,0.0,0.0,0.0, 12:58:41.220
77118.742188, 98251.742188, 187500.015625, 187500.015625, 120136.914063, 88815.320313, 97685.257813, 149368.593750, 0, 1, 1, 0, 1,0.0,0.0,0.0,0.0,0.0, 12:58:41.220
77129.609375, 98263.648438, 187500.015625, 187500.015625, 120130.359375, 88755.468750, 97629.398438, 149392.859375, 0, 1, 1, 0, 1,0.0,0.0,0.0,0.0,0.0, 12:58:41.220
77284.710938, 98424.718750, 187500.015625, 187500.015625, 120271.070313, 88688.992188, 97671.148438, 149531.937500, 0, 1, 1, 0, 1,0.0,0.0,0.0,0.0,0.0, 12:58:41.221
77276.460938, 98414.078125, 187500.015625, 187500.015625, 120279.625000, 88736.398438, 97718.757813, 149523.593750, 0, 1, 1, 0, 1,0.0,0.0,0.0,0.0,0.0, 12:58:41.221
77137.523438, 98271.429688, 187500.015625, 187500.015625, 120159.937500, 88802.625000, 97695.875000, 149369.812500, 0, 1, 1, 0, 1,0.0,0.0,0.0,0.0,0.0, 12:58:41.222
77116.171875, 98254.109375, 187500.015625, 187500.015625, 120122.632813, 88763.671875, 97640.507813, 149352.718750, 0, 1, 1, 0, 1,0.0,0.0,0.0,0.0,0.0, 12:58:41.222
77238.953125, 98386.695313, 187500.015625, 187500.015625, 120235.148438, 88677.835938, 97646.187500, 149483.875000, 0, 1, 1, 0, 1,0.0,0.0,0.0,0.0,0.0, 12:58:41.222
77292.617188, 98435.781250, 187500.015625, 187500.015625, 120297.820313, 88709.000000, 97722.984375, 149531.984375, 0, 1, 1, 0, 1,0.0,0.0,0.0,0.0,0.0, 12:58:41.223
77169.398438, 98296.710938, 187500.015625, 187500.015625, 120180.945313, 88800.593750, 97713.148438, 149402.093750, 0, 1, 1, 0, 1,0.0,0.0,0.0,0.0,0.0, 12:58:41.223
77113.289063, 98241.765625, 187500.015625, 187500.015625, 120122.539063, 88781.375000, 97648.937500, 149352.000000, 0, 1, 1, 0, 1,0.0,0.0,0.0,0.0,0.0, 12:58:41.223
77230.101563, 98370.226563, 187500.015625, 187500.015625, 120212.859375, 88691.585938, 97635.789063, 149465.843750, 0, 1, 1, 0, 1,0.0,0.0,0.0,0.0,0.0, 12:58:41.224
77294.046875, 98423.039063, 187500.015625, 187500.015625, 120279.804688, 88695.789063, 97689.835938, 149514.390625, 0, 1, 1, 0, 1,0.0,0.0,0.0,0.0,0.0, 12:58:41.224
77181.398438, 98309.453125, 187500.015625, 187500.015625, 120186.421875, 88786.960938, 97705.773438, 149410.609375, 0, 1, 1, 0, 1,0.0,0.0,0.0,0.0,0.0, 12:58:41.224
77117.296875, 98245.304688, 187500.015625, 187500.015625, 120112.992188, 88797.757813, 97657.945313, 149345.984375, 0, 1, 1, 0, 1,0.0,0.0,0.0,0.0,0.0, 12:58:41.224
77219.578125, 98359.609375, 187500.015625, 187500.015625, 120195.632813, 88711.609375, 97631.679688, 149450.703125, 0, 1, 1, 0, 1,0.0,0.0,0.0,0.0,0.0, 12:58:41.224
77280.507813, 98423.804688, 187500.015625, 187500.015625, 120267.156250, 88689.750000, 97671.796875, 149534.953125, 0, 1, 1, 0, 1,0.0,0.0,0.0,0.0,0.0, 12:58:41.225
77209.273438, 98346.195313, 187500.015625, 187500.015625, 120212.304688, 88773.882813, 97711.359375, 149455.250000, 0, 1, 1, 0, 1,0.0,0.0,0.0,0.0,0.0, 12:58:41.225
77131.867188, 98265.062500, 187500.015625, 187500.015625, 120131.101563, 88804.570313, 97677.859375, 149340.187500, 0, 1, 1, 0, 1,0.0,0.0,0.0,0.0,0.0, 12:58:41.226
77204.953125, 98337.031250, 187500.015625, 187500.015625, 120188.835938, 88733.984375, 97654.812500, 149429.453125, 0, 1, 1, 0, 1,0.0,0.0,0.0,0.0,0.0, 12:58:41.226
77313.765625, 98448.390625, 187500.015625, 187500.015625, 120290.445313, 88690.265625, 97692.007813, 149554.203125, 0, 1, 1, 0, 1,0.0,0.0,0.0,0.0,0.0, 12:58:41.227
77245.656250, 98386.429688, 187500.015625, 187500.015625, 120248.890625, 88769.437500, 97732.351563, 149481.937500, 0, 1, 1, 0, 1,0.0,0.0,0.0,0.0,0.0, 12:58:41.227
77114.898438, 98244.812500, 187500.015625, 187500.015625, 120114.046875, 88816.125000, 97669.695313, 149345.796875, 0, 1, 1, 0, 1,0.0,0.0,0.0,0.0,0.0, 12:58:41.658
77163.695313, 98294.117188, 187500.015625, 187500.015625, 120133.421875, 88732.421875, 97615.492188, 149376.140625, 0, 1, 1, 0, 1,0.0,0.0,0.0,0.0,0.0, 12:58:41.659
77302.546875, 98440.609375, 187500.015625, 187500.015625, 120275.000000, 88667.398438, 97665.695313, 149517.562500, 0, 1, 1, 0, 1,0.0,0.0,0.0,0.0,0.0, 12:58:41.659
77276.210938, 98409.875000, 187500.015625, 187500.015625, 120271.156250, 88744.000000, 97725.843750, 149500.734375, 0, 1, 1, 0, 1,0.0,0.0,0.0,0.0,0.0, 12:58:41.660
77149.523438, 98268.390625, 187500.015625, 187500.015625, 120134.210938, 88806.804688, 97684.492188, 149363.093750, 0, 1, 1, 0, 1,0.0,0.0,0.0,0.0,0.0, 12:58:41.660
77162.195313, 98294.945313, 187500.015625, 187500.015625, 120143.257813, 88754.171875, 97643.593750, 149387.859375, 0, 1, 1, 0, 1,0.0,0.0,0.0,0.0,0.0, 12:58:41.660
77274.585938, 98417.992188, 187500.015625, 187500.015625, 120262.843750, 88676.718750, 97663.015625, 149523.531250, 0, 1, 1, 0, 1,0.0,0.0,0.0,0.0,0.0, 12:58:41.661
77297.671875, 98435.562500, 187500.015625, 187500.015625, 120302.585938, 88730.210938, 97740.242188, 149557.468750, 0, 1, 1, 0, 1,0.0,0.0,0.0,0.0,0.0, 12:58:41.661
77160.476563, 98288.953125, 187500.015625, 187500.015625, 120167.820313, 88816.195313, 97715.296875, 149424.671875, 0, 1, 1, 0, 1,0.0,0.0,0.0,0.0,0.0, 12:58:41.661
77160.078125, 98286.921875, 187500.015625, 187500.015625, 120127.414063, 88775.515625, 97646.992188, 149365.640625, 0, 1, 1, 0, 1,0.0,0.0,0.0,0.0,0.0, 12:58:41.661
77297.515625, 98444.523438, 187500.015625, 187500.015625, 120255.484375, 88693.195313, 97667.265625, 149512.265625, 0, 1, 1, 0, 1,0.0,0.0,0.0,0.0,0.0, 12:58:41.662
77322.617188, 98454.265625, 187500.015625, 187500.015625, 120301.375000, 88724.328125, 97725.468750, 149553.968750, 0, 1, 1, 0, 1,0.0,0.0,0.0,0.0,0.0, 12:58:41.662
77202.343750, 98327.195313, 187500.015625, 187500.015625, 120194.804688, 88808.882813, 97724.773438, 149433.750000, 0, 1, 1, 0, 1,0.0,0.0,0.0,0.0,0.0, 12:58:41.662
77149.929688, 98284.234375, 187500.015625, 187500.015625, 120139.195313, 88801.625000, 97674.460938, 149387.281250, 0, 1, 1, 0, 1,0.0,0.0,0.0,0.0,0.0, 12:58:41.662
77259.429688, 98394.921875, 187500.015625, 187500.015625, 120228.687500, 88706.289063, 97656.265625, 149514.203125, 0, 1, 1, 0, 1,0.0,0.0,0.0,0.0,0.0, 12:58:41.663
77338.578125, 98475.125000, 187500.015625, 187500.015625, 120317.851563, 88703.476563, 97726.625000, 149585.984375, 0, 1, 1, 0, 1,0.0,0.0,0.0,0.0,0.0, 12:58:41.663
77213.921875, 98343.250000, 187500.015625, 187500.015625, 120212.257813, 88790.085938, 97731.414063, 149451.406250, 0, 1, 1, 0, 1,0.0,0.0,0.0,0.0,0.0, 12:58:41.663
77135.843750, 98260.656250, 187500.015625, 187500.015625, 120109.578125, 88795.789063, 97667.976563, 149355.296875, 0, 1, 1, 0, 1,0.0,0.0,0.0,0.0,0.0, 12:58:41.664
77231.734375, 98377.312500, 187500.015625, 187500.015625, 120198.601563, 88727.773438, 97650.656250, 149464.484375, 0, 1, 1, 0, 1,0.0,0.0,0.0,0.0,0.0, 12:58:41.664
77321.070313, 98461.601563, 187500.015625, 187500.015625, 120293.757813, 88704.078125, 97701.125000, 149562.531250, 0, 1, 1, 0, 1,0.0,0.0,0.0,0.0,0.0, 12:58:41.664
77221.671875, 98350.664063, 187500.015625, 187500.015625, 120223.281250, 88782.671875, 97728.398438, 149463.734375, 0, 1, 1, 0, 1,0.0,0.0,0.0,0.0,0.0, 12:58:41.665
77117.226563, 98244.898438, 187500.015625, 187500.015625, 120117.445313, 88816.304688, 97682.617188, 149355.953125, 0, 1, 1, 0, 1,0.0,0.0,0.0,0.0,0.0, 12:58:41.665
77189.507813, 98326.437500, 187500.015625, 187500.015625, 120163.195313, 88742.257813, 97649.757813, 149460.609375, 0, 1, 1, 0, 1,0.0,0.0,0.0,0.0,0.0, 12:58:41.665
77324.671875, 98450.960938, 187500.015625, 187500.015625, 120292.835938, 88695.203125, 97703.984375, 149551.515625, 0, 1, 1, 0, 1,0.0,0.0,0.0,0.0,0.0, 12:58:41.665
77225.007813, 98351.179688, 187500.015625, 187500.015625, 120216.554688, 88760.453125, 97717.953125, 149436.921875, 0, 1, 1, 0, 1,0.0,0.0,0.0,0.0,0.0, 12:58:41.666
77094.937500, 98217.828125, 187500.015625, 187500.015625, 120086.281250, 88810.320313, 97672.585938, 149320.078125, 0, 1, 1, 0, 1,0.0,0.0,0.0,0.0,0.0, 12:58:41.666
77146.257813, 98280.976563, 187500.015625, 187500.015625, 120127.187500, 88755.734375, 97637.156250, 149384.281250, 0, 1, 1, 0, 1,0.0,0.0,0.0,0.0,0.0, 12:58:41.667
77290.695313, 98423.804688, 187500.015625, 187500.015625, 120254.148438, 88692.367188, 97668.156250, 149522.859375, 0, 1, 1, 0, 1,0.0,0.0,0.0,0.0,0.0, 12:58:41.667
77283.812500, 98409.226563, 187500.015625, 187500.015625, 120263.648438, 88747.109375, 97726.984375, 149516.000000, 0, 1, 1, 0, 1,0.0,0.0,0.0,0.0,0.0, 12:58:41.667
77155.851563, 98280.953125, 187500.015625, 187500.015625, 120137.875000, 88831.015625, 97704.679688, 149394.875000, 0, 1, 1, 0, 1,0.0,0.0,0.0,0.0,0.0, 12:58:41.668
77146.617188, 98275.382813, 187500.015625, 187500.015625, 120117.687500, 88770.929688, 97640.015625, 149382.515625, 0, 1, 1, 0, 1,0.0,0.0,0.0,0.0,0.0, 12:58:41.668
77304.757813, 98442.531250, 187500.015625, 187500.015625, 120250.773438, 88683.492188, 97670.437500, 149503.734375, 0, 1, 1, 0, 1,0.0,0.0,0.0,0.0,0.0, 12:58:41.668
77320.203125, 98451.164063, 187500.015625, 187500.015625, 120280.390625, 88721.023438, 97730.515625, 149539.109375, 0, 1, 1, 0, 1,0.0,0.0,0.0,0.0,0.0, 12:58:41.668
77147.984375, 98279.812500, 187500.015625, 187500.015625, 120144.375000, 88813.890625, 97709.195313, 149392.328125, 0, 1, 1, 0, 1,0.0,0.0,0.0,0.0,0.0, 12:58:41.669
77126.617188, 98257.195313, 187500.015625, 187500.015625, 120099.359375, 88786.203125, 97655.414063, 149364.796875, 0, 1, 1, 0, 1,0.0,0.0,0.0,0.0,0.0, 12:58:41.669
77277.843750, 98415.531250, 187500.015625, 187500.015625, 120219.992188, 88703.742188, 97662.125000, 149510.406250, 0, 1, 1, 0, 1,0.0,0.0,0.0,0.0,0.0, 12:58:41.669
77313.812500, 98453.929688, 187500.015625, 187500.015625, 120277.171875, 88718.296875, 97721.757813, 149556.140625, 0, 1, 1, 0, 1,0.0,0.0,0.0,0.0,0.0, 12:58:41.669
77179.382813, 98302.093750, 187500.015625, 187500.015625, 120164.179688, 88813.734375, 97728.062500, 149424.718750, 0, 1, 1, 0, 1,0.0,0.0,0.0,0.0,0.0, 12:58:41.670
77095.500000, 98223.929688, 187500.015625, 187500.015625, 120074.234375, 88802.406250, 97661.429688, 149356.515625, 0, 1, 1, 0, 1,0.0,0.0,0.0,0.0,0.0, 12:58:41.670
77226.328125, 98358.671875, 187500.015625, 187500.015625, 120175.757813, 88714.609375, 97651.304688, 149488.015625, 0, 1, 1, 0, 1,0.0,0.0,0.0,0.0,0.0, 12:58:41.670
77319.484375, 98446.335938, 187500.015625, 187500.015625, 120265.476563, 88708.523438, 97709.710938, 149540.859375, 0, 1, 1, 0, 1,0.0,0.0,0.0,0.0,0.0, 12:58:41.670
77209.406250, 98331.156250, 187500.015625, 187500.015625, 120171.062500, 88803.726563, 97724.437500, 149438.937500, 0, 1, 1, 0, 1,0.0,0.0,0.0,0.0,0.0, 12:58:41.671
77105.085938, 98222.148438, 187500.015625, 187500.015625, 120079.179688, 88819.414063, 97673.343750, 149344.531250, 0, 1, 1, 0, 1,0.0,0.0,0.0,0.0,0.0, 12:58:41.671
77204.398438, 98329.031250, 187500.015625, 187500.015625, 120155.085938, 88732.328125, 97647.640625, 149444.140625, 0, 1, 1, 0, 1,0.0,0.0,0.0,0.0,0.0, 12:58:41.671
77342.890625, 98462.382813, 187500.015625, 187500.015625, 120270.507813, 88703.367188, 97705.234375, 149564.796875, 0, 1, 1, 0, 1,0.0,0.0,0.0,0.0,0.0, 12:58:41.672
77260.570313, 98381.531250, 187500.015625, 187500.015625, 120216.437500, 88793.039063, 97743.773438, 149485.265625, 0, 1, 1, 0, 1,0.0,0.0,0.0,0.0,0.0, 12:58:41.672
77111.187500, 98229.679688, 187500.015625, 187500.015625, 120088.695313, 88825.921875, 97690.843750, 149352.031250, 0, 1, 1, 0, 1,0.0,0.0,0.0,0.0,0.0, 12:58:41.672
77157.796875, 98283.078125, 187500.015625, 187500.015625, 120113.710938, 88735.867188, 97643.437500, 149396.421875, 0, 1, 1, 0, 1,0.0,0.0,0.0,0.0,0.0, 12:58:41.673
77319.820313, 98445.570313, 187500.015625, 187500.015625, 120268.632813, 88696.906250, 97712.703125, 149556.812500, 0, 1, 1, 0, 1,0.0,0.0,0.0,0.0,0.0, 12:58:41.673
77261.101563, 98389.695313, 187500.015625, 187500.015625, 120237.984375, 88766.242188, 97757.695313, 149497.937500, 0, 1, 1, 0, 1,0.0,0.0,0.0,0.0,0.0, 12:58:41.673
77132.960938, 98250.664063, 187500.015625, 187500.015625, 120109.242188, 88829.648438, 97716.171875, 149369.812500, 0, 1, 1, 0, 1,0.0,0.0,0.0,0.0,0.0, 12:58:41.673
77152.835938, 98283.546875, 187500.015625, 187500.015625, 120115.367188, 88768.007813, 97659.218750, 149394.140625, 0, 1, 1, 0, 1,0.0,0.0,0.0,0.0,0.0, 12:58:41.673
77287.007813, 98416.492188, 187500.015625, 187500.015625, 120239.531250, 88695.007813, 97687.914063, 149526.437500, 0, 1, 1, 0, 1,0.0,0.0,0.0,0.0,0.0, 12:58:41.673
77270.046875, 98395.195313, 187500.015625, 187500.015625, 120244.382813, 88752.046875, 97747.304688, 149524.828125, 0, 1, 1, 0, 1,0.0,0.0,0.0,0.0,0.0, 12:58:41.674
77136.492188, 98250.421875, 187500.015625, 187500.015625, 120116.351563, 88831.953125, 97724.054688, 149379.250000, 0, 1, 1, 0, 1,0.0,0.0,0.0,0.0,0.0, 12:58:41.675
77126.703125, 98243.468750, 187500.015625, 187500.015625, 120082.750000, 88780.726563, 97663.867188, 149362.375000, 0, 1, 1, 0, 1,0.0,0.0,0.0,0.0,0.0, 12:58:41.675
77270.914063, 98397.984375, 187500.015625, 187500.015625, 120212.304688, 88692.593750, 97680.828125, 149509.406250, 0, 1, 1, 0, 1,0.0,0.0,0.0,0.0,0.0, 12:58:41.675
77301.117188, 98419.867188, 187500.015625, 187500.015625, 120258.078125, 88732.421875, 97752.132813, 149541.187500, 0, 1, 1, 0, 1,0.0,0.0,0.0,0.0,0.0, 12:58:41.675
77183.656250, 98294.679688, 187500.015625, 187500.015625, 120152.828125, 88830.632813, 97759.039063, 149424.562500, 0, 1, 1, 0, 1,0.0,0.0,0.0,0.0,0.0, 12:58:41.676
77136.585938, 98254.265625, 187500.015625, 187500.015625, 120095.648438, 88810.671875, 97690.976563, 149381.703125, 0, 1, 1, 0, 1,0.0,0.0,0.0,0.0,0.0, 12:58:41.676
77272.304688, 98389.562500, 187500.015625, 187500.015625, 120202.578125, 88723.031250, 97682.617188, 149514.328125, 0, 1, 1, 0, 1,0.0,0.0,0.0,0.0,0.0, 12:58:41.676
77299.796875, 98415.953125, 187500.015625, 187500.015625, 120255.242188, 88714.945313, 97725.085938, 149534.171875, 0, 1, 1, 0, 1,0.0,0.0,0.0,0.0,0.0, 12:58:41.676
77166.289063, 98275.070313, 187500.015625, 187500.015625, 120142.429688, 88801.781250, 97726.671875, 149398.140625, 0, 1, 1, 0, 1,0.0,0.0,0.0,0.0,0.0, 12:58:41.676
77099.414063, 98209.273438, 187500.015625, 187500.015625, 120065.164063, 88800.929688, 97672.742188, 149329.359375, 0, 1, 1, 0, 1,0.0,0.0,0.0,0.0,0.0, 12:58:41.676
77206.250000, 98325.523438, 187500.015625, 187500.015625, 120154.187500, 88706.781250, 97657.093750, 149446.125000, 0, 1, 1, 0, 1,0.0,0.0,0.0,0.0,0.0, 12:58:41.677
77302.164063, 98421.187500, 187500.015625, 187500.015625, 120256.000000, 88694.851563, 97723.500000, 149545.390625, 0, 1, 1, 0, 1,0.0,0.0,0.0,0.0,0.0, 12:58:41.677
77215.640625, 98329.101563, 187500.015625, 187500.015625, 120189.437500, 88792.437500, 97758.929688, 149459.453125, 0, 1, 1, 0, 1,0.0,0.0,0.0,0.0,0.0, 12:58:41.677
77112.375000, 98219.554688, 187500.015625, 187500.015625, 120081.210938, 88820.937500, 97703.250000, 149351.875000, 0, 1, 1, 0, 1,0.0,0.0,0.0,0.0,0.0, 12:58:41.677
77189.937500, 98304.000000, 187500.015625, 187500.015625, 120135.171875, 88729.601563, 97663.460938, 149428.531250, 0, 1, 1, 0, 1,0.0,0.0,0.0,0.0,0.0, 12:58:41.678
77307.843750, 98422.304688, 187500.015625, 187500.015625, 120254.187500, 88691.140625, 97721.132813, 149550.734375, 0, 1, 1, 0, 1,0.0,0.0,0.0,0.0,0.0, 12:58:41.678
77237.320313, 98344.703125, 187500.015625, 187500.015625, 120210.406250, 88776.812500, 97766.351563, 149487.703125, 0, 1, 1, 0, 1,0.0,0.0,0.0,0.0,0.0, 12:58:41.678
77109.851563, 98211.460938, 187500.015625, 187500.015625, 120083.156250, 88826.523438, 97715.382813, 149356.046875, 0, 1, 1, 0, 1,0.0,0.0,0.0,0.0,0.0, 12:58:41.678
77165.882813, 98274.156250, 187500.015625, 187500.015625, 120108.367188, 88746.570313, 97663.242188, 149407.500000, 0, 1, 1, 0, 1,0.0,0.0,0.0,0.0,0.0, 12:58:41.678
77307.125000, 98418.953125, 187500.015625, 187500.015625, 120244.062500, 88686.109375, 97709.171875, 149545.031250, 0, 1, 1, 0, 1,0.0,0.0,0.0,0.0,0.0, 12:58:41.678
77271.835938, 98377.375000, 187500.015625, 187500.015625, 120240.218750, 88762.101563, 97776.226563, 149517.359375, 0, 1, 1, 0, 1,0.0,0.0,0.0,0.0,0.0, 12:58:41.679
77132.984375, 98238.078125, 187500.015625, 187500.015625, 120109.507813, 88832.289063, 97741.203125, 149378.921875, 0, 1, 1, 0, 1,0.0,0.0,0.0,0.0,0.0, 12:58:41.679
77143.601563, 98255.562500, 187500.015625, 187500.015625, 120095.070313, 88771.179688, 97668.179688, 149386.468750, 0, 1, 1, 0, 1,0.0,0.0,0.0,0.0,0.0, 12:58:41.679
77288.398438, 98405.765625, 187500.015625, 187500.015625, 120230.632813, 88691.539063, 97693.953125, 149532.625000, 0, 1, 1, 0, 1,0.0,0.0,0.0,0.0,0.0, 12:58:41.679
77289.226563, 98402.453125, 187500.015625, 187500.015625, 120251.460938, 88744.156250, 97750.906250, 149535.562500, 0, 1, 1, 0, 1,0.0,0.0,0.0,0.0,0.0, 12:58:41.679
77161.976563, 98269.890625, 187500.015625, 187500.015625, 120131.210938, 88835.242188, 97736.085938, 149406.906250, 0, 1, 1, 0, 1,0.0,0.0,0.0,0.0,0.0, 12:58:41.680
77143.843750, 98255.585938, 187500.015625, 187500.015625, 120094.039063, 88797.640625, 97676.070313, 149387.796875, 0, 1, 1, 0, 1,0.0,0.0,0.0,0.0,0.0, 12:58:41.680
77278.023438, 98397.921875, 187500.015625, 187500.015625, 120212.054688, 88707.945313, 97683.515625, 149522.843750, 0, 1, 1, 0, 1,0.0,0.0,0.0,0.0,0.0, 12:58:41.680
77320.382813, 98433.835938, 187500.015625, 187500.015625, 120265.812500, 88730.968750, 97744.000000, 149564.875000, 0, 1, 1, 0, 1,0.0,0.0,0.0,0.0,0.0, 12:58:41.681
77188.218750, 98294.250000, 187500.015625, 187500.015625, 120146.968750, 88827.304688, 97740.507813, 149425.406250, 0, 1, 1, 0, 1,0.0,0.0,0.0,0.0,0.0, 12:58:41.681
77133.742188, 98241.789063, 187500.015625, 187500.015625, 120082.710938, 88813.335938, 97679.062500, 149370.906250, 0, 1, 1, 0, 1,0.0,0.0,0.0,0.0,0.0, 12:58:41.681
77257.484375, 98372.078125, 187500.015625, 187500.015625, 120184.562500, 88717.914063, 97668.601563, 149494.859375, 0, 1, 1, 0, 1,0.0,0.0,0.0,0.0,0.0, 12:58:41.682
77329.078125, 98444.703125, 187500.015625, 187500.015625, 120268.179688, 88721.578125, 97736.375000, 149571.750000, 0, 1, 1, 0, 1,0.0,0.0,0.0,0.0,0.0, 12:58:41.682
77211.078125, 98318.007813, 187500.015625, 187500.015625, 120176.968750, 88822.835938, 97752.554688, 149457.687500, 0, 1, 1, 0, 1,0.0,0.0,0.0,0.0,0.0, 12:58:41.682
77137.679688, 98246.890625, 187500.015625, 187500.015625, 120099.468750, 88833.453125, 97706.984375, 149379.390625, 0, 1, 1, 0, 1,0.0,0.0,0.0,0.0,0.0, 12:58:41.682
77231.484375, 98347.828125, 187500.015625, 187500.015625, 120174.507813, 88743.171875, 97678.054688, 149473.953125, 0, 1, 1, 0, 1,0.0,0.0,0.0,0.0,0.0, 12:58:41.682
77337.390625, 98451.023438, 187500.015625, 187500.015625, 120279.898438, 88720.125000, 97733.335938, 149579.281250, 0, 1, 1, 0, 1,0.0,0.0,0.0,0.0,0.0, 12:58:41.682
77250.265625, 98355.804688, 187500.015625, 187500.015625, 120210.562500, 88816.578125, 97760.671875, 149490.468750, 0, 1, 1, 0, 1,0.0,0.0,0.0,0.0,0.0, 12:58:41.683
77148.140625, 98251.335938, 187500.015625, 187500.015625, 120102.531250, 88855.492188, 97710.203125, 149382.828125, 0, 1, 1, 0, 1,0.0,0.0,0.0,0.0,0.0, 12:58:41.683
77209.960938, 98321.789063, 187500.015625, 187500.015625, 120142.609375, 88766.351563, 97660.156250, 149440.734375, 0, 1, 1, 0, 1,0.0,0.0,0.0,0.0,0.0, 12:58:41.683
77328.070313, 98445.882813, 187500.015625, 187500.015625, 120267.445313, 88717.398438, 97713.039063, 149568.750000, 0, 1, 1, 0, 1,0.0,0.0,0.0,0.0,0.0, 12:58:41.683
77291.304688, 98401.921875, 187500.015625, 187500.015625, 120245.343750, 88808.101563, 97773.343750, 149527.062500, 0, 1, 1, 0, 1,0.0,0.0,0.0,0.0,0.0, 12:58:41.683
77171.273438, 98277.820313, 187500.015625, 187500.015625, 120128.867188, 88871.445313, 97736.437500, 149404.546875, 0, 1, 1, 0, 1,0.0,0.0,0.0,0.0,0.0, 12:58:41.683
77190.140625, 98301.312500, 187500.015625, 187500.015625, 120131.726563, 88786.242188, 97674.546875, 149424.140625, 0, 1, 1, 0, 1,0.0,0.0,0.0,0.0,0.0, 12:58:41.684
77336.515625, 98455.898438, 187500.015625, 187500.015625, 120265.750000, 88720.125000, 97712.679688, 149569.281250, 0, 1, 1, 0, 1,0.0,0.0,0.0,0.0,0.0, 12:58:41.684
77321.390625, 98433.679688, 187500.015625, 187500.015625, 120265.164063, 88789.265625, 97772.515625, 149557.531250, 0, 1, 1, 0, 1,0.0,0.0,0.0,0.0,0.0, 12:58:41.684
77176.343750, 98281.218750, 187500.015625, 187500.015625, 120134.453125, 88869.210938, 97746.945313, 149416.531250, 0, 1, 1, 0, 1,0.0,0.0,0.0,0.0,0.0, 12:58:41.684
77177.375000, 98286.671875, 187500.015625, 187500.015625, 120115.523438, 88814.789063, 97683.687500, 149416.937500, 0, 1, 1, 0, 1,0.0,0.0,0.0,0.0,0.0, 12:58:41.684
77328.406250, 98435.226563, 187500.015625, 187500.015625, 120250.484375, 88731.617188, 97706.265625, 149561.312500, 0, 1, 1, 0, 1,0.0,0.0,0.0,0.0,0.0, 12:58:41.684
77350.039063, 98447.695313, 187500.015625, 187500.015625, 120283.562500, 88775.406250, 97773.546875, 149568.546875, 0, 1, 1, 0, 1,0.0,0.0,0.0,0.0,0.0, 12:58:41.685
77210.031250, 98301.132813, 187500.015625, 187500.015625, 120153.539063, 88862.125000, 97749.296875, 149427.015625, 0, 1, 1, 0, 1,0.0,0.0,0.0,0.0,0.0, 12:58:41.685
77191.007813, 98285.960938, 187500.015625, 187500.015625, 120115.390625, 88825.960938, 97686.750000, 149402.515625, 0, 1, 1, 0, 1,0.0,0.0,0.0,0.0,0.0, 12:58:41.685
77327.820313, 98432.718750, 187500.015625, 187500.015625, 120234.453125, 88741.609375, 97693.640625, 149541.765625, 0, 1, 1, 0, 1,0.0,0.0,0.0,0.0,0.0, 12:58:41.685
77368.726563, 98472.554688, 187500.015625, 187500.015625, 120290.468750, 88756.492188, 97754.054688, 149579.703125, 0, 1, 1, 0, 1,0.0,0.0,0.0,0.0,0.0, 12:58:41.685
77240.875000, 98342.125000, 187500.015625, 187500.015625, 120183.984375, 88856.921875, 97757.789063, 149448.593750, 0, 1, 1, 0, 1,0.0,0.0,0.0,0.0,0.0, 12:58:41.685
77161.484375, 98270.804688, 187500.015625, 187500.015625, 120094.109375, 88851.578125, 97686.531250, 149373.703125, 0, 1, 1, 0, 1,0.0,0.0,0.0,0.0,0.0, 12:58:41.686
77277.804688, 98380.281250, 187500.015625, 187500.015625, 120193.062500, 88746.320313, 97671.734375, 149501.562500, 0, 1, 1, 0, 1,0.0,0.0,0.0,0.0,0.0, 12:58:41.686
77355.179688, 98462.382813, 187500.015625, 187500.015625, 120283.945313, 88743.593750, 97737.890625, 149584.390625, 0, 1, 1, 0, 1,0.0,0.0,0.0,0.0,0.0, 12:58:41.686
77235.195313, 98329.585938, 187500.015625, 187500.015625, 120185.929688, 88835.710938, 97751.351563, 149465.109375, 0, 1, 1, 0, 1,0.0,0.0,0.0,0.0,0.0, 12:58:41.686
77146.843750, 98240.070313, 187500.015625, 187500.015625, 120086.554688, 88849.921875, 97690.601563, 149366.406250, 0, 1, 1, 0, 1,0.0,0.0,0.0,0.0,0.0, 12:58:41.687
77255.335938, 98360.812500, 187500.015625, 187500.015625, 120167.734375, 88759.937500, 97667.687500, 149470.640625, 0, 1, 1, 0, 1,0.0,0.0,0.0,0.0,0.0, 12:58:41.687
77373.843750, 98469.132813, 187500.015625, 187500.015625, 120291.226563, 88735.796875, 97736.773438, 149594.562500, 0, 1, 1, 0, 1,0.0,0.0,0.0,0.0,0.0, 12:58:41.687
77296.289063, 98386.945313, 187500.015625, 187500.015625, 120240.804688, 88840.406250, 97784.117188, 149525.156250, 0, 1, 1, 0, 1,0.0,0.0,0.0,0.0,0.0, 12:58:41.688
77185.804688, 98279.429688, 187500.015625, 187500.015625, 120130.695313, 88879.968750, 97742.140625, 149409.578125, 0, 1, 1, 0, 1,0.0,0.0,0.0,0.0,0.0, 12:58:41.688
77247.156250, 98347.335938, 187500.015625, 187500.015625, 120167.984375, 88797.351563, 97695.359375, 149468.656250, 0, 1, 1, 0, 1,0.0,0.0,0.0,0.0,0.0, 12:58:41.688
77358.867188, 98458.828125, 187500.015625, 187500.015625, 120280.789063, 88737.453125, 97731.500000, 149583.328125, 0, 1, 1, 0, 1,0.0,0.0,0.0,0.0,0.0, 12:58:41.689
77299.054688, 98397.562500, 187500.015625, 187500.015625, 120244.359375, 88816.375000, 97776.296875, 149530.843750, 0, 1, 1, 0, 1,0.0,0.0,0.0,0.0,0.0, 12:58:42.137
77174.023438, 98272.210938, 187500.015625, 187500.015625, 120125.710938, 88891.585938, 97754.546875, 149410.828125, 0, 1, 1, 0, 1,0.0,0.0,0.0,0.0,0.0, 12:58:42.138
77211.234375, 98322.125000, 187500.015625, 187500.015625, 120141.828125, 88829.140625, 97711.007813, 149448.046875, 0, 1, 1, 0, 1,0.0,0.0,0.0,0.0,0.0, 12:58:42.138
77369.351563, 98483.570313, 187500.015625, 187500.015625, 120292.414063, 88772.226563, 97757.046875, 149613.781250, 0, 1, 1, 0, 1,0.0,0.0,0.0,0.0,0.0, 12:58:42.138
77338.195313, 98444.320313, 187500.015625, 187500.015625, 120280.921875, 88831.437500, 97805.617188, 149581.265625, 0, 1, 1, 0, 1,0.0,0.0,0.0,0.0,0.0, 12:58:42.138
77172.656250, 98260.921875, 187500.015625, 187500.015625, 120124.554688, 88898.648438, 97756.867188, 149422.187500, 0, 1, 1, 0, 1,0.0,0.0,0.0,0.0,0.0, 12:58:42.138
77155.109375, 98251.000000, 187500.015625, 187500.015625, 120091.492188, 88852.468750, 97691.265625, 149405.265625, 0, 1, 1, 0, 1,0.0,0.0,0.0,0.0,0.0, 12:58:42.139
77310.257813, 98424.382813, 187500.015625, 187500.015625, 120234.476563, 88789.125000, 97725.554688, 149563.781250, 0, 1, 1, 0, 1,0.0,0.0,0.0,0.0,0.0, 12:58:42.139
77334.375000, 98435.914063, 187500.015625, 187500.015625, 120278.218750, 88831.101563, 97792.054688, 149593.828125, 0, 1, 1, 0, 1,0.0,0.0,0.0,0.0,0.0, 12:58:42.139
77206.632813, 98294.585938, 187500.015625, 187500.015625, 120161.609375, 88930.414063, 97787.804688, 149460.796875, 0, 1, 1, 0, 1,0.0,0.0,0.0,0.0,0.0, 12:58:42.139
77170.710938, 98274.023438, 187500.015625, 187500.015625, 120094.710938, 88914.500000, 97719.742188, 149412.875000, 0, 1, 1, 0, 1,0.0,0.0,0.0,0.0,0.0, 12:58:42.139
77308.398438, 98418.234375, 187500.015625, 187500.015625, 120205.867188, 88809.937500, 97715.046875, 149548.156250, 0, 1, 1, 0, 1,0.0,0.0,0.0,0.0,0.0, 12:58:42.140
77361.593750, 98465.132813, 187500.015625, 187500.015625, 120273.328125, 88816.265625, 97784.093750, 149599.234375, 0, 1, 1, 0, 1,0.0,0.0,0.0,0.0,0.0, 12:58:42.140
77234.906250, 98332.562500, 187500.015625, 187500.015625, 120169.210938, 88929.562500, 97801.039063, 149487.609375, 0, 1, 1, 0, 1,0.0,0.0,0.0,0.0,0.0, 12:58:42.140
77166.984375, 98263.296875, 187500.015625, 187500.015625, 120084.070313, 88930.593750, 97737.539063, 149413.265625, 0, 1, 1, 0, 1,0.0,0.0,0.0,0.0,0.0, 12:58:42.140
77276.953125, 98386.656250, 187500.015625, 187500.015625, 120174.328125, 88831.796875, 97717.171875, 149520.531250, 0, 1, 1, 0, 1,0.0,0.0,0.0,0.0,0.0, 12:58:42.140
77339.070313, 98434.601563, 187500.015625, 187500.015625, 120247.421875, 88790.023438, 97757.273438, 149582.609375, 0, 1, 1, 0, 1,0.0,0.0,0.0,0.0,0.0, 12:58:42.140
77268.968750, 98364.593750, 187500.015625, 187500.015625, 120190.960938, 88905.710938, 97810.515625, 149504.953125, 0, 1, 1, 0, 1,0.0,0.0,0.0,0.0,0.0, 12:58:42.141
77181.421875, 98281.039063, 187500.015625, 187500.015625, 120099.984375, 88947.687500, 97773.078125, 149414.796875, 0, 1, 1, 0, 1,0.0,0.0,0.0,0.0,0.0, 12:58:42.141
77228.445313, 98323.820313, 187500.015625, 187500.015625, 120130.453125, 88844.625000, 97710.445313, 149466.765625, 0, 1, 1, 0, 1,0.0,0.0,0.0,0.0,0.0, 12:58:42.141
77336.500000, 98431.867188, 187500.015625, 187500.015625, 120238.609375, 88789.101563, 97757.117188, 149574.453125, 0, 1, 1, 0, 1,0.0,0.0,0.0,0.0,0.0, 12:58:42.141
77272.703125, 98362.578125, 187500.015625, 187500.015625, 120194.960938, 88868.523438, 97807.585938, 149505.046875, 0, 1, 1, 0, 1,0.0,0.0,0.0,0.0,0.0, 12:58:42.141
77161.414063, 98256.164063, 187500.015625, 187500.015625, 120080.585938, 88929.007813, 97771.937500, 149393.171875, 0, 1, 1, 0, 1,0.0,0.0,0.0,0.0,0.0, 12:58:42.141
77212.710938, 98312.398438, 187500.015625, 187500.015625, 120106.085938, 88850.101563, 97716.500000, 149443.375000, 0, 1, 1, 0, 1,0.0,0.0,0.0,0.0,0.0, 12:58:42.141
77351.000000, 98452.031250, 187500.015625, 187500.015625, 120243.976563, 88803.031250, 97765.320313, 149590.468750, 0, 1, 1, 0, 1,0.0,0.0,0.0,0.0,0.0, 12:58:42.142
77301.804688, 98400.179688, 187500.015625, 187500.015625, 120227.257813, 88869.054688, 97828.640625, 149544.390625, 0, 1, 1, 0, 1,0.0,0.0,0.0,0.0,0.0, 12:58:42.142
77176.414063, 98269.039063, 187500.015625, 187500.015625, 120105.218750, 88925.562500, 97803.539063, 149411.484375, 0, 1, 1, 0, 1,0.0,0.0,0.0,0.0,0.0, 12:58:42.142
77192.015625, 98293.734375, 187500.015625, 187500.015625, 120093.976563, 88863.132813, 97735.656250, 149422.484375, 0, 1, 1, 0, 1,0.0,0.0,0.0,0.0,0.0, 12:58:42.142
77327.578125, 98433.703125, 187500.015625, 187500.015625, 120222.562500, 88791.296875, 97762.546875, 149569.437500, 0, 1, 1, 0, 1,0.0,0.0,0.0,0.0,0.0, 12:58:42.142
77306.921875, 98411.171875, 187500.015625, 187500.015625, 120228.085938, 88838.546875, 97822.945313, 149558.109375, 0, 1, 1, 0, 1,0.0,0.0,0.0,0.0,0.0, 12:58:42.142
77182.492188, 98289.539063, 187500.015625, 187500.015625, 120114.984375, 88922.609375, 97813.265625, 149434.015625, 0, 1, 1, 0, 1,0.0,0.0,0.0,0.0,0.0, 12:58:42.143
77176.750000, 98284.437500, 187500.015625, 187500.015625, 120080.429688, 88887.093750, 97753.609375, 149418.765625, 0, 1, 1, 0, 1,0.0,0.0,0.0,0.0,0.0, 12:58:42.143
77304.648438, 98413.992188, 187500.015625, 187500.015625, 120187.023438, 88795.789063, 97754.812500, 149551.265625, 0, 1, 1, 0, 1,0.0,0.0,0.0,0.0,0.0, 12:58:42.143
77335.828125, 98443.335938, 187500.015625, 187500.015625, 120239.710938, 88824.578125, 97819.570313, 149580.468750, 0, 1, 1, 0, 1,0.0,0.0,0.0,0.0,0.0, 12:58:42.143
77211.351563, 98318.968750, 187500.015625, 187500.015625, 120127.320313, 88925.164063, 97815.406250, 149453.062500, 0, 1, 1, 0, 1,0.0,0.0,0.0,0.0,0.0, 12:58:42.143
77169.398438, 98280.148438, 187500.015625, 187500.015625, 120061.632813, 88909.242188, 97748.109375, 149400.781250, 0, 1, 1, 0, 1,0.0,0.0,0.0,0.0,0.0, 12:58:42.143
77300.062500, 98412.382813, 187500.015625, 187500.015625, 120169.835938, 88809.671875, 97735.031250, 149522.281250, 0, 1, 1, 0, 1,0.0,0.0,0.0,0.0,0.0, 12:58:42.143
77373.000000, 98483.015625, 187500.015625, 187500.015625, 120262.195313, 88818.609375, 97810.671875, 149599.343750, 0, 1, 1, 0, 1,0.0,0.0,0.0,0.0,0.0, 12:58:42.144
77246.195313, 98354.085938, 187500.015625, 187500.015625, 120157.406250, 88917.742188, 97827.343750, 149473.531250, 0, 1, 1, 0, 1,0.0,0.0,0.0,0.0,0.0, 12:58:42.144
77158.351563, 98266.734375, 187500.015625, 187500.015625, 120057.765625, 88922.921875, 97764.648438, 149385.156250, 0, 1, 1, 0, 1,0.0,0.0,0.0,0.0,0.0, 12:58:42.144
77253.351563, 98367.609375, 187500.015625, 187500.015625, 120133.000000, 88819.015625, 97729.289063, 149480.296875, 0, 1, 1, 0, 1,0.0,0.0,0.0,0.0,0.0, 12:58:42.144
77362.226563, 98473.156250, 187500.015625, 187500.015625, 120241.117188, 88795.812500, 97788.390625, 149590.343750, 0, 1, 1, 0, 1,0.0,0.0,0.0,0.0,0.0, 12:58:42.144
77286.007813, 98389.046875, 187500.015625, 187500.015625, 120188.031250, 88899.007813, 97836.218750, 149509.046875, 0, 1, 1, 0, 1,0.0,0.0,0.0,0.0,0.0, 12:58:42.145
77173.578125, 98279.453125, 187500.015625, 187500.015625, 120079.515625, 88933.164063, 97786.062500, 149396.390625, 0, 1, 1, 0, 1,0.0,0.0,0.0,0.0,0.0, 12:58:42.145
77225.679688, 98342.890625, 187500.015625, 187500.015625, 120105.125000, 88842.796875, 97736.773438, 149452.515625, 0, 1, 1, 0, 1,0.0,0.0,0.0,0.0,0.0, 12:58:42.145
77356.390625, 98479.476563, 187500.015625, 187500.015625, 120237.562500, 88795.898438, 97798.578125, 149585.156250, 0, 1, 1, 0, 1,0.0,0.0,0.0,0.0,0.0, 12:58:42.145
77306.343750, 98426.507813, 187500.015625, 187500.015625, 120215.703125, 88888.101563, 97860.406250, 149541.375000, 0, 1, 1, 0, 1,0.0,0.0,0.0,0.0,0.0, 12:58:42.145
77182.023438, 98300.085938, 187500.015625, 187500.015625, 120080.765625, 88948.585938, 97814.960938, 149414.390625, 0, 1, 1, 0, 1,0.0,0.0,0.0,0.0,0.0, 12:58:42.146
77230.773438, 98356.812500, 187500.015625, 187500.015625, 120105.867188, 88871.625000, 97769.859375, 149462.843750, 0, 1, 1, 0, 1,0.0,0.0,0.0,0.0,0.0, 12:58:42.146
77345.953125, 98477.226563, 187500.015625, 187500.015625, 120219.414063, 88798.898438, 97796.945313, 149589.015625, 0, 1, 1, 0, 1,0.0,0.0,0.0,0.0,0.0, 12:58:42.146
77324.023438, 98447.273438, 187500.015625, 187500.015625, 120217.085938, 88868.835938, 97860.601563, 149571.250000, 0, 1, 1, 0, 1,0.0,0.0,0.0,0.0,0.0, 12:58:42.146
77181.148438, 98299.390625, 187500.015625, 187500.015625, 120088.429688, 88944.250000, 97827.929688, 149412.125000, 0, 1, 1, 0, 1,0.0,0.0,0.0,0.0,0.0, 12:58:42.146
77201.406250, 98321.859375, 187500.015625, 187500.015625, 120084.562500, 88889.218750, 97776.296875, 149430.734375, 0, 1, 1, 0, 1,0.0,0.0,0.0,0.0,0.0, 12:58:42.146
77336.343750, 98465.937500, 187500.015625, 187500.015625, 120199.875000, 88803.765625, 97792.273438, 149571.671875, 0, 1, 1, 0, 1,0.0,0.0,0.0,0.0,0.0, 12:58:42.146
77352.882813, 98482.632813, 187500.015625, 187500.015625, 120250.796875, 88860.164063, 97874.734375, 149609.312500, 0, 1, 1, 0, 1,0.0,0.0,0.0,0.0,0.0, 12:58:42.147
77210.523438, 98335.578125, 187500.015625, 187500.015625, 120137.539063, 88959.625000, 97878.062500, 149480.500000, 0, 1, 1, 0, 1,0.0,0.0,0.0,0.0,0.0, 12:58:42.147
77168.476563, 98298.250000, 187500.015625, 187500.015625, 120076.117188, 88919.507813, 97797.507813, 149426.015625, 0, 1, 1, 0, 1,0.0,0.0,0.0,0.0,0.0, 12:58:42.147
77309.250000, 98447.179688, 187500.015625, 187500.015625, 120194.781250, 88824.085938, 97799.851563, 149564.609375, 0, 1, 1, 0, 1,0.0,0.0,0.0,0.0,0.0, 12:58:42.147
77351.203125, 98486.968750, 187500.015625, 187500.015625, 120251.617188, 88846.460938, 97864.093750, 149606.765625, 0, 1, 1, 0, 1,0.0,0.0,0.0,0.0,0.0, 12:58:42.147
77221.093750, 98350.914063, 187500.015625, 187500.015625, 120136.062500, 88941.273438, 97861.054688, 149468.703125, 0, 1, 1, 0, 1,0.0,0.0,0.0,0.0,0.0, 12:58:42.148
77157.906250, 98289.085938, 187500.015625, 187500.015625, 120055.328125, 88926.593750, 97791.695313, 149395.968750, 0, 1, 1, 0, 1,0.0,0.0,0.0,0.0,0.0, 12:58:42.148
77275.609375, 98416.226563, 187500.015625, 187500.015625, 120151.375000, 88828.109375, 97777.500000, 149515.781250, 0, 1, 1, 0, 1,0.0,0.0,0.0,0.0,0.0, 12:58:42.148
77356.656250, 98493.718750, 187500.015625, 187500.015625, 120242.281250, 88829.453125, 97856.421875, 149607.734375, 0, 1, 1, 0, 1,0.0,0.0,0.0,0.0,0.0, 12:58:42.148
77258.890625, 98392.132813, 187500.015625, 187500.015625, 120166.976563, 88932.085938, 97890.601563, 149507.171875, 0, 1, 1, 0, 1,0.0,0.0,0.0,0.0,0.0, 12:58:42.149
77156.453125, 98292.890625, 187500.015625, 187500.015625, 120063.664063, 88945.523438, 97820.484375, 149400.078125, 0, 1, 1, 0, 1,0.0,0.0,0.0,0.0,0.0, 12:58:42.149
77249.328125, 98391.390625, 187500.015625, 187500.015625, 120127.906250, 88845.250000, 97778.375000, 149488.156250, 0, 1, 1, 0, 1,0.0,0.0,0.0,0.0,0.0, 12:58:42.149
77357.867188, 98504.648438, 187500.015625, 187500.015625, 120222.296875, 88811.882813, 97824.820313, 149584.640625, 0, 1, 1, 0, 1,0.0,0.0,0.0,0.0,0.0, 12:58:42.149
77279.414063, 98419.804688, 187500.015625, 187500.015625, 120162.484375, 88906.812500, 97859.601563, 149511.390625, 0, 1, 1, 0, 1,0.0,0.0,0.0,0.0,0.0, 12:58:42.149
77157.976563, 98294.476563, 187500.015625, 187500.015625, 120048.218750, 88947.554688, 97812.484375, 149389.375000, 0, 1, 1, 0, 1,0.0,0.0,0.0,0.0,0.0, 12:58:42.149
77229.210938, 98372.304688, 187500.015625, 187500.015625, 120089.773438, 88862.601563, 97767.062500, 149455.921875, 0, 1, 1, 0, 1,0.0,0.0,0.0,0.0,0.0, 12:58:42.149
77349.484375, 98497.875000, 187500.015625, 187500.015625, 120214.117188, 88807.437500, 97808.414063, 149577.578125, 0, 1, 1, 0, 1,0.0,0.0,0.0,0.0,0.0, 12:58:42.150
77311.890625, 98450.937500, 187500.015625, 187500.015625, 120197.554688, 88888.593750, 97870.398438, 149537.046875, 0, 1, 1, 0, 1,0.0,0.0,0.0,0.0,0.0, 12:58:42.150
77180.664063, 98314.125000, 187500.015625, 187500.015625, 120075.398438, 88954.437500, 97838.789063, 149405.359375, 0, 1, 1, 0, 1,0.0,0.0,0.0,0.0,0.0, 12:58:42.150
77216.828125, 98357.929688, 187500.015625, 187500.015625, 120085.773438, 88881.195313, 97782.304688, 149430.968750, 0, 1, 1, 0, 1,0.0,0.0,0.0,0.0,0.0, 12:58:42.150
77343.359375, 98491.054688, 187500.015625, 187500.015625, 120198.203125, 88799.765625, 97793.328125, 149555.140625, 0, 1, 1, 0, 1,0.0,0.0,0.0,0.0,0.0, 12:58:42.150
77345.507813, 98490.429688, 187500.015625, 187500.015625, 120224.351563, 88865.656250, 97867.492188, 149564.953125, 0, 1, 1, 0, 1,0.0,0.0,0.0,0.0,0.0, 12:58:42.150
77201.000000, 98340.187500, 187500.015625, 187500.015625, 120096.679688, 88952.515625, 97844.132813, 149422.953125, 0, 1, 1, 0, 1,0.0,0.0,0.0,0.0,0.0, 12:58:42.150
77185.242188, 98330.015625, 187500.015625, 187500.015625, 120059.617188, 88896.953125, 97768.921875, 149404.843750, 0, 1, 1, 0, 1,0.0,0.0,0.0,0.0,0.0, 12:58:42.151
77340.765625, 98489.921875, 187500.015625, 187500.015625, 120195.179688, 88813.695313, 97795.539063, 149564.609375, 0, 1, 1, 0, 1,0.0,0.0,0.0,0.0,0.0, 12:58:42.151
77365.820313, 98511.156250, 187500.015625, 187500.015625, 120240.578125, 88861.054688, 97871.515625, 149594.359375, 0, 1, 1, 0, 1,0.0,0.0,0.0,0.0,0.0, 12:58:42.151
77236.515625, 98381.312500, 187500.015625, 187500.015625, 120131.703125, 88954.507813, 97869.882813, 149465.781250, 0, 1, 1, 0, 1,0.0,0.0,0.0,0.0,0.0, 12:58:42.151
77192.570313, 98340.742188, 187500.015625, 187500.015625, 120074.437500, 88927.398438, 97802.539063, 149424.953125, 0, 1, 1, 0, 1,0.0,0.0,0.0,0.0,0.0, 12:58:42.151
77319.734375, 98476.929688, 187500.015625, 187500.015625, 120191.585938, 88834.187500, 97803.203125, 149561.171875, 0, 1, 1, 0, 1,0.0,0.0,0.0,0.0,0.0, 12:58:42.152
77369.710938, 98524.070313, 187500.015625, 187500.015625, 120252.851563, 88847.648438, 97863.890625, 149608.953125, 0, 1, 1, 0, 1,0.0,0.0,0.0,0.0,0.0, 12:58:42.152
77245.031250, 98389.093750, 187500.015625, 187500.015625, 120144.023438, 88942.210938, 97867.757813, 149478.453125, 0, 1, 1, 0, 1,0.0,0.0,0.0,0.0,0.0, 12:58:42.152
77200.062500, 98345.703125, 187500.015625, 187500.015625, 120089.750000, 88946.531250, 97826.273438, 149432.578125, 0, 1, 1, 0, 1,0.0,0.0,0.0,0.0,0.0, 12:58:42.152
77290.359375, 98445.039063, 187500.015625, 187500.015625, 120163.531250, 88849.343750, 97794.843750, 149527.046875, 0, 1, 1, 0, 1,0.0,0.0,0.0,0.0,0.0, 12:58:42.152
77358.468750, 98513.210938, 187500.015625, 187500.015625, 120239.281250, 88832.867188, 97836.640625, 149603.937500, 0, 1, 1, 0, 1,0.0,0.0,0.0,0.0,0.0, 12:58:42.152
77264.773438, 98409.539063, 187500.015625, 187500.015625, 120171.000000, 88925.945313, 97864.023438, 149509.250000, 0, 1, 1, 0, 1,0.0,0.0,0.0,0.0,0.0, 12:58:42.153
77166.757813, 98309.515625, 187500.015625, 187500.015625, 120072.515625, 88950.351563, 97814.515625, 149410.515625, 0, 1, 1, 0, 1,0.0,0.0,0.0,0.0,0.0, 12:58:42.153
77261.531250, 98407.507813, 187500.015625, 187500.015625, 120142.921875, 88860.164063, 97785.679688, 149502.906250, 0, 1, 1, 0, 1,0.0,0.0,0.0,0.0,0.0, 12:58:42.153
77383.570313, 98531.421875, 187500.015625, 187500.015625, 120271.289063, 88826.546875, 97849.742188, 149624.500000, 0, 1, 1, 0, 1,0.0,0.0,0.0,0.0,0.0, 12:58:42.153
77308.218750, 98451.429688, 187500.015625, 187500.015625, 120221.132813, 88919.078125, 97883.875000, 149551.531250, 0, 1, 1, 0, 1,0.0,0.0,0.0,0.0,0.0, 12:58:42.153
77185.625000, 98328.250000, 187500.015625, 187500.015625, 120104.882813, 88963.648438, 97833.984375, 149424.953125, 0, 1, 1, 0, 1,0.0,0.0,0.0,0.0,0.0, 12:58:42.154
77264.101563, 98413.656250, 187500.015625, 187500.015625, 120157.968750, 88882.085938, 97794.375000, 149495.531250, 0, 1, 1, 0, 1,0.0,0.0,0.0,0.0,0.0, 12:58:42.154
77390.718750, 98540.921875, 187500.015625, 187500.015625, 120282.335938, 88825.406250, 97836.554688, 149627.218750, 0, 1, 1, 0, 1,0.0,0.0,0.0,0.0,0.0, 12:58:42.154
77340.093750, 98484.710938, 187500.015625, 187500.015625, 120249.609375, 88896.414063, 97880.382813, 149575.046875, 0, 1, 1, 0, 1,0.0,0.0,0.0,0.0,0.0, 12:58:42.154
77214.523438, 98355.562500, 187500.015625, 187500.015625, 120129.601563, 88967.609375, 97846.257813, 149447.843750, 0, 1, 1, 0, 1,0.0,0.0,0.0,0.0,0.0, 12:58:42.154
77235.156250, 98381.867188, 187500.015625, 187500.015625, 120133.515625, 88903.031250, 97786.351563, 149476.062500, 0, 1, 1, 0, 1,0.0,0.0,0.0,0.0,0.0, 12:58:42.154
77359.187500, 98514.773438, 187500.015625, 187500.015625, 120257.945313, 88828.109375, 97808.906250, 149618.812500, 0, 1, 1, 0, 1,0.0,0.0,0.0,0.0,0.0, 12:58:42.155
77347.250000, 98501.992188, 187500.015625, 187500.015625, 120274.937500, 88878.804688, 97869.234375, 149608.890625, 0, 1, 1, 0, 1,0.0,0.0,0.0,0.0,0.0, 12:58:42.155
77233.187500, 98375.414063, 187500.015625, 187500.015625, 120178.195313, 88965.351563, 97869.632813, 149482.343750, 0, 1, 1, 0, 1,0.0,0.0,0.0,0.0,0.0, 12:58:42.155
77225.562500, 98362.109375, 187500.015625, 187500.015625, 120132.843750, 88922.140625, 97793.593750, 149458.156250, 0, 1, 1, 0, 1,0.0,0.0,0.0,0.0,0.0, 12:58:42.155
77372.507813, 98511.265625, 187500.015625, 187500.015625, 120255.781250, 88829.539063, 97788.226563, 149601.828125, 0, 1, 1, 0, 1,0.0,0.0,0.0,0.0,0.0, 12:58:42.155
77402.656250, 98537.843750, 187500.015625, 187500.015625, 120309.351563, 88861.078125, 97857.632813, 149627.062500, 0, 1, 1, 0, 1,0.0,0.0,0.0,0.0,0.0, 12:58:42.155
77272.796875, 98402.570313, 187500.015625, 187500.015625, 120200.343750, 88956.835938, 97861.968750, 149498.906250, 0, 1, 1, 0, 1,0.0,0.0,0.0,0.0,0.0, 12:58:42.155
77219.148438, 98352.945313, 187500.015625, 187500.015625, 120135.257813, 88942.953125, 97800.367188, 149458.531250, 0, 1, 1, 0, 1,0.0,0.0,0.0,0.0,0.0, 12:58:42.156
77340.367188, 98484.710938, 187500.015625, 187500.015625, 120240.195313, 88848.851563, 97797.687500, 149591.531250, 0, 1, 1, 0, 1,0.0,0.0,0.0,0.0,0.0, 12:58:42.156
77406.476563, 98552.679688, 187500.015625, 187500.015625, 120324.062500, 88853.945313, 97863.156250, 149650.593750, 0, 1, 1, 0, 1,0.0,0.0,0.0,0.0,0.0, 12:58:42.156
77287.882813, 98426.882813, 187500.015625, 187500.015625, 120224.375000, 88946.101563, 97871.179688, 149520.140625, 0, 1, 1, 0, 1,0.0,0.0,0.0,0.0,0.0, 12:58:42.156
77212.625000, 98351.335938, 187500.015625, 187500.015625, 120143.664063, 88946.218750, 97813.062500, 149438.437500, 0, 1, 1, 0, 1,0.0,0.0,0.0,0.0,0.0, 12:58:42.156
77314.632813, 98461.039063, 187500.015625, 187500.015625, 120218.492188, 88848.828125, 97779.960938, 149544.343750, 0, 1, 1, 0, 1,0.0,0.0,0.0,0.0,0.0, 12:58:42.156
77407.976563, 98551.273438, 187500.015625, 187500.015625, 120322.500000, 88833.656250, 97838.476563, 149645.812500, 0, 1, 1, 0, 1,0.0,0.0,0.0,0.0,0.0, 12:58:42.156
77314.835938, 98448.859375, 187500.015625, 187500.015625, 120255.867188, 88930.320313, 97871.625000, 149553.859375, 0, 1, 1, 0, 1,0.0,0.0,0.0,0.0,0.0, 12:58:42.157
77209.898438, 98346.601563, 187500.015625, 187500.015625, 120156.804688, 88962.820313, 97827.859375, 149454.062500, 0, 1, 1, 0, 1,0.0,0.0,0.0,0.0,0.0, 12:58:42.157
77274.984375, 98421.296875, 187500.015625, 187500.015625, 120199.453125, 88870.242188, 97779.671875, 149520.531250, 0, 1, 1, 0, 1,0.0,0.0,0.0,0.0,0.0, 12:58:42.157
77411.617188, 98560.750000, 187500.015625, 187500.015625, 120327.531250, 88830.273438, 97835.460938, 149654.312500, 0, 1, 1, 0, 1,0.0,0.0,0.0,0.0,0.0, 12:58:42.157
77357.195313, 98498.726563, 187500.015625, 187500.015625, 120295.500000, 88921.695313, 97882.171875, 149599.968750, 0, 1, 1, 0, 1,0.0,0.0,0.0,0.0,0.0, 12:58:42.158
77239.398438, 98378.382813, 187500.015625, 187500.015625, 120181.773438, 88978.242188, 97846.007813, 149479.906250, 0, 1, 1, 0, 1,0.0,0.0,0.0,0.0,0.0, 12:58:42.158
77288.062500, 98435.984375, 187500.015625, 187500.015625, 120210.445313, 88901.984375, 97799.765625, 149529.968750, 0, 1, 1, 0, 1,0.0,0.0,0.0,0.0,0.0, 12:58:42.158
77404.757813, 98553.937500, 187500.015625, 187500.015625, 120326.679688, 88835.148438, 97825.289063, 149651.156250, 0, 1, 1, 0, 1,0.030654054,0.07934557,0.06887188,0.111194775,0.1028535, 12:58:42.620
77384.507813, 98526.062500, 187500.015625, 187500.015625, 120327.531250, 88906.320313, 97887.515625, 149628.078125, 0, 1, 1, 0, 1,0.030654054,0.07934557,0.06887188,0.111194775,0.1028535, 12:58:42.621
77255.765625, 98389.359375, 187500.015625, 187500.015625, 120208.976563, 88986.226563, 97869.906250, 149503.484375, 0, 1, 1, 0, 1,0.030654054,0.07934557,0.06887188,0.111194775,0.1028535, 12:58:42.621
77266.312500, 98399.640625, 187500.015625, 187500.015625, 120202.960938, 88929.585938, 97813.867188, 149517.906250, 0, 1, 1, 0, 1,0.030654054,0.07934557,0.06887188,0.111194775,0.1028535, 12:58:42.621
77394.546875, 98534.328125, 187500.015625, 187500.015625, 120318.742188, 88848.070313, 97824.460938, 149650.437500, 0, 1, 1, 0, 1,0.030654054,0.07934557,0.06887188,0.111194775,0.1028535, 12:58:42.621
77392.242188, 98529.570313, 187500.015625, 187500.015625, 120337.382813, 88894.625000, 97884.343750, 149651.312500, 0, 1, 1, 0, 1,0.030654054,0.07934557,0.06887188,0.111194775,0.1028535, 12:58:42.622
77255.539063, 98388.148438, 187500.015625, 187500.015625, 120218.164063, 88982.875000, 97872.609375, 149515.703125, 0, 1, 1, 0, 1,0.030654054,0.07934557,0.06887188,0.111194775,0.1028535, 12:58:42.622
77224.406250, 98361.750000, 187500.015625, 187500.015625, 120170.882813, 88942.484375, 97803.343750, 149482.875000, 0, 1, 1, 0, 1,0.030654054,0.07934557,0.06887188,0.111194775,0.1028535, 12:58:42.622
77358.804688, 98505.453125, 187500.015625, 187500.015625, 120291.164063, 88848.117188, 97804.031250, 149617.968750, 0, 1, 1, 0, 1,0.030654054,0.07934557,0.06887188,0.111194775,0.1028535, 12:58:42.622
77400.421875, 98545.304688, 187500.015625, 187500.015625, 120350.507813, 88873.304688, 97870.507813, 149659.312500, 0, 1, 1, 0, 1,0.030654054,0.07934557,0.06887188,0.111194775,0.1028535, 12:58:42.623
77294.031250, 98432.968750, 187500.015625, 187500.015625, 120264.648438, 88979.140625, 97889.710938, 149553.890625, 0, 1, 1, 0, 1,0.030654054,0.07934557,0.06887188,0.111194775,0.1028535, 12:58:42.623
77233.546875, 98374.312500, 187500.015625, 187500.015625, 120192.609375, 88971.695313, 97825.289063, 149500.734375, 0, 1, 1, 0, 1,0.030654054,0.07934557,0.06887188,0.111194775,0.1028535, 12:58:42.623
77354.492188, 98503.914063, 187500.015625, 187500.015625, 120287.671875, 88877.328125, 97806.468750, 149622.921875, 0, 1, 1, 0, 1,0.030654054,0.07934557,0.06887188,0.111194775,0.1028535, 12:58:42.623
77415.664063, 98561.984375, 187500.015625, 187500.015625, 120364.187500, 88870.468750, 97860.718750, 149672.625000, 0, 1, 1, 0, 1,0.030654054,0.07934557,0.06887188,0.111194775,0.1028535, 12:58:42.623
77310.546875, 98451.476563, 187500.015625, 187500.015625, 120280.078125, 88974.218750, 97889.281250, 149574.671875, 0, 1, 1, 0, 1,0.030654054,0.07934557,0.06887188,0.111194775,0.1028535, 12:58:42.623
77210.789063, 98348.523438, 187500.015625, 187500.015625, 120165.078125, 88984.460938, 97815.187500, 149465.546875, 0, 1, 1, 0, 1,0.030654054,0.07934557,0.06887188,0.111194775,0.1028535, 12:58:42.624
77311.125000, 98457.218750, 187500.015625, 187500.015625, 120238.859375, 88883.656250, 97781.835938, 149566.203125, 0, 1, 1, 0, 1,0.030654054,0.07934557,0.06887188,0.111194775,0.1028535, 12:58:42.624
77427.984375, 98577.093750, 187500.015625, 187500.015625, 120358.125000, 88861.906250, 97846.750000, 149683.640625, 0, 1, 1, 0, 1,0.030654054,0.07934557,0.06887188,0.111194775,0.1028535, 12:58:42.624
77340.921875, 98480.890625, 187500.015625, 187500.015625, 120293.265625, 88953.726563, 97877.328125, 149591.687500, 0, 1, 1, 0, 1,0.030654054,0.07934557,0.06887188,0.111194775,0.1028535, 12:58:42.625
77223.867188, 98363.515625, 187500.015625, 187500.015625, 120178.421875, 88992.710938, 97825.062500, 149475.546875, 0, 1, 1, 0, 1,0.030654054,0.07934557,0.06887188,0.111194775,0.1028535, 12:58:42.625
77281.867188, 98431.890625, 187500.015625, 187500.015625, 120215.859375, 88904.554688, 97780.476563, 149535.953125, 0, 1, 1, 0, 1,0.030654054,0.07934557,0.06887188,0.111194775,0.1028535, 12:58:42.626
77396.375000, 98549.242188, 187500.015625, 187500.015625, 120327.531250, 88845.812500, 97812.835938, 149644.140625, 0, 1, 1, 0, 1,0.030654054,0.07934557,0.06887188,0.111194775,0.1028535, 12:58:42.626
77348.812500, 98494.609375, 187500.015625, 187500.015625, 120301.976563, 88925.812500, 97865.523438, 149595.390625, 0, 1, 1, 0, 1,0.030654054,0.07934557,0.06887188,0.111194775,0.1028535, 12:58:42.626
77226.679688, 98369.289063, 187500.015625, 187500.015625, 120182.601563, 88982.937500, 97826.406250, 149472.078125, 0, 1, 1, 0, 1,0.030654054,0.07934557,0.06887188,0.111194775,0.1028535, 12:58:42.626
77271.140625, 98421.414063, 187500.015625, 187500.015625, 120208.773438, 88916.507813, 97787.695313, 149524.984375, 0, 1, 1, 0, 1,0.030654054,0.07934557,0.06887188,0.111194775,0.1028535, 12:58:42.627
77391.593750, 98547.406250, 187500.015625, 187500.015625, 120328.109375, 88847.265625, 97816.171875, 149643.843750, 0, 1, 1, 0, 1,0.030654054,0.07934557,0.06887188,0.111194775,0.1028535, 12:58:42.627
77361.218750, 98512.875000, 187500.015625, 187500.015625, 120314.500000, 88897.625000, 97856.671875, 149600.750000, 0, 1, 1, 0, 1,0.030654054,0.07934557,0.06887188,0.111194775,0.1028535, 12:58:42.627
77244.632813, 98392.625000, 187500.015625, 187500.015625, 120208.437500, 88977.710938, 97843.976563, 149485.421875, 0, 1, 1, 0, 1,0.030654054,0.07934557,0.06887188,0.111194775,0.1028535, 12:58:42.627
77245.882813, 98397.492188, 187500.015625, 187500.015625, 120186.937500, 88929.898438, 97783.023438, 149483.281250, 0, 1, 1, 0, 1,0.030654054,0.07934557,0.06887188,0.111194775,0.1028535, 12:58:42.627
77381.554688, 98541.843750, 187500.015625, 187500.015625, 120307.054688, 88851.625000, 97798.312500, 149625.140625, 0, 1, 1, 0, 1,0.030654054,0.07934557,0.06887188,0.111194775,0.1028535, 12:58:42.628
77392.578125, 98548.906250, 187500.015625, 187500.015625, 120335.710938, 88892.859375, 97860.781250, 149640.546875, 0, 1, 1, 0, 1,0.030654054,0.07934557,0.06887188,0.111194775,0.1028535, 12:58:42.628
77257.484375, 98407.015625, 187500.015625, 187500.015625, 120217.710938, 88982.406250, 97851.085938, 149506.984375, 0, 1, 1, 0, 1,0.030654054,0.07934557,0.06887188,0.111194775,0.1028535, 12:58:42.628
77225.656250, 98377.289063, 187500.015625, 187500.015625, 120162.054688, 88945.835938, 97780.203125, 149466.765625, 0, 1, 1, 0, 1,0.030654054,0.07934557,0.06887188,0.111194775,0.1028535, 12:58:42.628
77356.632813, 98514.726563, 187500.015625, 187500.015625, 120275.562500, 88853.140625, 97781.812500, 149603.843750, 0, 1, 1, 0, 1,0.030654054,0.07934557,0.06887188,0.111194775,0.1028535, 12:58:42.628
77412.312500, 98569.335938, 187500.015625, 187500.015625, 120344.695313, 88871.226563, 97846.546875, 149652.812500, 0, 1, 1, 0, 1,0.030654054,0.07934557,0.06887188,0.111194775,0.1028535, 12:58:42.629
77303.593750, 98453.085938, 187500.015625, 187500.015625, 120251.617188, 88973.375000, 97865.585938, 149541.593750, 0, 1, 1, 0, 1,0.030654054,0.07934557,0.06887188,0.111194775,0.1028535, 12:58:42.629
77237.078125, 98386.875000, 187500.015625, 187500.015625, 120173.140625, 88971.046875, 97808.343750, 149474.406250, 0, 1, 1, 0, 1,0.030654054,0.07934557,0.06887188,0.111194775,0.1028535, 12:58:42.629
77337.437500, 98497.250000, 187500.015625, 187500.015625, 120259.468750, 88873.171875, 97784.164063, 149577.046875, 0, 1, 1, 0, 1,0.030654054,0.07934557,0.06887188,0.111194775,0.1028535, 12:58:42.629
77406.148438, 98567.773438, 187500.015625, 187500.015625, 120338.656250, 88861.054688, 97831.703125, 149650.203125, 0, 1, 1, 0, 1,0.030654054,0.07934557,0.06887188,0.111194775,0.1028535, 12:58:42.629
77313.851563, 98469.914063, 187500.015625, 187500.015625, 120267.046875, 88960.609375, 97861.093750, 149559.671875, 0, 1, 1, 0, 1,0.030654054,0.07934557,0.06887188,0.111194775,0.1028535, 12:58:42.629
77224.695313, 98382.117188, 187500.015625, 187500.015625, 120174.750000, 88981.484375, 97807.898438, 149468.093750, 0, 1, 1, 0, 1,0.030654054,0.07934557,0.06887188,0.111194775,0.1028535, 12:58:42.630
77311.820313, 98478.070313, 187500.015625, 187500.015625, 120242.367188, 88884.593750, 97772.945313, 149549.843750, 0, 1, 1, 0, 1,0.030654054,0.07934557,0.06887188,0.111194775,0.1028535, 12:58:42.630
77409.187500, 98574.296875, 187500.015625, 187500.015625, 120340.265625, 88848.000000, 97817.687500, 149645.906250, 0, 1, 1, 0, 1,0.030654054,0.07934557,0.06887188,0.111194775,0.1028535, 12:58:42.630
77328.875000, 98487.796875, 187500.015625, 187500.015625, 120284.164063, 88934.257813, 97858.484375, 149574.921875, 0, 1, 1, 0, 1,0.030654054,0.07934557,0.06887188,0.111194775,0.1028535, 12:58:42.630
77230.390625, 98387.703125, 187500.015625, 187500.015625, 120186.132813, 88985.507813, 97826.875000, 149476.765625, 0, 1, 1, 0, 1,0.030654054,0.07934557,0.06887188,0.111194775,0.1028535, 12:58:42.630
77297.179688, 98461.421875, 187500.015625, 187500.015625, 120230.718750, 88904.664063, 97784.203125, 149530.750000, 0, 1, 1, 0, 1,0.030654054,0.07934557,0.06887188,0.111194775,0.1028535, 12:58:42.631
77408.984375, 98575.976563, 187500.015625, 187500.015625, 120341.921875, 88846.054688, 97819.585938, 149645.390625, 0, 1, 1, 0, 1,0.030654054,0.07934557,0.06887188,0.111194775,0.1028535, 12:58:42.631
77362.781250, 98523.179688, 187500.015625, 187500.015625, 120311.187500, 88917.046875, 97859.312500, 149597.218750, 0, 1, 1, 0, 1,0.030654054,0.07934557,0.06887188,0.111194775,0.1028535, 12:58:42.631
77240.968750, 98399.039063, 187500.015625, 187500.015625, 120194.289063, 88985.218750, 97829.179688, 149475.031250, 0, 1, 1, 0, 1,0.030654054,0.07934557,0.06887188,0.111194775,0.1028535, 12:58:42.631
77270.804688, 98430.867188, 187500.015625, 187500.015625, 120203.695313, 88920.843750, 97779.062500, 149502.234375, 0, 1, 1, 0, 1,0.030654054,0.07934557,0.06887188,0.111194775,0.1028535, 12:58:42.631
77402.882813, 98567.812500, 187500.015625, 187500.015625, 120330.859375, 88844.156250, 97810.406250, 149633.531250, 0, 1, 1, 0, 1,0.030654054,0.07934557,0.06887188,0.111194775,0.1028535, 12:58:42.631
77377.375000, 98540.882813, 187500.015625, 187500.015625, 120327.750000, 88898.671875, 97863.757813, 149614.453125, 0, 1, 1, 0, 1,0.030654054,0.07934557,0.06887188,0.111194775,0.1028535, 12:58:42.632
77244.359375, 98404.648438, 187500.015625, 187500.015625, 120200.656250, 88980.617188, 97834.765625, 149482.671875, 0, 1, 1, 0, 1,0.030654054,0.07934557,0.06887188,0.111194775,0.1028535, 12:58:42.632
77255.515625, 98419.484375, 187500.015625, 187500.015625, 120186.000000, 88939.062500, 97777.320313, 149487.968750, 0, 1, 1, 0, 1,0.030654054,0.07934557,0.06887188,0.111194775,0.1028535, 12:58:42.633
77405.968750, 98577.312500, 187500.015625, 187500.015625, 120320.937500, 88855.828125, 97797.867188, 149633.718750, 0, 1, 1, 0, 1,0.030654054,0.07934557,0.06887188,0.111194775,0.1028535, 12:58:42.633
77410.593750, 98578.187500, 187500.015625, 187500.015625, 120350.015625, 88887.945313, 97855.757813, 149641.125000, 0, 1, 1, 0, 1,0.030654054,0.07934557,0.06887188,0.111194775,0.1028535, 12:58:42.633
77255.609375, 98418.078125, 187500.015625, 187500.015625, 120214.000000, 88975.343750, 97839.437500, 149491.812500, 0, 1, 1, 0, 1,0.030654054,0.07934557,0.06887188,0.111194775,0.1028535, 12:58:42.633
77226.617188, 98393.070313, 187500.015625, 187500.015625, 120172.382813, 88955.695313, 97785.726563, 149469.218750, 0, 1, 1, 0, 1,0.030654054,0.07934557,0.06887188,0.111194775,0.1028535, 12:58:42.633
77357.734375, 98530.976563, 187500.015625, 187500.015625, 120287.562500, 88864.898438, 97786.976563, 149603.343750, 0, 1, 1, 0, 1,0.030654054,0.07934557,0.06887188,0.111194775,0.1028535, 12:58:42.633
77419.625000, 98587.906250, 187500.015625, 187500.015625, 120359.359375, 88880.617188, 97857.546875, 149665.359375, 0, 1, 1, 0, 1,0.030654054,0.07934557,0.06887188,0.111194775,0.1028535, 12:58:42.634
77313.718750, 98474.671875, 187500.015625, 187500.015625, 120273.304688, 88981.664063, 97875.671875, 149559.578125, 0, 1, 1, 0, 1,0.030654054,0.07934557,0.06887188,0.111194775,0.1028535, 12:58:42.634
77244.585938, 98406.992188, 187500.015625, 187500.015625, 120191.023438, 88987.632813, 97811.875000, 149486.515625, 0, 1, 1, 0, 1,0.030654054,0.07934557,0.06887188,0.111194775,0.1028535, 12:58:42.634
77347.898438, 98517.968750, 187500.015625, 187500.015625, 120270.757813, 88888.703125, 97781.164063, 149581.250000, 0, 1, 1, 0, 1,0.030654054,0.07934557,0.06887188,0.111194775,0.1028535, 12:58:42.634
77419.554688, 98589.562500, 187500.015625, 187500.015625, 120354.953125, 88866.328125, 97829.648438, 149653.734375, 0, 1, 1, 0, 1,0.030654054,0.07934557,0.06887188,0.111194775,0.1028535, 12:58:42.634
77325.476563, 98490.296875, 187500.015625, 187500.015625, 120286.156250, 88959.312500, 97862.843750, 149568.531250, 0, 1, 1, 0, 1,0.030654054,0.07934557,0.06887188,0.111194775,0.1028535, 12:58:42.634
77226.992188, 98391.992188, 187500.015625, 187500.015625, 120184.367188, 88987.546875, 97817.000000, 149476.093750, 0, 1, 1, 0, 1,0.030654054,0.07934557,0.06887188,0.111194775,0.1028535, 12:58:42.635
77310.187500, 98482.656250, 187500.015625, 187500.015625, 120242.750000, 88893.976563, 97778.906250, 149551.406250, 0, 1, 1, 0, 1,0.030654054,0.07934557,0.06887188,0.111194775,0.1028535, 12:58:42.635
77421.117188, 98593.671875, 187500.015625, 187500.015625, 120359.960938, 88861.835938, 97834.476563, 149674.312500, 0, 1, 1, 0, 1,0.030654054,0.07934557,0.06887188,0.111194775,0.1028535, 12:58:42.635
77342.507813, 98511.289063, 187500.015625, 187500.015625, 120308.640625, 88951.203125, 97873.367188, 149606.859375, 0, 1, 1, 0, 1,0.030654054,0.07934557,0.06887188,0.111194775,0.1028535, 12:58:42.635
77222.148438, 98386.656250, 187500.015625, 187500.015625, 120188.476563, 88999.882813, 97829.046875, 149474.156250, 0, 1, 1, 0, 1,0.030654054,0.07934557,0.06887188,0.111194775,0.1028535, 12:58:42.635
77283.117188, 98455.226563, 187500.015625, 187500.015625, 120227.054688, 88919.531250, 97784.117188, 149527.906250, 0, 1, 1, 0, 1,0.030654054,0.07934557,0.06887188,0.111194775,0.1028535, 12:58:42.635
77416.492188, 98588.195313, 187500.015625, 187500.015625, 120355.242188, 88859.492188, 97823.609375, 149658.875000, 0, 1, 1, 0, 1,0.030654054,0.07934557,0.06887188,0.111194775,0.1028535, 12:58:42.636
77373.843750, 98537.820313, 187500.015625, 187500.015625, 120334.726563, 88927.773438, 97873.007813, 149616.375000, 0, 1, 1, 0, 1,0.030654054,0.07934557,0.06887188,0.111194775,0.1028535, 12:58:42.636
77248.187500, 98409.359375, 187500.015625, 187500.015625, 120216.640625, 88999.437500, 97848.062500, 149490.390625, 0, 1, 1, 0, 1,0.030654054,0.07934557,0.06887188,0.111194775,0.1028535, 12:58:42.636
77256.992188, 98422.882813, 187500.015625, 187500.015625, 120198.601563, 88937.992188, 97778.015625, 149498.671875, 0, 1, 1, 0, 1,0.030654054,0.07934557,0.06887188,0.111194775,0.1028535, 12:58:42.636
77397.960938, 98569.695313, 187500.015625, 187500.015625, 120326.835938, 88860.203125, 97791.718750, 149643.140625, 0, 1, 1, 0, 1,0.030654054,0.07934557,0.06887188,0.111194775,0.1028535, 12:58:42.637
77406.304688, 98570.945313, 187500.015625, 187500.015625, 120353.343750, 88915.703125, 97857.812500, 149652.953125, 0, 1, 1, 0, 1,0.030654054,0.07934557,0.06887188,0.111194775,0.1028535, 12:58:42.637
77275.250000, 98434.640625, 187500.015625, 187500.015625, 120234.031250, 89003.054688, 97843.015625, 149521.656250, 0, 1, 1, 0, 1,0.030654054,0.07934557,0.06887188,0.111194775,0.1028535, 12:58:42.637
77255.445313, 98416.648438, 187500.015625, 187500.015625, 120198.242188, 88963.937500, 97782.820313, 149504.078125, 0, 1, 1, 0, 1,0.030654054,0.07934557,0.06887188,0.111194775,0.1028535, 12:58:42.637
77382.046875, 98551.812500, 187500.015625, 187500.015625, 120314.984375, 88868.875000, 97787.804688, 149629.140625, 0, 1, 1, 0, 1,0.030654054,0.07934557,0.06887188,0.111194775,0.1028535, 12:58:42.638
77416.804688, 98584.890625, 187500.015625, 187500.015625, 120363.265625, 88893.445313, 97853.203125, 149665.578125, 0, 1, 1, 0, 1,0.030654054,0.07934557,0.06887188,0.111194775,0.1028535, 12:58:42.639
77291.148438, 98453.257813, 187500.015625, 187500.015625, 120248.265625, 88983.523438, 97850.617188, 149528.625000, 0, 1, 1, 0, 1,0.030654054,0.07934557,0.06887188,0.111194775,0.1028535, 12:58:42.639
77241.906250, 98405.851563, 187500.015625, 187500.015625, 120186.015625, 88965.328125, 97784.992188, 149473.375000, 0, 1, 1, 0, 1,0.030654054,0.07934557,0.06887188,0.111194775,0.1028535, 12:58:42.639
77355.117188, 98527.781250, 187500.015625, 187500.015625, 120283.359375, 88870.132813, 97769.273438, 149589.406250, 0, 1, 1, 0, 1,0.030654054,0.07934557,0.06887188,0.111194775,0.1028535, 12:58:42.640
77413.476563, 98585.851563, 187500.015625, 187500.015625, 120356.960938, 88871.492188, 97830.718750, 149653.328125, 0, 1, 1, 0, 1,0.030654054,0.07934557,0.06887188,0.111194775,0.1028535, 12:58:42.641
77301.093750, 98464.953125, 187500.015625, 187500.015625, 120259.578125, 88961.367188, 97841.273438, 149530.187500, 0, 1, 1, 0, 1,0.030654054,0.07934557,0.06887188,0.111194775,0.1028535, 12:58:42.641
77232.179688, 98395.726563, 187500.015625, 187500.015625, 120181.101563, 88972.140625, 97791.492188, 149456.390625, 0, 1, 1, 0, 1,0.030654054,0.07934557,0.06887188,0.111194775,0.1028535, 12:58:42.641
77349.593750, 98519.734375, 187500.015625, 187500.015625, 120277.953125, 88885.734375, 97782.460938, 149578.890625, 0, 1, 1, 0, 1,0.030654054,0.07934557,0.06887188,0.111194775,0.1028535, 12:58:42.641
77422.218750, 98595.867188, 187500.015625, 187500.015625, 120356.140625, 88859.781250, 97823.773438, 149659.078125, 0, 1, 1, 0, 1,0.030654054,0.07934557,0.06887188,0.111194775,0.1028535, 12:58:42.642
77335.335938, 98506.015625, 187500.015625, 187500.015625, 120289.890625, 88950.015625, 97848.359375, 149574.093750, 0, 1, 1, 0, 1,0.030654054,0.07934557,0.06887188,0.111194775,0.1028535, 12:58:42.642
77235.312500, 98404.203125, 187500.015625, 187500.015625, 120189.640625, 88987.898438, 97806.421875, 149471.781250, 0, 1, 1, 0, 1,0.030654054,0.07934557,0.06887188,0.111194775,0.1028535, 12:58:42.642
77304.601563, 98481.382813, 187500.015625, 187500.015625, 120241.250000, 88899.765625, 97765.140625, 149540.187500, 0, 1, 1, 0, 1,0.030654054,0.07934557,0.06887188,0.111194775,0.1028535, 12:58:42.642
77409.875000, 98592.062500, 187500.015625, 187500.015625, 120346.820313, 88851.867188, 97800.390625, 149647.812500, 0, 1, 1, 0, 1,0.030654054,0.07934557,0.06887188,0.111194775,0.1028535, 12:58:42.642
77357.085938, 98533.679688, 187500.015625, 187500.015625, 120312.750000, 88934.328125, 97846.765625, 149592.515625, 0, 1, 1, 0, 1,0.030654054,0.07934557,0.06887188,0.111194775,0.1028535, 12:58:42.643
77245.054688, 98417.992188, 187500.015625, 187500.015625, 120206.312500, 89001.539063, 97823.164063, 149484.593750, 0, 1, 1, 0, 1,0.030654054,0.07934557,0.06887188,0.111194775,0.1028535, 12:58:42.643
77284.257813, 98464.843750, 187500.015625, 187500.015625, 120223.414063, 88930.750000, 97772.648438, 149528.109375, 0, 1, 1, 0, 1,0.030654054,0.07934557,0.06887188,0.111194775,0.1028535, 12:58:42.643
77410.906250, 98594.546875, 187500.015625, 187500.015625, 120345.812500, 88863.601563, 97801.257813, 149656.546875, 0, 1, 1, 0, 1,0.030654054,0.07934557,0.06887188,0.111194775,0.1028535, 12:58:42.643
77372.039063, 98547.812500, 187500.015625, 187500.015625, 120323.929688, 88924.023438, 97843.843750, 149615.171875, 0, 1, 1, 0, 1,0.030654054,0.07934557,0.06887188,0.111194775,0.1028535, 12:58:42.643
77251.179688, 98426.617188, 187500.015625, 187500.015625, 120209.328125, 89000.265625, 97825.492188, 149490.609375, 0, 1, 1, 0, 1,0.030654054,0.07934557,0.06887188,0.111194775,0.1028535, 12:58:42.643
77258.156250, 98439.914063, 187500.015625, 187500.015625, 120194.890625, 88947.335938, 97773.390625, 149498.046875, 0, 1, 1, 0, 1,0.030654054,0.07934557,0.06887188,0.111194775,0.1028535, 12:58:42.643
77400.195313, 98591.460938, 187500.015625, 187500.015625, 120326.945313, 88868.164063, 97794.554688, 149646.984375, 0, 1, 1, 0, 1,0.030654054,0.07934557,0.06887188,0.111194775,0.1028535, 12:58:42.644
77405.023438, 98593.921875, 187500.015625, 187500.015625, 120351.445313, 88915.171875, 97844.312500, 149656.250000, 0, 1, 1, 0, 1,0.030654054,0.07934557,0.06887188,0.111194775,0.1028535, 12:58:42.644
77264.164063, 98446.218750, 187500.015625, 187500.015625, 120225.070313, 89004.062500, 97830.382813, 149519.281250, 0, 1, 1, 0, 1,0.030654054,0.07934557,0.06887188,0.111194775,0.1028535, 12:58:42.644
77235.265625, 98420.851563, 187500.015625, 187500.015625, 120181.281250, 88970.445313, 97772.492188, 149487.593750, 0, 1, 1, 0, 1,0.030654054,0.07934557,0.06887188,0.111194775,0.1028535, 12:58:42.644
77357.281250, 98550.023438, 187500.015625, 187500.015625, 120283.609375, 88870.109375, 97763.289063, 149599.812500, 0, 1, 1, 0, 1,0.030654054,0.07934557,0.06887188,0.111194775,0.1028535, 12:58:42.644
77413.632813, 98600.960938, 187500.015625, 187500.015625, 120355.843750, 88894.718750, 97838.031250, 149657.156250, 0, 1, 1, 0, 1,0.030654054,0.07934557,0.06887188,0.111194775,0.1028535, 12:58:42.644
77298.296875, 98477.179688, 187500.015625, 187500.015625, 120261.429688, 88996.796875, 97858.546875, 149548.296875, 0, 1, 1, 0, 1,0.030654054,0.07934557,0.06887188,0.111194775,0.1028535, 12:58:42.645
77244.359375, 98422.351563, 187500.015625, 187500.015625, 120192.921875, 88987.406250, 97796.968750, 149490.046875, 0, 1, 1, 0, 1,0.030654054,0.07934557,0.06887188,0.111194775,0.1028535, 12:58:42.645
77368.992188, 98556.703125, 187500.015625, 187500.015625, 120299.875000, 88892.054688, 97787.335938, 149612.156250, 0, 1, 1, 0, 1,0.030654054,0.07934557,0.06887188,0.111194775,0.1028535, 12:58:42.645
77417.703125, 98608.945313, 187500.015625, 187500.015625, 120367.312500, 88884.968750, 97836.664063, 149671.296875, 0, 1, 1, 0, 1,0.030654054,0.07934557,0.06887188,0.111194775,0.1028535, 12:58:42.645
77319.976563, 98506.546875, 187500.015625, 187500.015625, 120291.093750, 88985.468750, 97864.468750, 149581.750000, 0, 1, 1, 0, 1,0.030654054,0.07934557,0.06887188,0.111194775,0.1028535, 12:58:42.645
77241.007813, 98422.546875, 187500.015625, 187500.015625, 120202.875000, 89007.015625, 97818.250000, 149497.218750, 0, 1, 1, 0, 1,0.030654054,0.07934557,0.06887188,0.111194775,0.1028535, 12:58:42.645
77318.929688, 98505.539063, 187500.015625, 187500.015625, 120255.312500, 88908.460938, 97771.156250, 149572.812500, 0, 1, 1, 0, 1,0.030654054,0.07934557,0.06887188,0.111194775,0.1028535, 12:58:42.645
77428.320313, 98613.210938, 187500.015625, 187500.015625, 120368.273438, 88878.867188, 97827.210938, 149681.718750, 0, 1, 1, 0, 1,0.030654054,0.07934557,0.06887188,0.111194775,0.1028535, 12:58:42.646
77359.203125, 98538.335938, 187500.015625, 187500.015625, 120323.437500, 88974.203125, 97873.835938, 149615.515625, 0, 1, 1, 0, 1,0.030654054,0.07934557,0.06887188,0.111194775,0.1028535, 12:58:42.646
77255.289063, 98434.664063, 187500.015625, 187500.015625, 120214.921875, 89018.140625, 97830.500000, 149506.031250, 0, 1, 1, 0, 1,0.030654054,0.07934557,0.06887188,0.111194775,0.1028535, 12:58:42.646
77310.390625, 98496.710938, 187500.015625, 187500.015625, 120244.445313, 88935.171875, 97782.062500, 149559.625000, 0, 1, 1, 0, 1,0.030654054,0.07934557,0.06887188,0.111194775,0.1028535, 12:58:42.646
77432.500000, 98621.125000, 187500.015625, 187500.015625, 120367.312500, 88879.984375, 97827.835938, 149682.406250, 0, 1, 1, 0, 1,0.026955832,0.06713689,0.058341995,0.096036464,0.09205947, 12:58:42.647
77398.210938, 98581.875000, 187500.015625, 187500.015625, 120359.359375, 88962.640625, 97895.789063, 149650.125000, 0, 1, 1, 0, 1,0.026955832,0.06713689,0.058341995,0.096036464,0.09205947, 12:58:42.648
77276.906250, 98458.226563, 187500.015625, 187500.015625, 120235.820313, 89029.007813, 97854.414063, 149519.843750, 0, 1, 1, 0, 1,0.026955832,0.06713689,0.058341995,0.096036464,0.09205947, 12:58:42.648
77314.210938, 98498.296875, 187500.015625, 187500.015625, 120249.093750, 88962.734375, 97799.000000, 149549.531250, 0, 1, 1, 0, 1,0.026955832,0.06713689,0.058341995,0.096036464,0.09205947, 12:58:42.649
77441.546875, 98625.992188, 187500.015625, 187500.015625, 120369.992188, 88888.679688, 97828.640625, 149679.546875, 0, 1, 1, 0, 1,0.010749115,0.029970992,0.021785678,0.038194947,0.032626115, 12:58:43.098
77419.960938, 98599.734375, 187500.015625, 187500.015625, 120369.414063, 88948.226563, 97882.687500, 149662.453125, 0, 1, 1, 0, 1,0.010749115,0.029970992,0.021785678,0.038194947,0.032626115, 12:58:43.098
77291.414063, 98468.390625, 187500.015625, 187500.015625, 120248.914063, 89024.421875, 97858.414063, 149529.234375, 0, 1, 1, 0, 1,0.010749115,0.029970992,0.021785678,0.038194947,0.032626115, 12:58:43.098
77296.460938, 98477.515625, 187500.015625, 187500.015625, 120228.781250, 88978.046875, 97800.656250, 149532.546875, 0, 1, 1, 0, 1,0.010749115,0.029970992,0.021785678,0.038194947,0.032626115, 12:58:43.099
77425.523438, 98612.515625, 187500.015625, 187500.015625, 120344.070313, 88892.210938, 97806.226563, 149664.500000, 0, 1, 1, 0, 1,0.010749115,0.029970992,0.021785678,0.038194947,0.032626115, 12:58:43.099
77441.484375, 98624.585938, 187500.015625, 187500.015625, 120375.296875, 88930.773438, 97863.914063, 149674.234375, 0, 1, 1, 0, 1,0.010749115,0.029970992,0.021785678,0.038194947,0.032626115, 12:58:43.100
77329.453125, 98507.757813, 187500.015625, 187500.015625, 120280.703125, 89031.554688, 97877.906250, 149561.265625, 0, 1, 1, 0, 1,0.010749115,0.029970992,0.021785678,0.038194947,0.032626115, 12:58:43.100
77293.046875, 98475.632813, 187500.015625, 187500.015625, 120231.617188, 89000.843750, 97816.570313, 149521.906250, 0, 1, 1, 0, 1,0.010749115,0.029970992,0.021785678,0.038194947,0.032626115, 12:58:43.100
77403.617188, 98594.148438, 187500.015625, 187500.015625, 120320.148438, 88894.937500, 97793.484375, 149617.968750, 0, 1, 1, 0, 1,0.010749115,0.029970992,0.021785678,0.038194947,0.032626115, 12:58:43.101
77451.945313, 98639.179688, 187500.015625, 187500.015625, 120382.914063, 88907.437500, 97850.882813, 149670.218750, 0, 1, 1, 0, 1,0.010749115,0.029970992,0.021785678,0.038194947,0.032626115, 12:58:43.101
77338.867188, 98519.757813, 187500.015625, 187500.015625, 120294.335938, 89009.070313, 97873.726563, 149570.406250, 0, 1, 1, 0, 1,0.010749115,0.029970992,0.021785678,0.038194947,0.032626115, 12:58:43.101
77262.671875, 98445.843750, 187500.015625, 187500.015625, 120211.320313, 89008.578125, 97815.812500, 149496.937500, 0, 1, 1, 0, 1,0.010749115,0.029970992,0.021785678,0.038194947,0.032626115, 12:58:43.102
77381.359375, 98572.867188, 187500.015625, 187500.015625, 120305.664063, 88916.445313, 97801.101563, 149613.125000, 0, 1, 1, 0, 1,0.010749115,0.029970992,0.021785678,0.038194947,0.032626115, 12:58:43.102
77462.492188, 98655.390625, 187500.015625, 187500.015625, 120398.898438, 88903.054688, 97864.226563, 149695.125000, 0, 1, 1, 0, 1,0.010749115,0.029970992,0.021785678,0.038194947,0.032626115, 12:58:43.102
77370.984375, 98555.367188, 187500.015625, 187500.015625, 120326.093750, 88997.359375, 97893.414063, 149599.109375, 0, 1, 1, 0, 1,0.010749115,0.029970992,0.021785678,0.038194947,0.032626115, 12:58:43.103
77289.179688, 98474.898438, 187500.015625, 187500.015625, 120226.718750, 89025.296875, 97839.328125, 149509.265625, 0, 1, 1, 0, 1,0.010749115,0.029970992,0.021785678,0.038194947,0.032626115, 12:58:43.103
77364.328125, 98556.679688, 187500.015625, 187500.015625, 120279.585938, 88932.382813, 97795.718750, 149586.781250, 0, 1, 1, 0, 1,0.010749115,0.029970992,0.021785678,0.038194947,0.032626115, 12:58:43.103
77460.750000, 98653.820313, 187500.015625, 187500.015625, 120378.867188, 88895.296875, 97834.898438, 149687.968750, 0, 1, 1, 0, 1,0.010749115,0.029970992,0.021785678,0.038194947,0.032626115, 12:58:43.104
77383.773438, 98574.476563, 187500.015625, 187500.015625, 120329.695313, 88983.250000, 97876.656250, 149620.421875, 0, 1, 1, 0, 1,0.010749115,0.029970992,0.021785678,0.038194947,0.032626115, 12:58:43.104
77277.601563, 98464.726563, 187500.015625, 187500.015625, 120223.859375, 89030.281250, 97836.640625, 149508.000000, 0, 1, 1, 0, 1,0.010749115,0.029970992,0.021785678,0.038194947,0.032626115, 12:58:43.105
77333.835938, 98528.093750, 187500.015625, 187500.015625, 120266.351563, 88948.250000, 97795.539063, 149565.843750, 0, 1, 1, 0, 1,0.010749115,0.029970992,0.021785678,0.038194947,0.032626115, 12:58:43.105
77452.125000, 98652.703125, 187500.015625, 187500.015625, 120383.898438, 88888.679688, 97838.117188, 149691.796875, 0, 1, 1, 0, 1,0.010749115,0.029970992,0.021785678,0.038194947,0.032626115, 12:58:43.105
77413.898438, 98607.601563, 187500.015625, 187500.015625, 120368.070313, 88967.695313, 97893.843750, 149661.984375, 0, 1, 1, 0, 1,0.010749115,0.029970992,0.021785678,0.038194947,0.032626115, 12:58:43.105
77279.523438, 98469.312500, 187500.015625, 187500.015625, 120242.125000, 89039.984375, 97855.195313, 149527.593750, 0, 1, 1, 0, 1,0.010749115,0.029970992,0.021785678,0.038194947,0.032626115, 12:58:43.106
77308.492188, 98499.328125, 187500.015625, 187500.015625, 120244.578125, 88978.242188, 97799.695313, 149548.703125, 0, 1, 1, 0, 1,0.010749115,0.029970992,0.021785678,0.038194947,0.032626115, 12:58:43.106
77465.351563, 98663.164063, 187500.015625, 187500.015625, 120386.710938, 88905.710938, 97836.312500, 149705.656250, 0, 1, 1, 0, 1,0.010749115,0.029970992,0.021785678,0.038194947,0.032626115, 12:58:43.106
77449.039063, 98644.992188, 187500.015625, 187500.015625, 120393.867188, 88961.976563, 97895.898438, 149691.281250, 0, 1, 1, 0, 1,0.010749115,0.029970992,0.021785678,0.038194947,0.032626115, 12:58:43.106
77312.828125, 98501.992188, 187500.015625, 187500.015625, 120268.250000, 89043.867188, 97872.382813, 149550.578125, 0, 1, 1, 0, 1,0.010749115,0.029970992,0.021785678,0.038194947,0.032626115, 12:58:43.106
77301.828125, 98497.273438, 187500.015625, 187500.015625, 120232.710938, 89001.265625, 97803.117188, 149532.296875, 0, 1, 1, 0, 1,0.010749115,0.029970992,0.021785678,0.038194947,0.032626115, 12:58:43.107
77423.218750, 98625.617188, 187500.015625, 187500.015625, 120341.250000, 88910.320313, 97806.398438, 149657.421875, 0, 1, 1, 0, 1,0.010749115,0.029970992,0.021785678,0.038194947,0.032626115, 12:58:43.107
77439.625000, 98635.804688, 187500.015625, 187500.015625, 120380.187500, 88937.742188, 97865.546875, 149675.015625, 0, 1, 1, 0, 1,0.010749115,0.029970992,0.021785678,0.038194947,0.032626115, 12:58:43.107
77318.500000, 98508.742188, 187500.015625, 187500.015625, 120274.890625, 89030.257813, 97869.281250, 149547.015625, 0, 1, 1, 0, 1,0.010749115,0.029970992,0.021785678,0.038194947,0.032626115, 12:58:43.107
77278.093750, 98472.328125, 187500.015625, 187500.015625, 120215.906250, 89011.375000, 97807.453125, 149506.359375, 0, 1, 1, 0, 1,0.010749115,0.029970992,0.021785678,0.038194947,0.032626115, 12:58:43.107
77394.054688, 98595.242188, 187500.015625, 187500.015625, 120311.609375, 88913.757813, 97793.703125, 149619.062500, 0, 1, 1, 0, 1,0.010749115,0.029970992,0.021785678,0.038194947,0.032626115, 12:58:43.107
77467.273438, 98666.406250, 187500.015625, 187500.015625, 120398.468750, 88922.296875, 97868.203125, 149693.859375, 0, 1, 1, 0, 1,0.010749115,0.029970992,0.021785678,0.038194947,0.032626115, 12:58:43.107
77355.273438, 98546.890625, 187500.015625, 187500.015625, 120305.039063, 89022.343750, 97886.351563, 149579.078125, 0, 1, 1, 0, 1,0.010749115,0.029970992,0.021785678,0.038194947,0.032626115, 12:58:43.108
77269.195313, 98459.187500, 187500.015625, 187500.015625, 120201.125000, 89023.953125, 97811.164063, 149486.390625, 0, 1, 1, 0, 1,0.010749115,0.029970992,0.021785678,0.038194947,0.032626115, 12:58:43.108
77371.835938, 98569.359375, 187500.015625, 187500.015625, 120282.820313, 88922.546875, 97775.781250, 149587.593750, 0, 1, 1, 0, 1,0.010749115,0.029970992,0.021785678,0.038194947,0.032626115, 12:58:43.108
77456.906250, 98656.710938, 187500.015625, 187500.015625, 120383.382813, 88901.984375, 97837.515625, 149681.562500, 0, 1, 1, 0, 1,0.010749115,0.029970992,0.021785678,0.038194947,0.032626115, 12:58:43.108
77364.546875, 98554.406250, 187500.015625, 187500.015625, 120312.710938, 88996.304688, 97865.992188, 149590.859375, 0, 1, 1, 0, 1,0.010749115,0.029970992,0.021785678,0.038194947,0.032626115, 12:58:43.108
77270.265625, 98457.617188, 187500.015625, 187500.015625, 120208.593750, 89027.328125, 97816.976563, 149490.875000, 0, 1, 1, 0, 1,0.010749115,0.029970992,0.021785678,0.038194947,0.032626115, 12:58:43.108
77348.164063, 98549.437500, 187500.015625, 187500.015625, 120266.257813, 88936.828125, 97777.968750, 149571.781250, 0, 1, 1, 0, 1,0.010749115,0.029970992,0.021785678,0.038194947,0.032626115, 12:58:43.108
77451.945313, 98656.062500, 187500.015625, 187500.015625, 120374.468750, 88888.773438, 97823.945313, 149672.343750, 0, 1, 1, 0, 1,0.010749115,0.029970992,0.021785678,0.038194947,0.032626115, 12:58:43.108
77390.320313, 98586.078125, 187500.015625, 187500.015625, 120337.250000, 88971.742188, 97871.398438, 149610.859375, 0, 1, 1, 0, 1,0.010749115,0.029970992,0.021785678,0.038194947,0.032626115, 12:58:43.109
77287.968750, 98478.585938, 187500.015625, 187500.015625, 120237.382813, 89035.468750, 97852.875000, 149508.171875, 0, 1, 1, 0, 1,0.010749115,0.029970992,0.021785678,0.038194947,0.032626115, 12:58:43.109
77332.093750, 98528.718750, 187500.015625, 187500.015625, 120260.765625, 88962.265625, 97802.203125, 149548.671875, 0, 1, 1, 0, 1,0.010749115,0.029970992,0.021785678,0.038194947,0.032626115, 12:58:43.109
77453.195313, 98656.234375, 187500.015625, 187500.015625, 120373.437500, 88895.210938, 97824.062500, 149670.671875, 0, 1, 1, 0, 1,0.010749115,0.029970992,0.021785678,0.038194947,0.032626115, 12:58:43.109
77413.742188, 98608.000000, 187500.015625, 187500.015625, 120351.492188, 88960.070313, 97872.429688, 149633.921875, 0, 1, 1, 0, 1,0.010749115,0.029970992,0.021785678,0.038194947,0.032626115, 12:58:43.109
77301.156250, 98486.007813, 187500.015625, 187500.015625, 120243.484375, 89037.523438, 97853.117188, 149519.687500, 0, 1, 1, 0, 1,0.010749115,0.029970992,0.021785678,0.038194947,0.032626115, 12:58:43.109
77309.968750, 98499.710938, 187500.015625, 187500.015625, 120230.898438, 88983.703125, 97798.359375, 149531.093750, 0, 1, 1, 0, 1,0.010749115,0.029970992,0.021785678,0.038194947,0.032626115, 12:58:43.109
77444.523438, 98641.617188, 187500.015625, 187500.015625, 120353.429688, 88895.835938, 97818.312500, 149654.203125, 0, 1, 1, 0, 1,0.010749115,0.029970992,0.021785678,0.038194947,0.032626115, 12:58:43.109
77442.156250, 98634.828125, 187500.015625, 187500.015625, 120374.062500, 88940.226563, 97878.664063, 149651.781250, 0, 1, 1, 0, 1,0.010749115,0.029970992,0.021785678,0.038194947,0.032626115, 12:58:43.110
77301.960938, 98493.117188, 187500.015625, 187500.015625, 120248.960938, 89019.710938, 97853.945313, 149514.968750, 0, 1, 1, 0, 1,0.010749115,0.029970992,0.021785678,0.038194947,0.032626115, 12:58:43.110
77285.156250, 98474.632813, 187500.015625, 187500.015625, 120217.492188, 88987.789063, 97799.765625, 149497.203125, 0, 1, 1, 0, 1,0.010749115,0.029970992,0.021785678,0.038194947,0.032626115, 12:58:43.110
77405.765625, 98602.640625, 187500.015625, 187500.015625, 120322.320313, 88890.781250, 97793.906250, 149613.390625, 0, 1, 1, 0, 1,0.010749115,0.029970992,0.021785678,0.038194947,0.032626115, 12:58:43.110
77434.617188, 98633.617188, 187500.015625, 187500.015625, 120371.921875, 88917.921875, 97858.187500, 149659.140625, 0, 1, 1, 0, 1,0.010749115,0.029970992,0.021785678,0.038194947,0.032626115, 12:58:43.110
77322.437500, 98520.226563, 187500.015625, 187500.015625, 120277.171875, 89014.164063, 97871.289063, 149548.562500, 0, 1, 1, 0, 1,0.010749115,0.029970992,0.021785678,0.038194947,0.032626115, 12:58:43.110
77277.843750, 98475.570313, 187500.015625, 187500.015625, 120220.257813, 89005.445313, 97815.343750, 149492.796875, 0, 1, 1, 0, 1,0.010749115,0.029970992,0.021785678,0.038194947,0.032626115, 12:58:43.110
77384.242188, 98586.835938, 187500.015625, 187500.015625, 120309.421875, 88910.031250, 97792.585938, 149596.796875, 0, 1, 1, 0, 1,0.010749115,0.029970992,0.021785678,0.038194947,0.032626115, 12:58:43.110
77438.640625, 98639.179688, 187500.015625, 187500.015625, 120374.265625, 88906.476563, 97840.398438, 149654.796875, 0, 1, 1, 0, 1,0.010749115,0.029970992,0.021785678,0.038194947,0.032626115, 12:58:43.110
77347.921875, 98540.523438, 187500.015625, 187500.015625, 120298.914063, 89008.351563, 97874.578125, 149564.875000, 0, 1, 1, 0, 1,0.010749115,0.029970992,0.021785678,0.038194947,0.032626115, 12:58:43.111
77289.515625, 98477.890625, 187500.015625, 187500.015625, 120224.421875, 89026.460938, 97829.671875, 149498.546875, 0, 1, 1, 0, 1,0.010749115,0.029970992,0.021785678,0.038194947,0.032626115, 12:58:43.111
77386.117188, 98582.546875, 187500.015625, 187500.015625, 120305.890625, 88938.281250, 97807.679688, 149601.265625, 0, 1, 1, 0, 1,0.010749115,0.029970992,0.021785678,0.038194947,0.032626115, 12:58:43.111
77449.773438, 98650.093750, 187500.015625, 187500.015625, 120378.914063, 88905.382813, 97845.335938, 149670.343750, 0, 1, 1, 0, 1,0.010749115,0.029970992,0.021785678,0.038194947,0.032626115, 12:58:43.111
77364.546875, 98557.937500, 187500.015625, 187500.015625, 120309.960938, 88991.187500, 97862.039063, 149584.031250, 0, 1, 1, 0, 1,0.010749115,0.029970992,0.021785678,0.038194947,0.032626115, 12:58:43.111
