%OpenBCI Raw EEG Data
%
%Sample Rate = 250.0 Hz
%First Column = SampleIndex
%5 Columns before Timestamp are Frequency Power factors DELTA THETA ALPHA BETA GAMMA
%Last Column = Timestamp 
%Other Columns = EEG data in microvolts followed by Accel Data (in G) interleaved with Aux Data
181105.937500, 181149.812500, 181179.453125, 174928.640625, 181236.031250, 176582.078125, 181238.484375, 175849.375000, 0, 1, 1, 0, 1,0.0,0.0,0.0,0.0,0.0, 11:37:12.390
181106.765625, 181150.718750, 181180.484375, 174995.953125, 181237.031250, 176528.500000, 181239.718750, 175833.953125, 0, 1, 1, 0, 1,0.0,0.0,0.0,0.0,0.0, 11:37:12.392
181108.062500, 181151.781250, 181181.515625, 174909.140625, 181237.921875, 176574.843750, 181241.031250, 175799.609375, 0, 1, 1, 0, 1,0.0,0.0,0.0,0.0,0.0, 11:37:12.393
181109.468750, 181153.062500, 181182.781250, 174832.906250, 181239.156250, 176611.093750, 181242.437500, 175761.640625, 0, 1, 1, 0, 1,0.0,0.0,0.0,0.0,0.0, 11:37:12.393
181108.890625, 181152.593750, 181182.500000, 174896.718750, 181238.937500, 176544.703125, 181242.203125, 175736.343750, 0, 1, 1, 0, 1,0.0,0.0,0.0,0.0,0.0, 11:37:12.394
181109.156250, 181153.218750, 181183.125000, 174986.765625, 181239.500000, 176474.375000, 181242.953125, 175713.031250, 0, 1, 1, 0, 1,0.0,0.0,0.0,0.0,0.0, 11:37:12.395
181108.250000, 181152.078125, 181181.921875, 174927.625000, 181238.375000, 176503.046875, 181241.703125, 175668.046875, 0, 1, 1, 0, 1,0.0,0.0,0.0,0.0,0.0, 11:37:12.395
181107.015625, 181150.687500, 181180.390625, 174835.250000, 181236.859375, 176542.921875, 181240.156250, 175614.390625, 0, 1, 1, 0, 1,0.0,0.0,0.0,0.0,0.0, 11:37:12.396
181106.656250, 181150.437500, 181180.218750, 174874.140625, 181236.671875, 176474.078125, 181240.078125, 175568.671875, 0, 1, 1, 0, 1,0.0,0.0,0.0,0.0,0.0, 11:37:12.396
181108.734375, 181152.796875, 181182.578125, 174974.718750, 181239.046875, 176377.000000, 181242.468750, 175530.234375, 0, 1, 1, 0, 1,0.0,0.0,0.0,0.0,0.0, 11:37:12.397
181112.296875, 181156.296875, 181185.937500, 174941.156250, 181242.437500, 176383.515625, 181245.906250, 175479.765625, 0, 1, 1, 0, 1,0.0,0.0,0.0,0.0,0.0, 11:37:12.398
181111.421875, 181155.156250, 181184.734375, 174835.828125, 181241.218750, 176435.546875, 181244.515625, 175421.265625, 0, 1, 1, 0, 1,0.0,0.0,0.0,0.0,0.0, 11:37:12.399
181110.750000, 181154.515625, 181184.156250, 174852.890625, 181240.609375, 176391.640625, 181243.937500, 175371.828125, 0, 1, 1, 0, 1,0.0,0.0,0.0,0.0,0.0, 11:37:12.400
181113.000000, 181157.031250, 181186.781250, 174962.437500, 181243.265625, 176288.937500, 181246.734375, 175332.796875, 0, 1, 1, 0, 1,0.0,0.0,0.0,0.0,0.0, 11:37:12.401
181112.421875, 181156.453125, 181186.156250, 174963.437500, 181242.781250, 176274.250000, 181246.171875, 175289.421875, 0, 1, 1, 0, 1,0.0,0.0,0.0,0.0,0.0, 11:37:12.401
181111.015625, 181154.625000, 181184.375000, 174859.500000, 181240.953125, 176322.843750, 181244.234375, 175237.531250, 0, 1, 1, 0, 1,0.0,0.0,0.0,0.0,0.0, 11:37:12.402
181111.953125, 181155.453125, 181185.171875, 174856.484375, 181241.812500, 176279.796875, 181245.171875, 175197.015625, 0, 1, 1, 0, 1,0.0,0.0,0.0,0.0,0.0, 11:37:12.402
181114.125000, 181157.906250, 181187.765625, 174974.859375, 181244.328125, 176134.125000, 181247.734375, 175180.140625, 0, 1, 1, 0, 1,0.0,0.0,0.0,0.0,0.0, 11:37:12.403
181113.937500, 181157.843750, 181187.734375, 175016.187500, 181244.343750, 176059.000000, 181247.734375, 175167.437500, 0, 1, 1, 0, 1,0.0,0.0,0.0,0.0,0.0, 11:37:12.403
181114.546875, 181158.296875, 181188.015625, 174921.703125, 181244.640625, 176078.000000, 181248.015625, 175141.937500, 0, 1, 1, 0, 1,0.0,0.0,0.0,0.0,0.0, 11:37:12.404
181114.875000, 181158.562500, 181188.234375, 174897.515625, 181244.859375, 176042.890625, 181248.187500, 175120.562500, 0, 1, 1, 0, 1,0.0,0.0,0.0,0.0,0.0, 11:37:12.404
181116.718750, 181160.687500, 181190.406250, 175002.843750, 181247.093750, 175915.953125, 181250.468750, 175109.484375, 0, 1, 1, 0, 1,0.0,0.0,0.0,0.0,0.0, 11:37:12.404
181118.375000, 181162.406250, 181192.312500, 175068.406250, 181248.875000, 175843.890625, 181252.375000, 175100.859375, 0, 1, 1, 0, 1,0.0,0.0,0.0,0.0,0.0, 11:37:12.405
181114.968750, 181158.890625, 181188.625000, 174980.734375, 181245.218750, 175877.062500, 181248.640625, 175080.500000, 0, 1, 1, 0, 1,0.0,0.0,0.0,0.0,0.0, 11:37:12.405
181114.609375, 181158.375000, 181188.078125, 174927.890625, 181244.718750, 175882.203125, 181248.031250, 175062.968750, 0, 1, 1, 0, 1,0.0,0.0,0.0,0.0,0.0, 11:37:12.405
181116.421875, 181160.296875, 181189.984375, 175014.406250, 181246.750000, 175783.515625, 181250.156250, 175055.750000, 0, 1, 1, 0, 1,0.0,0.0,0.0,0.0,0.0, 11:37:12.406
181118.734375, 181162.734375, 181192.468750, 175102.156250, 181249.265625, 175710.390625, 181252.687500, 175053.890625, 0, 1, 1, 0, 1,0.0,0.0,0.0,0.0,0.0, 11:37:12.406
181118.234375, 181162.093750, 181191.765625, 175034.093750, 181248.593750, 175751.312500, 181251.937500, 175039.390625, 0, 1, 1, 0, 1,0.0,0.0,0.0,0.0,0.0, 11:37:12.407
181117.828125, 181161.546875, 181191.187500, 174962.046875, 181248.093750, 175794.781250, 181251.390625, 175024.343750, 0, 1, 1, 0, 1,0.0,0.0,0.0,0.0,0.0, 11:37:12.408
181119.234375, 181163.000000, 181192.796875, 175027.875000, 181249.656250, 175731.218750, 181253.015625, 175014.687500, 0, 1, 1, 0, 1,0.0,0.0,0.0,0.0,0.0, 11:37:12.408
181120.296875, 181164.281250, 181194.125000, 175130.203125, 181250.890625, 175665.750000, 181254.359375, 175012.031250, 0, 1, 1, 0, 1,0.0,0.0,0.0,0.0,0.0, 11:37:12.409
181121.812500, 181165.671875, 181195.421875, 175082.953125, 181252.234375, 175712.843750, 181255.625000, 175000.828125, 0, 1, 1, 0, 1,0.0,0.0,0.0,0.0,0.0, 11:37:12.409
181122.234375, 181165.890625, 181195.546875, 174988.687500, 181252.437500, 175784.750000, 181255.750000, 174984.093750, 0, 1, 1, 0, 1,0.0,0.0,0.0,0.0,0.0, 11:37:12.410
181123.906250, 181167.625000, 181197.312500, 175026.046875, 181254.265625, 175752.828125, 181257.531250, 174977.031250, 0, 1, 1, 0, 1,0.0,0.0,0.0,0.0,0.0, 11:37:12.411
181124.531250, 181168.453125, 181198.296875, 175135.250000, 181255.296875, 175687.031250, 181258.609375, 174981.140625, 0, 1, 1, 0, 1,0.0,0.0,0.0,0.0,0.0, 11:37:12.411
181126.234375, 181170.093750, 181199.906250, 175112.140625, 181256.859375, 175726.859375, 181260.171875, 174977.921875, 0, 1, 1, 0, 1,0.0,0.0,0.0,0.0,0.0, 11:37:12.411
181125.953125, 181169.671875, 181199.328125, 175003.796875, 181256.375000, 175821.593750, 181259.500000, 174967.234375, 0, 1, 1, 0, 1,0.0,0.0,0.0,0.0,0.0, 11:37:12.411
181125.640625, 181169.265625, 181198.984375, 175009.750000, 181255.968750, 175825.281250, 181259.156250, 174962.609375, 0, 1, 1, 0, 1,0.0,0.0,0.0,0.0,0.0, 11:37:12.412
181128.515625, 181172.437500, 181202.171875, 175114.312500, 181259.156250, 175769.625000, 181262.531250, 174968.250000, 0, 1, 1, 0, 1,0.0,0.0,0.0,0.0,0.0, 11:37:12.412
181130.906250, 181174.718750, 181204.531250, 175114.718750, 181261.421875, 175802.187500, 181264.859375, 174971.062500, 0, 1, 1, 0, 1,0.0,0.0,0.0,0.0,0.0, 11:37:12.412
181132.031250, 181175.671875, 181205.265625, 174995.468750, 181262.359375, 175910.062500, 181265.562500, 174961.937500, 0, 1, 1, 0, 1,0.0,0.0,0.0,0.0,0.0, 11:37:12.413
181133.031250, 181176.625000, 181206.281250, 174968.781250, 181263.250000, 175948.765625, 181266.406250, 174959.593750, 0, 1, 1, 0, 1,0.0,0.0,0.0,0.0,0.0, 11:37:12.413
181135.265625, 181179.031250, 181208.890625, 175063.796875, 181265.796875, 175904.609375, 181269.062500, 174968.250000, 0, 1, 1, 0, 1,0.0,0.0,0.0,0.0,0.0, 11:37:12.414
181137.234375, 181181.203125, 181211.015625, 175094.546875, 181267.875000, 175926.593750, 181271.171875, 174976.421875, 0, 1, 1, 0, 1,0.0,0.0,0.0,0.0,0.0, 11:37:12.415
181138.187500, 181181.937500, 181211.546875, 174985.406250, 181268.484375, 176041.078125, 181271.656250, 174972.687500, 0, 1, 1, 0, 1,0.0,0.0,0.0,0.0,0.0, 11:37:12.416
181140.140625, 181183.812500, 181213.359375, 174937.171875, 181270.312500, 176103.265625, 181273.312500, 174970.593750, 0, 1, 1, 0, 1,0.0,0.0,0.0,0.0,0.0, 11:37:12.416
181141.250000, 181184.937500, 181214.796875, 175025.468750, 181271.656250, 176064.625000, 181274.578125, 174977.187500, 0, 1, 1, 0, 1,0.0,0.0,0.0,0.0,0.0, 11:37:12.417
181141.140625, 181184.906250, 181214.843750, 175085.828125, 181271.656250, 176065.640625, 181274.671875, 174986.578125, 0, 1, 1, 0, 1,0.0,0.0,0.0,0.0,0.0, 11:37:12.417
181142.015625, 181185.765625, 181215.531250, 174989.609375, 181272.375000, 176161.765625, 181275.218750, 174984.250000, 0, 1, 1, 0, 1,0.0,0.0,0.0,0.0,0.0, 11:37:12.418
181142.109375, 181185.718750, 181215.359375, 174919.187500, 181272.078125, 176224.281250, 181275.015625, 174990.656250, 0, 1, 1, 0, 1,0.0,0.0,0.0,0.0,0.0, 11:37:12.424
181145.109375, 181188.906250, 181218.656250, 174989.921875, 181275.328125, 176172.265625, 181278.390625, 175011.046875, 0, 1, 1, 0, 1,0.0,0.0,0.0,0.0,0.0, 11:37:12.425
181147.828125, 181191.796875, 181221.609375, 175074.093750, 181278.281250, 176128.281250, 181281.250000, 175038.468750, 0, 1, 1, 0, 1,0.0,0.0,0.0,0.0,0.0, 11:37:12.425
181150.125000, 181193.890625, 181223.687500, 175002.984375, 181280.234375, 176189.312500, 181283.187500, 175050.468750, 0, 1, 1, 0, 1,0.0,0.0,0.0,0.0,0.0, 11:37:12.425
181151.218750, 181194.656250, 181224.390625, 174914.109375, 181280.953125, 176251.968750, 181283.734375, 175055.968750, 0, 1, 1, 0, 1,0.0,0.0,0.0,0.0,0.0, 11:37:12.425
181152.609375, 181196.281250, 181226.062500, 174963.703125, 181282.562500, 176207.937500, 181285.406250, 175069.093750, 0, 1, 1, 0, 1,0.0,0.0,0.0,0.0,0.0, 11:37:12.426
181154.484375, 181198.343750, 181228.343750, 175063.375000, 181284.781250, 176146.140625, 181287.656250, 175088.140625, 0, 1, 1, 0, 1,0.0,0.0,0.0,0.0,0.0, 11:37:12.427
181153.906250, 181197.718750, 181227.578125, 175019.234375, 181284.000000, 176186.187500, 181286.906250, 175092.468750, 0, 1, 1, 0, 1,0.0,0.0,0.0,0.0,0.0, 11:37:12.427
181154.984375, 181198.546875, 181228.265625, 174915.984375, 181284.750000, 176256.828125, 181287.437500, 175089.343750, 0, 1, 1, 0, 1,0.0,0.0,0.0,0.0,0.0, 11:37:12.428
181157.687500, 181201.203125, 181231.046875, 174939.625000, 181287.484375, 176229.156250, 181290.125000, 175094.109375, 0, 1, 1, 0, 1,0.0,0.0,0.0,0.0,0.0, 11:37:12.428
181158.046875, 181201.656250, 181231.687500, 175046.828125, 181288.093750, 176159.281250, 181290.765625, 175106.718750, 0, 1, 1, 0, 1,0.0,0.0,0.0,0.0,0.0, 11:37:12.428
181159.031250, 181202.609375, 181232.703125, 175035.703125, 181289.062500, 176183.031250, 181291.781250, 175105.843750, 0, 1, 1, 0, 1,0.0,0.0,0.0,0.0,0.0, 11:37:12.429
181160.078125, 181203.484375, 181233.390625, 174929.578125, 181289.781250, 176258.656250, 181292.437500, 175089.171875, 0, 1, 1, 0, 1,0.0,0.0,0.0,0.0,0.0, 11:37:12.429
181161.703125, 181205.187500, 181235.109375, 174932.718750, 181291.468750, 176252.437500, 181294.046875, 175078.375000, 0, 1, 1, 0, 1,0.0,0.0,0.0,0.0,0.0, 11:37:12.429
181163.250000, 181207.031250, 181237.062500, 175042.703125, 181293.406250, 176178.359375, 181296.093750, 175080.312500, 0, 1, 1, 0, 1,0.0,0.0,0.0,0.0,0.0, 11:37:12.429
181163.921875, 181207.796875, 181237.812500, 175056.000000, 181294.046875, 176169.765625, 181296.765625, 175085.609375, 0, 1, 1, 0, 1,0.0,0.0,0.0,0.0,0.0, 11:37:12.430
181164.843750, 181208.468750, 181238.359375, 174946.343750, 181294.593750, 176244.703125, 181297.250000, 175085.437500, 0, 1, 1, 0, 1,0.0,0.0,0.0,0.0,0.0, 11:37:12.430
181168.343750, 181211.890625, 181241.765625, 174921.500000, 181297.937500, 176264.171875, 181300.718750, 175099.015625, 0, 1, 1, 0, 1,0.0,0.0,0.0,0.0,0.0, 11:37:12.431
181169.843750, 181213.500000, 181243.562500, 175018.265625, 181299.750000, 176194.031250, 181302.656250, 175135.765625, 0, 1, 1, 0, 1,0.0,0.0,0.0,0.0,0.0, 11:37:12.431
181170.218750, 181213.765625, 181243.937500, 175061.000000, 181300.203125, 176187.343750, 181303.109375, 175175.640625, 0, 1, 1, 0, 1,0.0,0.0,0.0,0.0,0.0, 11:37:12.431
181171.250000, 181214.750000, 181244.750000, 174958.984375, 181301.109375, 176272.156250, 181303.843750, 175197.296875, 0, 1, 1, 0, 1,0.0,0.0,0.0,0.0,0.0, 11:37:12.431
181171.796875, 181215.328125, 181245.125000, 174905.500000, 181301.468750, 176317.281250, 181304.250000, 175217.578125, 0, 1, 1, 0, 1,0.0,0.0,0.0,0.0,0.0, 11:37:12.432
181172.500000, 181216.187500, 181246.109375, 174990.296875, 181302.500000, 176269.781250, 181305.296875, 175241.671875, 0, 1, 1, 0, 1,0.0,0.0,0.0,0.0,0.0, 11:37:12.432
181173.203125, 181217.000000, 181246.984375, 175057.765625, 181303.578125, 176253.687500, 181306.281250, 175258.484375, 0, 1, 1, 0, 1,0.0,0.0,0.0,0.0,0.0, 11:37:12.433
181173.328125, 181217.000000, 181246.796875, 174970.765625, 181303.312500, 176337.593750, 181305.968750, 175248.640625, 0, 1, 1, 0, 1,0.0,0.0,0.0,0.0,0.0, 11:37:12.433
181175.031250, 181218.546875, 181248.406250, 174896.765625, 181304.875000, 176406.171875, 181307.375000, 175235.250000, 0, 1, 1, 0, 1,0.0,0.0,0.0,0.0,0.0, 11:37:12.433
181177.796875, 181221.484375, 181251.390625, 174965.781250, 181307.906250, 176373.671875, 181310.578125, 175235.140625, 0, 1, 1, 0, 1,0.0,0.0,0.0,0.0,0.0, 11:37:12.434
181178.781250, 181222.546875, 181252.640625, 175062.328125, 181309.156250, 176351.765625, 181311.953125, 175244.718750, 0, 1, 1, 0, 1,0.0,0.0,0.0,0.0,0.0, 11:37:12.434
181179.015625, 181222.546875, 181252.609375, 175005.531250, 181309.125000, 176431.562500, 181311.890625, 175245.468750, 0, 1, 1, 0, 1,0.0,0.0,0.0,0.0,0.0, 11:37:12.435
181180.812500, 181224.312500, 181254.171875, 174918.515625, 181310.796875, 176522.265625, 181313.453125, 175250.906250, 0, 1, 1, 0, 1,0.0,0.0,0.0,0.0,0.0, 11:37:12.435
181181.046875, 181224.578125, 181254.421875, 174963.265625, 181311.109375, 176509.859375, 181313.796875, 175274.187500, 0, 1, 1, 0, 1,0.0,0.0,0.0,0.0,0.0, 11:37:12.435
181183.484375, 181227.156250, 181257.109375, 175070.375000, 181313.875000, 176484.406250, 181316.562500, 175309.203125, 0, 1, 1, 0, 1,0.0,0.0,0.0,0.0,0.0, 11:37:12.436
181185.875000, 181229.546875, 181259.609375, 175039.921875, 181316.156250, 176551.796875, 181318.968750, 175343.531250, 0, 1, 1, 0, 1,0.0,0.0,0.0,0.0,0.0, 11:37:12.436
181184.015625, 181227.531250, 181257.468750, 174935.359375, 181314.187500, 176642.609375, 181316.609375, 175379.531250, 0, 1, 1, 0, 1,0.0,0.0,0.0,0.0,0.0, 11:37:12.436
181183.250000, 181226.843750, 181256.703125, 174950.234375, 181313.593750, 176643.531250, 181315.781250, 175419.750000, 0, 1, 1, 0, 1,0.0,0.0,0.0,0.0,0.0, 11:37:12.437
181186.156250, 181229.921875, 181259.984375, 175054.671875, 181316.875000, 176593.125000, 181319.125000, 175459.640625, 0, 1, 1, 0, 1,0.0,0.0,0.0,0.0,0.0, 11:37:12.437
181187.609375, 181231.265625, 181261.281250, 175044.859375, 181318.156250, 176621.000000, 181320.234375, 175477.640625, 0, 1, 1, 0, 1,0.0,0.0,0.0,0.0,0.0, 11:37:12.437
181189.937500, 181233.437500, 181263.281250, 174928.921875, 181320.109375, 176700.187500, 181321.843750, 175479.296875, 0, 1, 1, 0, 1,0.0,0.0,0.0,0.0,0.0, 11:37:12.438
181190.875000, 181234.468750, 181264.281250, 174917.578125, 181321.062500, 176696.609375, 181322.750000, 175489.062500, 0, 1, 1, 0, 1,0.0,0.0,0.0,0.0,0.0, 11:37:12.438
181191.593750, 181235.343750, 181265.250000, 175022.937500, 181322.031250, 176611.984375, 181323.796875, 175510.046875, 0, 1, 1, 0, 1,0.0,0.0,0.0,0.0,0.0, 11:37:12.438
181193.453125, 181237.218750, 181267.140625, 175048.500000, 181323.937500, 176592.828125, 181325.765625, 175530.187500, 0, 1, 1, 0, 1,0.0,0.0,0.0,0.0,0.0, 11:37:12.439
181192.375000, 181235.921875, 181265.843750, 174941.125000, 181322.593750, 176654.484375, 181324.406250, 175540.687500, 0, 1, 1, 0, 1,0.0,0.0,0.0,0.0,0.0, 11:37:12.439
181191.593750, 181235.093750, 181264.921875, 174905.921875, 181321.718750, 176658.843750, 181323.578125, 175559.718750, 0, 1, 1, 0, 1,0.0,0.0,0.0,0.0,0.0, 11:37:12.439
181192.312500, 181235.843750, 181265.984375, 175002.593750, 181322.640625, 176570.437500, 181324.671875, 175592.437500, 0, 1, 1, 0, 1,0.0,0.0,0.0,0.0,0.0, 11:37:12.440
181195.765625, 181239.359375, 181269.515625, 175060.046875, 181326.234375, 176523.390625, 181328.281250, 175621.453125, 0, 1, 1, 0, 1,0.0,0.0,0.0,0.0,0.0, 11:37:12.440
181197.671875, 181241.281250, 181271.140625, 174967.531250, 181327.828125, 176564.734375, 181329.921875, 175623.390625, 0, 1, 1, 0, 1,0.0,0.0,0.0,0.0,0.0, 11:37:12.441
181198.453125, 181242.000000, 181271.859375, 174913.375000, 181328.406250, 176567.578125, 181330.734375, 175609.796875, 0, 1, 1, 0, 1,0.0,0.0,0.0,0.0,0.0, 11:37:12.441
181199.265625, 181242.828125, 181272.859375, 174999.843750, 181329.500000, 176462.593750, 181331.968750, 175595.484375, 0, 1, 1, 0, 1,0.0,0.0,0.0,0.0,0.0, 11:37:12.442
181199.421875, 181243.109375, 181273.296875, 175080.890625, 181329.921875, 176370.500000, 181332.593750, 175585.000000, 0, 1, 1, 0, 1,0.0,0.0,0.0,0.0,0.0, 11:37:12.442
181200.375000, 181244.031250, 181274.093750, 175006.859375, 181330.546875, 176388.875000, 181333.031250, 175554.437500, 0, 1, 1, 0, 1,0.0,0.0,0.0,0.0,0.0, 11:37:12.443
181200.125000, 181243.625000, 181273.687500, 174934.843750, 181330.062500, 176407.109375, 181332.343750, 175525.656250, 0, 1, 1, 0, 1,0.0,0.0,0.0,0.0,0.0, 11:37:12.443
181201.562500, 181245.281250, 181275.453125, 174996.828125, 181331.843750, 176304.390625, 181334.000000, 175523.843750, 0, 1, 1, 0, 1,0.0,0.0,0.0,0.0,0.0, 11:37:12.443
181202.031250, 181245.968750, 181276.171875, 175096.140625, 181332.515625, 176204.203125, 181334.750000, 175534.968750, 0, 1, 1, 0, 1,0.0,0.0,0.0,0.0,0.0, 11:37:12.444
181203.796875, 181247.468750, 181277.687500, 175043.406250, 181334.015625, 176207.937500, 181336.171875, 175532.531250, 0, 1, 1, 0, 1,0.0,0.0,0.0,0.0,0.0, 11:37:12.444
181206.234375, 181249.734375, 181279.921875, 174946.500000, 181336.171875, 176237.546875, 181338.218750, 175519.484375, 0, 1, 1, 0, 1,0.0,0.0,0.0,0.0,0.0, 11:37:12.444
181206.859375, 181250.468750, 181280.593750, 174986.421875, 181336.812500, 176181.453125, 181338.890625, 175506.703125, 0, 1, 1, 0, 1,6.4287084E-4,8.51571E-4,0.0010467859,0.0032944349,0.0041862675, 11:37:12.445
181205.078125, 181248.906250, 181279.140625, 175093.968750, 181335.375000, 176085.859375, 181337.546875, 175496.703125, 0, 1, 1, 0, 1,6.4287084E-4,8.51571E-4,0.0010467859,0.0032944349,0.0041862675, 11:37:12.445
181206.640625, 181250.406250, 181280.625000, 175068.171875, 181336.859375, 176092.203125, 181339.078125, 175460.265625, 0, 1, 1, 0, 1,6.4287084E-4,8.51571E-4,0.0010467859,0.0032944349,0.0041862675, 11:37:12.446
181208.875000, 181252.390625, 181282.500000, 174963.078125, 181338.625000, 176148.031250, 181340.906250, 175407.750000, 0, 1, 1, 0, 1,6.4287084E-4,8.51571E-4,0.0010467859,0.0032944349,0.0041862675, 11:37:12.446
181208.515625, 181252.031250, 181282.281250, 174979.078125, 181338.359375, 176115.765625, 181340.640625, 175365.546875, 0, 1, 1, 0, 1,6.4287084E-4,8.51571E-4,0.0010467859,0.0032944349,0.0041862675, 11:37:12.446
181208.953125, 181252.687500, 181283.062500, 175094.703125, 181339.093750, 176024.515625, 181341.484375, 175333.578125, 0, 1, 1, 0, 1,6.4287084E-4,8.51571E-4,0.0010467859,0.0032944349,0.0041862675, 11:37:12.447
181210.859375, 181254.671875, 181284.953125, 175108.359375, 181341.062500, 176023.671875, 181343.250000, 175291.359375, 0, 1, 1, 0, 1,6.4287084E-4,8.51571E-4,0.0010467859,0.0032944349,0.0041862675, 11:37:12.447
181212.171875, 181255.921875, 181286.046875, 175009.250000, 181342.125000, 176096.687500, 181344.093750, 175236.343750, 0, 1, 1, 0, 1,6.4287084E-4,8.51571E-4,0.0010467859,0.0032944349,0.0041862675, 11:37:12.448
181212.265625, 181255.937500, 181286.093750, 175005.593750, 181342.171875, 176092.093750, 181344.218750, 175186.640625, 0, 1, 1, 0, 1,6.4287084E-4,8.51571E-4,0.0010467859,0.0032944349,0.0041862675, 11:37:12.448
181212.046875, 181255.828125, 181286.187500, 175130.031250, 181342.203125, 176017.765625, 181344.531250, 175150.187500, 0, 1, 1, 0, 1,6.4287084E-4,8.51571E-4,0.0010467859,0.0032944349,0.0041862675, 11:37:12.448
181214.281250, 181258.140625, 181288.515625, 175185.765625, 181344.546875, 176010.500000, 181346.937500, 175125.703125, 0, 1, 1, 0, 1,6.4287084E-4,8.51571E-4,0.0010467859,0.0032944349,0.0041862675, 11:37:12.449
181214.500000, 181258.093750, 181288.328125, 175097.953125, 181344.500000, 176085.421875, 181346.734375, 175105.734375, 0, 1, 1, 0, 1,6.4287084E-4,8.51571E-4,0.0010467859,0.0032944349,0.0041862675, 11:37:12.449
181217.031250, 181260.531250, 181290.828125, 175079.906250, 181346.984375, 176088.593750, 181349.234375, 175103.890625, 0, 1, 1, 0, 1,6.4287084E-4,8.51571E-4,0.0010467859,0.0032944349,0.0041862675, 11:37:12.450
181217.234375, 181260.921875, 181291.265625, 175195.312500, 181347.453125, 175992.875000, 181349.937500, 175110.437500, 0, 1, 1, 0, 1,6.4287084E-4,8.51571E-4,0.0010467859,0.0032944349,0.0041862675, 11:37:12.450
181217.515625, 181261.328125, 181291.734375, 175276.703125, 181347.937500, 175952.078125, 181350.515625, 175114.265625, 0, 1, 1, 0, 1,6.4287084E-4,8.51571E-4,0.0010467859,0.0032944349,0.0041862675, 11:37:12.451
181218.296875, 181262.046875, 181292.328125, 175198.906250, 181348.593750, 176014.765625, 181351.078125, 175102.687500, 0, 1, 1, 0, 1,6.4287084E-4,8.51571E-4,0.0010467859,0.0032944349,0.0041862675, 11:37:12.451
181218.750000, 181262.453125, 181292.531250, 175147.296875, 181348.890625, 176050.296875, 181351.343750, 175084.531250, 0, 1, 1, 0, 1,0.0,0.0,0.0,0.0,0.0, 11:37:12.869
181218.859375, 181262.671875, 181292.890625, 175240.078125, 181349.328125, 175980.953125, 181351.718750, 175069.000000, 0, 1, 1, 0, 1,0.0,0.0,0.0,0.0,0.0, 11:37:12.869
181219.937500, 181263.796875, 181294.234375, 175340.640625, 181350.687500, 175928.546875, 181353.109375, 175060.562500, 0, 1, 1, 0, 1,0.0,0.0,0.0,0.0,0.0, 11:37:12.869
181221.234375, 181264.953125, 181295.281250, 175278.031250, 181351.703125, 175984.359375, 181354.093750, 175048.625000, 0, 1, 1, 0, 1,0.0,0.0,0.0,0.0,0.0, 11:37:12.870
181219.796875, 181263.390625, 181293.656250, 175201.187500, 181350.000000, 176041.656250, 181352.281250, 175046.468750, 0, 1, 1, 0, 1,0.0,0.0,0.0,0.0,0.0, 11:37:12.870
181221.546875, 181265.171875, 181295.593750, 175266.687500, 181351.906250, 175987.484375, 181354.203125, 175068.437500, 0, 1, 1, 0, 1,0.0,0.0,0.0,0.0,0.0, 11:37:12.870
181223.953125, 181267.765625, 181298.328125, 175378.515625, 181354.656250, 175918.531250, 181357.046875, 175109.484375, 0, 1, 1, 0, 1,0.0,0.0,0.0,0.0,0.0, 11:37:12.871
181226.593750, 181270.343750, 181300.734375, 175335.843750, 181357.156250, 175956.750000, 181359.515625, 175138.250000, 0, 1, 1, 0, 1,0.0,0.0,0.0,0.0,0.0, 11:37:12.871
181226.734375, 181270.140625, 181300.468750, 175234.343750, 181356.765625, 176027.687500, 181359.125000, 175153.140625, 0, 1, 1, 0, 1,0.0,0.0,0.0,0.0,0.0, 11:37:12.871
181225.796875, 181269.125000, 181299.593750, 175269.609375, 181355.906250, 175997.046875, 181358.203125, 175172.562500, 0, 1, 1, 0, 1,0.0,0.0,0.0,0.0,0.0, 11:37:12.872
181227.375000, 181270.859375, 181301.468750, 175390.000000, 181357.796875, 175918.437500, 181360.171875, 175194.062500, 0, 1, 1, 0, 1,0.0,0.0,0.0,0.0,0.0, 11:37:12.872
181229.375000, 181272.890625, 181303.421875, 175377.062500, 181359.671875, 175934.906250, 181362.093750, 175198.671875, 0, 1, 1, 0, 1,0.0,0.0,0.0,0.0,0.0, 11:37:12.873
181231.640625, 181275.062500, 181305.500000, 175264.765625, 181361.734375, 176010.890625, 181363.968750, 175194.234375, 0, 1, 1, 0, 1,0.0,0.0,0.0,0.0,0.0, 11:37:12.873
181232.296875, 181275.687500, 181306.140625, 175265.031250, 181362.421875, 175997.421875, 181364.656250, 175197.640625, 0, 1, 1, 0, 1,0.0,0.0,0.0,0.0,0.0, 11:37:12.874
181232.562500, 181276.187500, 181306.656250, 175373.187500, 181363.031250, 175915.062500, 181365.312500, 175214.828125, 0, 1, 1, 0, 1,0.0,0.0,0.0,0.0,0.0, 11:37:12.874
181231.296875, 181274.968750, 181305.406250, 175380.468750, 181361.796875, 175912.171875, 181363.875000, 175234.578125, 0, 1, 1, 0, 1,0.0,0.0,0.0,0.0,0.0, 11:37:12.875
181232.437500, 181275.875000, 181306.140625, 175256.640625, 181362.546875, 175985.671875, 181364.437500, 175250.203125, 0, 1, 1, 0, 1,0.0,0.0,0.0,0.0,0.0, 11:37:12.875
181233.546875, 181277.015625, 181307.171875, 175221.937500, 181363.640625, 175990.484375, 181365.609375, 175268.890625, 0, 1, 1, 0, 1,0.0,0.0,0.0,0.0,0.0, 11:37:12.875
181233.531250, 181277.250000, 181307.484375, 175317.109375, 181363.968750, 175907.312500, 181365.937500, 175287.265625, 0, 1, 1, 0, 1,0.0,0.0,0.0,0.0,0.0, 11:37:12.876
181236.031250, 181279.812500, 181310.218750, 175351.640625, 181366.578125, 175885.265625, 181368.468750, 175298.562500, 0, 1, 1, 0, 1,0.0,0.0,0.0,0.0,0.0, 11:37:12.876
181236.000000, 181279.562500, 181309.796875, 175235.812500, 181366.203125, 175961.062500, 181368.031250, 175291.828125, 0, 1, 1, 0, 1,0.0,0.0,0.0,0.0,0.0, 11:37:12.876
181235.453125, 181278.921875, 181309.156250, 175172.718750, 181365.562500, 175993.765625, 181367.281250, 175278.812500, 0, 1, 1, 0, 1,0.0,0.0,0.0,0.0,0.0, 11:37:12.877
181236.812500, 181280.515625, 181310.890625, 175249.500000, 181367.343750, 175925.453125, 181369.109375, 175268.296875, 0, 1, 1, 0, 1,0.0,0.0,0.0,0.0,0.0, 11:37:12.877
181238.593750, 181282.406250, 181312.859375, 175305.906250, 181369.265625, 175894.671875, 181371.218750, 175258.171875, 0, 1, 1, 0, 1,0.0,0.0,0.0,0.0,0.0, 11:37:12.877
181240.953125, 181284.640625, 181314.906250, 175202.671875, 181371.343750, 175967.187500, 181373.156250, 175233.328125, 0, 1, 1, 0, 1,0.0,0.0,0.0,0.0,0.0, 11:37:12.877
181242.000000, 181285.468750, 181315.796875, 175117.546875, 181372.203125, 176021.031250, 181373.875000, 175208.812500, 0, 1, 1, 0, 1,0.0,0.0,0.0,0.0,0.0, 11:37:12.878
181244.859375, 181288.531250, 181318.953125, 175177.750000, 181375.375000, 175962.968750, 181377.000000, 175196.671875, 0, 1, 1, 0, 1,0.0,0.0,0.0,0.0,0.0, 11:37:12.878
181245.468750, 181289.312500, 181319.781250, 175263.625000, 181376.171875, 175911.109375, 181377.968750, 175193.843750, 0, 1, 1, 0, 1,0.0,0.0,0.0,0.0,0.0, 11:37:12.878
181245.500000, 181289.265625, 181319.625000, 175196.562500, 181375.953125, 175969.734375, 181377.765625, 175179.171875, 0, 1, 1, 0, 1,0.0,0.0,0.0,0.0,0.0, 11:37:12.879
181246.718750, 181290.281250, 181320.453125, 175103.265625, 181376.843750, 176037.500000, 181378.468750, 175161.312500, 0, 1, 1, 0, 1,0.0,0.0,0.0,0.0,0.0, 11:37:12.879
181246.468750, 181290.093750, 181320.359375, 175148.625000, 181376.828125, 175993.921875, 181378.453125, 175153.718750, 0, 1, 1, 0, 1,0.0,0.0,0.0,0.0,0.0, 11:37:12.880
181247.609375, 181291.328125, 181321.765625, 175251.843750, 181378.187500, 175924.343750, 181379.968750, 175156.578125, 0, 1, 1, 0, 1,0.0,0.0,0.0,0.0,0.0, 11:37:12.880
181248.437500, 181292.156250, 181322.593750, 175210.953125, 181378.953125, 175954.953125, 181380.843750, 175151.218750, 0, 1, 1, 0, 1,0.0,0.0,0.0,0.0,0.0, 11:37:12.880
181249.937500, 181293.453125, 181323.765625, 175104.546875, 181380.109375, 176024.453125, 181381.921875, 175143.843750, 0, 1, 1, 0, 1,0.0,0.0,0.0,0.0,0.0, 11:37:12.881
181251.984375, 181295.468750, 181325.890625, 175124.031250, 181382.203125, 175997.656250, 181384.062500, 175145.046875, 0, 1, 1, 0, 1,0.0,0.0,0.0,0.0,0.0, 11:37:12.881
181254.328125, 181298.062500, 181328.671875, 175232.281250, 181384.937500, 175920.765625, 181386.843750, 175153.984375, 0, 1, 1, 0, 1,0.0,0.0,0.0,0.0,0.0, 11:37:12.882
181256.375000, 181300.062500, 181330.625000, 175223.343750, 181386.968750, 175935.515625, 181388.796875, 175155.453125, 0, 1, 1, 0, 1,0.0,0.0,0.0,0.0,0.0, 11:37:12.882
181256.546875, 181300.062500, 181330.546875, 175109.953125, 181386.843750, 176010.062500, 181388.578125, 175144.843750, 0, 1, 1, 0, 1,0.0,0.0,0.0,0.0,0.0, 11:37:12.883
181257.484375, 181301.046875, 181331.500000, 175103.203125, 181387.796875, 175999.890625, 181389.578125, 175137.890625, 0, 1, 1, 0, 1,0.0,0.0,0.0,0.0,0.0, 11:37:12.883
181257.421875, 181301.250000, 181331.687500, 175210.640625, 181388.015625, 175913.828125, 181389.828125, 175137.578125, 0, 1, 1, 0, 1,0.0,0.0,0.0,0.0,0.0, 11:37:12.883
181259.187500, 181303.062500, 181333.531250, 175233.359375, 181389.812500, 175904.328125, 181391.640625, 175133.156250, 0, 1, 1, 0, 1,0.0,0.0,0.0,0.0,0.0, 11:37:12.883
181259.000000, 181302.609375, 181332.968750, 175120.703125, 181389.187500, 175983.343750, 181391.078125, 175117.062500, 0, 1, 1, 0, 1,0.0,0.0,0.0,0.0,0.0, 11:37:12.883
181259.359375, 181302.843750, 181333.187500, 175085.906250, 181389.453125, 176003.390625, 181391.265625, 175104.046875, 0, 1, 1, 0, 1,0.0,0.0,0.0,0.0,0.0, 11:37:12.884
181260.750000, 181304.312500, 181334.875000, 175182.734375, 181391.218750, 175932.000000, 181392.984375, 175100.750000, 0, 1, 1, 0, 1,0.0,0.0,0.0,0.0,0.0, 11:37:12.884
181263.187500, 181306.890625, 181337.593750, 175234.296875, 181393.812500, 175913.156250, 181395.781250, 175101.328125, 0, 1, 1, 0, 1,0.0,0.0,0.0,0.0,0.0, 11:37:12.884
181264.734375, 181308.312500, 181338.734375, 175133.890625, 181394.968750, 175991.421875, 181396.921875, 175088.859375, 0, 1, 1, 0, 1,0.0,0.0,0.0,0.0,0.0, 11:37:12.884
181264.328125, 181307.781250, 181338.156250, 175076.000000, 181394.437500, 176034.984375, 181396.328125, 175079.984375, 0, 1, 1, 0, 1,0.0,0.0,0.0,0.0,0.0, 11:37:12.885
181263.906250, 181307.515625, 181338.000000, 175159.281250, 181394.281250, 175977.296875, 181396.265625, 175085.796875, 0, 1, 1, 0, 1,0.0,0.0,0.0,0.0,0.0, 11:37:12.885
181265.171875, 181308.875000, 181339.359375, 175235.218750, 181395.703125, 175944.484375, 181397.750000, 175100.984375, 0, 1, 1, 0, 1,0.0,0.0,0.0,0.0,0.0, 11:37:12.885
181267.140625, 181310.734375, 181341.125000, 175150.390625, 181397.609375, 176015.421875, 181399.390625, 175107.343750, 0, 1, 1, 0, 1,0.0,0.0,0.0,0.0,0.0, 11:37:12.886
181268.015625, 181311.484375, 181341.859375, 175067.078125, 181398.234375, 176077.781250, 181400.062500, 175114.156250, 0, 1, 1, 0, 1,0.0,0.0,0.0,0.0,0.0, 11:37:12.886
181269.218750, 181312.812500, 181343.265625, 175127.953125, 181399.671875, 176035.531250, 181401.453125, 175130.531250, 0, 1, 1, 0, 1,0.0,0.0,0.0,0.0,0.0, 11:37:12.886
181270.890625, 181314.625000, 181345.156250, 175225.750000, 181401.656250, 175991.078125, 181403.312500, 175155.656250, 0, 1, 1, 0, 1,0.0,0.0,0.0,0.0,0.0, 11:37:12.887
181274.093750, 181317.750000, 181348.250000, 175168.312500, 181404.671875, 176048.281250, 181406.234375, 175164.718750, 0, 1, 1, 0, 1,0.0,0.0,0.0,0.0,0.0, 11:37:12.887
181276.218750, 181319.671875, 181350.046875, 175072.156250, 181406.500000, 176129.078125, 181408.093750, 175163.546875, 0, 1, 1, 0, 1,0.0,0.0,0.0,0.0,0.0, 11:37:12.887
181277.062500, 181320.515625, 181350.968750, 175112.859375, 181407.328125, 176108.515625, 181409.015625, 175176.250000, 0, 1, 1, 0, 1,0.0,0.0,0.0,0.0,0.0, 11:37:12.888
181277.296875, 181320.937500, 181351.515625, 175219.875000, 181407.906250, 176049.578125, 181409.671875, 175206.843750, 0, 1, 1, 0, 1,0.0,0.0,0.0,0.0,0.0, 11:37:12.888
181278.187500, 181321.859375, 181352.343750, 175190.437500, 181408.765625, 176084.625000, 181410.437500, 175234.140625, 0, 1, 1, 0, 1,0.0,0.0,0.0,0.0,0.0, 11:37:12.888
181278.140625, 181321.640625, 181352.015625, 175076.328125, 181408.359375, 176153.515625, 181410.078125, 175257.937500, 0, 1, 1, 0, 1,0.0,0.0,0.0,0.0,0.0, 11:37:12.889
181280.218750, 181323.796875, 181354.109375, 175089.406250, 181410.531250, 176143.031250, 181412.203125, 175283.640625, 0, 1, 1, 0, 1,0.0,0.0,0.0,0.0,0.0, 11:37:12.889
181282.593750, 181326.437500, 181356.890625, 175206.359375, 181413.234375, 176077.578125, 181414.890625, 175315.437500, 0, 1, 1, 0, 1,0.0,0.0,0.0,0.0,0.0, 11:37:12.889
181281.875000, 181325.640625, 181356.140625, 175209.078125, 181412.500000, 176079.578125, 181414.265625, 175335.890625, 0, 1, 1, 0, 1,0.0,0.0,0.0,0.0,0.0, 11:37:12.890
181283.734375, 181327.250000, 181357.562500, 175100.234375, 181414.062500, 176156.343750, 181415.671875, 175335.437500, 0, 1, 1, 0, 1,0.0,0.0,0.0,0.0,0.0, 11:37:12.890
181285.828125, 181329.343750, 181359.718750, 175093.812500, 181416.140625, 176163.390625, 181417.687500, 175341.718750, 0, 1, 1, 0, 1,0.0,0.0,0.0,0.0,0.0, 11:37:12.890
181287.078125, 181330.734375, 181361.359375, 175205.312500, 181417.656250, 176084.046875, 181419.359375, 175373.218750, 0, 1, 1, 0, 1,0.0,0.0,0.0,0.0,0.0, 11:37:12.891
181287.593750, 181331.296875, 181361.984375, 175243.421875, 181418.312500, 176072.703125, 181419.968750, 175412.906250, 0, 1, 1, 0, 1,0.0,0.0,0.0,0.0,0.0, 11:37:12.891
181287.437500, 181330.953125, 181361.421875, 175136.062500, 181417.796875, 176149.546875, 181419.312500, 175441.109375, 0, 1, 1, 0, 1,0.0,0.0,0.0,0.0,0.0, 11:37:12.891
181287.078125, 181330.671875, 181361.062500, 175091.203125, 181417.390625, 176171.609375, 181418.828125, 175475.156250, 0, 1, 1, 0, 1,0.0,0.0,0.0,0.0,0.0, 11:37:12.892
181289.875000, 181333.765625, 181364.156250, 175181.593750, 181420.562500, 176089.890625, 181422.109375, 175517.000000, 0, 1, 1, 0, 1,0.0,0.0,0.0,0.0,0.0, 11:37:12.892
181291.421875, 181335.312500, 181365.781250, 175238.437500, 181422.156250, 176043.734375, 181423.734375, 175544.765625, 0, 1, 1, 0, 1,0.0,0.0,0.0,0.0,0.0, 11:37:12.893
181290.390625, 181334.015625, 181364.468750, 175142.921875, 181420.765625, 176104.765625, 181422.125000, 175538.968750, 0, 1, 1, 0, 1,0.0,0.0,0.0,0.0,0.0, 11:37:12.894
181292.328125, 181335.718750, 181366.156250, 175074.140625, 181422.515625, 176126.875000, 181423.656250, 175530.453125, 0, 1, 1, 0, 1,0.0,0.0,0.0,0.0,0.0, 11:37:12.895
181290.921875, 181334.531250, 181365.203125, 175146.609375, 181421.375000, 176034.828125, 181422.640625, 175530.015625, 0, 1, 1, 0, 1,0.0,0.0,0.0,0.0,0.0, 11:37:12.895
181293.000000, 181336.765625, 181367.390625, 175229.171875, 181423.656250, 175964.062500, 181425.015625, 175532.062500, 0, 1, 1, 0, 1,0.0,0.0,0.0,0.0,0.0, 11:37:12.895
181295.468750, 181339.109375, 181369.843750, 175147.437500, 181425.953125, 175993.703125, 181427.187500, 175529.890625, 0, 1, 1, 0, 1,0.0,0.0,0.0,0.0,0.0, 11:37:12.896
181296.578125, 181340.234375, 181370.765625, 175051.562500, 181426.796875, 176029.765625, 181428.031250, 175535.812500, 0, 1, 1, 0, 1,0.0,0.0,0.0,0.0,0.0, 11:37:12.896
181298.062500, 181341.781250, 181372.312500, 175097.093750, 181428.406250, 175960.609375, 181429.812500, 175548.500000, 0, 1, 1, 0, 1,0.0,0.0,0.0,0.0,0.0, 11:37:12.896
181299.671875, 181343.406250, 181374.203125, 175188.875000, 181430.218750, 175875.500000, 181431.734375, 175554.265625, 0, 1, 1, 0, 1,0.0,0.0,0.0,0.0,0.0, 11:37:12.897
181300.484375, 181344.171875, 181374.875000, 175136.687500, 181430.937500, 175897.187500, 181432.359375, 175537.781250, 0, 1, 1, 0, 1,0.0,0.0,0.0,0.0,0.0, 11:37:12.897
181298.062500, 181341.500000, 181372.109375, 175031.281250, 181428.171875, 175940.781250, 181429.578125, 175511.484375, 0, 1, 1, 0, 1,0.0,0.0,0.0,0.0,0.0, 11:37:12.897
181299.375000, 181342.921875, 181373.609375, 175061.250000, 181429.531250, 175894.500000, 181431.140625, 175479.687500, 0, 1, 1, 0, 1,0.0,0.0,0.0,0.0,0.0, 11:37:12.898
181300.109375, 181343.937500, 181374.703125, 175177.546875, 181430.671875, 175820.359375, 181432.390625, 175453.656250, 0, 1, 1, 0, 1,0.0,0.0,0.0,0.0,0.0, 11:37:12.898
181301.625000, 181345.468750, 181376.265625, 175165.421875, 181432.203125, 175839.406250, 181433.812500, 175428.593750, 0, 1, 1, 0, 1,0.0,0.0,0.0,0.0,0.0, 11:37:12.898
181303.312500, 181346.984375, 181377.500000, 175058.406250, 181433.578125, 175913.609375, 181435.046875, 175397.843750, 0, 1, 1, 0, 1,0.0,0.0,0.0,0.0,0.0, 11:37:12.898
181303.281250, 181346.875000, 181377.406250, 175075.484375, 181433.500000, 175916.734375, 181434.921875, 175373.062500, 0, 1, 1, 0, 1,0.0,0.0,0.0,0.0,0.0, 11:37:12.899
181303.421875, 181347.203125, 181377.937500, 175199.453125, 181434.046875, 175843.218750, 181435.500000, 175366.421875, 0, 1, 1, 0, 1,0.0,0.0,0.0,0.0,0.0, 11:37:12.899
181305.968750, 181349.734375, 181380.437500, 175217.593750, 181436.484375, 175845.062500, 181438.062500, 175357.765625, 0, 1, 1, 0, 1,0.0,0.0,0.0,0.0,0.0, 11:37:12.899
181305.234375, 181348.843750, 181379.328125, 175109.343750, 181435.453125, 175923.125000, 181437.062500, 175335.265625, 0, 1, 1, 0, 1,0.0,0.0,0.0,0.0,0.0, 11:37:12.900
181305.343750, 181349.000000, 181379.531250, 175097.687500, 181435.500000, 175928.968750, 181437.281250, 175323.296875, 0, 1, 1, 0, 1,0.0,0.0,0.0,0.0,0.0, 11:37:12.901
181307.000000, 181350.781250, 181381.515625, 175215.812500, 181437.375000, 175854.015625, 181439.437500, 175335.375000, 0, 1, 1, 0, 1,0.0,0.0,0.0,0.0,0.0, 11:37:12.902
181306.968750, 181350.890625, 181381.625000, 175266.656250, 181437.531250, 175841.031250, 181439.453125, 175355.265625, 0, 1, 1, 0, 1,0.0,0.0,0.0,0.0,0.0, 11:37:12.902
181307.546875, 181351.281250, 181381.921875, 175166.968750, 181437.843750, 175915.578125, 181439.656250, 175356.218750, 0, 1, 1, 0, 1,0.0,0.0,0.0,0.0,0.0, 11:37:12.902
181307.546875, 181351.203125, 181381.718750, 175123.593750, 181437.734375, 175934.171875, 181439.515625, 175360.968750, 0, 1, 1, 0, 1,0.0,0.0,0.0,0.0,0.0, 11:37:12.902
181308.468750, 181352.421875, 181383.078125, 175223.500000, 181438.953125, 175851.984375, 181440.921875, 175375.984375, 0, 1, 1, 0, 1,0.0,0.0,0.0,0.0,0.0, 11:37:12.903
181309.125000, 181353.203125, 181383.937500, 175300.296875, 181439.812500, 175805.421875, 181441.828125, 175387.218750, 0, 1, 1, 0, 1,0.0,0.0,0.0,0.0,0.0, 11:37:12.903
181309.984375, 181353.984375, 181384.484375, 175207.031250, 181440.343750, 175848.406250, 181442.171875, 175377.640625, 0, 1, 1, 0, 1,0.0,0.0,0.0,0.0,0.0, 11:37:12.903
181310.843750, 181354.687500, 181385.250000, 175129.937500, 181441.078125, 175865.015625, 181442.671875, 175369.328125, 0, 1, 1, 0, 1,0.0,0.0,0.0,0.0,0.0, 11:37:12.903
181309.187500, 181353.125000, 181383.890625, 175202.062500, 181439.703125, 175771.609375, 181441.359375, 175373.906250, 0, 1, 1, 0, 1,0.0,0.0,0.0,0.0,0.0, 11:37:12.903
181309.796875, 181353.953125, 181384.750000, 175290.000000, 181440.640625, 175676.484375, 181442.328125, 175383.890625, 0, 1, 1, 0, 1,0.0,0.0,0.0,0.0,0.0, 11:37:12.904
181310.109375, 181354.156250, 181384.953125, 175216.250000, 181440.796875, 175696.421875, 181442.375000, 175382.156250, 0, 1, 1, 0, 1,0.0,0.0,0.0,0.0,0.0, 11:37:12.904
181309.093750, 181352.953125, 181383.703125, 175113.187500, 181439.437500, 175719.546875, 181441.000000, 175392.171875, 0, 1, 1, 0, 1,0.0,0.0,0.0,0.0,0.0, 11:37:12.904
181308.984375, 181353.015625, 181383.859375, 175145.312500, 181439.500000, 175609.953125, 181441.046875, 175419.640625, 0, 1, 1, 0, 1,0.0,0.0,0.0,0.0,0.0, 11:37:12.904
181310.078125, 181354.375000, 181385.312500, 175235.078125, 181440.875000, 175471.203125, 181442.421875, 175441.656250, 0, 1, 1, 0, 1,0.0,0.0,0.0,0.0,0.0, 11:37:12.904
181311.109375, 181355.312500, 181386.140625, 175177.859375, 181441.781250, 175425.203125, 181443.125000, 175456.843750, 0, 1, 1, 0, 1,0.0,0.0,0.0,0.0,0.0, 11:37:12.905
181312.343750, 181356.390625, 181387.078125, 175058.437500, 181442.718750, 175407.250000, 181443.828125, 175474.078125, 0, 1, 1, 0, 1,0.0,0.0,0.0,0.0,0.0, 11:37:12.905
181313.250000, 181357.281250, 181388.109375, 175079.984375, 181443.750000, 175299.296875, 181444.921875, 175487.046875, 0, 1, 1, 0, 1,0.0,0.0,0.0,0.0,0.0, 11:37:12.905
181310.796875, 181355.140625, 181386.078125, 175189.859375, 181441.750000, 175128.812500, 181442.921875, 175498.687500, 0, 1, 1, 0, 1,0.0,0.0,0.0,0.0,0.0, 11:37:12.905
181311.562500, 181355.968750, 181386.921875, 175175.437500, 181442.625000, 175053.671875, 181443.546875, 175499.125000, 0, 1, 1, 0, 1,0.0,0.0,0.0,0.0,0.0, 11:37:12.905
181309.968750, 181354.156250, 181384.906250, 175062.296875, 181440.562500, 175079.218750, 181441.078125, 175486.250000, 0, 1, 1, 0, 1,0.0,0.0,0.0,0.0,0.0, 11:37:12.906
181310.265625, 181354.375000, 181385.109375, 175052.359375, 181440.812500, 175007.812500, 181441.281250, 175479.156250, 0, 1, 1, 0, 1,0.0,0.0,0.0,0.0,0.0, 11:37:12.906
181310.656250, 181354.937500, 181385.781250, 175159.390625, 181441.515625, 174861.453125, 181442.156250, 175476.812500, 0, 1, 1, 0, 1,0.0,0.0,0.0,0.0,0.0, 11:37:12.906
181309.640625, 181354.062500, 181384.875000, 175173.921875, 181440.609375, 174809.984375, 181441.078125, 175472.453125, 0, 1, 1, 0, 1,0.0,0.0,0.0,0.0,0.0, 11:37:12.908
181311.484375, 181355.750000, 181386.437500, 175046.093750, 181442.218750, 174852.593750, 181442.421875, 175460.421875, 0, 1, 1, 0, 1,0.0,0.0,0.0,0.0,0.0, 11:37:12.909
181310.953125, 181355.125000, 181385.718750, 175005.750000, 181441.468750, 174853.484375, 181441.593750, 175445.406250, 0, 1, 1, 0, 1,0.0,0.0,0.0,0.0,0.0, 11:37:12.909
181311.265625, 181355.703125, 181386.390625, 175098.218750, 181442.109375, 174749.625000, 181442.312500, 175437.875000, 0, 1, 1, 0, 1,0.0,0.0,0.0,0.0,0.0, 11:37:12.910
181312.140625, 181356.656250, 181387.375000, 175134.718750, 181443.078125, 174689.609375, 181443.437500, 175435.078125, 0, 1, 1, 0, 1,0.0,0.0,0.0,0.0,0.0, 11:37:12.910
181312.562500, 181356.765625, 181387.390625, 175024.453125, 181443.343750, 174757.593750, 181443.156250, 175407.656250, 0, 1, 1, 0, 1,0.0,0.0,0.0,0.0,0.0, 11:37:12.910
181312.359375, 181356.531250, 181387.234375, 174966.359375, 181443.187500, 174789.109375, 181442.718750, 175367.312500, 0, 1, 1, 0, 1,0.0,0.0,0.0,0.0,0.0, 11:37:12.911
181311.093750, 181355.390625, 181386.296875, 175053.734375, 181441.828125, 174697.421875, 181441.984375, 175325.328125, 0, 1, 1, 0, 1,0.0,0.0,0.0,0.0,0.0, 11:37:12.911
181308.046875, 181352.531250, 181383.546875, 175133.531250, 181438.421875, 174645.937500, 181439.453125, 175278.171875, 0, 1, 1, 0, 1,0.0,0.0,0.0,0.0,0.0, 11:37:12.911
181309.906250, 181354.296875, 181385.062500, 175045.921875, 181440.843750, 174707.203125, 181440.843750, 175229.203125, 0, 1, 1, 0, 1,0.0,0.0,0.0,0.0,0.0, 11:37:13.350
181311.281250, 181355.500000, 181386.125000, 174965.218750, 181442.218750, 174760.843750, 181441.843750, 175196.187500, 0, 1, 1, 0, 1,0.0,0.0,0.0,0.0,0.0, 11:37:13.350
181309.750000, 181354.046875, 181384.828125, 175037.890625, 181440.656250, 174705.984375, 181440.703125, 175179.093750, 0, 1, 1, 0, 1,0.0,0.0,0.0,0.0,0.0, 11:37:13.350
181313.406250, 181357.890625, 181388.890625, 175141.609375, 181443.671875, 174646.062500, 181444.906250, 175180.515625, 0, 1, 1, 0, 1,0.0,0.0,0.0,0.0,0.0, 11:37:13.351
181314.687500, 181359.015625, 181389.875000, 175082.656250, 181445.625000, 174697.000000, 181445.843750, 175183.171875, 0, 1, 1, 0, 1,0.0,0.0,0.0,0.0,0.0, 11:37:13.351
181315.750000, 181359.906250, 181390.640625, 174986.906250, 181447.000000, 174763.875000, 181446.578125, 175175.890625, 0, 1, 1, 0, 1,0.0,0.0,0.0,0.0,0.0, 11:37:13.351
181316.250000, 181360.578125, 181391.343750, 175038.984375, 181447.281250, 174717.859375, 181447.359375, 175148.750000, 0, 1, 1, 0, 1,0.0,0.0,0.0,0.0,0.0, 11:37:13.351
181316.671875, 181361.015625, 181392.265625, 175164.093750, 181446.406250, 174637.531250, 181448.390625, 175114.953125, 0, 1, 1, 0, 1,0.0,0.0,0.0,0.0,0.0, 11:37:13.352
181318.109375, 181362.406250, 181393.437500, 175140.484375, 181448.265625, 174657.515625, 181449.562500, 175075.515625, 0, 1, 1, 0, 1,0.0,0.0,0.0,0.0,0.0, 11:37:13.352
181321.234375, 181365.281250, 181396.093750, 175033.015625, 181452.375000, 174722.125000, 181452.125000, 175030.000000, 0, 1, 1, 0, 1,0.0,0.0,0.0,0.0,0.0, 11:37:13.352
181321.750000, 181365.890625, 181396.765625, 175057.656250, 181452.109375, 174691.296875, 181452.953125, 174984.515625, 0, 1, 1, 0, 1,0.0,0.0,0.0,0.0,0.0, 11:37:13.352
181322.109375, 181366.468750, 181398.234375, 175187.046875, 181448.109375, 174600.640625, 181454.515625, 174948.234375, 0, 1, 1, 0, 1,0.0,0.0,0.0,0.0,0.0, 11:37:13.352
181323.625000, 181367.906250, 181399.687500, 175195.000000, 181449.718750, 174605.093750, 181455.906250, 174910.703125, 0, 1, 1, 0, 1,0.0,0.0,0.0,0.0,0.0, 11:37:13.353
181323.171875, 181367.187500, 181398.062500, 175079.953125, 181453.562500, 174685.250000, 181454.296875, 174858.093750, 0, 1, 1, 0, 1,0.0,0.0,0.0,0.0,0.0, 11:37:13.353
181325.640625, 181369.687500, 181400.468750, 175076.843750, 181456.062500, 174690.437500, 181456.781250, 174795.828125, 0, 1, 1, 0, 1,0.0,0.0,0.0,0.0,0.0, 11:37:13.353
181325.406250, 181369.718750, 181401.281250, 175207.703125, 181452.546875, 174615.625000, 181457.625000, 174733.187500, 0, 1, 1, 0, 1,0.0,0.0,0.0,0.0,0.0, 11:37:13.353
181325.062500, 181369.406250, 181400.828125, 175261.187500, 181451.984375, 174616.093750, 181455.718750, 174668.937500, 0, 1, 1, 0, 1,0.0,0.0,0.0,0.0,0.0, 11:37:13.353
181326.859375, 181370.968750, 181401.546875, 175165.562500, 181457.625000, 174714.015625, 181452.781250, 174524.843750, 0, 1, 1, 0, 1,0.0,0.0,0.0,0.0,0.0, 11:37:13.354
181326.375000, 181370.453125, 181401.031250, 175137.765625, 181457.625000, 174748.703125, 181454.734375, 174234.484375, 0, 1, 1, 0, 1,0.0,0.0,0.0,0.0,0.0, 11:37:13.354
181325.328125, 181369.609375, 181400.468750, 175248.718750, 181455.953125, 174675.718750, 181456.187500, 174331.109375, 0, 1, 1, 0, 1,0.0,0.0,0.0,0.0,0.0, 11:37:13.354
181324.453125, 181368.781250, 181399.796875, 175321.468750, 181454.625000, 174654.218750, 181455.953125, 174553.796875, 0, 1, 1, 0, 1,0.0,0.0,0.0,0.0,0.0, 11:37:13.354
181323.765625, 181367.843750, 181398.640625, 175227.906250, 181454.875000, 174740.328125, 181454.359375, 174781.046875, 0, 1, 1, 0, 1,0.0,0.0,0.0,0.0,0.0, 11:37:13.354
181323.484375, 181367.593750, 181398.265625, 175172.671875, 181454.812500, 174794.375000, 181453.953125, 175190.187500, 0, 1, 1, 0, 1,0.0,0.0,0.0,0.0,0.0, 11:37:13.355
181325.187500, 181369.468750, 181400.187500, 175285.093750, 181456.750000, 174743.625000, 181456.843750, 175548.875000, 0, 1, 1, 0, 1,0.0,0.0,0.0,0.0,0.0, 11:37:13.355
181325.562500, 181369.890625, 181400.734375, 175404.890625, 181457.125000, 174723.312500, 181457.531250, 175597.171875, 0, 1, 1, 0, 1,0.0,0.0,0.0,0.0,0.0, 11:37:13.355
181329.531250, 181373.578125, 181404.421875, 175352.093750, 181460.796875, 174816.718750, 181461.062500, 175608.171875, 0, 1, 1, 0, 1,0.0,0.0,0.0,0.0,0.0, 11:37:13.356
181328.921875, 181372.828125, 181403.640625, 175292.515625, 181460.000000, 174911.328125, 181460.125000, 175619.015625, 0, 1, 1, 0, 1,0.0,0.0,0.0,0.0,0.0, 11:37:13.356
181327.562500, 181371.562500, 181402.437500, 175389.015625, 181458.859375, 174893.234375, 181458.968750, 175647.984375, 0, 1, 1, 0, 1,0.0,0.0,0.0,0.0,0.0, 11:37:13.356
181331.500000, 181375.687500, 181406.625000, 175528.750000, 181463.062500, 174863.437500, 181463.187500, 175689.890625, 0, 1, 1, 0, 1,0.0,0.0,0.0,0.0,0.0, 11:37:13.357
181335.937500, 181380.125000, 181410.890625, 175501.750000, 181467.250000, 174942.203125, 181467.390625, 175719.062500, 0, 1, 1, 0, 1,0.0,0.0,0.0,0.0,0.0, 11:37:13.357
181336.437500, 181380.406250, 181411.156250, 175419.187500, 181467.421875, 175045.468750, 181467.640625, 175744.000000, 0, 1, 1, 0, 1,0.0,0.0,0.0,0.0,0.0, 11:37:13.358
181337.187500, 181381.093750, 181411.937500, 175483.062500, 181468.125000, 175042.031250, 181468.375000, 175776.843750, 0, 1, 1, 0, 1,0.0,0.0,0.0,0.0,0.0, 11:37:13.358
181340.171875, 181384.156250, 181415.218750, 175630.906250, 181471.390625, 174996.250000, 181471.765625, 175811.796875, 0, 1, 1, 0, 1,0.0,0.0,0.0,0.0,0.0, 11:37:13.358
181342.046875, 181386.046875, 181417.015625, 175632.718750, 181473.203125, 175047.812500, 181473.671875, 175835.531250, 0, 1, 1, 0, 1,0.0,0.0,0.0,0.0,0.0, 11:37:13.358
181341.343750, 181385.062500, 181415.953125, 175537.500000, 181472.078125, 175150.718750, 181472.515625, 175844.593750, 0, 1, 1, 0, 1,0.0,0.0,0.0,0.0,0.0, 11:37:13.358
181343.203125, 181387.000000, 181417.843750, 175567.625000, 181473.937500, 175168.875000, 181474.484375, 175855.781250, 0, 1, 1, 0, 1,0.0,0.0,0.0,0.0,0.0, 11:37:13.359
181345.031250, 181388.984375, 181419.984375, 175707.765625, 181476.046875, 175128.218750, 181476.781250, 175873.890625, 0, 1, 1, 0, 1,0.0,0.0,0.0,0.0,0.0, 11:37:13.359
181345.468750, 181389.453125, 181420.406250, 175734.187500, 181476.515625, 175172.203125, 181477.203125, 175883.281250, 0, 1, 1, 0, 1,0.0,0.0,0.0,0.0,0.0, 11:37:13.359
181346.046875, 181389.812500, 181420.593750, 175622.671875, 181476.750000, 175291.421875, 181477.312500, 175879.906250, 0, 1, 1, 0, 1,0.0,0.0,0.0,0.0,0.0, 11:37:13.359
181348.406250, 181392.093750, 181423.000000, 175606.453125, 181479.078125, 175341.734375, 181479.656250, 175884.000000, 0, 1, 1, 0, 1,0.0,0.0,0.0,0.0,0.0, 11:37:13.359
181350.562500, 181394.406250, 181425.421875, 175726.812500, 181481.453125, 175306.765625, 181482.218750, 175900.328125, 0, 1, 1, 0, 1,0.0,0.0,0.0,0.0,0.0, 11:37:13.359
181353.703125, 181397.593750, 181428.656250, 175776.484375, 181484.687500, 175335.218750, 181485.593750, 175915.734375, 0, 1, 1, 0, 1,0.0,0.0,0.0,0.0,0.0, 11:37:13.360
181354.687500, 181398.281250, 181429.234375, 175663.500000, 181485.234375, 175455.359375, 181486.015625, 175917.656250, 0, 1, 1, 0, 1,0.0,0.0,0.0,0.0,0.0, 11:37:13.360
181355.875000, 181399.437500, 181430.265625, 175608.687500, 181486.343750, 175533.734375, 181487.000000, 175921.984375, 0, 1, 1, 0, 1,0.0,0.0,0.0,0.0,0.0, 11:37:13.360
181357.937500, 181401.671875, 181432.609375, 175704.468750, 181488.562500, 175514.187500, 181489.468750, 175936.812500, 0, 1, 1, 0, 1,0.0,0.0,0.0,0.0,0.0, 11:37:13.360
181359.078125, 181402.953125, 181434.046875, 175769.421875, 181489.984375, 175526.812500, 181491.015625, 175950.359375, 0, 1, 1, 0, 1,0.0,0.0,0.0,0.0,0.0, 11:37:13.360
181360.281250, 181403.953125, 181434.937500, 175658.015625, 181490.953125, 175641.703125, 181491.734375, 175942.640625, 0, 1, 1, 0, 1,0.0,0.0,0.0,0.0,0.0, 11:37:13.361
181363.140625, 181406.656250, 181437.531250, 175566.640625, 181493.546875, 175737.609375, 181494.218750, 175932.265625, 0, 1, 1, 0, 1,0.0,0.0,0.0,0.0,0.0, 11:37:13.361
181365.359375, 181408.937500, 181439.875000, 175632.359375, 181495.937500, 175712.843750, 181496.687500, 175936.515625, 0, 1, 1, 0, 1,0.0,0.0,0.0,0.0,0.0, 11:37:13.361
181365.562500, 181409.359375, 181440.343750, 175717.046875, 181496.421875, 175669.781250, 181497.296875, 175961.312500, 0, 1, 1, 0, 1,0.0,0.0,0.0,0.0,0.0, 11:37:13.361
181367.125000, 181410.796875, 181441.750000, 175632.296875, 181497.640625, 175723.468750, 181498.375000, 175973.171875, 0, 1, 1, 0, 1,0.0,0.0,0.0,0.0,0.0, 11:37:13.361
181370.453125, 181414.062500, 181444.859375, 175519.484375, 181500.671875, 175773.796875, 181501.234375, 175985.875000, 0, 1, 1, 0, 1,0.0,0.0,0.0,0.0,0.0, 11:37:13.362
181370.921875, 181414.640625, 181445.531250, 175564.234375, 181501.437500, 175717.421875, 181501.953125, 176022.187500, 0, 1, 1, 0, 1,0.0,0.0,0.0,0.0,0.0, 11:37:13.362
181373.156250, 181417.062500, 181448.125000, 175670.890625, 181503.953125, 175641.609375, 181504.406250, 176074.031250, 0, 1, 1, 0, 1,0.0,0.0,0.0,0.0,0.0, 11:37:13.362
181373.265625, 181417.015625, 181448.109375, 175610.937500, 181503.796875, 175654.000000, 181504.234375, 176118.890625, 0, 1, 1, 0, 1,0.0,0.0,0.0,0.0,0.0, 11:37:13.363
181372.984375, 181416.515625, 181447.437500, 175477.484375, 181503.171875, 175696.750000, 181503.406250, 176156.781250, 0, 1, 1, 0, 1,0.0,0.0,0.0,0.0,0.0, 11:37:13.363
181373.609375, 181417.296875, 181448.218750, 175483.781250, 181504.000000, 175643.156250, 181504.046875, 176207.562500, 0, 1, 1, 0, 1,0.0,0.0,0.0,0.0,0.0, 11:37:13.363
181376.468750, 181420.250000, 181451.390625, 175584.234375, 181507.140625, 175539.890625, 181507.093750, 176271.812500, 0, 1, 1, 0, 1,0.0,0.0,0.0,0.0,0.0, 11:37:13.363
181378.046875, 181421.765625, 181452.796875, 175547.359375, 181508.593750, 175520.546875, 181508.203125, 176320.921875, 0, 1, 1, 0, 1,0.0,0.0,0.0,0.0,0.0, 11:37:13.364
181378.031250, 181421.640625, 181452.484375, 175398.734375, 181508.296875, 175553.609375, 181507.609375, 176352.031250, 0, 1, 1, 0, 1,0.0,0.0,0.0,0.0,0.0, 11:37:13.365
181380.484375, 181424.234375, 181455.125000, 175372.421875, 181510.843750, 175502.468750, 181509.968750, 176388.578125, 0, 1, 1, 0, 1,0.0,0.0,0.0,0.0,0.0, 11:37:13.365
181379.953125, 181423.765625, 181454.828125, 175468.296875, 181510.703125, 175373.500000, 181509.750000, 176429.843750, 0, 1, 1, 0, 1,0.0,0.0,0.0,0.0,0.0, 11:37:13.365
181381.203125, 181425.078125, 181456.171875, 175463.562500, 181512.078125, 175317.015625, 181511.015625, 176455.031250, 0, 1, 1, 0, 1,0.0,0.0,0.0,0.0,0.0, 11:37:13.365
181383.125000, 181426.781250, 181457.718750, 175314.531250, 181513.593750, 175340.828125, 181512.437500, 176457.609375, 0, 1, 1, 0, 1,0.0,0.0,0.0,0.0,0.0, 11:37:13.366
181385.000000, 181428.640625, 181459.531250, 175252.359375, 181515.296875, 175299.718750, 181514.125000, 176465.781250, 0, 1, 1, 0, 1,0.0,0.0,0.0,0.0,0.0, 11:37:13.366
181386.765625, 181430.531250, 181461.609375, 175334.343750, 181517.390625, 175172.250000, 181516.406250, 176489.390625, 0, 1, 1, 0, 1,0.0,0.0,0.0,0.0,0.0, 11:37:13.366
181386.921875, 181430.796875, 181461.890625, 175359.078125, 181517.687500, 175103.578125, 181516.875000, 176509.171875, 0, 1, 1, 0, 1,0.0,0.0,0.0,0.0,0.0, 11:37:13.366
181386.703125, 181430.421875, 181461.421875, 175219.859375, 181517.296875, 175133.265625, 181516.312500, 176508.843750, 0, 1, 1, 0, 1,0.0,0.0,0.0,0.0,0.0, 11:37:13.366
181388.203125, 181431.765625, 181462.765625, 175135.828125, 181518.718750, 175130.890625, 181517.593750, 176503.765625, 0, 1, 1, 0, 1,0.0,0.0,0.0,0.0,0.0, 11:37:13.367
181391.031250, 181434.781250, 181465.875000, 175205.546875, 181521.906250, 175027.359375, 181520.796875, 176501.375000, 0, 1, 1, 0, 1,0.0,0.0,0.0,0.0,0.0, 11:37:13.367
181392.796875, 181436.843750, 181467.921875, 175262.453125, 181523.984375, 174951.093750, 181522.890625, 176490.234375, 0, 1, 1, 0, 1,0.0,0.0,0.0,0.0,0.0, 11:37:13.367
181391.531250, 181435.453125, 181466.359375, 175144.218750, 181522.515625, 174974.640625, 181521.281250, 176455.296875, 0, 1, 1, 0, 1,0.0,0.0,0.0,0.0,0.0, 11:37:13.367
181390.453125, 181434.171875, 181465.093750, 175035.875000, 181521.281250, 174984.765625, 181519.875000, 176417.265625, 0, 1, 1, 0, 1,0.0,0.0,0.0,0.0,0.0, 11:37:13.367
181391.531250, 181435.343750, 181466.343750, 175088.671875, 181522.562500, 174889.453125, 181521.218750, 176394.062500, 0, 1, 1, 0, 1,0.0,0.0,0.0,0.0,0.0, 11:37:13.367
181391.156250, 181435.078125, 181466.125000, 175172.890625, 181522.265625, 174791.343750, 181521.062500, 176382.609375, 0, 1, 1, 0, 1,0.0,0.0,0.0,0.0,0.0, 11:37:13.368
181392.531250, 181436.406250, 181467.328125, 175086.109375, 181523.515625, 174800.890625, 181522.156250, 176364.109375, 0, 1, 1, 0, 1,0.0,0.0,0.0,0.0,0.0, 11:37:13.368
181394.593750, 181438.250000, 181469.031250, 174962.718750, 181525.312500, 174832.906250, 181523.718750, 176348.328125, 0, 1, 1, 0, 1,0.0,0.0,0.0,0.0,0.0, 11:37:13.368
181393.609375, 181437.421875, 181468.421875, 174993.343750, 181523.343750, 174762.609375, 181523.140625, 176345.093750, 0, 1, 1, 0, 1,0.0,0.0,0.0,0.0,0.0, 11:37:13.368
181392.687500, 181436.750000, 181468.750000, 175096.109375, 181517.812500, 174664.375000, 181523.625000, 176347.593750, 0, 1, 1, 0, 1,0.0,0.0,0.0,0.0,0.0, 11:37:13.368
181391.890625, 181435.812500, 181467.578125, 175044.640625, 181517.656250, 174669.515625, 181522.437500, 176335.562500, 0, 1, 1, 0, 1,0.0,0.0,0.0,0.0,0.0, 11:37:13.369
181390.796875, 181434.625000, 181465.640625, 174908.406250, 181520.500000, 174719.578125, 181520.281250, 176310.593750, 0, 1, 1, 0, 1,0.0,0.0,0.0,0.0,0.0, 11:37:13.369
181391.843750, 181435.703125, 181466.984375, 174908.359375, 181520.343750, 174645.031250, 181521.734375, 176283.828125, 0, 1, 1, 0, 1,0.0,0.0,0.0,0.0,0.0, 11:37:13.369
181393.140625, 181437.187500, 181468.531250, 175005.171875, 181522.375000, 174486.234375, 181523.390625, 176248.500000, 0, 1, 1, 0, 1,0.0,0.0,0.0,0.0,0.0, 11:37:13.369
181389.859375, 181433.890625, 181465.109375, 174969.375000, 181519.765625, 174623.734375, 181519.984375, 176194.062500, 0, 1, 1, 0, 1,0.0,0.0,0.0,0.0,0.0, 11:37:13.369
181388.062500, 181431.828125, 181462.859375, 174816.703125, 181518.593750, 174942.500000, 181517.593750, 176130.625000, 0, 1, 1, 0, 1,0.0,0.0,0.0,0.0,0.0, 11:37:13.370
181389.187500, 181432.953125, 181463.875000, 174788.312500, 181520.500000, 175029.703125, 181518.718750, 176078.593750, 0, 1, 1, 0, 1,0.0,0.0,0.0,0.0,0.0, 11:37:13.370
181389.968750, 181433.953125, 181465.015625, 174896.609375, 181521.609375, 174930.015625, 181519.984375, 176036.390625, 0, 1, 1, 0, 1,0.0,0.0,0.0,0.0,0.0, 11:37:13.370
181389.812500, 181433.890625, 181464.796875, 174918.359375, 181521.453125, 174900.812500, 181519.937500, 175993.296875, 0, 1, 1, 0, 1,0.0,0.0,0.0,0.0,0.0, 11:37:13.371
181389.546875, 181433.390625, 181464.156250, 174785.140625, 181520.953125, 174962.921875, 181519.265625, 175937.968750, 0, 1, 1, 0, 1,0.0,0.0,0.0,0.0,0.0, 11:37:13.371
181389.343750, 181433.171875, 181463.953125, 174734.578125, 181520.671875, 174965.250000, 181519.093750, 175875.875000, 0, 1, 1, 0, 1,0.0,0.0,0.0,0.0,0.0, 11:37:13.371
181391.375000, 181435.265625, 181466.250000, 174839.500000, 181523.093750, 174862.578125, 181521.546875, 175813.156250, 0, 1, 1, 0, 1,0.0,0.0,0.0,0.0,0.0, 11:37:13.372
181389.343750, 181433.375000, 181464.390625, 174905.609375, 181521.140625, 174809.250000, 181519.734375, 175762.218750, 0, 1, 1, 0, 1,0.0,0.0,0.0,0.0,0.0, 11:37:13.372
181389.500000, 181433.312500, 181464.281250, 174804.468750, 181521.015625, 174862.187500, 181519.609375, 175705.375000, 0, 1, 1, 0, 1,0.0,0.0,0.0,0.0,0.0, 11:37:13.372
181390.531250, 181434.312500, 181465.171875, 174748.812500, 181521.734375, 174871.343750, 181520.437500, 175652.828125, 0, 1, 1, 0, 1,0.0,0.0,0.0,0.0,0.0, 11:37:13.372
181387.906250, 181431.812500, 181463.093750, 174857.921875, 181517.765625, 174751.609375, 181518.437500, 175610.656250, 0, 1, 1, 0, 1,0.0,0.0,0.0,0.0,0.0, 11:37:13.372
181387.656250, 181431.765625, 181463.562500, 174968.515625, 181514.859375, 174593.031250, 181519.109375, 175576.328125, 0, 1, 1, 0, 1,0.0,0.0,0.0,0.0,0.0, 11:37:13.373
181386.843750, 181430.718750, 181462.046875, 174891.015625, 181516.406250, 174582.343750, 181517.531250, 175530.562500, 0, 1, 1, 0, 1,0.0,0.0,0.0,0.0,0.0, 11:37:13.373
181387.171875, 181430.875000, 181462.046875, 174807.125000, 181517.078125, 174782.671875, 181517.437500, 175492.093750, 0, 1, 1, 0, 1,0.0,0.0,0.0,0.0,0.0, 11:37:13.373
181387.343750, 181431.265625, 181462.265625, 174895.937500, 181518.687500, 174897.453125, 181517.703125, 175481.171875, 0, 1, 1, 0, 1,0.0,0.0,0.0,0.0,0.0, 11:37:13.373
181388.000000, 181432.046875, 181463.093750, 175036.859375, 181519.890625, 174812.515625, 181518.593750, 175495.750000, 0, 1, 1, 0, 1,0.0,0.0,0.0,0.0,0.0, 11:37:13.373
181387.031250, 181430.984375, 181461.890625, 175006.906250, 181518.593750, 174814.312500, 181517.328125, 175514.250000, 0, 1, 1, 0, 1,0.0,0.0,0.0,0.0,0.0, 11:37:13.374
181388.062500, 181431.875000, 181462.703125, 174921.890625, 181519.343750, 174848.953125, 181518.000000, 175531.421875, 0, 1, 1, 0, 1,0.0,0.0,0.0,0.0,0.0, 11:37:13.374
181388.625000, 181432.406250, 181463.500000, 174991.062500, 181519.265625, 174779.031250, 181518.937500, 175552.421875, 0, 1, 1, 0, 1,0.0,0.0,0.0,0.0,0.0, 11:37:13.374
181389.140625, 181433.031250, 181465.046875, 175145.156250, 181515.578125, 174673.062500, 181520.546875, 175575.703125, 0, 1, 1, 0, 1,0.0,0.0,0.0,0.0,0.0, 11:37:13.374
181389.406250, 181433.312500, 181465.218750, 175145.453125, 181516.203125, 174676.812500, 181520.656250, 175585.546875, 0, 1, 1, 0, 1,0.0,0.0,0.0,0.0,0.0, 11:37:13.375
181389.562500, 181433.265625, 181464.375000, 175043.359375, 181520.140625, 174743.890625, 181519.515625, 175579.078125, 0, 1, 1, 0, 1,0.0,0.0,0.0,0.0,0.0, 11:37:13.375
181388.781250, 181432.484375, 181463.718750, 175074.437500, 181518.265625, 174717.671875, 181518.984375, 175566.375000, 0, 1, 1, 0, 1,0.0,0.0,0.0,0.0,0.0, 11:37:13.375
181389.093750, 181432.859375, 181464.703125, 175219.140625, 181516.703125, 174564.125000, 181520.093750, 175546.953125, 0, 1, 1, 0, 1,0.0,0.0,0.0,0.0,0.0, 11:37:13.375
181388.312500, 181432.140625, 181463.562500, 175233.953125, 181518.046875, 174610.750000, 181518.890625, 175507.703125, 0, 1, 1, 0, 1,0.0,0.0,0.0,0.0,0.0, 11:37:13.376
181389.921875, 181433.593750, 181464.625000, 175110.750000, 181520.437500, 174957.406250, 181519.890625, 175459.375000, 0, 1, 1, 0, 1,0.0,0.0,0.0,0.0,0.0, 11:37:13.376
181393.812500, 181437.531250, 181468.375000, 175103.500000, 181525.078125, 175090.468750, 181523.812500, 175428.390625, 0, 1, 1, 0, 1,0.0,0.0,0.0,0.0,0.0, 11:37:13.376
181394.031250, 181437.859375, 181468.843750, 175239.812500, 181525.593750, 175031.468750, 181524.453125, 175415.906250, 0, 1, 1, 0, 1,0.0,0.0,0.0,0.0,0.0, 11:37:13.376
181394.953125, 181438.781250, 181469.828125, 175297.437500, 181526.531250, 175039.203125, 181525.593750, 175411.203125, 0, 1, 1, 0, 1,0.0,0.0,0.0,0.0,0.0, 11:37:13.377
181395.234375, 181438.953125, 181469.781250, 175188.250000, 181526.578125, 175151.171875, 181525.531250, 175401.796875, 0, 1, 1, 0, 1,0.0,0.0,0.0,0.0,0.0, 11:37:13.377
181395.640625, 181439.312500, 181470.078125, 175145.062500, 181526.921875, 175217.515625, 181525.703125, 175394.218750, 0, 1, 1, 0, 1,0.0,0.0,0.0,0.0,0.0, 11:37:13.377
181397.859375, 181441.640625, 181472.531250, 175258.531250, 181529.390625, 175181.281250, 181528.281250, 175387.984375, 0, 1, 1, 0, 1,0.0,0.0,0.0,0.0,0.0, 11:37:13.378
181399.953125, 181443.875000, 181474.828125, 175344.281250, 181531.625000, 175191.093750, 181530.671875, 175379.625000, 0, 1, 1, 0, 1,0.0,0.0,0.0,0.0,0.0, 11:37:13.379
181401.140625, 181444.765625, 181475.687500, 175250.812500, 181532.437500, 175312.234375, 181531.562500, 175351.953125, 0, 1, 1, 0, 1,0.0,0.0,0.0,0.0,0.0, 11:37:13.379
181403.578125, 181447.031250, 181477.921875, 175182.281250, 181534.734375, 175410.937500, 181533.640625, 175319.390625, 0, 1, 1, 0, 1,0.0,0.0,0.0,0.0,0.0, 11:37:13.380
181404.531250, 181448.125000, 181479.171875, 175280.187500, 181535.921875, 175392.812500, 181534.968750, 175294.046875, 0, 1, 1, 0, 1,0.0,0.0,0.0,0.0,0.0, 11:37:13.380
181404.671875, 181448.437500, 181479.625000, 175392.859375, 181536.250000, 175381.031250, 181535.437500, 175279.640625, 0, 1, 1, 0, 1,0.0,0.0,0.0,0.0,0.0, 11:37:13.829
181406.031250, 181449.640625, 181480.687500, 175324.546875, 181537.421875, 175479.578125, 181536.484375, 175267.171875, 0, 1, 1, 0, 1,0.0,0.0,0.0,0.0,0.0, 11:37:13.830
181407.593750, 181451.125000, 181482.015625, 175231.953125, 181538.781250, 175583.093750, 181537.640625, 175267.109375, 0, 1, 1, 0, 1,0.0,0.0,0.0,0.0,0.0, 11:37:13.830
181408.968750, 181452.593750, 181483.500000, 175297.531250, 181540.234375, 175571.453125, 181539.140625, 175284.921875, 0, 1, 1, 0, 1,0.0,0.0,0.0,0.0,0.0, 11:37:13.831
181410.843750, 181454.625000, 181485.812500, 175423.875000, 181542.468750, 175538.171875, 181541.359375, 175316.796875, 0, 1, 1, 0, 1,0.0,0.0,0.0,0.0,0.0, 11:37:13.831
181413.562500, 181457.265625, 181488.359375, 175382.109375, 181545.046875, 175612.390625, 181543.812500, 175339.421875, 0, 1, 1, 0, 1,0.0,0.0,0.0,0.0,0.0, 11:37:13.831
181415.218750, 181458.734375, 181489.718750, 175267.390625, 181546.312500, 175724.312500, 181545.000000, 175353.406250, 0, 1, 1, 0, 1,0.0,0.0,0.0,0.0,0.0, 11:37:13.832
181416.078125, 181459.546875, 181490.593750, 175298.890625, 181547.171875, 175732.343750, 181545.890625, 175367.218750, 0, 1, 1, 0, 1,0.0,0.0,0.0,0.0,0.0, 11:37:13.832
181416.625000, 181460.328125, 181491.375000, 175421.421875, 181548.031250, 175691.515625, 181546.921875, 175379.046875, 0, 1, 1, 0, 1,0.0,0.0,0.0,0.0,0.0, 11:37:13.833
181418.218750, 181461.984375, 181492.937500, 175400.437500, 181549.578125, 175751.937500, 181548.390625, 175379.015625, 0, 1, 1, 0, 1,0.0,0.0,0.0,0.0,0.0, 11:37:13.833
181419.406250, 181463.015625, 181493.812500, 175264.531250, 181550.468750, 175873.234375, 181549.109375, 175368.156250, 0, 1, 1, 0, 1,0.0,0.0,0.0,0.0,0.0, 11:37:13.833
181419.687500, 181463.187500, 181494.062500, 175252.953125, 181550.703125, 175905.703125, 181549.171875, 175363.218750, 0, 1, 1, 0, 1,0.0,0.0,0.0,0.0,0.0, 11:37:13.834
181422.421875, 181466.046875, 181497.078125, 175369.812500, 181553.625000, 175852.171875, 181552.234375, 175376.156250, 0, 1, 1, 0, 1,0.0,0.0,0.0,0.0,0.0, 11:37:13.834
181424.078125, 181467.734375, 181498.859375, 175383.109375, 181555.375000, 175860.078125, 181553.953125, 175393.937500, 0, 1, 1, 0, 1,0.0,0.0,0.0,0.0,0.0, 11:37:13.834
181424.921875, 181468.265625, 181499.328125, 175251.281250, 181555.765625, 175942.437500, 181554.296875, 175402.609375, 0, 1, 1, 0, 1,0.0,0.0,0.0,0.0,0.0, 11:37:13.835
181425.734375, 181469.093750, 181499.984375, 175213.937500, 181556.531250, 175955.656250, 181555.015625, 175416.234375, 0, 1, 1, 0, 1,0.0,0.0,0.0,0.0,0.0, 11:37:13.835
181427.968750, 181471.656250, 181502.703125, 175323.796875, 181559.125000, 175875.640625, 181557.734375, 175443.546875, 0, 1, 1, 0, 1,0.0,0.0,0.0,0.0,0.0, 11:37:13.835
181431.937500, 181475.656250, 181506.812500, 175376.828125, 181563.140625, 175861.265625, 181561.921875, 175468.515625, 0, 1, 1, 0, 1,0.0,0.0,0.0,0.0,0.0, 11:37:13.835
181433.906250, 181477.359375, 181508.406250, 175252.281250, 181564.734375, 175939.937500, 181563.437500, 175476.078125, 0, 1, 1, 0, 1,0.0,0.0,0.0,0.0,0.0, 11:37:13.836
181435.812500, 181479.171875, 181510.218750, 175181.453125, 181566.500000, 175978.156250, 181565.140625, 175486.468750, 0, 1, 1, 0, 1,0.0,0.0,0.0,0.0,0.0, 11:37:13.836
181439.750000, 181483.343750, 181514.421875, 175272.703125, 181570.828125, 175917.187500, 181569.421875, 175505.203125, 0, 1, 1, 0, 1,0.0,0.0,0.0,0.0,0.0, 11:37:13.836
181440.718750, 181484.406250, 181515.656250, 175343.218750, 181571.859375, 175878.609375, 181570.609375, 175523.703125, 0, 1, 1, 0, 1,0.0,0.0,0.0,0.0,0.0, 11:37:13.837
181440.750000, 181484.203125, 181515.296875, 175232.687500, 181571.640625, 175948.203125, 181570.140625, 175521.734375, 0, 1, 1, 0, 1,0.0,0.0,0.0,0.0,0.0, 11:37:13.837
181440.921875, 181484.312500, 181515.296875, 175132.703125, 181571.687500, 176008.781250, 181570.078125, 175515.968750, 0, 1, 1, 0, 1,0.0,0.0,0.0,0.0,0.0, 11:37:13.837
181443.671875, 181487.171875, 181518.265625, 175195.375000, 181574.656250, 175963.046875, 181573.203125, 175523.078125, 0, 1, 1, 0, 1,0.0,0.0,0.0,0.0,0.0, 11:37:13.838
181446.562500, 181490.171875, 181521.437500, 175288.078125, 181577.828125, 175924.734375, 181576.515625, 175543.234375, 0, 1, 1, 0, 1,0.0,0.0,0.0,0.0,0.0, 11:37:13.838
181447.671875, 181491.281250, 181522.421875, 175204.515625, 181578.843750, 175994.859375, 181577.312500, 175556.859375, 0, 1, 1, 0, 1,0.0,0.0,0.0,0.0,0.0, 11:37:13.838
181447.234375, 181490.593750, 181521.609375, 175084.265625, 181578.015625, 176083.328125, 181576.359375, 175571.765625, 0, 1, 1, 0, 1,0.0,0.0,0.0,0.0,0.0, 11:37:13.838
181450.453125, 181493.906250, 181524.921875, 175122.203125, 181581.406250, 176068.109375, 181579.843750, 175607.750000, 0, 1, 1, 0, 1,0.0,0.0,0.0,0.0,0.0, 11:37:13.839
181452.890625, 181496.578125, 181527.671875, 175231.343750, 181584.218750, 176022.078125, 181582.750000, 175661.171875, 0, 1, 1, 0, 1,0.0,0.0,0.0,0.0,0.0, 11:37:13.839
181454.765625, 181498.390625, 181529.437500, 175180.718750, 181586.062500, 176075.562500, 181584.515625, 175701.765625, 0, 1, 1, 0, 1,0.0,0.0,0.0,0.0,0.0, 11:37:13.839
181456.531250, 181499.781250, 181530.921875, 175043.296875, 181587.437500, 176167.296875, 181585.781250, 175730.437500, 0, 1, 1, 0, 1,0.0,0.0,0.0,0.0,0.0, 11:37:13.840
181456.578125, 181499.906250, 181531.000000, 175043.515625, 181587.640625, 176157.687500, 181585.921875, 175769.468750, 0, 1, 1, 0, 1,0.0,0.0,0.0,0.0,0.0, 11:37:13.840
181456.468750, 181500.093750, 181531.156250, 175148.046875, 181587.718750, 176087.437500, 181586.234375, 175818.859375, 0, 1, 1, 0, 1,0.0,0.0,0.0,0.0,0.0, 11:37:13.840
181459.031250, 181502.578125, 181533.671875, 175122.875000, 181590.234375, 176099.203125, 181588.671875, 175856.921875, 0, 1, 1, 0, 1,0.0,0.0,0.0,0.0,0.0, 11:37:13.841
181460.437500, 181503.828125, 181534.828125, 174975.265625, 181591.375000, 176173.250000, 181589.609375, 175882.468750, 0, 1, 1, 0, 1,0.0,0.0,0.0,0.0,0.0, 11:37:13.841
181459.609375, 181503.000000, 181533.906250, 174941.906250, 181590.484375, 176166.812500, 181588.562500, 175915.421875, 0, 1, 1, 0, 1,0.0,0.0,0.0,0.0,0.0, 11:37:13.841
181459.250000, 181502.812500, 181533.843750, 175038.375000, 181590.500000, 176078.031250, 181588.671875, 175956.406250, 0, 1, 1, 0, 1,0.0,0.0,0.0,0.0,0.0, 11:37:13.841
181460.312500, 181503.796875, 181534.875000, 175045.046875, 181591.578125, 176056.921875, 181589.640625, 175988.218750, 0, 1, 1, 0, 1,0.0,0.0,0.0,0.0,0.0, 11:37:13.842
181460.187500, 181503.578125, 181534.515625, 174897.593750, 181591.109375, 176121.015625, 181588.968750, 176001.343750, 0, 1, 1, 0, 1,0.0,0.0,0.0,0.0,0.0, 11:37:13.842
181460.265625, 181503.640625, 181534.515625, 174830.359375, 181591.171875, 176125.578125, 181588.921875, 176019.250000, 0, 1, 1, 0, 1,0.0,0.0,0.0,0.0,0.0, 11:37:13.842
181462.984375, 181506.578125, 181537.640625, 174913.125000, 181594.281250, 176029.562500, 181592.093750, 176049.171875, 0, 1, 1, 0, 1,0.0,0.0,0.0,0.0,0.0, 11:37:13.842
181464.734375, 181508.359375, 181539.453125, 174949.687500, 181596.140625, 175976.390625, 181594.062500, 176076.312500, 0, 1, 1, 0, 1,0.0,0.0,0.0,0.0,0.0, 11:37:13.842
181466.296875, 181509.718750, 181540.687500, 174813.171875, 181597.406250, 176019.781250, 181595.125000, 176087.968750, 0, 1, 1, 0, 1,0.0,0.0,0.0,0.0,0.0, 11:37:13.843
181468.437500, 181511.828125, 181542.734375, 174718.343750, 181599.515625, 176027.468750, 181597.046875, 176102.109375, 0, 1, 1, 0, 1,0.0,0.0,0.0,0.0,0.0, 11:37:13.844
181467.421875, 181510.890625, 181541.953125, 174781.937500, 181598.781250, 175916.968750, 181596.296875, 176122.953125, 0, 1, 1, 0, 1,0.0,0.0,0.0,0.0,0.0, 11:37:13.844
181469.218750, 181512.859375, 181543.953125, 174846.109375, 181600.765625, 175820.171875, 181598.328125, 176143.656250, 0, 1, 1, 0, 1,0.0,0.0,0.0,0.0,0.0, 11:37:13.845
181469.140625, 181512.671875, 181543.640625, 174733.921875, 181600.453125, 175834.781250, 181597.906250, 176146.312500, 0, 1, 1, 0, 1,0.0,0.0,0.0,0.0,0.0, 11:37:13.845
181469.500000, 181512.906250, 181543.281250, 174618.859375, 181600.546875, 175849.531250, 181597.906250, 176142.515625, 0, 1, 1, 0, 1,0.0,0.0,0.0,0.0,0.0, 11:37:13.845
181468.750000, 181512.296875, 181543.078125, 174666.937500, 181600.031250, 175759.421875, 181597.437500, 176148.140625, 0, 1, 1, 0, 1,0.0,0.0,0.0,0.0,0.0, 11:37:13.845
181470.140625, 181513.843750, 181545.000000, 174758.093750, 181601.703125, 175668.437500, 181599.328125, 176160.437500, 0, 1, 1, 0, 1,0.0,0.0,0.0,0.0,0.0, 11:37:13.845
181472.203125, 181515.921875, 181545.937500, 174679.375000, 181603.671875, 175695.453125, 181601.187500, 176158.250000, 0, 1, 1, 0, 1,0.0,0.0,0.0,0.0,0.0, 11:37:13.845
181473.421875, 181516.968750, 181541.390625, 174552.343750, 181604.656250, 175755.812500, 181601.750000, 176149.375000, 0, 1, 1, 0, 1,0.0,0.0,0.0,0.0,0.0, 11:37:13.846
181474.453125, 181517.968750, 181544.015625, 174578.500000, 181605.703125, 175712.406250, 181602.859375, 176146.781250, 0, 1, 1, 0, 1,0.0,0.0,0.0,0.0,0.0, 11:37:13.846
181473.515625, 181517.234375, 181547.953125, 174688.562500, 181605.062500, 175638.078125, 181602.671875, 176150.046875, 0, 1, 1, 0, 1,0.0,0.0,0.0,0.0,0.0, 11:37:13.847
181475.187500, 181519.031250, 181548.125000, 174652.968750, 181606.687500, 175673.171875, 181604.203125, 176138.875000, 0, 1, 1, 0, 1,0.0,0.0,0.0,0.0,0.0, 11:37:13.847
181475.187500, 181518.750000, 181539.921875, 174567.546875, 181606.390625, 175767.359375, 181603.359375, 176111.718750, 0, 1, 1, 0, 1,0.0,0.0,0.0,0.0,0.0, 11:37:13.848
181475.125000, 181518.687500, 181540.812500, 174557.812500, 181606.375000, 175774.046875, 181603.421875, 176088.062500, 0, 1, 1, 0, 1,0.0,0.0,0.0,0.0,0.0, 11:37:13.848
181476.734375, 181520.437500, 181550.296875, 174661.750000, 181608.281250, 175717.656250, 181605.890625, 176074.187500, 0, 1, 1, 0, 1,0.0,0.0,0.0,0.0,0.0, 11:37:13.849
181477.031250, 181520.718750, 181550.718750, 174668.625000, 181608.625000, 175750.218750, 181606.281250, 176057.203125, 0, 1, 1, 0, 1,0.0,0.0,0.0,0.0,0.0, 11:37:13.849
181478.359375, 181521.843750, 181544.296875, 174564.093750, 181609.640625, 175861.937500, 181606.859375, 176030.218750, 0, 1, 1, 0, 1,0.0,0.0,0.0,0.0,0.0, 11:37:13.849
181479.796875, 181523.250000, 181544.421875, 174547.046875, 181611.062500, 175899.812500, 181608.390625, 176006.921875, 0, 1, 1, 0, 1,0.0,0.0,0.0,0.0,0.0, 11:37:13.849
181480.937500, 181524.390625, 181553.890625, 174659.343750, 181612.437500, 175851.265625, 181610.281250, 175994.703125, 0, 1, 1, 0, 1,0.0,0.0,0.0,0.0,0.0, 11:37:13.850
181480.671875, 181524.140625, 181555.062500, 174707.218750, 181612.093750, 175867.359375, 181610.078125, 175981.062500, 0, 1, 1, 0, 1,0.0,0.0,0.0,0.0,0.0, 11:37:13.850
181479.796875, 181523.187500, 181550.109375, 174594.593750, 181610.875000, 175975.250000, 181608.671875, 175950.406250, 0, 1, 1, 0, 1,0.0,0.0,0.0,0.0,0.0, 11:37:13.850
181479.125000, 181522.328125, 181546.515625, 174553.421875, 181610.171875, 176034.015625, 181607.734375, 175923.406250, 0, 1, 1, 0, 1,0.0,0.0,0.0,0.0,0.0, 11:37:13.850
181482.500000, 181525.906250, 181555.593750, 174670.765625, 181613.812500, 175987.218750, 181611.812500, 175911.234375, 0, 1, 1, 0, 1,0.0,0.0,0.0,0.0,0.0, 11:37:13.851
181484.984375, 181528.406250, 181559.531250, 174757.046875, 181616.484375, 175976.328125, 181614.578125, 175906.796875, 0, 1, 1, 0, 1,0.0,0.0,0.0,0.0,0.0, 11:37:13.851
181487.015625, 181530.218750, 181560.328125, 174666.500000, 181618.062500, 176068.625000, 181616.125000, 175891.890625, 0, 1, 1, 0, 1,0.0,0.0,0.0,0.0,0.0, 11:37:13.852
181487.000000, 181530.265625, 181558.812500, 174600.593750, 181617.906250, 176130.750000, 181615.890625, 175884.343750, 0, 1, 1, 0, 1,0.0,0.0,0.0,0.0,0.0, 11:37:13.852
181485.671875, 181529.156250, 181559.500000, 174698.640625, 181616.812500, 176073.453125, 181615.093750, 175895.453125, 0, 1, 1, 0, 1,0.0,0.0,0.0,0.0,0.0, 11:37:13.852
181486.562500, 181530.218750, 181561.265625, 174812.468750, 181618.015625, 176023.140625, 181616.390625, 175914.093750, 0, 1, 1, 0, 1,0.0,0.0,0.0,0.0,0.0, 11:37:13.852
181485.765625, 181529.234375, 181560.234375, 174748.328125, 181616.906250, 176081.250000, 181615.109375, 175916.875000, 0, 1, 1, 0, 1,0.0,0.0,0.0,0.0,0.0, 11:37:13.853
181486.906250, 181530.093750, 181560.890625, 174666.218750, 181617.625000, 176140.453125, 181615.609375, 175917.359375, 0, 1, 1, 0, 1,0.0,0.0,0.0,0.0,0.0, 11:37:13.853
181490.656250, 181533.984375, 181564.906250, 174746.640625, 181621.625000, 176081.421875, 181619.703125, 175924.859375, 0, 1, 1, 0, 1,0.0,0.0,0.0,0.0,0.0, 11:37:13.853
181491.328125, 181534.843750, 181565.781250, 174884.781250, 181622.531250, 176002.750000, 181620.687500, 175935.203125, 0, 1, 1, 0, 1,0.0,0.0,0.0,0.0,0.0, 11:37:13.853
181491.421875, 181534.828125, 181565.828125, 174855.046875, 181622.421875, 176036.984375, 181620.453125, 175933.640625, 0, 1, 1, 0, 1,0.0,0.0,0.0,0.0,0.0, 11:37:13.854
181491.234375, 181534.328125, 181565.265625, 174754.171875, 181621.859375, 176105.750000, 181619.859375, 175926.703125, 0, 1, 1, 0, 1,0.0,0.0,0.0,0.0,0.0, 11:37:13.854
181490.375000, 181533.578125, 181564.437500, 174806.437500, 181621.078125, 176070.078125, 181619.031250, 175927.375000, 0, 1, 1, 0, 1,0.0,0.0,0.0,0.0,0.0, 11:37:13.854
181491.015625, 181534.484375, 181565.421875, 174952.234375, 181621.968750, 175978.250000, 181619.937500, 175932.671875, 0, 1, 1, 0, 1,0.0,0.0,0.0,0.0,0.0, 11:37:13.855
181493.234375, 181536.703125, 181567.656250, 174953.281250, 181624.062500, 175980.109375, 181622.015625, 175927.531250, 0, 1, 1, 0, 1,0.0,0.0,0.0,0.0,0.0, 11:37:13.855
181493.156250, 181536.453125, 181567.390625, 174844.843750, 181623.703125, 176044.390625, 181621.484375, 175910.062500, 0, 1, 1, 0, 1,0.0,0.0,0.0,0.0,0.0, 11:37:13.855
181493.671875, 181536.921875, 181567.750000, 174864.906250, 181624.187500, 176020.265625, 181621.937500, 175891.250000, 0, 1, 1, 0, 1,0.0,0.0,0.0,0.0,0.0, 11:37:13.855
181496.765625, 181540.234375, 181571.109375, 175010.625000, 181627.609375, 175919.078125, 181625.328125, 175875.125000, 0, 1, 1, 0, 1,0.0,0.0,0.0,0.0,0.0, 11:37:13.856
181498.750000, 181542.156250, 181573.078125, 175046.765625, 181629.546875, 175899.375000, 181627.203125, 175855.234375, 0, 1, 1, 0, 1,0.0,0.0,0.0,0.0,0.0, 11:37:13.856
181498.843750, 181542.046875, 181572.843750, 174932.656250, 181629.234375, 175963.906250, 181626.687500, 175823.687500, 0, 1, 1, 0, 1,0.0,0.0,0.0,0.0,0.0, 11:37:13.856
181497.750000, 181540.921875, 181571.687500, 174912.859375, 181628.125000, 175958.796875, 181625.484375, 175798.187500, 0, 1, 1, 0, 1,0.0,0.0,0.0,0.0,0.0, 11:37:13.856
181497.875000, 181541.328125, 181572.250000, 175040.484375, 181628.687500, 175857.078125, 181626.171875, 175784.578125, 0, 1, 1, 0, 1,0.0,0.0,0.0,0.0,0.0, 11:37:13.857
181498.640625, 181542.187500, 181573.093750, 175102.156250, 181629.640625, 175814.843750, 181626.921875, 175771.703125, 0, 1, 1, 0, 1,0.0,0.0,0.0,0.0,0.0, 11:37:13.857
181499.640625, 181542.875000, 181573.859375, 174995.000000, 181630.296875, 175873.000000, 181627.390625, 175747.796875, 0, 1, 1, 0, 1,0.0,0.0,0.0,0.0,0.0, 11:37:13.857
181501.906250, 181545.093750, 181575.937500, 174944.500000, 181632.234375, 175884.531250, 181629.484375, 175726.531250, 0, 1, 1, 0, 1,0.0,0.0,0.0,0.0,0.0, 11:37:13.857
181502.000000, 181545.359375, 181576.265625, 175056.703125, 181632.640625, 175784.937500, 181630.015625, 175710.500000, 0, 1, 1, 0, 1,0.0,0.0,0.0,0.0,0.0, 11:37:13.858
181505.296875, 181548.781250, 181579.859375, 175151.031250, 181636.109375, 175716.312500, 181633.593750, 175693.250000, 0, 1, 1, 0, 1,0.0,0.0,0.0,0.0,0.0, 11:37:13.858
181504.203125, 181547.500000, 181578.437500, 175061.562500, 181634.609375, 175755.578125, 181632.031250, 175659.421875, 0, 1, 1, 0, 1,0.0,0.0,0.0,0.0,0.0, 11:37:13.858
181505.031250, 181548.265625, 181579.000000, 174984.265625, 181635.234375, 175776.390625, 181632.421875, 175623.734375, 0, 1, 1, 0, 1,0.0,0.0,0.0,0.0,0.0, 11:37:13.858
181506.421875, 181549.796875, 181580.687500, 175074.921875, 181636.906250, 175677.484375, 181634.156250, 175596.281250, 0, 1, 1, 0, 1,0.0,0.0,0.0,0.0,0.0, 11:37:13.858
181507.671875, 181551.171875, 181582.187500, 175192.656250, 181638.500000, 175577.687500, 181635.796875, 175575.453125, 0, 1, 1, 0, 1,0.0,0.0,0.0,0.0,0.0, 11:37:13.859
181511.015625, 181554.359375, 181585.359375, 175131.359375, 181641.625000, 175594.000000, 181638.781250, 175548.578125, 0, 1, 1, 0, 1,0.0,0.0,0.0,0.0,0.0, 11:37:13.859
181510.640625, 181553.796875, 181584.687500, 175034.062500, 181640.968750, 175626.609375, 181637.984375, 175521.718750, 0, 1, 1, 0, 1,0.0,0.0,0.0,0.0,0.0, 11:37:13.859
181509.281250, 181552.578125, 181583.437500, 175095.156250, 181639.671875, 175544.812500, 181636.812500, 175502.062500, 0, 1, 1, 0, 1,0.0,0.0,0.0,0.0,0.0, 11:37:13.859
181509.562500, 181553.046875, 181583.984375, 175225.203125, 181640.312500, 175433.625000, 181637.468750, 175487.546875, 0, 1, 1, 0, 1,0.0,0.0,0.0,0.0,0.0, 11:37:13.859
181510.218750, 181553.515625, 181584.578125, 175190.156250, 181640.906250, 175432.734375, 181638.109375, 175460.406250, 0, 1, 1, 0, 1,0.0,0.0,0.0,0.0,0.0, 11:37:13.859
181511.968750, 181555.093750, 181585.984375, 175070.296875, 181642.265625, 175478.156250, 181639.515625, 175422.296875, 0, 1, 1, 0, 1,0.0,0.0,0.0,0.0,0.0, 11:37:13.859
181515.531250, 181558.703125, 181589.640625, 175093.812500, 181645.890625, 175420.375000, 181643.250000, 175388.234375, 0, 1, 1, 0, 1,0.0,0.0,0.0,0.0,0.0, 11:37:13.860
181514.859375, 181558.203125, 181589.281250, 175221.109375, 181645.640625, 175304.140625, 181643.187500, 175361.140625, 0, 1, 1, 0, 1,0.0,0.0,0.0,0.0,0.0, 11:37:13.860
181512.281250, 181555.687500, 181586.734375, 175213.343750, 181643.187500, 175288.156250, 181640.656250, 175331.703125, 0, 1, 1, 0, 1,0.0,0.0,0.0,0.0,0.0, 11:37:13.860
181512.406250, 181555.640625, 181586.531250, 175078.796875, 181643.093750, 175346.515625, 181640.343750, 175294.468750, 0, 1, 1, 0, 1,0.0,0.0,0.0,0.0,0.0, 11:37:13.860
181516.625000, 181559.890625, 181590.734375, 175060.781250, 181647.296875, 175321.843750, 181644.593750, 175265.046875, 0, 1, 1, 0, 1,0.0,0.0,0.0,0.0,0.0, 11:37:13.860
181517.812500, 181561.218750, 181592.250000, 175177.859375, 181648.796875, 175214.781250, 181646.296875, 175248.640625, 0, 1, 1, 0, 1,0.0,0.0,0.0,0.0,0.0, 11:37:13.860
181516.765625, 181560.203125, 181591.281250, 175200.203125, 181647.843750, 175185.390625, 181645.453125, 175235.640625, 0, 1, 1, 0, 1,0.0,0.0,0.0,0.0,0.0, 11:37:13.861
181517.640625, 181560.828125, 181591.875000, 175065.000000, 181648.390625, 175249.671875, 181646.031250, 175216.484375, 0, 1, 1, 0, 1,0.0,0.0,0.0,0.0,0.0, 11:37:13.861
181519.046875, 181562.234375, 181593.203125, 175014.062500, 181649.781250, 175251.578125, 181647.390625, 175205.421875, 0, 1, 1, 0, 1,0.0,0.0,0.0,0.0,0.0, 11:37:13.861
181518.218750, 181561.531250, 181592.578125, 175116.281250, 181649.265625, 175152.328125, 181647.078125, 175205.328125, 0, 1, 1, 0, 1,0.0,0.0,0.0,0.0,0.0, 11:37:13.862
181520.453125, 181564.000000, 181595.000000, 175164.625000, 181651.796875, 175110.265625, 181649.609375, 175210.937500, 0, 1, 1, 0, 1,0.0,0.0,0.0,0.0,0.0, 11:37:13.862
181522.265625, 181565.609375, 181596.562500, 175033.937500, 181653.375000, 175182.156250, 181651.015625, 175208.390625, 0, 1, 1, 0, 1,0.0,0.0,0.0,0.0,0.0, 11:37:13.862
181521.125000, 181564.328125, 181595.218750, 174945.953125, 181652.000000, 175224.453125, 181649.687500, 175207.468750, 0, 1, 1, 0, 1,0.0,0.0,0.0,0.0,0.0, 11:37:13.862
181520.281250, 181563.578125, 181594.484375, 175026.921875, 181651.343750, 175153.625000, 181649.109375, 175216.218750, 0, 1, 1, 0, 1,0.0,0.0,0.0,0.0,0.0, 11:37:13.863
181521.656250, 181565.093750, 181596.156250, 175106.218750, 181653.046875, 175103.406250, 181650.765625, 175228.578125, 0, 1, 1, 0, 1,0.0,0.0,0.0,0.0,0.0, 11:37:13.863
181524.500000, 181567.890625, 181598.859375, 175000.765625, 181655.734375, 175169.468750, 181653.406250, 175231.765625, 0, 1, 1, 0, 1,0.0,0.0,0.0,0.0,0.0, 11:37:13.863
181526.578125, 181569.765625, 181600.578125, 174893.609375, 181657.515625, 175231.171875, 181655.078125, 175236.703125, 0, 1, 1, 0, 1,0.0,0.0,0.0,0.0,0.0, 11:37:13.863
181525.625000, 181568.828125, 181599.625000, 174955.796875, 181656.687500, 175173.500000, 181654.296875, 175250.046875, 0, 1, 1, 0, 1,0.0,0.0,0.0,0.0,41.93698, 11:37:14.310
181526.828125, 181570.234375, 181601.187500, 175061.296875, 181658.203125, 175108.828125, 181656.015625, 175276.656250, 0, 1, 1, 0, 1,0.0,0.0,0.0,0.0,41.93698, 11:37:14.311
181529.000000, 181572.375000, 181603.265625, 174988.937500, 181660.203125, 175161.468750, 181657.968750, 175300.125000, 0, 1, 1, 0, 1,0.0,0.0,0.0,0.0,41.93698, 11:37:14.312
181529.843750, 181573.031250, 181603.921875, 174865.781250, 181660.937500, 175243.375000, 181658.500000, 175322.859375, 0, 1, 1, 0, 1,0.0,0.0,0.0,0.0,41.93698, 11:37:14.312
181531.296875, 181574.609375, 181605.437500, 174900.703125, 181662.515625, 175216.796875, 181660.250000, 175353.609375, 0, 1, 1, 0, 1,0.0,0.0,0.0,0.0,41.93698, 11:37:14.312
181532.640625, 181576.109375, 181607.109375, 175016.812500, 181664.156250, 175153.671875, 181661.984375, 175390.093750, 0, 1, 1, 0, 1,0.0,0.0,0.0,0.0,41.93698, 11:37:14.312
181533.546875, 181576.984375, 181607.968750, 174977.421875, 181665.000000, 175200.812500, 181662.718750, 175418.390625, 0, 1, 1, 0, 1,0.0,0.0,0.0,0.0,41.93698, 11:37:14.313
181536.218750, 181579.468750, 181610.281250, 174840.953125, 181667.390625, 175305.421875, 181664.937500, 175439.265625, 0, 1, 1, 0, 1,0.0,0.0,0.0,0.0,41.93698, 11:37:14.313
181536.218750, 181579.375000, 181610.375000, 174844.375000, 181667.421875, 175309.703125, 181665.046875, 175463.640625, 0, 1, 1, 0, 1,0.0,0.0,0.0,0.0,41.93698, 11:37:14.313
181538.187500, 181581.671875, 181612.703125, 174965.359375, 181669.765625, 175248.437500, 181667.500000, 175494.484375, 0, 1, 1, 0, 1,0.0,0.0,0.0,0.0,41.93698, 11:37:14.313
181539.359375, 181582.968750, 181613.890625, 174963.218750, 181670.968750, 175280.875000, 181668.625000, 175518.937500, 0, 1, 1, 0, 1,0.0,0.0,0.0,0.0,41.93698, 11:37:14.313
181540.125000, 181583.468750, 181614.281250, 174825.390625, 181671.437500, 175394.468750, 181668.796875, 175531.031250, 0, 1, 1, 0, 1,0.0,0.0,0.0,0.0,41.93698, 11:37:14.313
181541.593750, 181584.921875, 181615.765625, 174800.375000, 181672.937500, 175429.203125, 181670.218750, 175548.671875, 0, 1, 1, 0, 1,0.0,0.0,0.0,0.0,41.93698, 11:37:14.314
181542.203125, 181585.656250, 181616.546875, 174920.140625, 181673.828125, 175369.593750, 181671.187500, 175574.796875, 0, 1, 1, 0, 1,0.0,0.0,0.0,0.0,41.93698, 11:37:14.314
181544.109375, 181587.437500, 181618.437500, 174959.078125, 181675.734375, 175377.453125, 181673.187500, 175600.234375, 0, 1, 1, 0, 1,0.0,0.0,0.0,0.0,41.93698, 11:37:14.314
181545.593750, 181588.890625, 181619.781250, 174833.281250, 181677.031250, 175485.187500, 181674.234375, 175613.500000, 0, 1, 1, 0, 1,0.0,0.0,0.0,0.0,41.93698, 11:37:14.314
181547.203125, 181590.531250, 181621.375000, 174782.437500, 181678.687500, 175541.593750, 181675.796875, 175628.296875, 0, 1, 1, 0, 1,0.0,0.0,0.0,0.0,41.93698, 11:37:14.314
181547.593750, 181590.906250, 181621.796875, 174894.546875, 181679.125000, 175496.406250, 181676.406250, 175655.328125, 0, 1, 1, 0, 1,0.0,0.0,0.0,0.0,41.93698, 11:37:14.314
181551.484375, 181594.812500, 181625.828125, 174971.796875, 181683.109375, 175495.031250, 181680.500000, 175684.109375, 0, 1, 1, 0, 1,0.0,0.0,0.0,0.0,41.93698, 11:37:14.315
181554.109375, 181597.328125, 181628.187500, 174867.546875, 181685.500000, 175600.625000, 181682.765625, 175701.062500, 0, 1, 1, 0, 1,0.0,0.0,0.0,0.0,41.93698, 11:37:14.315
181556.031250, 181599.109375, 181630.015625, 174792.250000, 181687.265625, 175678.140625, 181684.500000, 175719.531250, 0, 1, 1, 0, 1,0.0,0.0,0.0,0.0,41.93698, 11:37:14.315
181558.281250, 181601.453125, 181632.484375, 174885.781250, 181689.640625, 175642.859375, 181686.906250, 175737.640625, 0, 1, 1, 0, 1,0.0,0.0,0.0,0.0,41.93698, 11:37:14.315
181561.562500, 181604.921875, 181635.953125, 174989.156250, 181693.281250, 175624.265625, 181690.546875, 175750.796875, 0, 1, 1, 0, 1,0.0,0.0,0.0,0.0,41.93698, 11:37:14.315
181563.531250, 181606.687500, 181637.578125, 174905.718750, 181695.000000, 175717.468750, 181692.203125, 175744.312500, 0, 1, 1, 0, 1,0.0,0.0,0.0,0.0,41.93698, 11:37:14.315
181564.218750, 181607.296875, 181638.031250, 174804.562500, 181695.453125, 175812.953125, 181692.453125, 175736.203125, 0, 1, 1, 0, 1,0.0,0.0,0.0,0.0,41.93698, 11:37:14.315
181565.578125, 181608.828125, 181639.515625, 174872.125000, 181696.921875, 175793.640625, 181694.078125, 175744.671875, 0, 1, 1, 0, 1,0.0,0.0,0.0,0.0,41.93698, 11:37:14.316
181568.468750, 181611.812500, 181642.625000, 174995.734375, 181700.046875, 175754.703125, 181697.437500, 175764.046875, 0, 1, 1, 0, 1,0.0,0.0,0.0,0.0,41.93698, 11:37:14.316
181569.031250, 181612.250000, 181643.093750, 174946.031250, 181700.359375, 175823.281250, 181697.843750, 175770.734375, 0, 1, 1, 0, 1,0.0,0.0,0.0,0.0,41.93698, 11:37:14.316
181571.015625, 181614.093750, 181644.843750, 174832.859375, 181702.078125, 175925.718750, 181699.453125, 175769.281250, 0, 1, 1, 0, 1,0.0,0.0,0.0,0.0,41.93698, 11:37:14.316
181573.609375, 181616.765625, 181647.531250, 174872.468750, 181704.750000, 175922.687500, 181702.171875, 175773.078125, 0, 1, 1, 0, 1,0.0,0.0,0.0,0.0,41.93698, 11:37:14.316
181573.703125, 181617.015625, 181647.921875, 175005.406250, 181705.125000, 175868.531250, 181702.750000, 175783.093750, 0, 1, 1, 0, 1,0.0,0.0,0.0,0.0,41.93698, 11:37:14.316
181577.265625, 181620.453125, 181651.328125, 174991.828125, 181708.546875, 175907.656250, 181706.250000, 175779.390625, 0, 1, 1, 0, 1,0.0,0.0,0.0,0.0,41.93698, 11:37:14.317
181578.875000, 181621.953125, 181652.671875, 174869.265625, 181709.859375, 176005.656250, 181707.515625, 175761.281250, 0, 1, 1, 0, 1,0.0,0.0,0.0,0.0,41.93698, 11:37:14.317
181577.812500, 181620.968750, 181651.656250, 174877.515625, 181708.906250, 176016.343750, 181706.531250, 175752.812500, 0, 1, 1, 0, 1,0.0,0.0,0.0,0.0,41.93698, 11:37:14.317
181579.390625, 181622.828125, 181653.687500, 175009.250000, 181710.781250, 175954.140625, 181708.609375, 175762.718750, 0, 1, 1, 0, 1,0.0,0.0,0.0,0.0,41.93698, 11:37:14.317
181583.078125, 181626.375000, 181657.375000, 175029.281250, 181714.406250, 175967.437500, 181712.171875, 175773.109375, 0, 1, 1, 0, 1,0.0,0.0,0.0,0.0,41.93698, 11:37:14.317
181585.984375, 181629.062500, 181659.859375, 174900.812500, 181716.906250, 176055.968750, 181714.515625, 175773.937500, 0, 1, 1, 0, 1,0.0,0.0,0.0,0.0,41.93698, 11:37:14.317
181586.187500, 181629.421875, 181660.156250, 174871.078125, 181717.125000, 176074.671875, 181714.796875, 175786.500000, 0, 1, 1, 0, 1,0.0,0.0,0.0,0.0,41.93698, 11:37:14.317
181585.156250, 181628.546875, 181659.437500, 174989.796875, 181716.500000, 176004.265625, 181714.171875, 175816.781250, 0, 1, 1, 0, 1,0.0,0.0,0.0,0.0,41.93698, 11:37:14.318
181586.375000, 181629.640625, 181660.640625, 175041.531250, 181717.687500, 175989.515625, 181715.453125, 175843.875000, 0, 1, 1, 0, 1,0.0,0.0,0.0,0.0,41.93698, 11:37:14.318
181588.562500, 181631.656250, 181662.546875, 174919.031250, 181719.546875, 176063.031250, 181717.109375, 175856.390625, 0, 1, 1, 0, 1,0.0,0.0,0.0,0.0,41.93698, 11:37:14.318
181589.328125, 181632.328125, 181663.187500, 174854.921875, 181720.234375, 176092.125000, 181717.734375, 175879.281250, 0, 1, 1, 0, 1,0.0,0.0,0.0,0.0,41.93698, 11:37:14.318
181590.390625, 181633.546875, 181664.468750, 174950.343750, 181721.578125, 176016.187500, 181719.281250, 175919.843750, 0, 1, 1, 0, 1,0.0,0.0,0.0,0.0,41.93698, 11:37:14.318
181590.390625, 181633.625000, 181664.562500, 175026.156250, 181721.625000, 175971.031250, 181719.453125, 175961.906250, 0, 1, 1, 0, 1,0.0,0.0,0.0,0.0,41.93698, 11:37:14.319
181593.203125, 181636.296875, 181667.125000, 174921.593750, 181724.093750, 176029.531250, 181721.781250, 175985.765625, 0, 1, 1, 0, 1,0.0,0.0,0.0,0.0,41.93698, 11:37:14.319
181595.328125, 181638.265625, 181669.046875, 174830.796875, 181726.031250, 176072.156250, 181723.468750, 176005.718750, 0, 1, 1, 0, 1,0.0,0.0,0.0,0.0,41.93698, 11:37:14.319
181596.406250, 181639.500000, 181670.343750, 174902.546875, 181727.312500, 176004.796875, 181724.953125, 176034.375000, 0, 1, 1, 0, 1,0.0,0.0,0.0,0.0,41.93698, 11:37:14.319
181597.546875, 181640.906250, 181671.906250, 174999.421875, 181728.734375, 175941.453125, 181726.625000, 176062.703125, 0, 1, 1, 0, 1,0.0,0.0,0.0,0.0,41.93698, 11:37:14.319
181597.234375, 181640.531250, 181671.375000, 174917.906250, 181728.218750, 175983.078125, 181725.750000, 176068.937500, 0, 1, 1, 0, 1,0.0,0.0,0.0,0.0,41.93698, 11:37:14.320
181597.968750, 181641.015625, 181671.796875, 174805.328125, 181728.578125, 176039.218750, 181725.953125, 176068.687500, 0, 1, 1, 0, 1,0.0,0.0,0.0,0.0,41.93698, 11:37:14.320
181600.546875, 181643.531250, 181674.500000, 174852.281250, 181731.281250, 175992.875000, 181728.734375, 176079.687500, 0, 1, 1, 0, 1,0.0,0.0,0.0,0.0,41.93698, 11:37:14.320
181600.921875, 181644.187500, 181675.109375, 174967.140625, 181731.968750, 175921.828125, 181729.484375, 176100.656250, 0, 1, 1, 0, 1,0.0,0.0,0.0,0.0,41.93698, 11:37:14.320
181601.281250, 181644.437500, 181675.234375, 174923.046875, 181732.187500, 175953.062500, 181729.593750, 176108.734375, 0, 1, 1, 0, 1,0.0,0.0,0.0,0.0,41.93698, 11:37:14.320
181601.234375, 181644.218750, 181674.906250, 174799.703125, 181731.875000, 176027.562500, 181729.093750, 176105.562500, 0, 1, 1, 0, 1,0.0,0.0,0.0,0.0,41.93698, 11:37:14.320
181603.484375, 181646.546875, 181677.250000, 174819.296875, 181734.234375, 176010.734375, 181731.328125, 176112.609375, 0, 1, 1, 0, 1,0.0,0.0,0.0,0.0,41.93698, 11:37:14.321
181605.765625, 181649.062500, 181679.984375, 174942.375000, 181736.859375, 175945.453125, 181734.078125, 176130.406250, 0, 1, 1, 0, 1,0.0,0.0,0.0,0.0,41.93698, 11:37:14.321
181603.875000, 181647.218750, 181678.109375, 174933.171875, 181734.937500, 175970.734375, 181731.984375, 176137.109375, 0, 1, 1, 0, 1,0.0,0.0,0.0,0.0,41.93698, 11:37:14.321
181602.984375, 181646.156250, 181676.687500, 174805.406250, 181733.687500, 176061.281250, 181730.312500, 176132.656250, 0, 1, 1, 0, 1,0.0,0.0,0.0,0.0,41.93698, 11:37:14.321
181603.562500, 181646.703125, 181677.359375, 174796.609375, 181734.359375, 176074.515625, 181730.812500, 176140.437500, 0, 1, 1, 0, 1,0.0,0.0,0.0,0.0,41.93698, 11:37:14.321
181603.828125, 181647.187500, 181678.187500, 174919.609375, 181735.031250, 176012.031250, 181731.609375, 176164.171875, 0, 1, 1, 0, 1,0.0,0.0,0.0,0.0,41.93698, 11:37:14.321
181605.593750, 181649.093750, 181679.984375, 174949.531250, 181736.859375, 176021.843750, 181733.437500, 176181.734375, 0, 1, 1, 0, 1,0.0,0.0,0.0,0.0,41.93698, 11:37:14.321
181606.593750, 181649.890625, 181680.515625, 174825.343750, 181737.531250, 176113.562500, 181733.750000, 176183.390625, 0, 1, 1, 0, 1,0.0,0.0,0.0,0.0,41.93698, 11:37:14.321
181606.640625, 181649.796875, 181680.343750, 174784.843750, 181737.312500, 176142.171875, 181733.562500, 176193.968750, 0, 1, 1, 0, 1,0.0,0.0,0.0,0.0,41.93698, 11:37:14.322
181606.625000, 181650.078125, 181680.921875, 174892.312500, 181737.718750, 176069.359375, 181734.203125, 176215.609375, 0, 1, 1, 0, 1,0.0,0.0,0.0,0.0,41.93698, 11:37:14.322
181605.812500, 181649.312500, 181680.187500, 174946.000000, 181737.015625, 176038.906250, 181733.625000, 176228.078125, 0, 1, 1, 0, 1,0.0,0.0,0.0,0.0,41.93698, 11:37:14.322
181607.296875, 181650.546875, 181681.031250, 174826.015625, 181738.093750, 176105.000000, 181734.609375, 176221.281250, 0, 1, 1, 0, 1,0.0,0.0,0.0,0.0,41.93698, 11:37:14.322
181606.515625, 181649.718750, 181679.484375, 174749.859375, 181737.093750, 176135.078125, 181733.484375, 176217.140625, 0, 1, 1, 0, 1,0.0,0.0,0.0,0.0,41.93698, 11:37:14.322
181607.765625, 181651.093750, 181681.609375, 174834.468750, 181738.703125, 176052.031250, 181735.140625, 176219.359375, 0, 1, 1, 0, 1,0.0,0.0,0.0,0.0,41.93698, 11:37:14.322
181609.500000, 181652.937500, 181683.781250, 174914.515625, 181740.500000, 175985.359375, 181737.046875, 176216.500000, 0, 1, 1, 0, 1,0.0,0.0,0.0,0.0,41.93698, 11:37:14.322
181607.671875, 181650.875000, 181681.125000, 174814.031250, 181738.546875, 176021.531250, 181734.875000, 176191.218750, 0, 1, 1, 0, 1,0.0,0.0,0.0,0.0,41.93698, 11:37:14.323
181605.281250, 181648.375000, 181676.218750, 174711.781250, 181735.968750, 176048.796875, 181732.015625, 176158.984375, 0, 1, 1, 0, 1,0.0,0.0,0.0,0.0,41.93698, 11:37:14.323
181606.312500, 181649.640625, 181679.078125, 174769.937500, 181737.250000, 175959.750000, 181733.359375, 176127.578125, 0, 1, 1, 0, 1,0.0,0.0,0.0,0.0,41.93698, 11:37:14.323
181606.859375, 181650.312500, 181681.203125, 174866.406250, 181737.984375, 175859.968750, 181734.359375, 176095.796875, 0, 1, 1, 0, 1,0.0,0.0,0.0,0.0,41.93698, 11:37:14.323
181605.750000, 181649.000000, 181678.328125, 174791.953125, 181736.546875, 175870.015625, 181732.796875, 176048.296875, 0, 1, 1, 0, 1,0.0,0.0,0.0,0.0,41.93698, 11:37:14.323
181606.468750, 181649.484375, 181671.937500, 174670.937500, 181736.953125, 175900.625000, 181732.687500, 175988.937500, 0, 1, 1, 0, 1,0.0,0.0,0.0,0.0,41.93698, 11:37:14.323
181607.093750, 181650.234375, 181675.234375, 174703.828125, 181737.781250, 175812.359375, 181733.578125, 175929.656250, 0, 1, 1, 0, 1,0.0,0.0,0.0,0.0,41.93698, 11:37:14.323
181608.046875, 181651.375000, 181682.031250, 174817.593750, 181739.062500, 175681.046875, 181735.281250, 175878.765625, 0, 1, 1, 0, 1,0.0,0.0,0.0,0.0,41.93698, 11:37:14.324
181606.312500, 181649.625000, 181678.640625, 174780.281250, 181737.250000, 175654.187500, 181733.359375, 175821.812500, 0, 1, 1, 0, 1,0.0,0.0,0.0,0.0,41.93698, 11:37:14.324
181606.437500, 181649.484375, 181670.640625, 174706.843750, 181737.046875, 175682.687500, 181732.531250, 175753.906250, 0, 1, 1, 0, 1,0.0,0.0,0.0,0.0,41.93698, 11:37:14.324
181605.484375, 181648.515625, 181671.484375, 174707.359375, 181736.171875, 175614.250000, 181731.640625, 175690.671875, 0, 1, 1, 0, 1,0.0,0.0,0.0,0.0,41.93698, 11:37:14.324
181606.437500, 181649.781250, 181679.828125, 174791.031250, 181737.609375, 175478.171875, 181733.437500, 175644.046875, 0, 1, 1, 0, 1,0.0,0.0,0.0,0.0,41.93698, 11:37:14.324
181605.484375, 181648.843750, 181678.656250, 174792.453125, 181736.484375, 175437.515625, 181732.265625, 175601.250000, 0, 1, 1, 0, 1,0.0,0.0,0.0,0.0,41.93698, 11:37:14.324
181605.859375, 181649.000000, 181671.468750, 174725.656250, 181736.468750, 175480.671875, 181731.796875, 175548.265625, 0, 1, 1, 0, 1,0.0,0.0,0.0,0.0,41.93698, 11:37:14.324
181608.078125, 181651.281250, 181671.890625, 174688.265625, 181738.703125, 175446.812500, 181734.000000, 175494.046875, 0, 1, 1, 0, 1,0.0,0.0,0.0,0.0,41.93698, 11:37:14.325
181606.890625, 181650.281250, 181679.468750, 174778.312500, 181737.843750, 175329.984375, 181733.781250, 175447.265625, 0, 1, 1, 0, 1,0.0,0.0,0.0,0.0,41.93698, 11:37:14.326
181606.312500, 181649.796875, 181680.359375, 174815.515625, 181737.421875, 175287.015625, 181733.421875, 175413.171875, 0, 1, 1, 0, 1,0.0,0.0,0.0,0.0,41.93698, 11:37:14.327
181606.046875, 181649.218750, 181673.500000, 174711.312500, 181736.796875, 175340.250000, 181732.296875, 175380.031250, 0, 1, 1, 0, 1,0.0,0.0,0.0,0.0,41.93698, 11:37:14.327
181607.828125, 181650.984375, 181672.000000, 174694.671875, 181738.578125, 175328.218750, 181733.875000, 175361.875000, 0, 1, 1, 0, 1,0.0,0.0,0.0,0.0,41.93698, 11:37:14.327
181609.703125, 181653.015625, 181681.562500, 174770.515625, 181740.703125, 175191.843750, 181736.531250, 175364.203125, 0, 1, 1, 0, 1,0.0,0.0,0.0,0.0,41.93698, 11:37:14.327
181610.890625, 181654.453125, 181685.343750, 174841.171875, 181742.156250, 175113.781250, 181738.031250, 175367.421875, 0, 1, 1, 0, 1,0.0,0.0,0.0,0.0,41.93698, 11:37:14.328
181609.015625, 181652.421875, 181679.312500, 174736.125000, 181739.953125, 175160.828125, 181735.500000, 175356.781250, 0, 1, 1, 0, 1,0.0,0.0,0.0,0.0,41.93698, 11:37:14.328
181608.671875, 181651.812500, 181672.875000, 174660.750000, 181739.437500, 175187.828125, 181734.625000, 175345.828125, 0, 1, 1, 0, 1,0.0,0.0,0.0,0.0,41.93698, 11:37:14.328
181608.609375, 181651.890625, 181679.640625, 174748.500000, 181739.640625, 175102.687500, 181735.390625, 175340.875000, 0, 1, 1, 0, 1,0.0,0.0,0.0,0.0,41.93698, 11:37:14.328
181609.500000, 181652.906250, 181683.906250, 174845.046875, 181740.734375, 175034.187500, 181736.859375, 175342.031250, 0, 1, 1, 0, 1,0.0,0.0,0.0,0.0,41.93698, 11:37:14.328
181611.578125, 181654.937500, 181683.109375, 174761.406250, 181742.718750, 175089.453125, 181738.656250, 175339.687500, 0, 1, 1, 0, 1,0.0,0.0,0.0,0.0,35.331284, 11:37:14.328
181614.484375, 181657.812500, 181678.031250, 174662.656250, 181745.453125, 175152.718750, 181740.937500, 175339.296875, 0, 1, 1, 0, 1,0.0,0.0,0.0,0.0,35.331284, 11:37:14.329
181615.062500, 181658.406250, 181683.875000, 174723.718750, 181746.078125, 175098.843750, 181741.890625, 175344.421875, 0, 1, 1, 0, 1,0.0,0.0,0.0,0.0,35.331284, 11:37:14.329
181613.609375, 181657.250000, 181687.875000, 174838.265625, 181744.953125, 175030.296875, 181741.265625, 175358.343750, 0, 1, 1, 0, 1,0.0,0.0,0.0,0.0,35.331284, 11:37:14.329
181614.109375, 181657.515625, 181686.531250, 174786.031250, 181745.171875, 175082.187500, 181741.328125, 175365.640625, 0, 1, 1, 0, 1,0.0,0.0,0.0,0.0,35.331284, 11:37:14.329
181615.312500, 181658.437500, 181679.578125, 174671.640625, 181745.984375, 175172.765625, 181741.671875, 175365.953125, 0, 1, 1, 0, 1,0.0,0.0,0.0,0.0,35.331284, 11:37:14.329
181615.765625, 181659.078125, 181683.468750, 174709.203125, 181746.656250, 175153.421875, 181742.703125, 175369.406250, 0, 1, 1, 0, 1,0.0,0.0,0.0,0.0,35.331284, 11:37:14.329
181616.828125, 181660.265625, 181690.703125, 174837.218750, 181748.109375, 175086.187500, 181744.515625, 175381.765625, 0, 1, 1, 0, 1,0.0,0.0,0.0,0.0,35.331284, 11:37:14.329
181617.734375, 181661.093750, 181691.312500, 174822.796875, 181748.984375, 175128.765625, 181745.296875, 175395.765625, 0, 1, 1, 0, 1,0.0,0.0,0.0,0.0,35.331284, 11:37:14.330
181617.390625, 181660.562500, 181685.078125, 174701.390625, 181748.328125, 175240.203125, 181744.281250, 175409.437500, 0, 1, 1, 0, 1,0.0,0.0,0.0,0.0,35.331284, 11:37:14.330
181619.984375, 181663.171875, 181687.718750, 174706.250000, 181750.921875, 175256.125000, 181746.781250, 175432.062500, 0, 1, 1, 0, 1,0.0,0.0,0.0,0.0,35.331284, 11:37:14.330
181622.796875, 181666.125000, 181696.406250, 174835.890625, 181753.984375, 175196.453125, 181750.203125, 175465.859375, 0, 1, 1, 0, 1,0.0,0.0,0.0,0.0,35.331284, 11:37:14.330
181625.062500, 181668.312500, 181699.046875, 174860.078125, 181756.281250, 175222.765625, 181752.484375, 175498.609375, 0, 1, 1, 0, 1,0.0,0.0,0.0,0.0,35.331284, 11:37:14.330
181625.265625, 181668.421875, 181695.781250, 174742.062500, 181756.093750, 175336.046875, 181752.109375, 175516.078125, 0, 1, 1, 0, 1,0.0,0.0,0.0,0.0,35.331284, 11:37:14.331
181626.937500, 181670.031250, 181696.234375, 174723.140625, 181757.671875, 175377.796875, 181753.562500, 175526.984375, 0, 1, 1, 0, 1,0.0,0.0,0.0,0.0,35.331284, 11:37:14.331
181628.390625, 181671.593750, 181701.921875, 174850.421875, 181759.390625, 175321.046875, 181755.578125, 175535.593750, 0, 1, 1, 0, 1,0.0,0.0,0.0,0.0,35.331284, 11:37:14.331
181628.640625, 181671.953125, 181702.953125, 174912.031250, 181759.843750, 175331.953125, 181756.125000, 175541.453125, 0, 1, 1, 0, 1,0.0,0.0,0.0,0.0,35.331284, 11:37:14.331
181631.187500, 181674.281250, 181704.562500, 174810.656250, 181761.968750, 175452.671875, 181758.093750, 175536.203125, 0, 1, 1, 0, 1,0.0,0.0,0.0,0.0,35.331284, 11:37:14.331
181632.859375, 181675.796875, 181705.531250, 174768.781250, 181763.343750, 175526.875000, 181759.375000, 175538.031250, 0, 1, 1, 0, 1,0.0,0.0,0.0,0.0,35.331284, 11:37:14.332
181634.500000, 181677.765625, 181708.609375, 174887.906250, 181765.406250, 175483.156250, 181761.578125, 175559.875000, 0, 1, 1, 0, 1,0.0,0.0,0.0,0.0,35.331284, 11:37:14.332
181636.171875, 181679.484375, 181710.531250, 174989.093750, 181767.218750, 175469.390625, 181763.468750, 175597.218750, 0, 1, 1, 0, 1,0.0,0.0,0.0,0.0,35.331284, 11:37:14.333
181639.515625, 181682.531250, 181713.500000, 174909.281250, 181770.281250, 175566.687500, 181766.140625, 175628.250000, 0, 1, 1, 0, 1,0.0,0.0,0.0,0.0,35.331284, 11:37:14.334
181641.578125, 181684.468750, 181715.343750, 174843.984375, 181772.140625, 175649.500000, 181767.828125, 175659.218750, 0, 1, 1, 0, 1,0.0,0.0,0.0,0.0,35.331284, 11:37:14.335
181641.406250, 181684.531250, 181715.500000, 174941.750000, 181772.296875, 175615.953125, 181767.984375, 175694.468750, 0, 1, 1, 0, 1,0.0,0.0,0.0,0.0,35.331284, 11:37:14.335
181643.390625, 181686.625000, 181717.703125, 175063.296875, 181774.421875, 175584.390625, 181770.171875, 175730.765625, 0, 1, 1, 0, 1,0.0,0.0,0.0,0.0,35.331284, 11:37:14.335
181644.500000, 181687.796875, 181718.718750, 175005.437500, 181775.375000, 175667.296875, 181771.125000, 175751.968750, 0, 1, 1, 0, 1,0.0,0.0,0.0,0.0,35.331284, 11:37:14.335
181646.343750, 181689.453125, 181720.328125, 174913.078125, 181776.875000, 175761.843750, 181772.468750, 175767.703125, 0, 1, 1, 0, 1,0.0,0.0,0.0,0.0,35.331284, 11:37:14.335
181648.546875, 181691.687500, 181722.671875, 174978.453125, 181779.250000, 175741.953125, 181774.734375, 175792.078125, 0, 1, 1, 0, 1,0.0,0.0,56.057816,20.615154,2.8168743, 11:37:14.788
181651.453125, 181694.953125, 181725.953125, 175111.203125, 181782.500000, 175695.187500, 181778.125000, 175825.703125, 0, 1, 1, 0, 1,0.0,0.0,56.057816,20.615154,2.8168743, 11:37:14.789
181653.406250, 181696.781250, 181727.718750, 175081.703125, 181784.203125, 175752.781250, 181779.781250, 175852.546875, 0, 1, 1, 0, 1,0.0,0.0,56.057816,20.615154,2.8168743, 11:37:14.789
181654.546875, 181697.656250, 181728.531250, 174972.515625, 181784.968750, 175848.546875, 181780.312500, 175874.375000, 0, 1, 1, 0, 1,0.0,0.0,56.057816,20.615154,2.8168743, 11:37:14.789
181656.328125, 181699.468750, 181730.343750, 175006.375000, 181786.859375, 175836.828125, 181782.234375, 175900.171875, 0, 1, 1, 0, 1,0.0,0.0,56.057816,20.615154,2.8168743, 11:37:14.789
181657.031250, 181700.359375, 181731.281250, 175143.546875, 181787.843750, 175765.156250, 181783.531250, 175929.875000, 0, 1, 1, 0, 1,0.0,0.0,56.057816,20.615154,2.8168743, 11:37:14.789
181658.703125, 181702.046875, 181732.953125, 175145.734375, 181789.375000, 175784.500000, 181785.187500, 175946.593750, 0, 1, 1, 0, 1,0.0,0.0,56.057816,20.615154,2.8168743, 11:37:14.790
181659.500000, 181702.515625, 181733.406250, 175026.093750, 181789.953125, 175865.531250, 181785.390625, 175948.765625, 0, 1, 1, 0, 1,0.0,0.0,56.057816,20.615154,2.8168743, 11:37:14.790
181661.531250, 181704.484375, 181735.484375, 175026.562500, 181791.968750, 175859.265625, 181787.312500, 175954.328125, 0, 1, 1, 0, 1,0.0,0.0,56.057816,20.615154,2.8168743, 11:37:14.790
181665.046875, 181708.359375, 181739.375000, 175157.031250, 181795.734375, 175770.687500, 181791.359375, 175970.156250, 0, 1, 1, 0, 1,0.0,0.0,56.057816,20.615154,2.8168743, 11:37:14.790
181667.281250, 181710.531250, 181741.578125, 175190.421875, 181797.953125, 175754.484375, 181793.546875, 175984.703125, 0, 1, 1, 0, 1,0.0,0.0,56.057816,20.615154,2.8168743, 11:37:14.790
181668.015625, 181711.109375, 181742.078125, 175070.328125, 181798.437500, 175827.937500, 181793.640625, 175986.921875, 0, 1, 1, 0, 1,0.0,0.0,56.057816,20.615154,2.8168743, 11:37:14.791
181669.656250, 181712.718750, 181743.546875, 175032.843750, 181799.890625, 175839.250000, 181794.953125, 175989.875000, 0, 1, 1, 0, 1,0.0,0.0,56.057816,20.615154,2.8168743, 11:37:14.791
181671.468750, 181714.562500, 181745.625000, 175141.781250, 181802.015625, 175750.203125, 181797.140625, 175998.250000, 0, 1, 1, 0, 1,0.0,0.0,56.057816,20.615154,2.8168743, 11:37:14.791
181672.156250, 181715.406250, 181746.515625, 175197.234375, 181802.953125, 175713.109375, 181798.281250, 176000.453125, 0, 1, 1, 0, 1,0.0,0.0,56.057816,20.615154,2.8168743, 11:37:14.791
181673.156250, 181716.406250, 181747.328125, 175080.343750, 181803.671875, 175779.656250, 181798.875000, 175981.015625, 0, 1, 1, 0, 1,0.0,0.0,56.057816,20.615154,2.8168743, 11:37:14.792
181674.687500, 181717.859375, 181748.625000, 175009.546875, 181804.968750, 175806.406250, 181800.125000, 175962.734375, 0, 1, 1, 0, 1,0.0,0.0,56.057816,20.615154,2.8168743, 11:37:14.792
181679.203125, 181722.406250, 181753.312500, 175099.890625, 181809.687500, 175722.796875, 181805.031250, 175952.078125, 0, 1, 1, 0, 1,0.0,0.0,56.057816,20.615154,2.8168743, 11:37:14.792
181678.765625, 181722.171875, 181753.187500, 175186.218750, 181809.593750, 175670.125000, 181805.156250, 175939.359375, 0, 1, 1, 0, 1,0.0,0.0,56.057816,20.615154,2.8168743, 11:37:14.792
181678.812500, 181722.015625, 181752.906250, 175093.203125, 181809.468750, 175730.421875, 181804.875000, 175908.296875, 0, 1, 1, 0, 1,0.0,0.0,56.057816,20.615154,2.8168743, 11:37:14.792
181678.265625, 181721.390625, 181752.218750, 174999.453125, 181808.687500, 175785.984375, 181804.046875, 175872.234375, 0, 1, 1, 0, 1,0.0,0.0,56.057816,20.615154,2.8168743, 11:37:14.793
181679.281250, 181722.421875, 181753.406250, 175068.781250, 181809.859375, 175729.437500, 181805.484375, 175843.312500, 0, 1, 1, 0, 1,0.0,0.0,56.057816,20.615154,2.8168743, 11:37:14.793
181680.250000, 181723.562500, 181754.640625, 175180.968750, 181811.187500, 175666.734375, 181806.984375, 175817.718750, 0, 1, 1, 0, 1,0.0,0.0,51.63253,16.258976,2.0625591, 11:37:14.793
181680.562500, 181723.921875, 181754.812500, 175121.828125, 181811.453125, 175709.343750, 181807.234375, 175779.046875, 0, 1, 1, 0, 1,0.0,0.0,51.63253,16.258976,2.0625591, 11:37:14.793
181682.765625, 181725.906250, 181756.796875, 175017.656250, 181813.515625, 175775.593750, 181809.343750, 175737.359375, 0, 1, 1, 0, 1,0.0,0.0,51.63253,16.258976,2.0625591, 11:37:14.794
181681.187500, 181724.390625, 181755.265625, 175071.734375, 181812.031250, 175737.953125, 181808.078125, 175709.296875, 0, 1, 1, 0, 1,0.0,0.0,51.63253,16.258976,2.0625591, 11:37:14.794
181685.390625, 181728.796875, 181759.734375, 175204.437500, 181816.593750, 175662.578125, 181812.812500, 175702.718750, 0, 1, 1, 0, 1,0.0,0.0,51.63253,16.258976,2.0625591, 11:37:14.794
181687.843750, 181731.234375, 181762.171875, 175182.812500, 181819.000000, 175691.953125, 181815.203125, 175698.421875, 0, 1, 1, 0, 1,0.0,0.0,51.63253,16.258976,2.0625591, 11:37:14.794
181687.406250, 181730.578125, 181761.390625, 175062.812500, 181818.203125, 175771.203125, 181814.250000, 175692.015625, 0, 1, 1, 0, 1,0.0,0.0,51.63253,16.258976,2.0625591, 11:37:14.795
181686.640625, 181729.828125, 181760.718750, 175080.015625, 181817.515625, 175757.734375, 181813.687500, 175696.218750, 0, 1, 1, 0, 1,0.0,0.0,51.63253,16.258976,2.0625591, 11:37:14.795
181688.968750, 181732.468750, 181763.500000, 175214.328125, 181820.343750, 175681.546875, 181816.656250, 175709.000000, 0, 1, 1, 0, 1,0.0,0.0,51.63253,16.258976,2.0625591, 11:37:14.795
181689.859375, 181733.359375, 181764.406250, 175224.078125, 181821.281250, 175684.890625, 181817.546875, 175718.609375, 0, 1, 1, 0, 1,0.0,0.0,51.63253,16.258976,2.0625591, 11:37:14.795
181690.375000, 181733.796875, 181764.625000, 175098.328125, 181821.531250, 175756.953125, 181817.703125, 175719.859375, 0, 1, 1, 0, 1,0.0,0.0,51.63253,16.258976,2.0625591, 11:37:14.795
181691.531250, 181734.921875, 181765.750000, 175080.828125, 181822.734375, 175749.859375, 181818.843750, 175723.906250, 0, 1, 1, 0, 1,0.0,0.0,51.63253,16.258976,2.0625591, 11:37:14.795
181692.390625, 181736.000000, 181766.875000, 175203.921875, 181823.968750, 175658.671875, 181820.234375, 175737.031250, 0, 1, 1, 0, 1,0.0,0.0,51.63253,16.258976,2.0625591, 11:37:14.796
181694.781250, 181738.265625, 181769.312500, 175247.140625, 181826.312500, 175644.968750, 181822.687500, 175748.906250, 0, 1, 1, 0, 1,0.0,0.0,51.63253,16.258976,2.0625591, 11:37:14.796
181696.359375, 181739.703125, 181770.578125, 175126.890625, 181827.593750, 175722.968750, 181823.718750, 175749.234375, 0, 1, 1, 0, 1,0.0,0.0,51.63253,16.258976,2.0625591, 11:37:14.796
181696.406250, 181739.718750, 181770.609375, 175079.734375, 181827.750000, 175742.843750, 181823.656250, 175753.453125, 0, 1, 1, 0, 1,0.0,0.0,51.63253,16.258976,2.0625591, 11:37:14.796
181695.140625, 181738.609375, 181769.718750, 175190.031250, 181826.734375, 175660.937500, 181822.843750, 175768.437500, 0, 1, 1, 0, 1,0.0,0.0,51.63253,16.258976,2.0625591, 11:37:14.796
181695.453125, 181739.015625, 181770.140625, 175263.687500, 181827.140625, 175627.703125, 181823.296875, 175783.343750, 0, 1, 1, 0, 1,0.0,0.0,51.63253,16.258976,2.0625591, 11:37:14.797
181697.593750, 181741.062500, 181771.953125, 175159.156250, 181829.109375, 175706.093750, 181825.046875, 175778.718750, 0, 1, 1, 0, 1,0.0,0.0,51.63253,16.258976,2.0625591, 11:37:14.797
181697.593750, 181740.937500, 181771.750000, 175086.890625, 181828.906250, 175753.500000, 181824.687500, 175776.734375, 0, 1, 1, 0, 1,0.0,0.0,51.63253,16.258976,2.0625591, 11:37:14.798
181698.984375, 181742.437500, 181773.312500, 175180.156250, 181830.515625, 175682.140625, 181826.453125, 175796.046875, 0, 1, 1, 0, 1,0.0,0.0,51.63253,16.258976,2.0625591, 11:37:14.799
181699.218750, 181742.859375, 181773.796875, 175282.015625, 181831.015625, 175627.000000, 181827.171875, 175824.968750, 0, 1, 1, 0, 1,0.0,0.0,51.63253,16.258976,2.0625591, 11:37:14.799
181700.390625, 181743.968750, 181774.796875, 175197.578125, 181831.921875, 175683.500000, 181827.906250, 175834.468750, 0, 1, 1, 0, 1,0.0,0.0,51.63253,16.258976,2.0625591, 11:37:14.799
181700.828125, 181744.218750, 181775.078125, 175096.968750, 181832.171875, 175740.468750, 181827.906250, 175838.859375, 0, 1, 1, 0, 1,0.0,0.0,51.63253,16.258976,2.0625591, 11:37:14.799
181702.484375, 181745.984375, 181776.921875, 175164.218750, 181834.031250, 175685.265625, 181829.796875, 175852.187500, 0, 1, 1, 0, 1,0.0,0.0,51.63253,16.258976,2.0625591, 11:37:14.799
181702.375000, 181746.046875, 181776.984375, 175284.625000, 181834.140625, 175610.515625, 181830.187500, 175869.156250, 0, 1, 1, 0, 1,0.0,0.0,51.63253,16.258976,2.0625591, 11:37:14.799
181703.828125, 181747.328125, 181778.234375, 175229.671875, 181835.437500, 175645.484375, 181831.234375, 175872.750000, 0, 1, 1, 0, 1,0.0,0.0,51.63253,16.258976,2.0625591, 11:37:14.800
181702.687500, 181746.078125, 181776.859375, 175110.171875, 181834.000000, 175713.453125, 181829.578125, 175874.343750, 0, 1, 1, 0, 1,0.0,0.0,51.63253,16.258976,2.0625591, 11:37:14.800
181704.609375, 181748.046875, 181778.968750, 175148.984375, 181836.046875, 175675.812500, 181831.656250, 175889.203125, 0, 1, 1, 0, 1,0.0,0.0,51.63253,16.258976,2.0625591, 11:37:14.800
181706.625000, 181750.250000, 181781.296875, 175280.671875, 181838.359375, 175590.531250, 181834.046875, 175914.453125, 0, 1, 1, 0, 1,0.0,0.0,51.63253,16.258976,2.0625591, 11:37:14.800
181707.578125, 181751.125000, 181782.187500, 175258.187500, 181839.281250, 175604.625000, 181834.921875, 175929.484375, 0, 1, 1, 0, 1,0.0,0.0,51.63253,16.258976,2.0625591, 11:37:14.800
181708.500000, 181751.921875, 181782.843750, 175126.468750, 181839.921875, 175677.734375, 181835.218750, 175934.281250, 0, 1, 1, 0, 1,0.0,0.0,51.63253,16.258976,2.0625591, 11:37:14.801
181708.093750, 181751.500000, 181782.375000, 175131.812500, 181839.421875, 175659.468750, 181834.609375, 175943.968750, 0, 1, 1, 0, 1,0.0,0.0,51.63253,16.258976,2.0625591, 11:37:14.801
181707.875000, 181751.453125, 181782.437500, 175265.609375, 181839.593750, 175566.546875, 181834.921875, 175959.125000, 0, 1, 1, 0, 1,0.0,0.0,51.63253,16.258976,2.0625591, 11:37:14.801
181707.296875, 181750.953125, 181781.906250, 175283.765625, 181839.062500, 175555.953125, 181834.359375, 175967.078125, 0, 1, 1, 0, 1,0.0,0.0,51.63253,16.258976,2.0625591, 11:37:14.801
181707.000000, 181750.343750, 181781.203125, 175149.890625, 181838.390625, 175625.187500, 181833.468750, 175957.218750, 0, 1, 1, 0, 1,0.0,0.0,51.63253,16.258976,2.0625591, 11:37:14.801
181709.812500, 181753.218750, 181784.156250, 175120.125000, 181841.187500, 175626.859375, 181836.218750, 175944.640625, 0, 1, 1, 0, 1,0.0,0.0,51.63253,16.258976,2.0625591, 11:37:14.801
181712.609375, 181756.171875, 181787.312500, 175245.421875, 181844.312500, 175545.453125, 181839.500000, 175933.765625, 0, 1, 1, 0, 1,0.0,0.0,51.63253,16.258976,2.0625591, 11:37:14.801
181712.656250, 181756.312500, 181787.453125, 175298.593750, 181844.359375, 175519.906250, 181839.734375, 175917.703125, 0, 1, 1, 0, 1,0.0,0.0,51.63253,16.258976,2.0625591, 11:37:14.801
181712.437500, 181755.968750, 181786.984375, 175176.515625, 181843.906250, 175588.453125, 181839.078125, 175885.890625, 0, 1, 1, 0, 1,0.0,0.0,51.63253,16.258976,2.0625591, 11:37:14.802
181714.796875, 181758.281250, 181789.171875, 175119.296875, 181846.140625, 175612.265625, 181841.203125, 175860.500000, 0, 1, 1, 0, 1,0.0,0.0,51.63253,16.258976,2.0625591, 11:37:14.802
181715.187500, 181758.812500, 181789.796875, 175227.031250, 181846.875000, 175529.046875, 181842.078125, 175847.468750, 0, 1, 1, 0, 1,0.0,0.0,51.63253,16.258976,2.0625591, 11:37:14.802
181715.312500, 181759.187500, 181790.171875, 175311.125000, 181847.218750, 175482.937500, 181842.562500, 175835.828125, 0, 1, 1, 0, 1,0.0,0.0,51.63253,16.258976,2.0625591, 11:37:14.802
181714.625000, 181758.328125, 181789.281250, 175211.234375, 181846.281250, 175548.421875, 181841.468750, 175809.609375, 0, 1, 1, 0, 1,0.0,0.0,51.63253,16.258976,2.0625591, 11:37:14.802
181714.250000, 181757.812500, 181788.781250, 175132.656250, 181845.718750, 175597.890625, 181840.750000, 175789.000000, 0, 1, 1, 0, 1,0.0,0.0,51.63253,16.258976,2.0625591, 11:37:14.802
181716.281250, 181759.953125, 181791.000000, 175224.531250, 181847.890625, 175524.562500, 181843.171875, 175786.312500, 0, 1, 1, 0, 1,0.0,0.0,51.63253,16.258976,2.0625591, 11:37:14.802
181718.265625, 181761.968750, 181793.187500, 175336.937500, 181850.031250, 175457.281250, 181845.562500, 175787.921875, 0, 1, 1, 0, 1,0.0,0.0,51.63253,16.258976,2.0625591, 11:37:14.802
181718.609375, 181762.187500, 181793.421875, 175260.796875, 181850.203125, 175506.984375, 181845.562500, 175779.296875, 0, 1, 1, 0, 1,0.0,0.0,51.63253,16.258976,2.0625591, 11:37:14.803
181717.796875, 181761.156250, 181792.203125, 175152.078125, 181848.984375, 175564.125000, 181844.156250, 175771.312500, 0, 1, 1, 0, 1,0.0,0.0,51.63253,16.258976,2.0625591, 11:37:14.803
181718.765625, 181762.296875, 181793.343750, 175207.984375, 181850.140625, 175507.359375, 181845.375000, 175770.406250, 0, 1, 1, 0, 1,0.0,0.0,51.63253,16.258976,2.0625591, 11:37:14.803
181719.250000, 181762.968750, 181794.203125, 175331.078125, 181850.906250, 175421.562500, 181846.281250, 175777.375000, 0, 1, 1, 0, 1,0.0,0.0,51.63253,16.258976,2.0625591, 11:37:14.803
181718.890625, 181762.484375, 181793.640625, 175283.062500, 181850.296875, 175443.656250, 181845.671875, 175773.375000, 0, 1, 1, 0, 1,0.0,0.0,51.63253,16.258976,2.0625591, 11:37:14.803
181719.031250, 181762.562500, 181793.484375, 175156.671875, 181850.296875, 175511.093750, 181845.265625, 175756.875000, 0, 1, 1, 0, 1,0.0,0.0,51.63253,16.258976,2.0625591, 11:37:14.804
181720.015625, 181763.531250, 181794.515625, 175182.593750, 181851.265625, 175473.125000, 181846.390625, 175743.109375, 0, 1, 1, 0, 1,0.0,0.0,51.63253,16.258976,2.0625591, 11:37:14.804
181719.812500, 181763.546875, 181794.859375, 175313.937500, 181851.390625, 175375.687500, 181846.671875, 175737.640625, 0, 1, 1, 0, 1,0.0,0.0,51.63253,16.258976,2.0625591, 11:37:14.804
181720.281250, 181763.984375, 181795.250000, 175302.093750, 181851.890625, 175373.296875, 181847.062500, 175733.187500, 0, 1, 1, 0, 1,0.0,0.0,51.63253,16.258976,2.0625591, 11:37:14.804
181721.281250, 181764.781250, 181795.843750, 175164.359375, 181852.531250, 175438.875000, 181847.500000, 175723.234375, 0, 1, 1, 0, 1,0.0,0.0,51.63253,16.258976,2.0625591, 11:37:14.805
181720.953125, 181764.468750, 181795.421875, 175153.421875, 181852.250000, 175420.546875, 181847.109375, 175713.406250, 0, 1, 1, 0, 1,0.0,0.0,51.63253,16.258976,2.0625591, 11:37:14.805
181721.171875, 181764.890625, 181796.046875, 175281.609375, 181852.828125, 175327.906250, 181847.812500, 175710.656250, 0, 1, 1, 0, 1,0.0,0.0,51.63253,16.258976,2.0625591, 11:37:14.805
181721.125000, 181764.921875, 181796.140625, 175307.625000, 181852.796875, 175314.765625, 181847.796875, 175710.546875, 0, 1, 1, 0, 1,0.0,0.0,51.63253,16.258976,2.0625591, 11:37:14.806
181722.734375, 181766.406250, 181797.484375, 175172.265625, 181854.218750, 175389.234375, 181848.906250, 175701.531250, 0, 1, 1, 0, 1,0.0,0.0,51.63253,16.258976,2.0625591, 11:37:14.806
181725.125000, 181768.765625, 181799.781250, 175128.343750, 181856.609375, 175397.312500, 181851.156250, 175693.734375, 0, 1, 1, 0, 1,0.0,0.0,51.63253,16.258976,2.0625591, 11:37:14.806
181725.218750, 181768.984375, 181800.171875, 175241.062500, 181856.937500, 175306.046875, 181851.687500, 175695.484375, 0, 1, 1, 0, 1,0.0,0.0,51.63253,16.258976,2.0625591, 11:37:14.807
181723.593750, 181767.437500, 181798.625000, 175296.765625, 181855.328125, 175271.687500, 181850.093750, 175704.859375, 0, 1, 1, 0, 1,0.0,0.0,51.63253,16.258976,2.0625591, 11:37:14.807
181724.031250, 181767.687500, 181798.906250, 175168.250000, 181855.687500, 175342.031250, 181850.031250, 175706.750000, 0, 1, 1, 0, 1,0.0,0.0,51.63253,16.258976,2.0625591, 11:37:14.807
181726.937500, 181770.390625, 181801.546875, 175086.593750, 181858.375000, 175371.984375, 181852.468750, 175709.781250, 0, 1, 1, 0, 1,0.0,0.0,51.63253,16.258976,2.0625591, 11:37:14.808
181727.250000, 181771.015625, 181802.156250, 175174.062500, 181858.953125, 175288.281250, 181853.296875, 175723.640625, 0, 1, 1, 0, 1,0.0,0.0,51.63253,16.258976,2.0625591, 11:37:14.808
181727.234375, 181771.171875, 181802.421875, 175251.015625, 181859.171875, 175229.000000, 181853.609375, 175742.343750, 0, 1, 1, 0, 1,0.0,0.0,51.63253,16.258976,2.0625591, 11:37:14.808
181727.312500, 181771.171875, 181802.281250, 175137.484375, 181859.000000, 175285.656250, 181853.093750, 175750.015625, 0, 1, 1, 0, 1,0.0,0.0,51.63253,16.258976,2.0625591, 11:37:14.808
181728.265625, 181771.984375, 181802.984375, 175026.296875, 181859.625000, 175334.250000, 181853.421875, 175761.234375, 0, 1, 1, 0, 1,0.0,0.0,51.63253,16.258976,2.0625591, 11:37:14.808
181729.468750, 181773.234375, 181804.406250, 175084.812500, 181861.031250, 175262.968750, 181855.000000, 175781.468750, 0, 1, 1, 0, 1,0.0,0.0,51.63253,16.258976,2.0625591, 11:37:14.809
181729.109375, 181772.968750, 181804.296875, 175182.656250, 181860.921875, 175186.953125, 181854.953125, 175803.703125, 0, 1, 1, 0, 1,0.0,0.0,51.63253,16.258976,2.0625591, 11:37:14.809
