%OpenBCI Raw EEG Data
%
%Sample Rate = 250.0 Hz
%First Column = SampleIndex
%5 Columns before Timestamp are Frequency Power factors DELTA THETA ALPHA BETA GAMMA
%Last Column = Timestamp 
%Other Columns = EEG data in microvolts followed by Accel Data (in G) interleaved with Aux Data
0.000000, 0.000000, 0.000000, 0.000000, 0.000000, 0.000000, 0.000000, 0.000000, 0.184, 0.210, 0.948,0.0,0.0,0.0,0.0,0.0, 15:31:17.019
68331.046875, 58463.511719, 114513.281250, 97011.398438, 124927.406250, 100092.562500, 90571.500000, 121529.203125, 0.000, 0.000, 0.000,0.0,0.0,0.0,0.0,0.0, 15:31:17.513
68357.242188, 58491.117188, 114512.382813, 96904.867188, 124947.703125, 99986.281250, 90524.382813, 121537.742188, 0.000, 0.000, 0.000,0.0,0.0,0.0,0.0,0.0, 15:31:17.514
68504.226563, 58643.152344, 114339.492188, 96609.062500, 125102.578125, 99984.492188, 90378.851563, 121677.460938, 0.000, 0.000, 0.000,0.0,0.0,0.0,0.0,0.0, 15:31:17.515
68497.054688, 58632.445313, 114312.226563, 96681.328125, 125105.859375, 100108.523438, 90415.906250, 121697.960938, 0.000, 0.000, 0.000,0.0,0.0,0.0,0.0,0.0, 15:31:17.515
68347.429688, 58479.695313, 114495.328125, 96988.242188, 124944.437500, 100109.390625, 90560.171875, 121549.539063, 0.000, 0.000, 0.000,0.0,0.0,0.0,0.0,0.0, 15:31:17.516
68340.390625, 58475.761719, 114537.195313, 96959.273438, 124927.625000, 99998.523438, 90543.273438, 121517.890625, 0.000, 0.000, 0.000,0.0,0.0,0.0,0.0,0.0, 15:31:17.517
68494.281250, 58626.632813, 114372.757813, 96654.570313, 125083.132813, 99976.265625, 90395.367188, 121652.000000, 0.196, 0.212, 0.950,0.0,0.0,0.0,0.0,0.0, 15:31:17.517
68523.492188, 58654.910156, 114307.109375, 96643.281250, 125125.593750, 100086.328125, 90385.218750, 121695.546875, 0.000, 0.000, 0.000,0.0,0.0,0.0,0.0,0.0, 15:31:17.518
68372.843750, 58506.738281, 114465.718750, 96944.250000, 124973.273438, 100114.289063, 90522.820313, 121562.148438, 0.000, 0.000, 0.000,0.0,0.0,0.0,0.0,0.0, 15:31:17.518
68318.664063, 58457.097656, 114553.648438, 96995.796875, 124915.203125, 100010.578125, 90551.945313, 121500.148438, 0.000, 0.000, 0.000,0.0,0.0,0.0,0.0,0.0, 15:31:17.519
68452.953125, 58596.371094, 114404.023438, 96700.843750, 125052.820313, 99958.023438, 90411.710938, 121624.625000, 0.000, 0.000, 0.000,0.0,0.0,0.0,0.0,0.0, 15:31:17.519
68516.320313, 58654.015625, 114312.625000, 96611.101563, 125129.218750, 100048.906250, 90365.125000, 121695.546875, 0.000, 0.000, 0.000,0.0,0.0,0.0,0.0,0.0, 15:31:17.520
68391.640625, 58526.656250, 114443.742188, 96892.796875, 125000.273438, 100107.359375, 90499.843750, 121580.500000, 0.000, 0.000, 0.000,0.0,0.0,0.0,0.0,0.0, 15:31:17.520
68312.898438, 58446.414063, 114570.570313, 97020.562500, 124906.234375, 100023.000000, 90565.664063, 121491.296875, 0.000, 0.000, 0.000,0.0,0.0,0.0,0.0,0.0, 15:31:17.521
68438.710938, 58575.382813, 114439.476563, 96753.296875, 125026.289063, 99956.414063, 90436.812500, 121593.328125, 0.000, 0.000, 0.000,0.0,0.0,0.0,0.0,0.0, 15:31:17.521
68532.500000, 58666.128906, 114308.804688, 96591.250000, 125131.859375, 100028.945313, 90355.179688, 121691.500000, 0.000, 0.000, 0.000,0.0,0.0,0.0,0.0,0.0, 15:31:17.521
68420.789063, 58551.039063, 114414.734375, 96838.460938, 125022.265625, 100105.164063, 90473.507813, 121602.828125, 0.204, 0.210, 0.942,0.0,0.0,0.0,0.0,0.0, 15:31:17.522
68309.031250, 58437.718750, 114569.117188, 97032.632813, 124890.281250, 100040.125000, 90566.804688, 121484.898438, 0.000, 0.000, 0.000,0.0,0.0,0.0,0.0,0.0, 15:31:17.522
68389.296875, 58522.699219, 114499.179688, 96818.632813, 124965.960938, 99946.023438, 90462.890625, 121549.250000, 0.000, 0.000, 0.000,0.0,0.0,0.0,0.0,0.0, 15:31:17.523
68521.257813, 58656.453125, 114331.117188, 96584.921875, 125112.703125, 100000.023438, 90347.710938, 121685.593750, 0.000, 0.000, 0.000,0.0,0.0,0.0,0.0,0.0, 15:31:17.524
68459.281250, 58591.609375, 114372.289063, 96776.570313, 125059.570313, 100112.476563, 90446.601563, 121645.921875, 0.000, 0.000, 0.000,0.0,0.0,0.0,0.0,0.0, 15:31:17.524
68323.734375, 58455.441406, 114539.250000, 97030.750000, 124912.656250, 100076.625000, 90566.289063, 121515.367188, 0.000, 0.000, 0.000,0.0,0.0,0.0,0.0,0.0, 15:31:17.524
68370.046875, 58505.957031, 114511.515625, 96879.921875, 124958.406250, 99971.484375, 90496.265625, 121548.312500, 0.000, 0.000, 0.000,0.0,0.0,0.0,0.0,0.0, 15:31:17.525
68512.093750, 58646.238281, 114347.406250, 96610.023438, 125114.867188, 99990.304688, 90362.578125, 121679.468750, 0.000, 0.000, 0.000,0.0,0.0,0.0,0.0,0.0, 15:31:17.525
68476.062500, 58606.183594, 114368.484375, 96737.320313, 125085.812500, 100095.757813, 90425.703125, 121654.703125, 0.000, 0.000, 0.000,0.0,0.0,0.0,0.0,0.0, 15:31:17.526
68338.578125, 58464.250000, 114537.242188, 97018.992188, 124943.031250, 100084.671875, 90565.375000, 121521.757813, 0.204, 0.210, 0.940,0.0,0.0,0.0,0.0,0.0, 15:31:17.526
68356.367188, 58484.164063, 114537.289063, 96935.218750, 124957.843750, 99983.171875, 90531.085938, 121526.921875, 0.000, 0.000, 0.000,0.0,0.0,0.0,0.0,0.0, 15:31:17.527
68493.679688, 58625.785156, 114377.757813, 96641.226563, 125104.187500, 99975.210938, 90390.656250, 121658.507813, 0.000, 0.000, 0.000,0.0,0.0,0.0,0.0,0.0, 15:31:17.527
68491.578125, 58625.425781, 114359.812500, 96691.406250, 125108.210938, 100082.257813, 90412.046875, 121672.718750, 0.000, 0.000, 0.000,0.0,0.0,0.0,0.0,0.0, 15:31:17.528
68351.406250, 58484.925781, 114514.781250, 96988.820313, 124965.156250, 100103.398438, 90556.953125, 121546.343750, 0.000, 0.000, 0.000,0.0,0.0,0.0,0.0,0.0, 15:31:17.528
68334.468750, 58469.054688, 114563.664063, 96982.789063, 124935.429688, 100001.898438, 90561.375000, 121512.843750, 0.000, 0.000, 0.000,0.0,0.0,0.0,0.0,0.0, 15:31:17.529
68478.546875, 58615.703125, 114405.101563, 96682.554688, 125084.718750, 99971.234375, 90419.640625, 121646.773438, 0.000, 0.000, 0.000,0.0,0.0,0.0,0.0,0.0, 15:31:17.529
68516.500000, 58653.253906, 114341.242188, 96653.679688, 125138.359375, 100081.117188, 90404.843750, 121708.484375, 0.000, 0.000, 0.000,0.0,0.0,0.0,0.0,0.0, 15:31:17.530
68384.062500, 58516.058594, 114483.867188, 96946.242188, 124997.859375, 100122.648438, 90543.804688, 121582.312500, 0.000, 0.000, 0.000,0.0,0.0,0.0,0.0,0.0, 15:31:17.531
68324.515625, 58455.890625, 114580.671875, 97017.679688, 124928.117188, 100026.531250, 90585.046875, 121512.367188, 0.000, 0.000, 0.000,0.0,0.0,0.0,0.0,0.0, 15:31:17.531
68446.937500, 58580.320313, 114455.054688, 96733.515625, 125056.867188, 99965.179688, 90450.445313, 121617.335938, 0.202, 0.212, 0.944,0.0,0.0,0.0,0.0,0.0, 15:31:17.532
68531.007813, 58659.402344, 114348.437500, 96618.179688, 125150.164063, 100054.320313, 90390.539063, 121707.390625, 0.000, 0.000, 0.000,0.0,0.0,0.0,0.0,0.0, 15:31:17.532
68424.835938, 58549.117188, 114454.429688, 96886.828125, 125042.984375, 100126.937500, 90522.859375, 121618.609375, 0.000, 0.000, 0.000,0.0,0.0,0.0,0.0,0.0, 15:31:17.533
68330.867188, 58458.437500, 114580.109375, 97037.546875, 124936.882813, 100043.320313, 90597.632813, 121512.390625, 0.000, 0.000, 0.000,0.0,0.0,0.0,0.0,0.0, 15:31:17.533
68425.929688, 58552.875000, 114500.468750, 96798.585938, 125026.023438, 99953.171875, 90482.851563, 121582.242188, 0.000, 0.000, 0.000,0.0,0.0,0.0,0.0,0.0, 15:31:17.533
68536.523438, 58661.839844, 114355.406250, 96610.093750, 125151.078125, 100022.015625, 90379.835938, 121701.492188, 0.000, 0.000, 0.000,0.0,0.0,0.0,0.0,0.0, 15:31:17.534
68438.226563, 58565.523438, 114438.335938, 96844.648438, 125062.898438, 100114.171875, 90488.843750, 121625.093750, 0.000, 0.000, 0.000,0.0,0.0,0.0,0.0,0.0, 15:31:17.534
68308.468750, 58442.074219, 114605.546875, 97061.398438, 124926.578125, 100052.062500, 90593.609375, 121501.640625, 0.000, 0.000, 0.000,0.0,0.0,0.0,0.0,0.0, 15:31:17.535
68383.015625, 58522.230469, 114540.929688, 96862.062500, 124999.242188, 99958.945313, 90501.921875, 121564.000000, 0.000, 0.000, 0.000,0.0,0.0,0.0,0.0,0.0, 15:31:17.535
68523.468750, 58657.210938, 114372.640625, 96610.851563, 125144.773438, 100002.640625, 90379.164063, 121695.406250, 0.000, 0.000, 0.000,0.0,0.0,0.0,0.0,0.0, 15:31:17.535
68468.867188, 58599.007813, 114404.625000, 96779.203125, 125092.765625, 100111.515625, 90459.226563, 121654.687500, 0.210, 0.204, 0.938,0.0,0.0,0.0,0.0,0.0, 15:31:17.536
68328.812500, 58459.464844, 114576.492188, 97046.914063, 124947.898438, 100084.671875, 90589.359375, 121522.898438, 0.000, 0.000, 0.000,0.0,0.0,0.0,0.0,0.0, 15:31:17.536
68368.750000, 58499.074219, 114567.148438, 96919.148438, 124979.304688, 99974.210938, 90528.921875, 121543.796875, 0.000, 0.000, 0.000,5.63785E-6,7.468107E-6,9.179738E-6,2.8879096E-5,3.6675887E-5, 15:31:17.537
68512.429688, 58645.187500, 114390.210938, 96632.015625, 125132.593750, 99985.984375, 90381.218750, 121684.593750, 0.000, 0.000, 0.000,5.63785E-6,7.468107E-6,9.179738E-6,2.8879096E-5,3.6675887E-5, 15:31:17.546
68481.585938, 58615.859375, 114382.656250, 96737.382813, 125115.203125, 100104.007813, 90427.015625, 121680.523438, 0.000, 0.000, 0.000,5.63785E-6,7.468107E-6,9.179738E-6,2.8879096E-5,3.6675887E-5, 15:31:17.547
68334.843750, 58466.976563, 114558.656250, 97029.414063, 124963.054688, 100099.914063, 90570.765625, 121540.843750, 0.000, 0.000, 0.000,5.63785E-6,7.468107E-6,9.179738E-6,2.8879096E-5,3.6675887E-5, 15:31:17.547
68342.867188, 58477.996094, 114575.976563, 96967.500000, 124970.031250, 99995.328125, 90549.531250, 121533.625000, 0.000, 0.000, 0.000,5.63785E-6,7.468107E-6,9.179738E-6,2.8879096E-5,3.6675887E-5, 15:31:17.548
68487.062500, 58626.320313, 114408.898438, 96668.523438, 125114.195313, 99973.914063, 90397.804688, 121661.859375, 0.000, 0.000, 0.000,5.63785E-6,7.468107E-6,9.179738E-6,2.8879096E-5,3.6675887E-5, 15:31:17.549
68498.859375, 58637.585938, 114365.492188, 96694.562500, 125135.078125, 100083.890625, 90404.507813, 121690.515625, 0.000, 0.000, 0.000,5.63785E-6,7.468107E-6,9.179738E-6,2.8879096E-5,3.6675887E-5, 15:31:17.549
68363.390625, 58492.523438, 114526.687500, 96991.164063, 124986.929688, 100106.109375, 90547.468750, 121557.656250, 0.200, 0.208, 0.942,5.63785E-6,7.468107E-6,9.179738E-6,2.8879096E-5,3.6675887E-5, 15:31:17.550
68328.296875, 58453.898438, 114598.507813, 97006.296875, 124940.703125, 100001.726563, 90560.460938, 121505.242188, 0.000, 0.000, 0.000,5.63785E-6,7.468107E-6,9.179738E-6,2.8879096E-5,3.6675887E-5, 15:31:17.550
68454.429688, 58585.531250, 114457.625000, 96704.593750, 125078.617188, 99952.367188, 90416.179688, 121625.023438, 0.000, 0.000, 0.000,5.63785E-6,7.468107E-6,9.179738E-6,2.8879096E-5,3.6675887E-5, 15:31:17.550
68519.093750, 58652.339844, 114356.796875, 96637.742188, 125155.664063, 100062.968750, 90389.710938, 121708.750000, 0.000, 0.000, 0.000,5.63785E-6,7.468107E-6,9.179738E-6,2.8879096E-5,3.6675887E-5, 15:31:17.551
68393.140625, 58521.042969, 114478.343750, 96926.148438, 125014.867188, 100116.859375, 90522.054688, 121588.945313, 0.000, 0.000, 0.000,5.63785E-6,7.468107E-6,9.179738E-6,2.8879096E-5,3.6675887E-5, 15:31:17.552
68322.929688, 58450.457031, 114587.757813, 97026.304688, 124930.734375, 100023.429688, 90578.812500, 121505.039063, 0.000, 0.000, 0.000,5.63785E-6,7.468107E-6,9.179738E-6,2.8879096E-5,3.6675887E-5, 15:31:17.553
68442.757813, 58571.761719, 114469.671875, 96752.000000, 125050.296875, 99954.335938, 90449.820313, 121605.398438, 0.000, 0.000, 0.000,5.63785E-6,7.468107E-6,9.179738E-6,2.8879096E-5,3.6675887E-5, 15:31:17.554
68539.562500, 58667.984375, 114338.023438, 96616.484375, 125160.578125, 100043.765625, 90375.007813, 121709.867188, 0.000, 0.000, 0.000,5.63785E-6,7.468107E-6,9.179738E-6,2.8879096E-5,3.6675887E-5, 15:31:17.554
68420.898438, 58547.085938, 114457.890625, 96886.492188, 125043.164063, 100114.445313, 90501.562500, 121609.265625, 0.000, 0.000, 0.000,5.63785E-6,7.468107E-6,9.179738E-6,2.8879096E-5,3.6675887E-5, 15:31:17.555
68322.148438, 58449.898438, 114596.984375, 97058.289063, 124943.164063, 100050.632813, 90593.453125, 121512.773438, 0.000, 0.000, 0.000,5.63785E-6,7.468107E-6,9.179738E-6,2.8879096E-5,3.6675887E-5, 15:31:17.556
68412.359375, 58540.804688, 114514.710938, 96823.554688, 125020.007813, 99957.648438, 90474.359375, 121576.429688, 0.200, 0.214, 0.950,5.63785E-6,7.468107E-6,9.179738E-6,2.8879096E-5,3.6675887E-5, 15:31:17.556
68531.585938, 58664.363281, 114357.398438, 96613.195313, 125150.968750, 100014.890625, 90360.968750, 121701.195313, 0.000, 0.000, 0.000,5.63785E-6,7.468107E-6,9.179738E-6,2.8879096E-5,3.6675887E-5, 15:31:17.556
68449.242188, 58579.472656, 114422.781250, 96826.367188, 125075.929688, 100112.093750, 90467.898438, 121641.921875, 0.000, 0.000, 0.000,5.63785E-6,7.468107E-6,9.179738E-6,2.8879096E-5,3.6675887E-5, 15:31:17.557
68319.804688, 58450.367188, 114586.281250, 97055.226563, 124938.867188, 100067.390625, 90587.750000, 121520.085938, 0.000, 0.000, 0.000,5.63785E-6,7.468107E-6,9.179738E-6,2.8879096E-5,3.6675887E-5, 15:31:17.557
68387.554688, 58519.457031, 114534.960938, 96873.148438, 124999.890625, 99971.523438, 90507.218750, 121564.562500, 0.000, 0.000, 0.000,5.63785E-6,7.468107E-6,9.179738E-6,2.8879096E-5,3.6675887E-5, 15:31:17.558
68519.984375, 58653.300781, 114372.171875, 96614.453125, 125139.726563, 99998.523438, 90373.304688, 121690.265625, 0.000, 0.000, 0.000,5.63785E-6,7.468107E-6,9.179738E-6,2.8879096E-5,3.6675887E-5, 15:31:17.558
68462.875000, 58598.605469, 114401.718750, 96764.945313, 125093.476563, 100105.679688, 90445.976563, 121662.195313, 0.000, 0.000, 0.000,5.63785E-6,7.468107E-6,9.179738E-6,2.8879096E-5,3.6675887E-5, 15:31:17.559
68323.070313, 58459.734375, 114574.835938, 97037.257813, 124942.984375, 100084.890625, 90578.851563, 121523.968750, 0.000, 0.000, 0.000,5.63785E-6,7.468107E-6,9.179738E-6,2.8879096E-5,3.6675887E-5, 15:31:17.559
68353.820313, 58489.261719, 114575.171875, 96926.750000, 124964.734375, 99970.945313, 90528.250000, 121530.273438, 0.000, 0.000, 0.000,5.63785E-6,7.468107E-6,9.179738E-6,2.8879096E-5,3.6675887E-5, 15:31:17.559
68508.007813, 58643.398438, 114394.281250, 96631.859375, 125127.968750, 99974.140625, 90384.507813, 121676.859375, 0.200, 0.216, 0.952,5.63785E-6,7.468107E-6,9.179738E-6,2.8879096E-5,3.6675887E-5, 15:31:17.560
68496.492188, 58633.406250, 114371.054688, 96710.828125, 125125.085938, 100093.140625, 90421.968750, 121683.945313, 0.000, 0.000, 0.000,5.63785E-6,7.468107E-6,9.179738E-6,2.8879096E-5,3.6675887E-5, 15:31:17.561
68344.007813, 58477.906250, 114541.843750, 97004.687500, 124961.335938, 100092.000000, 90561.531250, 121536.492188, 0.000, 0.000, 0.000,5.63785E-6,7.468107E-6,9.179738E-6,2.8879096E-5,3.6675887E-5, 15:31:17.561
68336.679688, 58469.144531, 114584.382813, 96967.187500, 124945.890625, 99979.929688, 90551.406250, 121511.476563, 0.000, 0.000, 0.000,5.63785E-6,7.468107E-6,9.179738E-6,2.8879096E-5,3.6675887E-5, 15:31:17.562
68488.734375, 58623.281250, 114408.179688, 96659.312500, 125103.046875, 99957.375000, 90406.835938, 121649.117188, 0.000, 0.000, 0.000,5.63785E-6,7.468107E-6,9.179738E-6,2.8879096E-5,3.6675887E-5, 15:31:17.562
68511.109375, 58649.656250, 114346.265625, 96659.375000, 125137.648438, 100070.765625, 90400.132813, 121694.226563, 0.000, 0.000, 0.000,5.63785E-6,7.468107E-6,9.179738E-6,2.8879096E-5,3.6675887E-5, 15:31:17.563
68369.156250, 58504.996094, 114505.523438, 96964.187500, 124982.750000, 100100.140625, 90536.117188, 121556.046875, 0.000, 0.000, 0.000,5.63785E-6,7.468107E-6,9.179738E-6,2.8879096E-5,3.6675887E-5, 15:31:17.563
68327.023438, 58462.863281, 114583.398438, 97005.156250, 124932.632813, 100002.039063, 90561.953125, 121501.062500, 0.000, 0.000, 0.000,5.63785E-6,7.468107E-6,9.179738E-6,2.8879096E-5,3.6675887E-5, 15:31:17.564
68455.609375, 58596.324219, 114444.101563, 96714.585938, 125069.000000, 99954.179688, 90425.562500, 121619.679688, 0.000, 0.000, 0.000,5.63785E-6,7.468107E-6,9.179738E-6,2.8879096E-5,3.6675887E-5, 15:31:17.564
68518.578125, 58660.675781, 114347.812500, 96633.406250, 125144.617188, 100056.242188, 90382.273438, 121700.882813, 0.000, 0.000, 0.000,5.63785E-6,7.468107E-6,9.179738E-6,2.8879096E-5,3.6675887E-5, 15:31:17.564
68385.695313, 58527.257813, 114483.085938, 96920.984375, 125012.429688, 100117.953125, 90519.960938, 121589.554688, 0.202, 0.210, 0.946,5.63785E-6,7.468107E-6,9.179738E-6,2.8879096E-5,3.6675887E-5, 15:31:17.565
68307.890625, 58450.570313, 114599.468750, 97038.109375, 124929.773438, 100035.718750, 90585.718750, 121506.578125, 0.000, 0.000, 0.000,5.63785E-6,7.468107E-6,9.179738E-6,2.8879096E-5,3.6675887E-5, 15:31:17.565
68430.445313, 58570.710938, 114477.898438, 96771.625000, 125051.773438, 99966.226563, 90463.945313, 121602.937500, 0.000, 0.000, 0.000,5.63785E-6,7.468107E-6,9.179738E-6,2.8879096E-5,3.6675887E-5, 15:31:17.566
68528.007813, 58667.292969, 114347.140625, 96611.234375, 125155.664063, 100034.710938, 90377.531250, 121695.320313, 0.000, 0.000, 0.000,5.63785E-6,7.468107E-6,9.179738E-6,2.8879096E-5,3.6675887E-5, 15:31:17.567
68423.359375, 58560.406250, 114448.125000, 96862.781250, 125049.039063, 100118.468750, 90494.406250, 121613.578125, 0.000, 0.000, 0.000,5.63785E-6,7.468107E-6,9.179738E-6,2.8879096E-5,3.6675887E-5, 15:31:17.568
68310.367188, 58444.042969, 114606.328125, 97056.546875, 124926.648438, 100048.593750, 90594.453125, 121498.359375, 0.000, 0.000, 0.000,5.63785E-6,7.468107E-6,9.179738E-6,2.8879096E-5,3.6675887E-5, 15:31:17.569
68393.671875, 58531.257813, 114537.554688, 96838.390625, 125009.304688, 99952.726563, 90495.570313, 121565.750000, 0.000, 0.000, 0.000,5.63785E-6,7.468107E-6,9.179738E-6,2.8879096E-5,3.6675887E-5, 15:31:17.570
68520.250000, 58663.203125, 114373.093750, 96610.960938, 125151.343750, 100010.375000, 90380.703125, 121700.078125, 0.000, 0.000, 0.000,5.63785E-6,7.468107E-6,9.179738E-6,2.8879096E-5,3.6675887E-5, 15:31:17.570
68442.648438, 58587.472656, 114428.523438, 96811.820313, 125080.515625, 100115.742188, 90471.007813, 121646.664063, 0.000, 0.000, 0.000,5.63785E-6,7.468107E-6,9.179738E-6,2.8879096E-5,3.6675887E-5, 15:31:17.571
68316.921875, 58456.785156, 114591.289063, 97055.046875, 124938.382813, 100069.804688, 90584.218750, 121508.148438, 0.198, 0.212, 0.944,5.63785E-6,7.468107E-6,9.179738E-6,2.8879096E-5,3.6675887E-5, 15:31:17.571
68379.617188, 58519.593750, 114546.226563, 96892.617188, 124992.289063, 99968.976563, 90509.812500, 121545.742188, 0.000, 0.000, 0.000,5.63785E-6,7.468107E-6,9.179738E-6,2.8879096E-5,3.6675887E-5, 15:31:17.572
68521.101563, 58663.066406, 114367.210938, 96619.500000, 125151.640625, 99992.515625, 90378.914063, 121688.859375, 0.000, 0.000, 0.000,5.63785E-6,7.468107E-6,9.179738E-6,2.8879096E-5,3.6675887E-5, 15:31:17.572
68477.070313, 58616.843750, 114388.445313, 96755.828125, 125112.742188, 100103.046875, 90444.632813, 121669.367188, 0.000, 0.000, 0.000,5.63785E-6,7.468107E-6,9.179738E-6,2.8879096E-5,3.6675887E-5, 15:31:17.572
68338.156250, 58473.750000, 114556.843750, 97034.062500, 124960.929688, 100092.828125, 90578.656250, 121535.460938, 0.000, 0.000, 0.000,5.63785E-6,7.468107E-6,9.179738E-6,2.8879096E-5,3.6675887E-5, 15:31:17.573
68357.648438, 58493.863281, 114560.148438, 96945.078125, 124976.960938, 99988.203125, 90543.226563, 121537.453125, 0.000, 0.000, 0.000,5.63785E-6,7.468107E-6,9.179738E-6,2.8879096E-5,3.6675887E-5, 15:31:17.573
68500.179688, 58639.753906, 114390.882813, 96647.640625, 125131.140625, 99980.867188, 90396.242188, 121675.406250, 0.000, 0.000, 0.000,5.63785E-6,7.468107E-6,9.179738E-6,2.8879096E-5,3.6675887E-5, 15:31:17.574
68492.648438, 58633.628906, 114368.554688, 96704.687500, 125136.726563, 100094.617188, 90422.546875, 121694.515625, 0.000, 0.000, 0.000,5.63785E-6,7.468107E-6,9.179738E-6,2.8879096E-5,3.6675887E-5, 15:31:17.574
68352.171875, 58493.933594, 114527.562500, 97003.390625, 124987.664063, 100112.140625, 90566.960938, 121563.890625, 0.000, 0.000, 0.000,5.63785E-6,7.468107E-6,9.179738E-6,2.8879096E-5,3.6675887E-5, 15:31:17.575
68339.023438, 58482.175781, 114561.539063, 96985.335938, 124961.398438, 100006.640625, 90558.242188, 121521.937500, 0.000, 0.000, 0.000,5.63785E-6,7.468107E-6,9.179738E-6,2.8879096E-5,3.6675887E-5, 15:31:17.575
68475.375000, 58620.687500, 114406.843750, 96684.726563, 125107.312500, 99971.015625, 90412.421875, 121646.546875, 0.204, 0.210, 0.948,5.63785E-6,7.468107E-6,9.179738E-6,2.8879096E-5,3.6675887E-5, 15:31:17.577
68520.187500, 58660.476563, 114339.070313, 96660.648438, 125156.398438, 100078.906250, 90395.257813, 121704.039063, 0.000, 0.000, 0.000,5.63785E-6,7.468107E-6,9.179738E-6,2.8879096E-5,3.6675887E-5, 15:31:17.578
68384.757813, 58518.921875, 114490.414063, 96961.039063, 125011.757813, 100117.125000, 90534.218750, 121576.632813, 0.000, 0.000, 0.000,5.63785E-6,7.468107E-6,9.179738E-6,2.8879096E-5,3.6675887E-5, 15:31:17.579
68333.859375, 58467.085938, 114579.601563, 97026.437500, 124947.453125, 100020.390625, 90568.039063, 121510.093750, 0.000, 0.000, 0.000,5.63785E-6,7.468107E-6,9.179738E-6,2.8879096E-5,3.6675887E-5, 15:31:17.580
68462.476563, 58599.386719, 114444.664063, 96741.093750, 125078.617188, 99964.351563, 90434.867188, 121623.617188, 0.000, 0.000, 0.000,5.63785E-6,7.468107E-6,9.179738E-6,2.8879096E-5,3.6675887E-5, 15:31:17.580
68528.945313, 58666.421875, 114352.328125, 96638.054688, 125162.320313, 100053.515625, 90380.484375, 121705.375000, 0.000, 0.000, 0.000,5.63785E-6,7.468107E-6,9.179738E-6,2.8879096E-5,3.6675887E-5, 15:31:17.581
68402.390625, 58536.781250, 114478.078125, 96912.335938, 125034.242188, 100116.835938, 90505.609375, 121599.382813, 0.000, 0.000, 0.000,5.63785E-6,7.468107E-6,9.179738E-6,2.8879096E-5,3.6675887E-5, 15:31:17.581
68318.242188, 58447.976563, 114596.898438, 97049.617188, 124938.828125, 100036.726563, 90578.812500, 121507.296875, 0.000, 0.000, 0.000,5.63785E-6,7.468107E-6,9.179738E-6,2.8879096E-5,3.6675887E-5, 15:31:17.581
68429.570313, 58561.703125, 114489.718750, 96796.617188, 125053.601563, 99961.265625, 90465.421875, 121599.210938, 0.000, 0.000, 0.000,5.63785E-6,7.468107E-6,9.179738E-6,2.8879096E-5,3.6675887E-5, 15:31:17.582
68532.632813, 58668.746094, 114351.273438, 96619.523438, 125178.507813, 100033.867188, 90377.507813, 121713.648438, 0.000, 0.000, 0.000,5.63785E-6,7.468107E-6,9.179738E-6,2.8879096E-5,3.6675887E-5, 15:31:17.586
68433.593750, 58569.546875, 114434.265625, 96856.632813, 125071.437500, 100118.312500, 90479.210938, 121634.078125, 0.200, 0.216, 0.938,5.63785E-6,7.468107E-6,9.179738E-6,2.8879096E-5,3.6675887E-5, 15:31:17.586
68317.453125, 58456.113281, 114584.132813, 97062.718750, 124941.039063, 100061.000000, 90578.406250, 121516.773438, 0.000, 0.000, 0.000,5.63785E-6,7.468107E-6,9.179738E-6,2.8879096E-5,3.6675887E-5, 15:31:17.587
68388.984375, 58534.902344, 114515.070313, 96857.171875, 125020.093750, 99964.484375, 90485.554688, 121569.546875, 0.000, 0.000, 0.000,5.63785E-6,7.468107E-6,9.179738E-6,2.8879096E-5,3.6675887E-5, 15:31:17.587
68514.710938, 58660.789063, 114363.281250, 96619.617188, 125157.742188, 99998.617188, 90366.289063, 121691.429688, 0.000, 0.000, 0.000,5.63785E-6,7.468107E-6,9.179738E-6,2.8879096E-5,3.6675887E-5, 15:31:17.588
68458.164063, 58602.070313, 114403.820313, 96794.921875, 125103.359375, 100106.148438, 90451.960938, 121656.851563, 0.000, 0.000, 0.000,5.63785E-6,7.468107E-6,9.179738E-6,2.8879096E-5,3.6675887E-5, 15:31:17.588
68324.007813, 58464.941406, 114568.289063, 97051.539063, 124963.929688, 100081.203125, 90583.437500, 121532.914063, 0.000, 0.000, 0.000,3.4578723E-5,4.853855E-5,6.0384147E-5,1.679465E-4,1.8261788E-4, 15:31:17.588
68374.296875, 58515.343750, 114533.820313, 96909.492188, 125007.960938, 99981.898438, 90522.234375, 121566.531250, 0.000, 0.000, 0.000,3.4578723E-5,4.853855E-5,6.0384147E-5,1.679465E-4,1.8261788E-4, 15:31:17.589
68519.671875, 58665.636719, 114356.820313, 96627.750000, 125163.257813, 99997.187500, 90386.671875, 121705.515625, 0.000, 0.000, 0.000,3.4578723E-5,4.853855E-5,6.0384147E-5,1.679465E-4,1.8261788E-4, 15:31:17.590
68479.687500, 58622.433594, 114371.101563, 96743.554688, 125134.250000, 100108.343750, 90440.671875, 121689.617188, 0.000, 0.000, 0.000,3.4578723E-5,4.853855E-5,6.0384147E-5,1.679465E-4,1.8261788E-4, 15:31:17.590
68327.625000, 58467.175781, 114551.054688, 97029.968750, 124976.421875, 100098.218750, 90579.304688, 121549.343750, 0.198, 0.218, 0.944,0.0,0.0,0.0,0.0,0.0, 15:31:17.993
68336.703125, 58479.113281, 114564.664063, 96956.703125, 124980.156250, 99994.031250, 90548.117188, 121540.375000, 0.000, 0.000, 0.000,0.0,0.0,0.0,0.0,0.0, 15:31:17.994
68493.656250, 58633.496094, 114386.921875, 96655.335938, 125141.062500, 99986.078125, 90402.078125, 121683.093750, 0.000, 0.000, 0.000,0.0,0.0,0.0,0.0,0.0, 15:31:17.994
68506.218750, 58643.644531, 114353.976563, 96694.515625, 125163.976563, 100100.984375, 90422.953125, 121715.773438, 0.000, 0.000, 0.000,0.0,0.0,0.0,0.0,0.0, 15:31:17.995
68356.882813, 58496.257813, 114522.195313, 96995.796875, 125009.078125, 100120.273438, 90565.445313, 121576.875000, 0.000, 0.000, 0.000,0.0,0.0,0.0,0.0,0.0, 15:31:17.996
68326.734375, 58466.437500, 114577.382813, 97001.359375, 124967.773438, 100013.570313, 90571.593750, 121530.210938, 0.000, 0.000, 0.000,0.0,0.0,0.0,0.0,0.0, 15:31:17.996
68462.968750, 58604.191406, 114428.765625, 96702.156250, 125107.093750, 99966.187500, 90426.882813, 121651.195313, 0.000, 0.000, 0.000,0.0,0.0,0.0,0.0,0.0, 15:31:17.997
68513.992188, 58656.382813, 114341.890625, 96648.671875, 125169.406250, 100071.820313, 90394.992188, 121721.765625, 0.000, 0.000, 0.000,0.0,0.0,0.0,0.0,0.0, 15:31:17.997
68385.492188, 58527.906250, 114470.765625, 96939.867188, 125035.070313, 100121.039063, 90530.171875, 121603.585938, 0.000, 0.000, 0.000,0.0,0.0,0.0,0.0,0.0, 15:31:17.998
68320.070313, 58463.644531, 114575.304688, 97035.421875, 124956.437500, 100028.609375, 90576.929688, 121521.757813, 0.000, 0.000, 0.000,0.0,0.0,0.0,0.0,0.0, 15:31:17.998
68449.468750, 58592.210938, 114450.429688, 96760.007813, 125081.921875, 99963.343750, 90443.406250, 121626.765625, 0.204, 0.212, 0.942,0.0,0.0,0.0,0.0,0.0, 15:31:17.998
68548.390625, 58687.097656, 114318.906250, 96631.726563, 125190.484375, 100057.242188, 90379.921875, 121738.015625, 0.000, 0.000, 0.000,0.0,0.0,0.0,0.0,0.0, 15:31:17.999
68430.664063, 58568.519531, 114431.273438, 96901.562500, 125074.992188, 100132.390625, 90505.539063, 121639.578125, 0.000, 0.000, 0.000,0.0,0.0,0.0,0.0,0.0, 15:31:17.999
68327.757813, 58467.601563, 114576.242188, 97066.203125, 124962.921875, 100046.984375, 90587.101563, 121516.281250, 0.000, 0.000, 0.000,0.0,0.0,0.0,0.0,0.0, 15:31:17.999
68428.390625, 58568.722656, 114479.726563, 96824.312500, 125055.656250, 99960.328125, 90472.843750, 121597.460938, 0.000, 0.000, 0.000,0.0,0.0,0.0,0.0,0.0, 15:31:18.000
68539.656250, 58678.804688, 114339.320313, 96625.156250, 125177.226563, 100020.945313, 90369.304688, 121712.109375, 0.000, 0.000, 0.000,0.0,0.0,0.0,0.0,0.0, 15:31:18.000
68449.554688, 58584.300781, 114423.960938, 96844.851563, 125086.484375, 100113.664063, 90471.406250, 121643.289063, 0.000, 0.000, 0.000,0.0,0.0,0.0,0.0,0.0, 15:31:18.001
68331.898438, 58468.226563, 114565.921875, 97061.593750, 124962.609375, 100070.570313, 90577.867188, 121528.085938, 0.000, 0.000, 0.000,0.0,0.0,0.0,0.0,0.0, 15:31:18.001
68400.289063, 58537.136719, 114514.085938, 96879.187500, 125028.078125, 99977.921875, 90497.562500, 121578.890625, 0.000, 0.000, 0.000,0.0,0.0,0.0,0.0,0.0, 15:31:18.001
68534.468750, 58671.023438, 114352.390625, 96625.828125, 125171.687500, 100009.187500, 90372.164063, 121709.828125, 0.198, 0.212, 0.940,0.0,0.0,0.0,0.0,0.0, 15:31:18.002
68477.296875, 58613.335938, 114377.937500, 96782.312500, 125120.968750, 100112.234375, 90446.820313, 121673.210938, 0.000, 0.000, 0.000,0.0,0.0,0.0,0.0,0.0, 15:31:18.002
68338.023438, 58473.300781, 114545.335938, 97051.648438, 124971.281250, 100084.539063, 90582.226563, 121542.101563, 0.000, 0.000, 0.000,0.0,0.0,0.0,0.0,0.0, 15:31:18.002
68378.703125, 58518.386719, 114526.109375, 96929.835938, 125004.453125, 99981.984375, 90531.695313, 121564.718750, 0.000, 0.000, 0.000,0.0,0.0,0.0,0.0,0.0, 15:31:18.003
68518.109375, 58661.101563, 114357.468750, 96644.601563, 125157.648438, 99985.296875, 90392.593750, 121697.171875, 0.000, 0.000, 0.000,0.0,0.0,0.0,0.0,0.0, 15:31:18.003
68500.226563, 58638.078125, 114351.476563, 96731.976563, 125146.984375, 100092.695313, 90429.476563, 121692.234375, 0.000, 0.000, 0.000,0.0,0.0,0.0,0.0,0.0, 15:31:18.003
68357.468750, 58493.148438, 114504.984375, 97020.578125, 124999.914063, 100096.312500, 90570.492188, 121556.875000, 0.000, 0.000, 0.000,0.0,0.0,0.0,0.0,0.0, 15:31:18.004
68348.414063, 58481.796875, 114548.953125, 96976.906250, 124981.742188, 99985.632813, 90558.804688, 121529.695313, 0.000, 0.000, 0.000,0.0,0.0,0.0,0.0,0.0, 15:31:18.005
68493.562500, 58628.421875, 114386.679688, 96669.031250, 125132.171875, 99962.273438, 90410.882813, 121666.953125, 0.000, 0.000, 0.000,0.0,0.0,0.0,0.0,0.0, 15:31:18.005
68514.398438, 58648.003906, 114335.804688, 96672.656250, 125159.460938, 100071.593750, 90411.125000, 121707.281250, 0.000, 0.000, 0.000,0.0,0.0,0.0,0.0,0.0, 15:31:18.005
68374.187500, 58505.375000, 114486.968750, 96966.867188, 125012.718750, 100101.992188, 90551.070313, 121578.796875, 0.208, 0.210, 0.940,0.0,0.0,0.0,0.0,0.0, 15:31:18.006
68336.453125, 58472.628906, 114553.046875, 96994.343750, 124962.562500, 100003.671875, 90566.828125, 121528.796875, 0.000, 0.000, 0.000,0.0,0.0,0.0,0.0,0.0, 15:31:18.006
68473.250000, 58613.179688, 114402.078125, 96697.890625, 125104.031250, 99958.429688, 90424.742188, 121647.289063, 0.000, 0.000, 0.000,0.0,0.0,0.0,0.0,0.0, 15:31:18.007
68534.226563, 58673.976563, 114313.859375, 96627.835938, 125178.882813, 100059.078125, 90388.125000, 121716.664063, 0.000, 0.000, 0.000,0.0,0.0,0.0,0.0,0.0, 15:31:18.007
68402.125000, 58541.363281, 114447.632813, 96918.257813, 125041.062500, 100114.820313, 90522.281250, 121601.132813, 0.000, 0.000, 0.000,0.0,0.0,0.0,0.0,0.0, 15:31:18.007
68323.203125, 58468.046875, 114560.937500, 97033.296875, 124952.929688, 100026.867188, 90575.570313, 121516.148438, 0.000, 0.000, 0.000,0.0,0.0,0.0,0.0,0.0, 15:31:18.008
68434.710938, 58579.875000, 114454.828125, 96768.945313, 125066.296875, 99951.296875, 90448.500000, 121610.273438, 0.000, 0.000, 0.000,0.0,0.0,0.0,0.0,0.0, 15:31:18.008
68532.859375, 58678.156250, 114318.507813, 96615.296875, 125183.554688, 100037.820313, 90372.617188, 121722.812500, 0.000, 0.000, 0.000,0.0,0.0,0.0,0.0,0.0, 15:31:18.009
68423.406250, 58563.960938, 114424.078125, 96872.656250, 125079.062500, 100114.820313, 90500.687500, 121630.789063, 0.000, 0.000, 0.000,0.0,0.0,0.0,0.0,0.0, 15:31:18.010
68321.257813, 58459.667969, 114566.523438, 97054.687500, 124954.960938, 100042.335938, 90588.625000, 121512.882813, 0.198, 0.216, 0.944,0.0,0.0,0.0,0.0,0.0, 15:31:18.010
68415.085938, 58555.914063, 114479.617188, 96828.914063, 125045.195313, 99955.656250, 90488.171875, 121587.960938, 0.000, 0.000, 0.000,0.0,0.0,0.0,0.0,0.0, 15:31:18.010
68533.171875, 58674.511719, 114328.921875, 96612.304688, 125169.515625, 100008.117188, 90375.007813, 121710.671875, 0.000, 0.000, 0.000,0.0,0.0,0.0,0.0,0.0, 15:31:18.011
68459.679688, 58598.136719, 114391.351563, 96817.406250, 125090.687500, 100108.343750, 90470.093750, 121651.351563, 0.000, 0.000, 0.000,0.0,0.0,0.0,0.0,0.0, 15:31:18.011
68330.468750, 58465.300781, 114554.671875, 97054.156250, 124946.937500, 100063.460938, 90584.304688, 121516.976563, 0.000, 0.000, 0.000,0.0,0.0,0.0,0.0,0.0, 15:31:18.012
68382.789063, 58518.472656, 114523.156250, 96889.531250, 124999.289063, 99962.046875, 90508.867188, 121557.250000, 0.000, 0.000, 0.000,0.0,0.0,0.0,0.0,0.0, 15:31:18.012
68516.609375, 58656.296875, 114363.500000, 96625.046875, 125144.640625, 99983.796875, 90374.046875, 121688.812500, 0.000, 0.000, 0.000,0.0,0.0,0.0,0.0,0.0, 15:31:18.012
68472.960938, 58614.003906, 114380.195313, 96761.484375, 125107.601563, 100093.234375, 90436.203125, 121663.335938, 0.000, 0.000, 0.000,0.0,0.0,0.0,0.0,0.0, 15:31:18.013
68339.945313, 58477.816406, 114538.023438, 97036.632813, 124961.937500, 100081.476563, 90570.359375, 121530.476563, 0.000, 0.000, 0.000,0.0,0.0,0.0,0.0,0.0, 15:31:18.013
68360.843750, 58499.898438, 114540.523438, 96940.250000, 124975.546875, 99969.468750, 90534.976563, 121533.046875, 0.000, 0.000, 0.000,0.0,0.0,0.0,0.0,0.0, 15:31:18.014
68510.976563, 58649.164063, 114376.218750, 96649.742188, 125129.890625, 99961.375000, 90392.796875, 121668.164063, 0.198, 0.214, 0.948,0.0,0.0,0.0,0.0,0.0, 15:31:18.014
68513.882813, 58646.214844, 114347.164063, 96715.460938, 125138.117188, 100080.804688, 90418.210938, 121687.585938, 0.000, 0.000, 0.000,0.0,0.0,0.0,0.0,0.0, 15:31:18.015
68370.921875, 58500.929688, 114511.492188, 97016.468750, 124985.898438, 100096.468750, 90559.968750, 121552.382813, 0.000, 0.000, 0.000,0.0,0.0,0.0,0.0,0.0, 15:31:18.015
68351.406250, 58487.988281, 114556.796875, 96997.226563, 124961.382813, 99994.460938, 90555.968750, 121524.664063, 0.000, 0.000, 0.000,0.0,0.0,0.0,0.0,0.0, 15:31:18.015
68494.796875, 58629.898438, 114399.687500, 96699.187500, 125106.265625, 99964.687500, 90409.984375, 121653.210938, 0.000, 0.000, 0.000,0.0,0.0,0.0,0.0,0.0, 15:31:18.016
68530.289063, 58664.878906, 114340.101563, 96685.843750, 125148.687500, 100070.882813, 90403.906250, 121705.492188, 0.000, 0.000, 0.000,0.0,0.0,0.0,0.0,0.0, 15:31:18.016
68391.062500, 58524.687500, 114485.718750, 96982.359375, 125000.671875, 100111.312500, 90540.875000, 121582.867188, 0.000, 0.000, 0.000,0.0,0.0,0.0,0.0,0.0, 15:31:18.017
68337.460938, 58473.636719, 114568.421875, 97036.875000, 124937.015625, 100013.234375, 90572.554688, 121517.843750, 0.000, 0.000, 0.000,0.0,0.0,0.0,0.0,0.0, 15:31:18.017
68472.132813, 58609.648438, 114424.632813, 96740.335938, 125071.617188, 99958.960938, 90434.015625, 121630.187500, 0.000, 0.000, 0.000,0.0,0.0,0.0,0.0,0.0, 15:31:18.017
68546.695313, 58681.730469, 114308.117188, 96637.070313, 125154.789063, 100054.875000, 90380.234375, 121713.492188, 0.000, 0.000, 0.000,0.0,0.0,0.0,0.0,0.0, 15:31:18.018
68423.070313, 58556.113281, 114428.257813, 96917.203125, 125031.632813, 100120.187500, 90515.304688, 121608.281250, 0.204, 0.222, 0.948,0.0,0.0,0.0,0.0,0.0, 15:31:18.018
68328.523438, 58466.371094, 114561.226563, 97051.093750, 124934.023438, 100036.234375, 90583.500000, 121509.195313, 0.000, 0.000, 0.000,0.0,0.0,0.0,0.0,0.0, 15:31:18.019
68433.351563, 58573.234375, 114460.953125, 96793.843750, 125041.890625, 99956.750000, 90465.820313, 121600.414063, 0.000, 0.000, 0.000,0.0,0.0,0.0,0.0,0.0, 15:31:18.019
68537.781250, 58677.261719, 114318.820313, 96618.789063, 125157.203125, 100029.125000, 90371.359375, 121712.328125, 0.000, 0.000, 0.000,0.0,0.0,0.0,0.0,0.0, 15:31:18.019
68434.289063, 58569.929688, 114412.609375, 96862.937500, 125056.914063, 100112.632813, 90485.132813, 121629.898438, 0.000, 0.000, 0.000,0.0,0.0,0.0,0.0,0.0, 15:31:18.020
68318.867188, 58453.410156, 114561.562500, 97060.210938, 124927.898438, 100050.359375, 90583.234375, 121511.406250, 0.000, 0.000, 0.000,0.0,0.0,0.0,0.0,0.0, 15:31:18.020
68399.398438, 58535.105469, 114497.453125, 96848.921875, 125009.523438, 99954.921875, 90490.968750, 121572.742188, 0.000, 0.000, 0.000,0.0,0.0,0.0,0.0,0.0, 15:31:18.020
68535.523438, 58674.398438, 114324.679688, 96605.710938, 125155.546875, 100005.414063, 90371.500000, 121708.242188, 0.000, 0.000, 0.000,0.0,0.0,0.0,0.0,0.0, 15:31:18.021
68469.718750, 58604.730469, 114370.429688, 96792.328125, 125089.210938, 100112.234375, 90460.234375, 121662.773438, 0.000, 0.000, 0.000,0.0,0.0,0.0,0.0,0.0, 15:31:18.021
68331.898438, 58469.187500, 114542.046875, 97047.671875, 124941.242188, 100076.960938, 90585.179688, 121529.406250, 0.210, 0.222, 0.946,0.0,0.0,0.0,0.0,0.0, 15:31:18.021
68367.617188, 58507.074219, 114531.875000, 96906.031250, 124973.382813, 99965.046875, 90519.421875, 121546.234375, 0.000, 0.000, 0.000,0.0,0.0,0.0,0.0,0.0, 15:31:18.022
68512.835938, 58651.511719, 114365.601563, 96625.578125, 125125.796875, 99978.742188, 90377.796875, 121685.398438, 0.000, 0.000, 0.000,0.0,0.0,0.0,0.0,0.0, 15:31:18.022
68486.835938, 58622.566406, 114364.976563, 96738.304688, 125105.187500, 100093.812500, 90434.796875, 121677.976563, 0.000, 0.000, 0.000,0.0,0.0,0.0,0.0,0.0, 15:31:18.023
68352.546875, 58490.714844, 114513.234375, 97018.101563, 124963.859375, 100094.125000, 90575.281250, 121552.492188, 0.000, 0.000, 0.000,0.0,0.0,0.0,0.0,0.0, 15:31:18.023
68362.515625, 58499.789063, 114535.992188, 96951.601563, 124955.945313, 99984.625000, 90541.328125, 121537.335938, 0.000, 0.000, 0.000,0.0,0.0,0.0,0.0,0.0, 15:31:18.023
68508.671875, 58644.023438, 114376.351563, 96654.281250, 125110.820313, 99971.820313, 90395.656250, 121670.039063, 0.000, 0.000, 0.000,0.0,0.0,0.0,0.0,0.0, 15:31:18.024
68504.875000, 58642.906250, 114355.234375, 96698.757813, 125119.984375, 100082.148438, 90413.875000, 121688.617188, 0.000, 0.000, 0.000,0.0,0.0,0.0,0.0,0.0, 15:31:18.024
68372.554688, 58513.445313, 114490.078125, 96986.093750, 124988.781250, 100110.328125, 90552.750000, 121575.070313, 0.000, 0.000, 0.000,0.0,0.0,0.0,0.0,0.0, 15:31:18.024
68345.867188, 58484.609375, 114547.789063, 96997.914063, 124954.609375, 100011.265625, 90562.492188, 121535.460938, 0.000, 0.000, 0.000,0.0,0.0,0.0,0.0,0.0, 15:31:18.024
68481.296875, 58614.789063, 114411.359375, 96707.476563, 125095.421875, 99970.210938, 90423.937500, 121657.234375, 0.212, 0.218, 0.940,0.0,0.0,0.0,0.0,0.0, 15:31:18.025
68525.710938, 58659.269531, 114336.117188, 96664.023438, 125151.484375, 100068.710938, 90399.304688, 121711.476563, 0.000, 0.000, 0.000,0.0,0.0,0.0,0.0,0.0, 15:31:18.025
68398.882813, 58534.097656, 114456.796875, 96950.953125, 125026.648438, 100123.562500, 90537.992188, 121598.695313, 0.000, 0.000, 0.000,0.0,0.0,0.0,0.0,0.0, 15:31:18.026
68334.554688, 58469.097656, 114563.125000, 97037.812500, 124946.023438, 100032.187500, 90584.937500, 121522.117188, 0.000, 0.000, 0.000,0.0,0.0,0.0,0.0,0.0, 15:31:18.026
68450.468750, 58588.769531, 114446.179688, 96762.039063, 125056.242188, 99963.789063, 90445.078125, 121624.468750, 0.000, 0.000, 0.000,0.0,0.0,0.0,0.0,0.0, 15:31:18.027
68528.632813, 58666.441406, 114332.320313, 96637.093750, 125151.500000, 100044.367188, 90381.375000, 121713.203125, 0.000, 0.000, 0.000,0.0,0.0,0.0,0.0,0.0, 15:31:18.028
68414.750000, 58553.187500, 114435.117188, 96901.671875, 125041.960938, 100116.679688, 90512.289063, 121619.281250, 0.000, 0.000, 0.000,0.0,0.0,0.0,0.0,0.0, 15:31:18.028
68321.414063, 58460.382813, 114564.289063, 97057.398438, 124935.984375, 100040.976563, 90590.320313, 121518.742188, 0.000, 0.000, 0.000,0.0,0.0,0.0,0.0,0.0, 15:31:18.029
68426.710938, 58566.195313, 114465.671875, 96812.937500, 125038.335938, 99957.195313, 90473.937500, 121599.343750, 0.000, 0.000, 0.000,0.0,0.0,0.0,0.0,0.0, 15:31:18.029
68540.679688, 58679.160156, 114322.531250, 96623.328125, 125164.625000, 100021.257813, 90377.398438, 121714.765625, 0.204, 0.218, 0.948,0.0,0.0,0.0,0.0,0.0, 15:31:18.029
68442.046875, 58577.972656, 114405.078125, 96849.343750, 125075.867188, 100110.375000, 90482.851563, 121640.695313, 0.000, 0.000, 0.000,0.0,0.0,0.0,0.0,0.0, 15:31:18.030
68320.851563, 58454.636719, 114567.593750, 97064.234375, 124937.906250, 100052.078125, 90588.195313, 121512.015625, 0.000, 0.000, 0.000,0.0,0.0,0.0,0.0,0.0, 15:31:18.030
68391.773438, 58527.167969, 114504.093750, 96868.500000, 125005.343750, 99957.195313, 90495.484375, 121567.023438, 0.000, 0.000, 0.000,0.0,0.0,0.0,0.0,0.0, 15:31:18.031
68520.093750, 58658.062500, 114339.070313, 96619.632813, 125150.453125, 99996.898438, 90370.937500, 121697.062500, 0.000, 0.000, 0.000,0.0,0.0,0.0,0.0,0.0, 15:31:18.032
68460.664063, 58599.835938, 114370.945313, 96781.398438, 125101.125000, 100103.335938, 90447.914063, 121660.296875, 0.000, 0.000, 0.000,0.0,0.0,0.0,0.0,0.0, 15:31:18.032
68326.125000, 58462.101563, 114533.171875, 97044.367188, 124956.843750, 100078.234375, 90572.101563, 121530.656250, 0.000, 0.000, 0.000,0.0,0.0,0.0,0.0,0.0, 15:31:18.033
68363.726563, 58497.082031, 114524.765625, 96923.218750, 124984.398438, 99969.046875, 90520.960938, 121546.703125, 0.000, 0.000, 0.000,0.0,0.0,0.0,0.0,0.0, 15:31:18.033
68510.640625, 58644.539063, 114350.695313, 96636.375000, 125137.507813, 99974.250000, 90378.539063, 121685.421875, 0.000, 0.000, 0.000,0.0,0.0,0.0,0.0,0.0, 15:31:18.033
68491.085938, 58624.308594, 114341.726563, 96735.375000, 125124.750000, 100090.796875, 90422.640625, 121684.773438, 0.000, 0.000, 0.000,0.0,0.0,0.0,0.0,0.0, 15:31:18.034
68355.523438, 58486.152344, 114498.375000, 97022.976563, 124975.773438, 100096.250000, 90558.421875, 121553.117188, 0.190, 0.216, 0.942,0.0,0.0,0.0,0.0,0.0, 15:31:18.034
68356.906250, 58486.289063, 114523.335938, 96968.500000, 124967.101563, 99993.140625, 90537.234375, 121538.007813, 0.000, 0.000, 0.000,0.0,0.0,0.0,0.0,0.0, 15:31:18.034
68493.898438, 58629.921875, 114364.843750, 96667.398438, 125116.992188, 99968.195313, 90393.265625, 121668.585938, 0.000, 0.000, 0.000,0.0,0.0,0.0,0.0,0.0, 15:31:18.036
68503.000000, 58639.332031, 114328.703125, 96686.062500, 125139.390625, 100074.054688, 90401.585938, 121698.898438, 0.000, 0.000, 0.000,0.0,0.0,0.0,0.0,0.0, 15:31:18.036
68357.218750, 58493.777344, 114483.664063, 96982.070313, 124990.257813, 100096.828125, 90540.367188, 121566.750000, 0.000, 0.000, 0.000,0.0,0.0,0.0,0.0,0.0, 15:31:18.037
68328.054688, 58467.980469, 114546.609375, 97006.390625, 124943.968750, 99998.281250, 90552.968750, 121518.960938, 0.000, 0.000, 0.000,0.0,0.0,0.0,0.0,0.0, 15:31:18.037
68475.101563, 58615.191406, 114382.570313, 96706.476563, 125092.226563, 99957.914063, 90410.609375, 121646.148438, 0.000, 0.000, 0.000,0.0,0.0,0.0,0.0,0.0, 15:31:18.038
68524.367188, 58662.242188, 114305.031250, 96646.656250, 125151.570313, 100055.859375, 90377.625000, 121707.476563, 0.000, 0.000, 0.000,0.0,0.0,0.0,0.0,0.0, 15:31:18.038
68396.312500, 58532.980469, 114440.054688, 96934.617188, 125019.875000, 100112.500000, 90512.421875, 121598.289063, 0.000, 0.000, 0.000,0.0,0.0,0.0,0.0,0.0, 15:31:18.039
68317.679688, 58455.375000, 114553.914063, 97039.578125, 124933.750000, 100022.398438, 90566.273438, 121506.335938, 0.194, 0.210, 0.950,0.0,0.0,0.0,0.0,0.0, 15:31:18.039
68431.742188, 58571.917969, 114440.390625, 96768.546875, 125048.820313, 99949.109375, 90437.367188, 121604.820313, 0.000, 0.000, 0.000,0.0,0.0,0.0,0.0,0.0, 15:31:18.040
68522.445313, 58663.871094, 114314.414063, 96623.640625, 125156.781250, 100033.617188, 90364.234375, 121708.148438, 0.000, 0.000, 0.000,0.0,0.0,0.0,0.0,0.0, 15:31:18.040
68414.820313, 58558.082031, 114409.789063, 96876.460938, 125053.625000, 100119.335938, 90484.398438, 121627.257813, 0.000, 0.000, 0.000,0.0,0.0,0.0,0.0,0.0, 15:31:18.040
68310.820313, 58454.125000, 114546.898438, 97051.359375, 124938.062500, 100055.789063, 90573.648438, 121522.609375, 0.000, 0.000, 0.000,0.0,0.0,0.0,0.0,0.0, 15:31:18.041
68405.367188, 58550.191406, 114458.945313, 96821.093750, 125029.664063, 99972.914063, 90465.976563, 121596.164063, 0.000, 0.000, 0.000,0.0,0.0,0.0,0.0,0.0, 15:31:18.041
68527.695313, 58671.179688, 114303.148438, 96609.648438, 125166.882813, 100035.476563, 90362.648438, 121723.773438, 0.000, 0.000, 0.000,0.0,0.0,0.0,0.0,0.0, 15:31:18.041
68449.687500, 58592.011719, 114356.125000, 96815.484375, 125088.648438, 100139.367188, 90459.921875, 121673.523438, 0.000, 0.000, 0.000,0.0,0.0,0.0,0.0,0.0, 15:31:18.042
68321.570313, 58462.574219, 114519.093750, 97048.234375, 124946.914063, 100084.984375, 90577.625000, 121532.687500, 0.000, 0.000, 0.000,0.0,0.0,0.0,0.0,0.0, 15:31:18.042
68375.906250, 58520.328125, 114485.585938, 96874.539063, 124993.429688, 99972.398438, 90497.828125, 121564.335938, 0.000, 0.000, 0.000,0.0,0.0,0.0,0.0,0.0, 15:31:18.042
68513.593750, 58660.675781, 114314.375000, 96607.187500, 125144.554688, 99997.679688, 90365.664063, 121700.125000, 0.198, 0.212, 0.944,0.0,0.0,0.0,0.0,0.0, 15:31:18.043
68468.531250, 58612.550781, 114337.062500, 96754.750000, 125104.187500, 100107.804688, 90436.632813, 121676.031250, 0.000, 0.000, 0.000,0.0,0.0,0.0,0.0,0.0, 15:31:18.043
68325.703125, 58468.496094, 114514.398438, 97030.062500, 124951.453125, 100090.640625, 90571.632813, 121541.156250, 0.000, 0.000, 0.000,0.0,0.0,0.0,0.0,0.0, 15:31:18.044
68344.835938, 58492.097656, 114524.414063, 96924.914063, 124965.671875, 99976.398438, 90522.750000, 121535.570313, 0.000, 0.000, 0.000,0.0,0.0,0.0,0.0,0.0, 15:31:18.044
68496.718750, 58644.316406, 114350.515625, 96627.281250, 125126.695313, 99968.687500, 90376.234375, 121667.781250, 0.000, 0.000, 0.000,0.0,0.0,0.0,0.0,0.0, 15:31:18.044
68487.085938, 58634.078125, 114330.578125, 96700.726563, 125124.054688, 100084.203125, 90407.015625, 121683.875000, 0.000, 0.000, 0.000,0.0,0.0,0.0,0.0,0.0, 15:31:18.475
68343.632813, 58490.558594, 114489.742188, 96996.617188, 124975.882813, 100097.523438, 90547.789063, 121553.343750, 0.000, 0.000, 0.000,0.0,0.0,0.0,0.0,0.0, 15:31:18.475
68337.390625, 58485.394531, 114530.984375, 96969.375000, 124962.828125, 100000.156250, 90542.687500, 121530.320313, 0.000, 0.000, 0.000,0.0,0.0,0.0,0.0,0.0, 15:31:18.476
68491.460938, 58640.066406, 114355.453125, 96664.968750, 125123.671875, 99980.710938, 90398.679688, 121672.921875, 0.000, 0.000, 0.000,0.0,0.0,0.0,0.0,0.0, 15:31:18.476
68515.937500, 58664.140625, 114294.101563, 96663.156250, 125160.757813, 100090.796875, 90396.710938, 121720.648438, 0.000, 0.000, 0.000,0.0,0.0,0.0,0.0,0.0, 15:31:18.476
68371.390625, 58517.781250, 114447.898438, 96964.414063, 125009.835938, 100123.765625, 90535.156250, 121591.945313, 0.204, 0.214, 0.942,0.0,0.0,0.0,0.0,0.0, 15:31:18.476
68318.125000, 58463.398438, 114535.382813, 97012.695313, 124947.234375, 100019.828125, 90564.304688, 121525.648438, 0.000, 0.000, 0.000,0.0,0.0,0.0,0.0,0.0, 15:31:18.477
68443.945313, 58592.503906, 114396.312500, 96720.664063, 125080.625000, 99965.312500, 90427.914063, 121638.078125, 0.000, 0.000, 0.000,0.0,0.0,0.0,0.0,0.0, 15:31:18.477
68508.812500, 58656.875000, 114300.242188, 96630.765625, 125156.890625, 100059.125000, 90376.617188, 121716.460938, 0.000, 0.000, 0.000,0.0,0.0,0.0,0.0,0.0, 15:31:18.477
68392.515625, 58537.742188, 114412.921875, 96907.367188, 125036.101563, 100123.648438, 90505.898438, 121615.164063, 0.000, 0.000, 0.000,0.0,0.0,0.0,0.0,0.0, 15:31:18.478
68310.976563, 58454.660156, 114536.125000, 97033.078125, 124938.289063, 100034.781250, 90567.859375, 121515.210938, 0.000, 0.000, 0.000,0.0,0.0,0.0,0.0,0.0, 15:31:18.478
68425.351563, 58567.847656, 114423.898438, 96771.132813, 125050.023438, 99961.289063, 90445.703125, 121608.351563, 0.000, 0.000, 0.000,0.0,0.0,0.0,0.0,0.0, 15:31:18.478
68525.015625, 58667.113281, 114295.953125, 96609.218750, 125161.117188, 100034.539063, 90361.414063, 121714.539063, 0.000, 0.000, 0.000,0.0,0.0,0.0,0.0,0.0, 15:31:18.479
68423.585938, 58568.542969, 114385.070313, 96850.796875, 125064.062500, 100116.007813, 90477.375000, 121636.554688, 0.000, 0.000, 0.000,0.0,0.0,0.0,0.0,0.0, 15:31:18.479
68313.570313, 58460.671875, 114527.632813, 97045.125000, 124942.312500, 100057.890625, 90578.343750, 121527.906250, 0.200, 0.210, 0.948,0.0,0.0,0.0,0.0,0.0, 15:31:18.479
68397.054688, 58549.230469, 114455.367188, 96834.281250, 125030.578125, 99966.609375, 90486.500000, 121589.664063, 0.000, 0.000, 0.000,0.0,0.0,0.0,0.0,0.0, 15:31:18.480
68524.210938, 58676.187500, 114296.445313, 96602.960938, 125162.812500, 100012.875000, 90366.289063, 121712.757813, 0.000, 0.000, 0.000,0.0,0.0,0.0,0.0,0.0, 15:31:18.480
68449.578125, 58600.972656, 114353.890625, 96794.875000, 125090.953125, 100116.679688, 90452.187500, 121662.039063, 0.000, 0.000, 0.000,0.0,0.0,0.0,0.0,0.0, 15:31:18.480
68321.320313, 58471.066406, 114515.023438, 97041.414063, 124954.296875, 100084.023438, 90575.835938, 121538.078125, 0.000, 0.000, 0.000,0.0,0.0,0.0,0.0,0.0, 15:31:18.481
68377.585938, 58527.750000, 114480.648438, 96887.742188, 125004.539063, 99984.000000, 90508.289063, 121572.382813, 0.000, 0.000, 0.000,0.0,0.0,0.0,0.0,0.0, 15:31:18.481
68519.804688, 58674.199219, 114310.976563, 96617.781250, 125161.179688, 100007.937500, 90375.320313, 121713.492188, 0.000, 0.000, 0.000,0.0,0.0,0.0,0.0,0.0, 15:31:18.482
68485.515625, 58638.367188, 114316.429688, 96744.429688, 125135.367188, 100121.039063, 90432.945313, 121701.421875, 0.000, 0.000, 0.000,0.0,0.0,0.0,0.0,0.0, 15:31:18.482
68342.156250, 58493.550781, 114478.632813, 97028.000000, 124985.968750, 100113.437500, 90573.156250, 121566.929688, 0.000, 0.000, 0.000,0.0,0.0,0.0,0.0,0.0, 15:31:18.482
68356.328125, 58504.324219, 114495.648438, 96947.179688, 124987.867188, 99997.835938, 90535.890625, 121555.531250, 0.000, 0.000, 0.000,0.0,0.0,0.0,0.0,0.0, 15:31:18.483
68501.523438, 58650.171875, 114332.898438, 96648.937500, 125137.195313, 99981.382813, 90387.968750, 121688.476563, 0.198, 0.214, 0.948,0.0,0.0,0.0,0.0,0.0, 15:31:18.483
68505.812500, 58655.691406, 114297.898438, 96697.625000, 125154.093750, 100097.437500, 90413.429688, 121712.664063, 0.000, 0.000, 0.000,0.0,0.0,0.0,0.0,0.0, 15:31:18.484
68358.695313, 58504.863281, 114467.859375, 96999.750000, 125003.601563, 100117.726563, 90554.960938, 121581.437500, 0.000, 0.000, 0.000,0.0,0.0,0.0,0.0,0.0, 15:31:18.484
68332.945313, 58481.167969, 114531.609375, 96994.187500, 124970.609375, 100010.101563, 90561.289063, 121542.765625, 0.000, 0.000, 0.000,0.0,0.0,0.0,0.0,0.0, 15:31:18.484
68473.828125, 58624.980469, 114374.406250, 96688.164063, 125111.070313, 99968.929688, 90410.007813, 121660.898438, 0.000, 0.000, 0.000,0.0,0.0,0.0,0.0,0.0, 15:31:18.485
68523.539063, 58671.808594, 114298.148438, 96655.312500, 125170.164063, 100081.765625, 90391.031250, 121724.937500, 0.000, 0.000, 0.000,0.0,0.0,0.0,0.0,0.0, 15:31:18.485
68390.945313, 58537.070313, 114437.398438, 96948.851563, 125030.867188, 100124.945313, 90527.492188, 121600.460938, 0.000, 0.000, 0.000,0.0,0.0,0.0,0.0,0.0, 15:31:18.486
68335.406250, 58479.000000, 114535.476563, 97027.492188, 124967.148438, 100029.953125, 90572.257813, 121530.585938, 0.000, 0.000, 0.000,0.0,0.0,0.0,0.0,0.0, 15:31:18.486
68461.578125, 58607.812500, 114406.078125, 96742.796875, 125095.218750, 99967.234375, 90439.421875, 121641.140625, 0.000, 0.000, 0.000,0.0,0.0,0.0,0.0,0.0, 15:31:18.486
68537.664063, 58685.488281, 114292.375000, 96630.031250, 125187.804688, 100062.585938, 90382.585938, 121733.562500, 0.204, 0.218, 0.944,0.0,0.0,0.0,0.0,0.0, 15:31:18.486
68416.031250, 58562.820313, 114414.578125, 96902.117188, 125065.718750, 100131.296875, 90514.078125, 121630.945313, 0.000, 0.000, 0.000,0.0,0.0,0.0,0.0,0.0, 15:31:18.487
68333.507813, 58481.167969, 114533.773438, 97044.875000, 124970.585938, 100057.601563, 90584.781250, 121539.726563, 0.000, 0.000, 0.000,0.0,0.0,0.0,0.0,0.0, 15:31:18.487
68435.117188, 58584.457031, 114432.078125, 96797.601563, 125068.531250, 99982.453125, 90470.648438, 121631.257813, 0.000, 0.000, 0.000,0.0,0.0,0.0,0.0,0.0, 15:31:18.488
68546.898438, 58698.562500, 114285.070313, 96610.226563, 125190.328125, 100048.703125, 90372.617188, 121743.554688, 0.000, 0.000, 0.000,0.0,0.0,0.0,0.0,0.0, 15:31:18.488
68451.882813, 58602.539063, 114359.859375, 96841.078125, 125097.453125, 100140.843750, 90476.281250, 121667.203125, 0.000, 0.000, 0.000,0.0,0.0,0.0,0.0,0.0, 15:31:18.489
68330.664063, 58481.460938, 114509.640625, 97053.929688, 124968.148438, 100085.968750, 90579.726563, 121541.406250, 0.000, 0.000, 0.000,0.0,0.0,0.0,0.0,0.0, 15:31:18.489
68402.015625, 58555.511719, 114442.718750, 96854.125000, 125040.859375, 99992.804688, 90486.382813, 121600.390625, 0.000, 0.000, 0.000,0.0,0.0,0.0,0.0,0.0, 15:31:18.490
68525.281250, 58679.539063, 114296.515625, 96615.929688, 125177.273438, 100028.593750, 90366.203125, 121724.062500, 0.000, 0.000, 0.000,0.0,0.0,0.0,0.0,0.0, 15:31:18.491
68461.851563, 58614.585938, 114341.843750, 96786.718750, 125118.375000, 100124.679688, 90445.281250, 121672.992188, 0.000, 0.000, 0.000,0.0,0.0,0.0,0.0,0.0, 15:31:18.491
68331.671875, 58482.601563, 114499.578125, 97040.585938, 124980.242188, 100098.640625, 90573.601563, 121547.148438, 0.200, 0.222, 0.944,0.0,0.0,0.0,0.0,0.0, 15:31:18.492
68379.484375, 58526.722656, 114474.859375, 96903.328125, 125018.578125, 99993.968750, 90516.562500, 121572.476563, 0.000, 0.000, 0.000,0.0,0.0,0.0,0.0,0.0, 15:31:18.492
68520.656250, 58667.335938, 114313.882813, 96622.835938, 125171.773438, 99999.710938, 90377.578125, 121704.507813, 0.000, 0.000, 0.000,0.0,0.0,0.0,0.0,0.0, 15:31:18.492
68495.218750, 58641.410156, 114311.421875, 96723.640625, 125155.343750, 100111.156250, 90427.156250, 121700.234375, 0.000, 0.000, 0.000,0.0,0.0,0.0,0.0,0.0, 15:31:18.492
68353.445313, 58495.562500, 114475.617188, 97007.773438, 125003.039063, 100110.484375, 90566.492188, 121567.867188, 0.000, 0.000, 0.000,0.0,0.0,0.0,0.0,0.0, 15:31:18.493
68359.609375, 58501.980469, 114504.515625, 96949.171875, 124999.937500, 100005.593750, 90545.304688, 121557.296875, 0.000, 0.000, 0.000,0.0,0.0,0.0,0.0,0.0, 15:31:18.493
68514.351563, 58658.328125, 114330.484375, 96647.109375, 125163.546875, 99997.546875, 90402.500000, 121705.046875, 0.000, 0.000, 0.000,0.0,0.0,0.0,0.0,0.0, 15:31:18.493
68527.117188, 58666.734375, 114287.125000, 96678.242188, 125192.718750, 100115.984375, 90421.070313, 121745.007813, 0.000, 0.000, 0.000,0.0,0.0,0.0,0.0,0.0, 15:31:18.494
68378.320313, 58520.664063, 114446.601563, 96980.703125, 125044.906250, 100142.742188, 90565.578125, 121616.148438, 0.000, 0.000, 0.000,0.0,0.0,0.0,0.0,0.0, 15:31:18.494
68340.593750, 58486.511719, 114524.679688, 97002.835938, 124986.476563, 100030.671875, 90573.039063, 121552.492188, 0.000, 0.000, 0.000,0.0,0.0,0.0,0.0,0.0, 15:31:18.494
68478.882813, 58629.003906, 114370.203125, 96697.890625, 125121.664063, 99976.109375, 90420.312500, 121666.109375, 0.196, 0.216, 0.942,0.0,0.0,0.0,0.0,0.0, 15:31:18.494
68528.296875, 58678.019531, 114284.265625, 96639.460938, 125185.882813, 100081.765625, 90388.039063, 121734.257813, 0.000, 0.000, 0.000,0.0,0.0,0.0,0.0,0.0, 15:31:18.494
68390.835938, 58541.207031, 114420.945313, 96927.132813, 125047.414063, 100134.023438, 90521.343750, 121616.593750, 0.000, 0.000, 0.000,0.0,0.0,0.0,0.0,0.0, 15:31:18.495
68321.750000, 58481.191406, 114507.757813, 97016.156250, 124966.382813, 100046.984375, 90563.007813, 121538.882813, 0.000, 0.000, 0.000,0.0,0.0,0.0,0.0,0.0, 15:31:18.495
68442.984375, 58604.996094, 114382.296875, 96742.726563, 125091.132813, 99982.570313, 90436.632813, 121639.554688, 0.000, 0.000, 0.000,0.0,0.0,0.0,0.0,0.0, 15:31:18.495
68529.906250, 58690.136719, 114262.984375, 96611.609375, 125194.171875, 100067.953125, 90372.968750, 121738.171875, 0.000, 0.000, 0.000,0.0,0.0,0.0,0.0,0.0, 15:31:18.495
68415.757813, 58574.867188, 114372.796875, 96874.335938, 125072.195313, 100143.992188, 90492.781250, 121647.625000, 0.000, 0.000, 0.000,0.0,0.0,0.0,0.0,0.0, 15:31:18.496
68308.757813, 58469.414063, 114511.132813, 97039.132813, 124951.187500, 100062.898438, 90566.093750, 121526.031250, 0.000, 0.000, 0.000,0.0,0.0,0.0,0.0,0.0, 15:31:18.496
68407.664063, 58568.968750, 114416.046875, 96805.335938, 125048.867188, 99980.398438, 90455.406250, 121606.203125, 0.000, 0.000, 0.000,0.0,0.0,0.0,0.0,0.0, 15:31:18.496
68521.039063, 58682.289063, 114274.968750, 96605.601563, 125176.250000, 100039.679688, 90356.765625, 121726.812500, 0.198, 0.218, 0.938,0.0,0.0,0.0,0.0,0.0, 15:31:18.496
68435.968750, 58597.800781, 114341.554688, 96818.164063, 125099.867188, 100136.953125, 90456.968750, 121668.273438, 0.000, 0.000, 0.000,0.0,0.0,0.0,0.0,0.0, 15:31:18.497
68317.453125, 58477.214844, 114492.093750, 97039.203125, 124975.460938, 100093.992188, 90569.914063, 121553.789063, 0.000, 0.000, 0.000,0.0,0.0,0.0,0.0,0.0, 15:31:18.497
68388.375000, 58549.320313, 114429.640625, 96859.203125, 125045.468750, 100000.828125, 90490.093750, 121606.851563, 0.000, 0.000, 0.000,0.0,0.0,0.0,0.0,0.0, 15:31:18.497
68511.515625, 58673.417969, 114282.296875, 96613.625000, 125188.453125, 100028.117188, 90374.359375, 121735.460938, 0.000, 0.000, 0.000,0.0,0.0,0.0,0.0,0.0, 15:31:18.498
68462.343750, 58621.492188, 114305.187500, 96762.265625, 125146.093750, 100132.500000, 90449.257813, 121701.085938, 0.000, 0.000, 0.000,0.0,0.0,0.0,0.0,0.0, 15:31:18.498
68321.500000, 58478.734375, 114467.343750, 97028.515625, 124989.656250, 100110.781250, 90573.039063, 121562.906250, 0.000, 0.000, 0.000,0.0,0.0,0.0,0.0,0.0, 15:31:18.498
68342.046875, 58502.695313, 114465.937500, 96916.203125, 125005.679688, 100006.640625, 90523.000000, 121574.195313, 0.000, 0.000, 0.000,0.0,0.0,0.0,0.0,0.0, 15:31:18.499
68474.320313, 58637.496094, 114312.515625, 96626.453125, 125145.781250, 100000.382813, 90376.078125, 121699.742188, 0.000, 0.000, 0.000,0.0,0.0,0.0,0.0,0.0, 15:31:18.499
68465.382813, 58626.812500, 114297.320313, 96701.554688, 125145.359375, 100114.132813, 90412.046875, 121705.109375, 0.000, 0.000, 0.000,0.0,0.0,0.0,0.0,0.0, 15:31:18.499
68326.796875, 58487.160156, 114455.500000, 96991.929688, 124997.812500, 100124.617188, 90552.140625, 121575.382813, 0.204, 0.220, 0.946,0.0,0.0,0.0,0.0,0.0, 15:31:18.499
68320.093750, 58479.625000, 114490.304688, 96954.195313, 124985.070313, 100015.265625, 90539.468750, 121552.265625, 0.000, 0.000, 0.000,0.0,0.0,0.0,0.0,0.0, 15:31:18.500
68467.125000, 58628.601563, 114324.500000, 96654.617188, 125134.445313, 99991.304688, 90396.109375, 121684.570313, 0.000, 0.000, 0.000,0.0,0.0,0.0,0.0,0.0, 15:31:18.500
68488.757813, 58649.656250, 114276.820313, 96659.710938, 125168.000000, 100097.234375, 90397.851563, 121721.132813, 0.000, 0.000, 0.000,0.0,0.0,0.0,0.0,0.0, 15:31:18.500
68352.328125, 58509.042969, 114427.289063, 96950.710938, 125025.953125, 100128.078125, 90537.546875, 121597.015625, 0.000, 0.000, 0.000,0.0,0.0,0.0,0.0,0.0, 15:31:18.500
68315.734375, 58472.855469, 114493.429688, 96986.648438, 124982.164063, 100036.125000, 90564.367188, 121549.140625, 0.000, 0.000, 0.000,0.0,0.0,0.0,0.0,0.0, 15:31:18.501
68449.398438, 58606.519531, 114353.171875, 96696.835938, 125118.398438, 99983.171875, 90428.695313, 121663.960938, 0.000, 0.000, 0.000,0.0,0.0,0.0,0.0,0.0, 15:31:18.501
68508.359375, 58662.957031, 114264.257813, 96619.125000, 125195.492188, 100079.257813, 90393.851563, 121737.632813, 0.000, 0.000, 0.000,0.0,0.0,0.0,0.0,0.0, 15:31:18.501
68384.375000, 58537.003906, 114381.070313, 96898.203125, 125064.734375, 100138.804688, 90524.960938, 121632.421875, 0.000, 0.000, 0.000,0.0,0.0,0.0,0.0,0.0, 15:31:18.501
68307.304688, 58461.230469, 114491.132813, 97018.460938, 124975.546875, 100057.734375, 90582.203125, 121549.968750, 0.198, 0.218, 0.952,0.0,0.0,0.0,0.0,0.0, 15:31:18.502
68418.460938, 58573.750000, 114382.054688, 96759.625000, 125090.703125, 99983.976563, 90464.187500, 121644.226563, 0.000, 0.000, 0.000,0.0,0.0,0.0,0.0,0.0, 15:31:18.502
68508.429688, 58667.558594, 114268.351563, 96609.000000, 125192.984375, 100054.273438, 90385.492188, 121741.453125, 0.000, 0.000, 0.000,0.0,0.0,0.0,0.0,0.0, 15:31:18.502
68404.132813, 58562.105469, 114365.289063, 96855.046875, 125090.015625, 100131.226563, 90501.851563, 121651.421875, 0.000, 0.000, 0.000,0.0,0.0,0.0,0.0,0.0, 15:31:18.502
68303.015625, 58464.046875, 114499.023438, 97035.695313, 124974.992188, 100068.242188, 90587.414063, 121540.218750, 0.000, 0.000, 0.000,0.0,0.0,0.0,0.0,0.0, 15:31:18.503
68390.656250, 58554.730469, 114417.656250, 96820.312500, 125056.953125, 99984.695313, 90487.460938, 121609.195313, 0.000, 0.000, 0.000,0.0,0.0,0.0,0.0,0.0, 15:31:18.503
68520.187500, 58681.976563, 114261.351563, 96599.296875, 125193.773438, 100036.773438, 90379.250000, 121740.023438, 0.000, 0.000, 0.000,0.0,0.0,0.0,0.0,0.0, 15:31:18.503
68445.867188, 58604.640625, 114316.273438, 96796.593750, 125115.382813, 100137.757813, 90466.468750, 121685.328125, 0.000, 0.000, 0.000,0.0,0.0,0.0,0.0,0.0, 15:31:18.503
68306.859375, 58462.707031, 114491.195313, 97040.320313, 124969.250000, 100094.039063, 90586.390625, 121549.789063, 0.000, 0.000, 0.000,0.0,0.0,0.0,0.0,0.0, 15:31:18.504
68363.164063, 58523.144531, 114454.562500, 96875.656250, 125024.593750, 99988.515625, 90513.187500, 121584.656250, 0.000, 0.000, 0.000,0.0,0.0,0.0,0.0,0.0, 15:31:18.504
68504.335938, 58667.605469, 114283.546875, 96606.671875, 125177.054688, 100011.515625, 90380.687500, 121719.390625, 0.202, 0.214, 0.950,0.0,0.0,0.0,0.0,0.0, 15:31:18.504
68462.046875, 58622.765625, 114295.796875, 96739.109375, 125141.710938, 100121.101563, 90443.023438, 121698.226563, 0.000, 0.000, 0.000,0.0,0.0,0.0,0.0,0.0, 15:31:18.505
68317.765625, 58478.332031, 114466.054688, 97018.640625, 124988.671875, 100107.937500, 90577.289063, 121562.531250, 0.000, 0.000, 0.000,0.0,0.0,0.0,0.0,0.0, 15:31:18.505
68335.828125, 58497.484375, 114477.335938, 96929.031250, 125000.492188, 100004.070313, 90539.492188, 121564.671875, 0.000, 0.000, 0.000,0.0,0.0,0.0,0.0,0.0, 15:31:18.505
68486.437500, 58648.808594, 114312.000000, 96635.664063, 125162.257813, 99999.242188, 90397.421875, 121708.460938, 0.000, 0.000, 0.000,0.0,0.0,0.0,0.0,0.0, 15:31:18.506
68483.796875, 58646.816406, 114286.453125, 96693.218750, 125167.437500, 100112.054688, 90423.015625, 121725.960938, 0.000, 0.000, 0.000,0.0,0.0,0.0,0.0,0.0, 15:31:18.506
68343.382813, 58510.695313, 114436.929688, 96986.539063, 125021.507813, 100131.609375, 90561.687500, 121598.875000, 0.000, 0.000, 0.000,0.0,0.0,0.0,0.0,0.0, 15:31:18.506
68321.570313, 58486.019531, 114489.695313, 96974.023438, 124983.843750, 100027.562500, 90553.085938, 121559.109375, 0.000, 0.000, 0.000,0.0,0.0,0.0,0.0,0.0, 15:31:18.506
68458.898438, 58619.707031, 114348.281250, 96675.046875, 125125.820313, 99990.679688, 90411.437500, 121684.234375, 0.000, 0.000, 0.000,0.0,0.0,0.0,0.0,0.0, 15:31:18.507
68501.296875, 58659.312500, 114278.742188, 96646.414063, 125174.750000, 100092.585938, 90397.468750, 121732.781250, 0.202, 0.220, 0.946,0.0,0.0,0.0,0.0,0.0, 15:31:18.507
68362.921875, 58522.183594, 114417.929688, 96942.242188, 125029.820313, 100134.359375, 90536.718750, 121607.726563, 0.000, 0.000, 0.000,0.0,0.0,0.0,0.0,0.0, 15:31:18.507
68310.414063, 58469.500000, 114505.234375, 97006.585938, 124962.406250, 100040.054688, 90568.171875, 121544.203125, 0.000, 0.000, 0.000,0.0,0.0,0.0,0.0,0.0, 15:31:18.508
68441.820313, 58602.179688, 114363.968750, 96721.406250, 125095.375000, 99988.671875, 90433.656250, 121657.546875, 0.000, 0.000, 0.000,0.0,0.0,0.0,0.0,0.0, 15:31:18.508
68512.742188, 58668.453125, 114265.062500, 96620.148438, 125178.976563, 100077.492188, 90382.585938, 121740.914063, 0.000, 0.000, 0.000,0.0,0.0,0.0,0.0,0.0, 15:31:18.508
68397.226563, 58555.289063, 114374.968750, 96891.679688, 125065.695313, 100146.226563, 90512.960938, 121649.632813, 0.000, 0.000, 0.000,0.0,0.0,0.0,0.0,0.0, 15:31:18.508
68305.562500, 58463.464844, 114504.070313, 97036.562500, 124961.671875, 100065.851563, 90586.054688, 121546.367188, 0.000, 0.000, 0.000,0.0,0.0,0.0,0.0,0.0, 15:31:18.509
68413.140625, 58572.746094, 114403.000000, 96782.203125, 125067.414063, 99984.867188, 90466.312500, 121627.843750, 0.000, 0.000, 0.000,0.0,0.0,0.0,0.0,0.0, 15:31:18.509
68523.179688, 58681.886719, 114260.773438, 96604.328125, 125185.945313, 100057.398438, 90377.085938, 121744.000000, 0.000, 0.000, 0.000,0.0,0.0,0.0,0.0,0.0, 15:31:18.510
68428.789063, 58584.859375, 114345.242188, 96843.132813, 125091.914063, 100148.281250, 90492.062500, 121669.929688, 0.000, 0.000, 0.000,0.0,0.0,0.0,0.0,0.0, 15:31:18.510
68313.210938, 58469.078125, 114499.781250, 97050.492188, 124962.742188, 100088.695313, 90592.890625, 121547.929688, 0.192, 0.218, 0.956,0.0,0.0,0.0,0.0,0.0, 15:31:18.510
68385.203125, 58539.953125, 114447.835938, 96850.953125, 125029.101563, 99985.695313, 90500.039063, 121595.851563, 0.000, 0.000, 0.000,0.0,0.0,0.0,0.0,0.0, 15:31:18.510
68522.937500, 58678.378906, 114277.804688, 96606.335938, 125172.468750, 100027.226563, 90374.937500, 121729.007813, 0.000, 0.000, 0.000,0.0,0.0,0.0,0.0,0.0, 15:31:18.512
68460.304688, 58615.816406, 114319.578125, 96786.093750, 125108.546875, 100133.664063, 90458.062500, 121687.273438, 0.000, 0.000, 0.000,0.0,0.0,0.0,0.0,0.0, 15:31:18.513
68324.070313, 58481.683594, 114478.835938, 97039.000000, 124965.226563, 100100.812500, 90579.750000, 121555.890625, 0.000, 0.000, 0.000,0.0,0.0,0.0,0.0,0.0, 15:31:18.513
68363.859375, 58523.949219, 114461.085938, 96898.632813, 125003.828125, 99993.250000, 90518.328125, 121578.312500, 0.000, 0.000, 0.000,0.0,0.0,0.0,0.0,0.0, 15:31:18.513
68513.929688, 58673.527344, 114288.757813, 96619.546875, 125161.875000, 100011.226563, 90382.921875, 121719.015625, 0.000, 0.000, 0.000,0.0,0.0,0.0,0.0,0.0, 15:31:18.514
68487.109375, 58644.960938, 114290.835938, 96731.328125, 125141.109375, 100123.765625, 90441.773438, 121712.484375, 0.000, 0.000, 0.000,0.0,0.0,0.0,0.0,0.0, 15:31:18.514
68338.242188, 58495.964844, 114459.703125, 97016.984375, 124975.546875, 100112.921875, 90573.890625, 121573.500000, 0.000, 0.000, 0.000,0.0,0.0,0.0,0.0,0.0, 15:31:18.514
68342.156250, 58502.804688, 114482.257813, 96949.171875, 124972.242188, 100002.125000, 90543.695313, 121559.820313, 0.000, 0.000, 0.000,0.0,0.0,0.0,0.0,0.0, 15:31:18.515
68489.367188, 58653.144531, 114316.140625, 96653.453125, 125126.156250, 99991.242188, 90400.531250, 121698.000000, 0.198, 0.218, 0.954,0.0,0.0,0.0,0.0,0.0, 15:31:18.953
68493.429688, 58658.105469, 114285.648438, 96689.640625, 125139.945313, 100102.531250, 90413.226563, 121723.484375, 0.000, 0.000, 0.000,0.0,0.0,0.0,0.0,0.0, 15:31:18.953
68351.859375, 58512.035156, 114444.437500, 96985.828125, 124994.507813, 100127.023438, 90554.960938, 121594.070313, 0.000, 0.000, 0.000,0.0,0.0,0.0,0.0,0.0, 15:31:18.953
68324.164063, 58485.214844, 114509.703125, 96995.328125, 124955.500000, 100024.632813, 90567.234375, 121553.429688, 0.000, 0.000, 0.000,0.0,0.0,0.0,0.0,0.0, 15:31:18.954
68462.562500, 58625.964844, 114351.140625, 96695.500000, 125099.445313, 99983.890625, 90425.765625, 121677.570313, 0.000, 0.000, 0.000,0.0,0.0,0.0,0.0,0.0, 15:31:18.954
68502.640625, 58666.175781, 114284.710938, 96653.789063, 125151.101563, 100079.328125, 90400.265625, 121729.070313, 0.000, 0.000, 0.000,0.0,0.0,0.0,0.0,0.0, 15:31:18.954
68372.445313, 58534.746094, 114419.781250, 96940.789063, 125009.773438, 100128.125000, 90529.523438, 121608.390625, 0.000, 0.000, 0.000,0.0,0.0,0.0,0.0,0.0, 15:31:18.954
68312.000000, 58473.300781, 114515.492188, 97023.289063, 124933.437500, 100037.507813, 90570.960938, 121532.328125, 0.000, 0.000, 0.000,0.0,0.0,0.0,0.0,0.0, 15:31:18.954
68438.734375, 58602.250000, 114380.156250, 96741.742188, 125062.453125, 99978.273438, 90440.632813, 121640.492188, 0.000, 0.000, 0.000,0.0,0.0,0.0,0.0,0.0, 15:31:18.955
68513.750000, 58677.484375, 114280.937500, 96622.382813, 125155.882813, 100065.492188, 90383.476563, 121735.398438, 0.204, 0.226, 0.952,0.0,0.0,0.0,0.0,0.0, 15:31:18.955
68393.671875, 58558.863281, 114396.335938, 96882.093750, 125039.031250, 100133.843750, 90505.140625, 121639.242188, 0.000, 0.000, 0.000,0.0,0.0,0.0,0.0,0.0, 15:31:18.955
68301.609375, 58466.929688, 114526.843750, 97037.164063, 124928.007813, 100055.906250, 90579.835938, 121528.554688, 0.000, 0.000, 0.000,0.0,0.0,0.0,0.0,0.0, 15:31:18.955
68396.085938, 58562.730469, 114439.343750, 96802.179688, 125020.656250, 99972.062500, 90468.617188, 121606.898438, 0.000, 0.000, 0.000,0.0,0.0,0.0,0.0,0.0, 15:31:18.956
68507.445313, 58675.875000, 114294.726563, 96608.484375, 125147.234375, 100032.703125, 90373.953125, 121723.843750, 0.000, 0.000, 0.000,0.0,0.0,0.0,0.0,0.0, 15:31:18.956
68421.703125, 58586.738281, 114363.164063, 96827.015625, 125067.882813, 100126.554688, 90477.984375, 121660.742188, 0.000, 0.000, 0.000,0.0,0.0,0.0,0.0,0.0, 15:31:18.956
68300.804688, 58462.484375, 114524.476563, 97048.406250, 124933.554688, 100076.109375, 90582.835938, 121534.476563, 0.000, 0.000, 0.000,0.0,0.0,0.0,0.0,0.0, 15:31:18.957
68375.148438, 58534.835938, 114471.882813, 96862.601563, 125001.679688, 99978.140625, 90498.632813, 121582.000000, 0.000, 0.000, 0.000,0.0,0.0,0.0,0.0,0.0, 15:31:18.957
68506.531250, 58670.199219, 114305.117188, 96613.000000, 125146.406250, 100013.148438, 90371.226563, 121717.671875, 0.000, 0.000, 0.000,0.0,0.0,0.0,0.0,0.0, 15:31:18.957
68445.289063, 58607.457031, 114343.742188, 96774.578125, 125091.781250, 100116.429688, 90444.789063, 121680.140625, 0.000, 0.000, 0.000,0.0,0.0,0.0,0.0,0.0, 15:31:18.957
68315.062500, 58477.324219, 114496.117188, 97034.593750, 124951.320313, 100099.359375, 90567.343750, 121555.398438, 0.210, 0.224, 0.946,0.0,0.0,0.0,0.0,0.0, 15:31:18.957
68343.851563, 58509.421875, 114489.812500, 96920.289063, 124974.789063, 99994.726563, 90517.226563, 121566.484375, 0.000, 0.000, 0.000,0.0,0.0,0.0,0.0,0.0, 15:31:18.958
68489.296875, 58656.472656, 114320.359375, 96632.351563, 125126.578125, 100000.562500, 90375.898438, 121701.492188, 0.000, 0.000, 0.000,0.0,0.0,0.0,0.0,0.0, 15:31:18.958
68467.171875, 58632.089844, 114317.632813, 96721.898438, 125109.570313, 100110.734375, 90414.570313, 121699.140625, 0.000, 0.000, 0.000,0.0,0.0,0.0,0.0,0.0, 15:31:18.958
68318.906250, 58482.531250, 114482.789063, 97011.531250, 124957.062500, 100111.898438, 90551.984375, 121565.523438, 0.000, 0.000, 0.000,0.0,0.0,0.0,0.0,0.0, 15:31:18.959
68319.757813, 58484.320313, 114511.421875, 96966.312500, 124951.523438, 100007.890625, 90538.664063, 121552.226563, 0.000, 0.000, 0.000,0.0,0.0,0.0,0.0,0.0, 15:31:18.959
68459.789063, 58626.589844, 114349.218750, 96668.093750, 125099.601563, 99986.101563, 90396.351563, 121679.921875, 0.000, 0.000, 0.000,0.0,0.0,0.0,0.0,0.0, 15:31:18.959
68475.820313, 58640.871094, 114306.351563, 96681.593750, 125131.343750, 100095.984375, 90402.164063, 121717.539063, 0.000, 0.000, 0.000,0.0,0.0,0.0,0.0,0.0, 15:31:18.960
68342.109375, 58505.062500, 114449.218750, 96974.250000, 124988.828125, 100127.343750, 90542.132813, 121598.226563, 0.000, 0.000, 0.000,0.0,0.0,0.0,0.0,0.0, 15:31:18.960
68300.937500, 58468.449219, 114518.640625, 97004.664063, 124934.335938, 100028.031250, 90562.828125, 121546.859375, 0.206, 0.222, 0.948,0.0,0.0,0.0,0.0,0.0, 15:31:18.960
68437.148438, 58605.132813, 114375.593750, 96711.476563, 125075.437500, 99980.375000, 90424.000000, 121659.062500, 0.000, 0.000, 0.000,0.0,0.0,0.0,0.0,0.0, 15:31:18.961
68494.546875, 58656.472656, 114294.570313, 96640.539063, 125136.546875, 100067.351563, 90379.703125, 121709.046875, 0.000, 0.000, 0.000,0.0,0.0,0.0,0.0,0.0, 15:31:18.961
68375.523438, 58535.035156, 114415.984375, 96919.750000, 125010.976563, 100125.015625, 90503.062500, 121606.382813, 0.000, 0.000, 0.000,0.0,0.0,0.0,0.0,0.0, 15:31:18.961
68298.281250, 58460.023438, 114527.164063, 97032.382813, 124928.765625, 100044.703125, 90562.585938, 121529.914063, 0.000, 0.000, 0.000,0.0,0.0,0.0,0.0,0.0, 15:31:18.962
68408.828125, 58571.761719, 114421.835938, 96767.000000, 125036.078125, 99967.320313, 90436.140625, 121617.539063, 0.000, 0.000, 0.000,0.0,0.0,0.0,0.0,0.0, 15:31:18.962
68500.468750, 58666.265625, 114291.929688, 96617.539063, 125147.882813, 100050.562500, 90360.500000, 121727.570313, 0.000, 0.000, 0.000,0.0,0.0,0.0,0.0,0.0, 15:31:18.962
68394.812500, 58563.132813, 114376.421875, 96867.921875, 125050.742188, 100133.109375, 90482.007813, 121648.046875, 0.000, 0.000, 0.000,0.0,0.0,0.0,0.0,0.0, 15:31:18.962
68295.328125, 58462.015625, 114511.718750, 97048.562500, 124937.195313, 100070.546875, 90575.570313, 121540.710938, 0.000, 0.000, 0.000,0.0,0.0,0.0,0.0,0.0, 15:31:18.963
68384.242188, 58554.035156, 114430.023438, 96825.453125, 125023.851563, 99982.054688, 90472.593750, 121601.976563, 0.000, 0.000, 0.000,0.0,0.0,0.0,0.0,0.0, 15:31:18.963
68498.617188, 58668.812500, 114289.492188, 96613.195313, 125147.968750, 100029.640625, 90364.500000, 121718.718750, 0.204, 0.224, 0.948,0.0,0.0,0.0,0.0,0.0, 15:31:18.963
68429.687500, 58591.542969, 114341.437500, 96810.523438, 125086.234375, 100132.171875, 90460.453125, 121671.875000, 0.000, 0.000, 0.000,0.0,0.0,0.0,0.0,0.0, 15:31:18.963
68303.820313, 58462.238281, 114497.656250, 97044.140625, 124948.039063, 100094.328125, 90576.257813, 121552.000000, 0.000, 0.000, 0.000,0.0,0.0,0.0,0.0,0.0, 15:31:18.964
68365.398438, 58529.851563, 114450.312500, 96874.445313, 125001.101563, 99991.664063, 90499.328125, 121587.648438, 0.000, 0.000, 0.000,0.0,0.0,0.0,0.0,0.0, 15:31:18.964
68501.703125, 58668.878906, 114292.265625, 96615.968750, 125145.937500, 100015.046875, 90369.148438, 121719.015625, 0.000, 0.000, 0.000,0.0,0.0,0.0,0.0,0.0, 15:31:18.964
68445.062500, 58617.871094, 114333.148438, 96763.421875, 125100.296875, 100116.546875, 90435.242188, 121684.390625, 0.000, 0.000, 0.000,0.0,0.0,0.0,0.0,0.0, 15:31:18.964
68307.601563, 58480.453125, 114493.765625, 97034.375000, 124957.937500, 100102.640625, 90566.250000, 121555.601563, 0.000, 0.000, 0.000,0.0,0.0,0.0,0.0,0.0, 15:31:18.965
68328.054688, 58500.503906, 114499.984375, 96939.734375, 124974.164063, 99999.445313, 90527.671875, 121558.039063, 0.000, 0.000, 0.000,0.0,0.0,0.0,0.0,0.0, 15:31:18.966
68475.484375, 58649.656250, 114339.296875, 96649.921875, 125121.085938, 99992.406250, 90387.257813, 121688.750000, 0.000, 0.000, 0.000,0.0,0.0,0.0,0.0,0.0, 15:31:18.966
68465.695313, 58637.699219, 114322.554688, 96715.078125, 125118.179688, 100106.218750, 90415.304688, 121706.164063, 0.202, 0.224, 0.954,0.0,0.0,0.0,0.0,0.0, 15:31:18.967
68322.507813, 58495.207031, 114471.906250, 97004.531250, 124973.335938, 100118.578125, 90550.218750, 121579.648438, 0.000, 0.000, 0.000,0.0,0.0,0.0,0.0,0.0, 15:31:18.967
68309.789063, 58486.488281, 114509.570313, 96981.000000, 124950.625000, 100013.125000, 90539.515625, 121548.960938, 0.000, 0.000, 0.000,0.0,0.0,0.0,0.0,0.0, 15:31:18.967
68455.140625, 58632.019531, 114350.000000, 96681.171875, 125102.304688, 99987.421875, 90397.851563, 121680.609375, 0.000, 0.000, 0.000,0.0,0.0,0.0,0.0,0.0, 15:31:18.968
68484.601563, 58661.324219, 114292.421875, 96668.632813, 125146.968750, 100099.867188, 90393.382813, 121735.398438, 0.000, 0.000, 0.000,0.0,0.0,0.0,0.0,0.0, 15:31:18.968
68347.695313, 58521.761719, 114435.562500, 96961.351563, 125004.140625, 100135.679688, 90530.640625, 121608.015625, 0.000, 0.000, 0.000,0.0,0.0,0.0,0.0,0.0, 15:31:18.968
68298.125000, 58469.902344, 114521.640625, 97018.726563, 124940.859375, 100034.554688, 90559.585938, 121542.390625, 0.000, 0.000, 0.000,0.0,0.0,0.0,0.0,0.0, 15:31:18.969
68428.789063, 58602.046875, 114388.757813, 96732.914063, 125074.523438, 99978.390625, 90422.929688, 121655.828125, 0.000, 0.000, 0.000,0.0,0.0,0.0,0.0,0.0, 15:31:18.969
68491.976563, 58667.156250, 114294.679688, 96636.890625, 125152.375000, 100066.679688, 90372.750000, 121728.710938, 0.000, 0.000, 0.000,0.0,0.0,0.0,0.0,0.0, 15:31:18.969
68369.757813, 58542.210938, 114410.554688, 96907.523438, 125028.570313, 100127.203125, 90501.789063, 121622.406250, 0.000, 0.000, 0.000,0.0,0.0,0.0,0.0,0.8218269, 15:31:18.969
68288.468750, 58461.410156, 114524.765625, 97038.867188, 124936.593750, 100051.945313, 90571.429688, 121538.164063, 0.200, 0.222, 0.944,0.0,0.0,0.0,0.0,0.8218269, 15:31:18.970
68395.554688, 58570.195313, 114419.156250, 96785.664063, 125051.546875, 99981.851563, 90461.976563, 121632.468750, 0.000, 0.000, 0.000,0.0,0.0,0.0,0.0,0.8218269, 15:31:18.970
68486.593750, 58664.339844, 114296.109375, 96621.539063, 125162.968750, 100048.820313, 90381.820313, 121738.015625, 0.000, 0.000, 0.000,0.0,0.0,0.0,0.0,0.8218269, 15:31:18.971
68391.218750, 58566.171875, 114379.390625, 96857.390625, 125065.179688, 100130.851563, 90495.773438, 121662.265625, 0.000, 0.000, 0.000,0.0,0.0,0.0,0.0,0.8218269, 15:31:18.971
68284.890625, 58456.804688, 114516.273438, 97051.250000, 124946.359375, 100074.476563, 90591.929688, 121550.234375, 0.000, 0.000, 0.000,0.0,0.0,0.0,0.0,0.8218269, 15:31:18.971
68361.531250, 58534.902344, 114451.789063, 96849.703125, 125025.218750, 99985.968750, 90502.164063, 121610.406250, 0.000, 0.000, 0.000,0.0,0.0,0.0,0.0,0.8218269, 15:31:18.971
68484.625000, 58661.234375, 114302.187500, 96623.460938, 125156.820313, 100030.625000, 90381.820313, 121730.859375, 0.000, 0.000, 0.000,0.0,0.0,0.0,0.0,0.8218269, 15:31:18.972
68424.812500, 58597.511719, 114343.273438, 96807.390625, 125100.562500, 100137.601563, 90468.210938, 121691.320313, 0.000, 0.000, 0.000,0.0,0.0,0.0,0.0,0.8218269, 15:31:18.972
68293.898438, 58464.250000, 114499.828125, 97054.625000, 124957.531250, 100105.546875, 90587.187500, 121563.843750, 0.000, 0.000, 0.000,0.0,0.0,0.0,0.0,0.8218269, 15:31:18.972
68344.125000, 58519.011719, 114468.843750, 96905.406250, 124997.414063, 100000.921875, 90516.757813, 121589.484375, 0.000, 0.000, 0.000,0.0,0.0,0.0,0.0,0.8218269, 15:31:18.973
68481.046875, 58654.441406, 114314.039063, 96634.273438, 125143.007813, 100011.515625, 90382.117188, 121719.281250, 0.200, 0.226, 0.938,0.0,0.0,0.0,0.0,0.8218269, 15:31:18.973
68445.781250, 58616.488281, 114324.742188, 96749.726563, 125113.125000, 100120.031250, 90438.304688, 121706.921875, 0.000, 0.000, 0.000,0.0,0.0,0.0,0.0,0.8218269, 15:31:18.973
68302.125000, 58479.671875, 114476.062500, 97022.210938, 124959.523438, 100116.234375, 90560.859375, 121576.585938, 0.000, 0.000, 0.000,0.0,0.0,0.0,0.0,0.8218269, 15:31:18.974
68316.406250, 58493.976563, 114486.007813, 96944.273438, 124965.601563, 100010.640625, 90526.414063, 121571.359375, 0.000, 0.000, 0.000,0.0,0.0,0.0,0.0,0.8218269, 15:31:18.974
68462.632813, 58636.847656, 114326.289063, 96651.601563, 125112.703125, 99997.164063, 90383.390625, 121705.218750, 0.000, 0.000, 0.000,0.0,0.0,0.0,0.0,0.8218269, 15:31:18.974
68468.109375, 58644.917969, 114285.515625, 96692.343750, 125132.953125, 100114.171875, 90397.312500, 121733.429688, 0.000, 0.000, 0.000,0.0,0.0,0.0,0.0,0.8218269, 15:31:18.975
68326.820313, 58505.175781, 114427.781250, 96984.125000, 124996.289063, 100142.585938, 90537.726563, 121612.531250, 0.000, 0.000, 0.000,0.0,0.0,0.0,0.0,0.8218269, 15:31:18.975
68296.242188, 58472.140625, 114499.867188, 96991.304688, 124953.218750, 100032.414063, 90547.453125, 121561.367188, 0.000, 0.000, 0.000,0.0,0.0,0.0,0.0,0.8218269, 15:31:18.975
68432.117188, 58607.078125, 114363.632813, 96698.023438, 125089.656250, 99985.140625, 90407.929688, 121677.351563, 0.000, 0.000, 0.000,0.0,0.0,0.0,0.0,0.8218269, 15:31:18.976
68473.937500, 58647.421875, 114293.429688, 96660.156250, 125147.570313, 100087.843750, 90388.617188, 121738.187500, 0.204, 0.224, 0.942,0.0,0.0,0.0,0.0,0.8218269, 15:31:18.976
68344.367188, 58514.406250, 114427.609375, 96948.250000, 125010.617188, 100136.054688, 90521.164063, 121623.906250, 0.000, 0.000, 0.000,0.0,0.0,0.0,0.0,0.8218269, 15:31:18.976
68288.937500, 58459.667969, 114513.929688, 97022.015625, 124941.531250, 100043.054688, 90560.437500, 121549.406250, 0.000, 0.000, 0.000,0.0,0.0,0.0,0.0,0.8218269, 15:31:18.976
68412.851563, 58587.382813, 114388.914063, 96745.476563, 125065.960938, 99983.242188, 90433.007813, 121654.039063, 0.000, 0.000, 0.000,0.0,0.0,0.0,0.0,0.8218269, 15:31:18.976
68498.015625, 58670.062500, 114279.859375, 96631.210938, 125164.335938, 100071.148438, 90375.609375, 121745.789063, 0.000, 0.000, 0.000,0.0,0.0,0.0,0.0,0.8218269, 15:31:18.977
68383.843750, 58557.546875, 114380.601563, 96894.492188, 125047.656250, 100143.921875, 90498.429688, 121653.609375, 0.000, 0.000, 0.000,0.0,0.0,0.0,0.0,0.8218269, 15:31:18.977
68287.906250, 58466.214844, 114506.953125, 97045.703125, 124937.304688, 100069.289063, 90572.687500, 121555.687500, 0.000, 0.000, 0.000,0.0,0.0,0.0,0.0,0.8218269, 15:31:18.977
68379.773438, 58560.250000, 114429.953125, 96808.843750, 125030.132813, 99978.835938, 90463.742188, 121619.992188, 0.000, 0.000, 0.000,0.0,0.0,0.0,0.0,0.8218269, 15:31:18.977
68485.250000, 58668.855469, 114299.242188, 96624.218750, 125150.187500, 100042.468750, 90372.367188, 121732.046875, 0.000, 0.000, 0.000,0.0,0.0,0.0,0.0,0.8218269, 15:31:18.977
68396.562500, 58573.792969, 114382.835938, 96848.476563, 125059.726563, 100128.812500, 90472.976563, 121659.734375, 0.000, 0.000, 0.000,0.0,0.0,0.0,0.0,0.8218269, 15:31:18.978
68287.281250, 58464.023438, 114520.609375, 97055.335938, 124944.210938, 100081.968750, 90579.789063, 121551.421875, 0.200, 0.228, 0.946,0.0,0.0,0.0,0.0,0.8218269, 15:31:18.978
68359.500000, 58536.289063, 114457.375000, 96864.320313, 125014.640625, 99992.468750, 90496.468750, 121607.296875, 0.000, 0.000, 0.000,0.0,0.0,0.0,0.0,0.8218269, 15:31:18.978
68494.054688, 58667.316406, 114299.421875, 96621.648438, 125152.375000, 100030.734375, 90373.843750, 121736.695313, 0.000, 0.000, 0.000,0.0,0.0,0.0,0.0,0.8218269, 15:31:18.978
68434.781250, 58610.585938, 114330.421875, 96788.390625, 125101.390625, 100136.726563, 90451.429688, 121702.765625, 0.000, 0.000, 0.000,0.0,0.0,0.0,0.0,0.8218269, 15:31:18.978
68297.539063, 58473.750000, 114493.164063, 97048.585938, 124957.289063, 100107.960938, 90577.781250, 121567.445313, 0.000, 0.000, 0.000,0.0,0.0,0.0,0.0,0.8218269, 15:31:18.979
68335.093750, 58512.996094, 114476.664063, 96925.656250, 124995.507813, 100004.179688, 90527.023438, 121588.609375, 0.000, 0.000, 0.000,0.0,0.0,0.0,0.0,0.8218269, 15:31:18.979
68481.789063, 58658.777344, 114313.679688, 96649.875000, 125149.671875, 100011.156250, 90389.179688, 121726.726563, 0.000, 0.000, 0.000,0.0,0.0,0.0,0.0,0.8218269, 15:31:18.979
68455.476563, 58629.382813, 114321.773438, 96749.921875, 125127.742188, 100120.570313, 90432.632813, 121720.484375, 0.000, 0.000, 0.000,0.0,0.0,0.0,0.0,0.8218269, 15:31:18.979
68311.937500, 58490.488281, 114478.007813, 97030.062500, 124977.359375, 100122.335938, 90566.828125, 121589.484375, 0.000, 0.000, 0.000,0.0,0.0,0.0,0.0,0.8218269, 15:31:18.980
68315.554688, 58493.976563, 114502.195313, 96975.210938, 124974.164063, 100017.343750, 90548.390625, 121568.851563, 0.206, 0.226, 0.946,0.0,0.0,0.0,0.0,0.8218269, 15:31:18.980
68455.945313, 58636.312500, 114350.718750, 96679.765625, 125121.414063, 99992.070313, 90407.687500, 121694.226563, 0.000, 0.000, 0.000,0.0,0.0,0.0,0.0,0.8218269, 15:31:18.980
68473.312500, 58651.667969, 114297.343750, 96694.875000, 125146.382813, 100104.656250, 90405.718750, 121736.156250, 0.000, 0.000, 0.000,0.0,0.0,0.0,0.0,0.8218269, 15:31:18.981
68333.820313, 58508.171875, 114449.710938, 96989.046875, 125001.343750, 100132.953125, 90546.531250, 121611.812500, 0.000, 0.000, 0.000,0.0,0.0,0.0,0.0,0.8218269, 15:31:18.981
68299.265625, 58474.886719, 114521.640625, 97013.921875, 124952.195313, 100034.937500, 90559.164063, 121561.765625, 0.000, 0.000, 0.000,0.0,0.0,0.0,0.0,0.8218269, 15:31:18.982
68427.609375, 58606.046875, 114380.937500, 96719.617188, 125089.726563, 99980.507813, 90417.515625, 121667.406250, 0.000, 0.000, 0.000,0.0,0.0,0.0,0.0,0.8218269, 15:31:18.982
68491.421875, 58668.296875, 114283.101563, 96650.679688, 125160.015625, 100080.203125, 90381.242188, 121744.117188, 0.000, 0.000, 0.000,0.0,0.0,0.0,0.0,0.8218269, 15:31:18.982
68370.921875, 58546.234375, 114395.171875, 96929.476563, 125039.546875, 100142.312500, 90513.898438, 121644.226563, 0.000, 0.000, 0.000,0.0,0.0,0.0,0.0,0.8218269, 15:31:18.983
68291.640625, 58473.101563, 114501.367188, 97030.843750, 124954.273438, 100057.000000, 90565.843750, 121557.500000, 0.000, 0.000, 0.000,0.0,0.0,0.0,0.0,0.8218269, 15:31:18.983
68395.375000, 58579.562500, 114403.937500, 96770.242188, 125064.195313, 99984.710938, 90443.468750, 121645.523438, 0.000, 0.000, 0.000,0.0,0.0,0.0,0.0,0.8218269, 15:31:18.983
68484.867188, 58664.968750, 114295.843750, 96629.898438, 125158.789063, 100058.343750, 90369.578125, 121741.585938, 0.202, 0.228, 0.942,0.0,0.0,0.0,0.0,0.8218269, 15:31:18.983
68390.187500, 58561.746094, 114380.421875, 96876.187500, 125059.007813, 100140.460938, 90486.609375, 121663.382813, 0.000, 0.000, 0.000,0.0,0.0,0.0,0.0,0.8218269, 15:31:18.984
68292.867188, 58463.085938, 114508.164063, 97040.343750, 124952.976563, 100073.023438, 90575.945313, 121553.273438, 0.000, 0.000, 0.000,0.0,0.0,0.0,0.0,0.8218269, 15:31:18.984
68383.234375, 58554.460938, 114424.882813, 96815.906250, 125045.179688, 99989.679688, 90475.679688, 121628.195313, 0.000, 0.000, 0.000,0.0,0.0,0.0,0.0,0.8218269, 15:31:18.984
68503.625000, 58674.601563, 114274.343750, 96614.429688, 125172.937500, 100049.507813, 90372.257813, 121758.687500, 0.000, 0.000, 0.000,0.0,0.0,0.0,0.0,0.8218269, 15:31:18.984
68423.804688, 58592.347656, 114334.601563, 96821.515625, 125095.179688, 100144.281250, 90464.031250, 121693.171875, 0.000, 0.000, 0.000,0.0,0.0,0.0,0.0,0.8218269, 15:31:18.985
68291.531250, 58461.656250, 114489.273438, 97045.820313, 124960.734375, 100093.898438, 90574.000000, 121559.421875, 0.000, 0.000, 0.000,0.0,0.0,0.0,0.0,0.8218269, 15:31:18.985
68351.656250, 58525.804688, 114452.796875, 96878.625000, 125007.023438, 99989.945313, 90499.687500, 121593.171875, 0.000, 0.000, 0.000,0.0,0.0,0.0,0.0,0.8218269, 15:31:18.985
68495.625000, 58672.789063, 114293.179688, 96623.992188, 125153.226563, 100018.039063, 90374.046875, 121725.984375, 0.000, 0.000, 0.000,0.0,0.0,0.0,0.0,0.8218269, 15:31:18.985
68456.593750, 58629.003906, 114321.234375, 96770.664063, 125116.882813, 100131.500000, 90448.609375, 121706.164063, 0.200, 0.226, 0.948,0.0,0.0,0.0,0.0,0.8218269, 15:31:18.986
68323.875000, 58497.753906, 114477.046875, 97035.648438, 124971.664063, 100114.484375, 90573.375000, 121575.468750, 0.000, 0.000, 0.000,0.0,0.0,0.0,0.0,0.8218269, 15:31:18.987
68351.875000, 58527.636719, 114480.734375, 96935.687500, 124991.304688, 100005.632813, 90526.062500, 121576.859375, 0.000, 0.000, 0.000,0.0,0.0,0.0,0.0,0.8218269, 15:31:18.987
68487.351563, 58664.140625, 114338.312500, 96654.101563, 125139.679688, 100000.070313, 90393.445313, 121710.945313, 0.000, 0.000, 0.000,0.0,0.0,0.0,0.0,0.8218269, 15:31:18.987
68482.500000, 58655.937500, 114315.023438, 96717.359375, 125140.390625, 100113.328125, 90424.429688, 121721.765625, 0.000, 0.000, 0.000,0.0,0.0,0.0,0.0,0.8218269, 15:31:18.987
68339.898438, 58512.371094, 114465.445313, 97003.257813, 124992.539063, 100121.375000, 90557.890625, 121588.570313, 0.000, 0.000, 0.000,0.0,0.0,0.0,0.0,0.8218269, 15:31:18.988
68324.007813, 58501.015625, 114501.679688, 96973.617188, 124976.023438, 100017.796875, 90550.843750, 121563.781250, 0.000, 0.000, 0.000,0.02372134,0.033552583,0.029543078,0.08801906,0.03626268, 15:31:19.435
68456.281250, 58637.363281, 114355.187500, 96675.406250, 125110.820313, 99981.312500, 90404.507813, 121684.546875, 0.000, 0.000, 0.000,0.02372134,0.033552583,0.029543078,0.08801906,0.03626268, 15:31:19.435
68486.812500, 58670.710938, 114285.851563, 96662.218750, 125154.210938, 100093.250000, 90395.187500, 121736.492188, 0.000, 0.000, 0.000,0.02372134,0.033552583,0.029543078,0.08801906,0.03626268, 15:31:19.436
68359.367188, 58539.664063, 114411.554688, 96953.750000, 125021.906250, 100136.367188, 90534.085938, 121622.210938, 0.000, 0.000, 0.000,0.02372134,0.033552583,0.029543078,0.08801906,0.03626268, 15:31:19.436
68314.281250, 58492.343750, 114489.031250, 97005.046875, 124960.148438, 100041.398438, 90562.156250, 121560.648438, 0.204, 0.230, 0.944,0.02372134,0.033552583,0.029543078,0.08801906,0.03626268, 15:31:19.436
68444.929688, 58626.679688, 114354.312500, 96722.273438, 125089.320313, 99989.117188, 90424.804688, 121672.835938, 0.000, 0.000, 0.000,0.02372134,0.033552583,0.029543078,0.08801906,0.03626268, 15:31:19.437
68507.156250, 58690.492188, 114261.843750, 96643.281250, 125168.000000, 100083.867188, 90385.375000, 121750.664063, 0.000, 0.000, 0.000,0.02372134,0.033552583,0.029543078,0.08801906,0.03626268, 15:31:19.437
68384.132813, 58567.625000, 114375.054688, 96917.070313, 125044.859375, 100145.335938, 90517.117188, 121648.898438, 0.000, 0.000, 0.000,0.02372134,0.033552583,0.029543078,0.08801906,0.03626268, 15:31:19.438
68305.875000, 58487.875000, 114484.062500, 97036.968750, 124957.445313, 100066.140625, 90584.734375, 121561.500000, 0.000, 0.000, 0.000,0.02372134,0.033552583,0.029543078,0.08801906,0.03626268, 15:31:19.438
68412.296875, 58593.015625, 114382.679688, 96780.789063, 125065.406250, 99990.460938, 90468.546875, 121646.234375, 0.000, 0.000, 0.000,0.02372134,0.033552583,0.029543078,0.08801906,0.03626268, 15:31:19.438
68514.484375, 58695.632813, 114248.835938, 96619.414063, 125179.484375, 100063.929688, 90386.515625, 121755.851563, 0.000, 0.000, 0.000,0.02372134,0.033552583,0.029543078,0.08801906,0.03626268, 15:31:19.439
68413.054688, 58593.597656, 114345.710938, 96866.398438, 125079.460938, 100147.031250, 90500.781250, 121672.406250, 0.000, 0.000, 0.000,0.02372134,0.033552583,0.029543078,0.08801906,0.03626268, 15:31:19.439
68304.671875, 58487.339844, 114484.203125, 97053.687500, 124960.867188, 100088.312500, 90593.382813, 121562.148438, 0.000, 0.000, 0.000,0.02372134,0.033552583,0.029543078,0.08801906,0.03626268, 15:31:19.439
68383.617188, 58568.250000, 114415.578125, 96845.187500, 125038.960938, 99998.843750, 90497.937500, 121622.695313, 0.000, 0.000, 0.000,0.02372134,0.033552583,0.029543078,0.08801906,0.03626268, 15:31:19.440
68504.453125, 58693.710938, 114261.625000, 96622.835938, 125181.406250, 100048.015625, 90389.734375, 121751.984375, 0.202, 0.232, 0.942,0.02372134,0.033552583,0.029543078,0.08801906,0.03626268, 15:31:19.440
68428.742188, 58616.308594, 114320.656250, 96813.109375, 125105.367188, 100141.085938, 90477.132813, 121695.546875, 0.000, 0.000, 0.000,0.02372134,0.033552583,0.029543078,0.08801906,0.03626268, 15:31:19.440
68307.554688, 58495.070313, 114467.390625, 97046.820313, 124975.390625, 100110.531250, 90589.601563, 121579.914063, 0.000, 0.000, 0.000,0.02372134,0.033552583,0.029543078,0.08801906,0.03626268, 15:31:19.440
68363.078125, 58549.789063, 114434.890625, 96898.140625, 125025.304688, 100014.460938, 90521.429688, 121612.398438, 0.000, 0.000, 0.000,0.02372134,0.033552583,0.029543078,0.08801906,0.03626268, 15:31:19.441
68500.453125, 58685.308594, 114276.507813, 96633.382813, 125174.367188, 100029.750000, 90389.867188, 121739.460938, 0.000, 0.000, 0.000,0.02372134,0.033552583,0.029543078,0.08801906,0.03626268, 15:31:19.441
68458.023438, 58639.644531, 114301.296875, 96761.414063, 125133.976563, 100135.921875, 90442.531250, 121719.484375, 0.000, 0.000, 0.000,0.02372134,0.033552583,0.029543078,0.08801906,0.03626268, 15:31:19.441
68320.984375, 58505.128906, 114454.695313, 97033.546875, 124989.476563, 100124.773438, 90569.804688, 121592.187500, 0.000, 0.000, 0.000,0.02372134,0.033552583,0.029543078,0.08801906,0.03626268, 15:31:19.442
68336.742188, 58520.910156, 114471.953125, 96958.531250, 124999.085938, 100021.664063, 90541.210938, 121590.000000, 0.000, 0.000, 0.000,0.02372134,0.033552583,0.029543078,0.08801906,0.03626268, 15:31:19.442
68473.742188, 58660.832031, 114317.414063, 96665.367188, 125141.398438, 100010.171875, 90396.398438, 121718.453125, 0.000, 0.000, 0.000,0.02372134,0.033552583,0.029543078,0.08801906,0.03626268, 15:31:19.443
68472.804688, 58659.601563, 114283.546875, 96709.046875, 125151.343750, 100123.203125, 90414.632813, 121741.117188, 0.206, 0.240, 0.942,0.02372134,0.033552583,0.029543078,0.08801906,0.03626268, 15:31:19.443
68334.218750, 58513.578125, 114445.820313, 97000.421875, 124999.914063, 100134.265625, 90553.820313, 121611.031250, 0.000, 0.000, 0.000,0.02372134,0.033552583,0.029543078,0.08801906,0.03626268, 15:31:19.443
68315.960938, 58493.507813, 114496.960938, 96990.046875, 124973.312500, 100028.726563, 90554.492188, 121572.968750, 0.000, 0.000, 0.000,0.02372134,0.033552583,0.029543078,0.08801906,0.03626268, 15:31:19.443
68458.273438, 58639.218750, 114339.093750, 96692.656250, 125125.375000, 100000.273438, 90417.515625, 121703.320313, 0.000, 0.000, 0.000,0.02372134,0.033552583,0.029543078,0.08801906,0.03626268, 15:31:19.444
68499.468750, 58680.992188, 114271.750000, 96663.851563, 125177.031250, 100110.328125, 90406.117188, 121763.046875, 0.000, 0.000, 0.000,0.02372134,0.033552583,0.029543078,0.08801906,0.03626268, 15:31:19.444
68372.601563, 58551.355469, 114394.320313, 96945.906250, 125036.906250, 100149.867188, 90533.164063, 121642.679688, 0.000, 0.000, 0.000,0.02372134,0.033552583,0.029543078,0.08801906,0.03626268, 15:31:19.444
68313.164063, 58494.199219, 114483.843750, 97021.406250, 124968.914063, 100053.335938, 90574.406250, 121568.320313, 0.000, 0.000, 0.000,0.02372134,0.033552583,0.029543078,0.08801906,0.03626268, 15:31:19.445
68432.835938, 58613.113281, 114370.046875, 96750.867188, 125087.398438, 99988.109375, 90446.242188, 121664.632813, 0.000, 0.000, 0.000,0.02372134,0.033552583,0.029543078,0.08801906,0.03626268, 15:31:19.445
68509.210938, 58691.343750, 114270.320313, 96642.992188, 125176.625000, 100072.601563, 90390.585938, 121749.257813, 0.000, 0.000, 0.000,0.02372134,0.033552583,0.029543078,0.08801906,0.03626268, 15:31:19.445
68392.398438, 58573.078125, 114376.976563, 96909.070313, 125060.015625, 100137.312500, 90510.617188, 121647.015625, 0.000, 0.000, 0.000,0.02372134,0.033552583,0.029543078,0.08801906,0.03626268, 15:31:19.446
68312.781250, 58489.683594, 114495.289063, 97051.921875, 124963.054688, 100061.421875, 90579.570313, 121551.664063, 0.210, 0.238, 0.944,0.02372134,0.033552583,0.029543078,0.08801906,0.03626268, 15:31:19.446
68418.218750, 58595.675781, 114390.992188, 96807.414063, 125070.992188, 99987.062500, 90468.773438, 121639.796875, 0.000, 0.000, 0.000,0.02372134,0.033552583,0.029543078,0.08801906,0.03626268, 15:31:19.446
68518.757813, 58697.710938, 114260.414063, 96631.304688, 125186.375000, 100050.562500, 90379.742188, 121744.492188, 0.000, 0.000, 0.000,0.02372134,0.033552583,0.029543078,0.08801906,0.03626268, 15:31:19.446
68425.679688, 58601.152344, 114342.937500, 96855.695313, 125088.023438, 100136.054688, 90483.945313, 121671.671875, 0.000, 0.000, 0.000,0.02372134,0.033552583,0.029543078,0.08801906,0.03626268, 15:31:19.446
68305.718750, 58481.906250, 114482.835938, 97055.226563, 124961.468750, 100084.914063, 90582.500000, 121557.367188, 0.000, 0.000, 0.000,0.02372134,0.033552583,0.029543078,0.08801906,0.03626268, 15:31:19.447
68369.203125, 58551.531250, 114437.398438, 96864.500000, 125026.734375, 99984.531250, 90494.007813, 121603.054688, 0.000, 0.000, 0.000,0.02372134,0.033552583,0.029543078,0.08801906,0.03626268, 15:31:19.447
68508.812500, 58693.554688, 114266.718750, 96617.492188, 125171.171875, 100026.265625, 90367.476563, 121739.781250, 0.000, 0.000, 0.000,0.02372134,0.033552583,0.029543078,0.08801906,0.03626268, 15:31:19.447
68452.328125, 58630.613281, 114300.851563, 96788.953125, 125117.554688, 100134.757813, 90448.390625, 121701.468750, 0.000, 0.000, 0.000,0.02372134,0.033552583,0.029543078,0.08801906,0.03626268, 15:31:19.447
68321.164063, 58495.652344, 114459.812500, 97039.226563, 124974.234375, 100106.734375, 90571.750000, 121574.304688, 0.000, 0.000, 0.000,0.02372134,0.033552583,0.029543078,0.08801906,0.03626268, 15:31:19.447
68361.062500, 58538.234375, 114444.367188, 96913.492188, 125007.421875, 100009.296875, 90517.429688, 121599.382813, 0.200, 0.238, 0.944,0.02372134,0.033552583,0.029543078,0.08801906,0.03626268, 15:31:19.448
68495.328125, 58676.097656, 114296.937500, 96646.679688, 125149.085938, 100015.226563, 90383.859375, 121725.960938, 0.000, 0.000, 0.000,0.02372134,0.033552583,0.029543078,0.08801906,0.03626268, 15:31:19.448
68468.148438, 58649.410156, 114294.726563, 96745.921875, 125131.164063, 100124.593750, 90430.437500, 121722.140625, 0.000, 0.000, 0.000,0.02372134,0.033552583,0.029543078,0.08801906,0.03626268, 15:31:19.448
68323.914063, 58507.140625, 114449.820313, 97025.210938, 124981.789063, 100121.929688, 90566.156250, 121592.992188, 0.000, 0.000, 0.000,0.02372134,0.033552583,0.029543078,0.08801906,0.03626268, 15:31:19.449
68328.562500, 58512.394531, 114474.296875, 96964.656250, 124970.679688, 100009.656250, 90536.476563, 121574.687500, 0.000, 0.000, 0.000,0.02372134,0.033552583,0.029543078,0.08801906,0.03626268, 15:31:19.449
68476.085938, 58662.261719, 114311.757813, 96672.656250, 125122.203125, 99990.414063, 90392.265625, 121706.492188, 0.000, 0.000, 0.000,0.02372134,0.033552583,0.029543078,0.08801906,0.03626268, 15:31:19.449
68484.781250, 58672.968750, 114271.437500, 96701.242188, 125138.335938, 100100.140625, 90399.343750, 121733.898438, 0.000, 0.000, 0.000,0.02372134,0.033552583,0.029543078,0.08801906,0.03626268, 15:31:19.450
68346.734375, 58535.417969, 114406.148438, 96988.593750, 124998.078125, 100127.632813, 90532.140625, 121610.203125, 0.000, 0.000, 0.000,0.02372134,0.033552583,0.029543078,0.08801906,0.03626268, 15:31:19.450
68314.843750, 58502.785156, 114474.140625, 97011.929688, 124955.679688, 100029.328125, 90549.148438, 121566.929688, 0.000, 0.000, 0.000,0.02372134,0.033552583,0.029543078,0.08801906,0.03626268, 15:31:19.450
68450.226563, 58636.738281, 114339.828125, 96725.562500, 125093.750000, 99987.687500, 90416.312500, 121686.046875, 0.000, 0.000, 0.000,0.01988847,0.028270354,0.024215536,0.07266255,0.030780375, 15:31:19.451
68496.406250, 58679.519531, 114280.914063, 96678.171875, 125140.687500, 100078.054688, 90391.835938, 121733.453125, 0.196, 0.238, 0.948,0.01988847,0.028270354,0.024215536,0.07266255,0.030780375, 15:31:19.451
68378.875000, 58559.398438, 114387.257813, 96948.921875, 125018.531250, 100134.421875, 90513.992188, 121631.750000, 0.000, 0.000, 0.000,0.01988847,0.028270354,0.024215536,0.07266255,0.030780375, 15:31:19.452
68317.031250, 58495.093750, 114479.953125, 97040.679688, 124944.328125, 100049.625000, 90559.812500, 121554.640625, 0.000, 0.000, 0.000,0.01988847,0.028270354,0.024215536,0.07266255,0.030780375, 15:31:19.452
68429.125000, 58610.117188, 114374.007813, 96775.140625, 125059.125000, 99986.296875, 90440.007813, 121655.398438, 0.000, 0.000, 0.000,0.01988847,0.028270354,0.024215536,0.07266255,0.030780375, 15:31:19.453
68508.789063, 58695.812500, 114262.671875, 96645.835938, 125156.554688, 100074.523438, 90376.570313, 121755.156250, 0.000, 0.000, 0.000,0.01988847,0.028270354,0.024215536,0.07266255,0.030780375, 15:31:19.453
68401.296875, 58586.468750, 114357.867188, 96898.140625, 125046.671875, 100144.257813, 90492.578125, 121656.671875, 0.000, 0.000, 0.000,0.01988847,0.028270354,0.024215536,0.07266255,0.030780375, 15:31:19.453
68317.437500, 58500.792969, 114467.820313, 97053.726563, 124952.304688, 100079.929688, 90575.882813, 121566.843750, 0.000, 0.000, 0.000,0.01988847,0.028270354,0.024215536,0.07266255,0.030780375, 15:31:19.453
68410.218750, 58589.105469, 114395.773438, 96833.835938, 125046.585938, 99999.507813, 90482.335938, 121640.226563, 0.000, 0.000, 0.000,0.01988847,0.028270354,0.024215536,0.07266255,0.030780375, 15:31:19.453
68521.257813, 58699.746094, 114269.601563, 96640.804688, 125168.914063, 100053.375000, 90385.648438, 121753.007813, 0.000, 0.000, 0.000,0.01988847,0.028270354,0.024215536,0.07266255,0.030780375, 15:31:19.454
68431.945313, 58613.113281, 114334.289063, 96845.992188, 125071.929688, 100139.078125, 90471.164063, 121680.921875, 0.198, 0.230, 0.946,0.01988847,0.028270354,0.024215536,0.07266255,0.030780375, 15:31:19.454
68307.625000, 58492.097656, 114486.929688, 97065.734375, 124938.695313, 100089.343750, 90578.140625, 121556.757813, 0.000, 0.000, 0.000,0.01988847,0.028270354,0.024215536,0.07266255,0.030780375, 15:31:19.454
68379.593750, 58561.656250, 114430.648438, 96886.359375, 125005.859375, 99997.140625, 90499.687500, 121608.546875, 0.000, 0.000, 0.000,0.01988847,0.028270354,0.024215536,0.07266255,0.030780375, 15:31:19.455
68513.257813, 58697.421875, 114267.945313, 96638.992188, 125156.375000, 100034.335938, 90379.585938, 121746.351563, 0.000, 0.000, 0.000,0.01988847,0.028270354,0.024215536,0.07266255,0.030780375, 15:31:19.455
68460.953125, 58644.828125, 114294.726563, 96790.984375, 125105.929688, 100141.578125, 90448.703125, 121715.187500, 0.000, 0.000, 0.000,0.01988847,0.028270354,0.024215536,0.07266255,0.030780375, 15:31:19.455
68324.226563, 58503.968750, 114459.882813, 97053.843750, 124952.195313, 100114.507813, 90570.312500, 121577.773438, 0.000, 0.000, 0.000,0.01988847,0.028270354,0.024215536,0.07266255,0.030780375, 15:31:19.455
68357.242188, 58540.781250, 114439.562500, 96935.757813, 124983.750000, 100009.812500, 90519.312500, 121591.515625, 0.000, 0.000, 0.000,0.01988847,0.028270354,0.024215536,0.07266255,0.030780375, 15:31:19.456
68494.234375, 58678.492188, 114282.632813, 96658.125000, 125134.132813, 100007.828125, 90385.804688, 121721.312500, 0.000, 0.000, 0.000,0.01988847,0.028270354,0.024215536,0.07266255,0.030780375, 15:31:19.457
68477.585938, 58657.613281, 114280.710938, 96743.195313, 125121.593750, 100115.445313, 90422.992188, 121725.742188, 0.000, 0.000, 0.000,0.01988847,0.028270354,0.024215536,0.07266255,0.030780375, 15:31:19.457
68338.710938, 58516.351563, 114440.812500, 97027.648438, 124970.632813, 100118.914063, 90555.789063, 121592.546875, 0.000, 0.000, 0.000,0.01988847,0.028270354,0.024215536,0.07266255,0.030780375, 15:31:19.457
68342.335938, 58518.027344, 114467.125000, 96985.023438, 124961.179688, 100016.250000, 90540.742188, 121570.109375, 0.200, 0.226, 0.942,0.01988847,0.028270354,0.024215536,0.07266255,0.030780375, 15:31:19.457
68479.195313, 58660.250000, 114317.679688, 96696.414063, 125106.820313, 99995.242188, 90401.289063, 121694.226563, 0.000, 0.000, 0.000,0.01988847,0.028270354,0.024215536,0.07266255,0.030780375, 15:31:19.457
68496.695313, 58682.535156, 114270.070313, 96702.851563, 125136.843750, 100101.906250, 90400.781250, 121732.710938, 0.000, 0.000, 0.000,0.01988847,0.028270354,0.024215536,0.07266255,0.030780375, 15:31:19.457
68364.460938, 58548.648438, 114405.500000, 96988.328125, 124998.460938, 100136.351563, 90538.132813, 121616.734375, 0.000, 0.000, 0.000,0.01988847,0.028270354,0.024215536,0.07266255,0.030780375, 15:31:19.458
68320.429688, 58504.839844, 114484.000000, 97028.804688, 124945.328125, 100035.140625, 90563.898438, 121556.179688, 0.000, 0.000, 0.000,0.01988847,0.028270354,0.024215536,0.07266255,0.030780375, 15:31:19.458
68448.570313, 58635.910156, 114353.914063, 96743.242188, 125073.359375, 99982.054688, 90425.968750, 121670.687500, 0.000, 0.000, 0.000,0.01988847,0.028270354,0.024215536,0.07266255,0.030780375, 15:31:19.458
68513.281250, 58699.457031, 114262.359375, 96667.695313, 125154.054688, 100081.359375, 90390.812500, 121748.468750, 0.000, 0.000, 0.000,0.01988847,0.028270354,0.024215536,0.07266255,0.030780375, 15:31:19.458
68393.921875, 58578.980469, 114375.148438, 96939.671875, 125031.812500, 100142.046875, 90516.804688, 121637.984375, 0.000, 0.000, 0.000,0.01988847,0.028270354,0.024215536,0.07266255,0.030780375, 15:31:19.459
68320.765625, 58506.875000, 114476.242188, 97049.460938, 124941.304688, 100058.187500, 90570.179688, 121551.148438, 0.000, 0.000, 0.000,0.01988847,0.028270354,0.024215536,0.07266255,0.030780375, 15:31:19.459
68435.250000, 58622.609375, 114369.781250, 96789.351563, 125052.867188, 99989.226563, 90452.320313, 121644.578125, 0.000, 0.000, 0.000,0.01988847,0.028270354,0.024215536,0.07266255,0.030780375, 15:31:19.460
68528.367188, 58716.109375, 114252.656250, 96643.125000, 125163.257813, 100065.984375, 90380.148438, 121746.375000, 0.188, 0.228, 0.940,0.01988847,0.028270354,0.024215536,0.07266255,0.030780375, 15:31:19.460
68415.289063, 58604.593750, 114353.171875, 96889.195313, 125049.781250, 100137.398438, 90486.476563, 121651.468750, 0.000, 0.000, 0.000,0.01988847,0.028270354,0.024215536,0.07266255,0.030780375, 15:31:19.461
68316.898438, 58511.703125, 114478.921875, 97064.703125, 124943.812500, 100077.632813, 90573.828125, 121558.859375, 0.000, 0.000, 0.000,0.01988847,0.028270354,0.024215536,0.07266255,0.030780375, 15:31:19.461
68400.226563, 58594.359375, 114409.500000, 96852.093750, 125026.687500, 99990.500000, 90480.906250, 121623.281250, 0.000, 0.000, 0.000,0.01988847,0.028270354,0.024215536,0.07266255,0.030780375, 15:31:19.462
68519.250000, 58708.351563, 114280.148438, 96638.656250, 125151.812500, 100034.023438, 90372.031250, 121734.414063, 0.000, 0.000, 0.000,0.01988847,0.028270354,0.024215536,0.07266255,0.030780375, 15:31:19.462
68448.414063, 58633.429688, 114333.953125, 96825.898438, 125085.226563, 100135.070313, 90460.546875, 121689.578125, 0.000, 0.000, 0.000,0.01988847,0.028270354,0.024215536,0.07266255,0.030780375, 15:31:19.462
68320.765625, 58501.375000, 114489.226563, 97056.523438, 124948.328125, 100093.945313, 90575.281250, 121564.226563, 0.000, 0.000, 0.000,0.01988847,0.028270354,0.024215536,0.07266255,0.030780375, 15:31:19.463
68374.968750, 58557.230469, 114452.687500, 96898.515625, 124998.859375, 99988.109375, 90504.648438, 121591.718750, 0.000, 0.000, 0.000,0.01988847,0.028270354,0.024215536,0.07266255,0.030780375, 15:31:19.463
68511.468750, 58697.222656, 114292.671875, 96638.750000, 125145.421875, 100011.226563, 90376.953125, 121725.632813, 0.000, 0.000, 0.000,0.01988847,0.028270354,0.024215536,0.07266255,0.030780375, 15:31:19.463
68471.796875, 58657.503906, 114302.500000, 96773.906250, 125112.476563, 100124.414063, 90440.429688, 121709.539063, 0.196, 0.222, 0.942,0.01988847,0.028270354,0.024215536,0.07266255,0.030780375, 15:31:19.464
68337.328125, 58523.324219, 114449.398438, 97047.179688, 124971.750000, 100116.414063, 90572.078125, 121585.015625, 0.000, 0.000, 0.000,0.01988847,0.028270354,0.024215536,0.07266255,0.030780375, 15:31:19.464
68358.492188, 58541.339844, 114458.320313, 96960.101563, 124983.867188, 100012.476563, 90536.875000, 121585.664063, 0.000, 0.000, 0.000,0.01988847,0.028270354,0.024215536,0.07266255,0.030780375, 15:31:19.464
68504.632813, 58687.007813, 114292.195313, 96672.382813, 125139.476563, 100010.218750, 90399.101563, 121723.257813, 0.000, 0.000, 0.000,0.01988847,0.028270354,0.024215536,0.07266255,0.030780375, 15:31:19.464
68492.671875, 58677.214844, 114279.500000, 96736.804688, 125139.609375, 100121.281250, 90427.484375, 121736.179688, 0.000, 0.000, 0.000,0.01988847,0.028270354,0.024215536,0.07266255,0.030780375, 15:31:19.465
68353.757813, 58537.898438, 114426.648438, 97023.421875, 124999.468750, 100134.468750, 90567.453125, 121610.960938, 0.000, 0.000, 0.000,0.01988847,0.028270354,0.024215536,0.07266255,0.030780375, 15:31:19.465
68339.429688, 58524.664063, 114471.523438, 97005.609375, 124972.000000, 100032.007813, 90561.195313, 121576.945313, 0.000, 0.000, 0.000,0.01988847,0.028270354,0.024215536,0.07266255,0.030780375, 15:31:19.465
68479.953125, 58667.605469, 114329.367188, 96711.546875, 125116.656250, 99997.476563, 90421.093750, 121695.992188, 0.000, 0.000, 0.000,0.01988847,0.028270354,0.024215536,0.07266255,0.030780375, 15:31:19.465
68517.054688, 58705.335938, 114265.960938, 96690.671875, 125166.609375, 100105.617188, 90406.296875, 121750.906250, 0.000, 0.000, 0.000,0.01988847,0.028270354,0.024215536,0.07266255,0.030780375, 15:31:19.466
68380.398438, 58568.898438, 114402.687500, 96979.031250, 125025.304688, 100145.062500, 90536.656250, 121626.210938, 0.000, 0.000, 0.000,0.01988847,0.028270354,0.024215536,0.07266255,0.030780375, 15:31:19.466
68330.601563, 58517.984375, 114490.414063, 97040.343750, 124963.882813, 100048.039063, 90572.976563, 121558.054688, 0.192, 0.224, 0.938,0.01988847,0.028270354,0.024215536,0.07266255,0.030780375, 15:31:19.466
68465.312500, 58652.875000, 114360.773438, 96758.148438, 125090.687500, 99992.960938, 90444.859375, 121671.289063, 0.000, 0.000, 0.000,0.01988847,0.028270354,0.024215536,0.07266255,0.030780375, 15:31:19.467
68534.828125, 58723.328125, 114257.085938, 96657.812500, 125173.031250, 100084.984375, 90391.835938, 121755.914063, 0.000, 0.000, 0.000,0.01988847,0.028270354,0.024215536,0.07266255,0.030780375, 15:31:19.467
68417.210938, 58602.785156, 114370.609375, 96927.062500, 125048.531250, 100148.125000, 90512.539063, 121653.992188, 0.000, 0.000, 0.000,0.01988847,0.028270354,0.024215536,0.07266255,0.030780375, 15:31:19.467
68335.921875, 58519.257813, 114496.851563, 97062.539063, 124949.578125, 100071.640625, 90580.867188, 121563.398438, 0.000, 0.000, 0.000,0.01988847,0.028270354,0.024215536,0.07266255,0.030780375, 15:31:19.468
68439.343750, 58622.187500, 114409.992188, 96818.570313, 125055.593750, 99995.507813, 90471.812500, 121648.601563, 0.000, 0.000, 0.000,0.01988847,0.028270354,0.024215536,0.07266255,0.030780375, 15:31:19.468
68533.421875, 58720.019531, 114292.265625, 96649.562500, 125162.273438, 100055.546875, 90380.414063, 121744.492188, 0.000, 0.000, 0.000,0.01988847,0.028270354,0.024215536,0.07266255,0.030780375, 15:31:19.468
68452.148438, 58636.515625, 114355.367188, 96873.015625, 125079.484375, 100150.359375, 90480.414063, 121683.250000, 0.000, 0.000, 0.000,0.01988847,0.028270354,0.024215536,0.07266255,0.030780375, 15:31:19.469
68344.789063, 58524.734375, 114493.812500, 97071.898438, 124959.593750, 100097.921875, 90582.046875, 121574.914063, 0.000, 0.000, 0.000,0.01988847,0.028270354,0.024215536,0.07266255,0.030780375, 15:31:19.469
68414.062500, 58596.570313, 114436.593750, 96874.226563, 125034.890625, 100003.492188, 90496.554688, 121633.093750, 0.200, 0.224, 0.944,0.01988847,0.028270354,0.024215536,0.07266255,0.030780375, 15:31:19.469
68540.484375, 58724.535156, 114284.109375, 96645.273438, 125171.351563, 100042.265625, 90379.343750, 121754.617188, 0.000, 0.000, 0.000,0.01988847,0.028270354,0.024215536,0.07266255,0.030780375, 15:31:19.470
68478.234375, 58663.179688, 114314.304688, 96817.070313, 125107.875000, 100142.984375, 90454.109375, 121708.437500, 0.000, 0.000, 0.000,0.01988847,0.028270354,0.024215536,0.07266255,0.030780375, 15:31:19.470
68341.101563, 58525.960938, 114464.687500, 97062.757813, 124968.625000, 100115.765625, 90576.328125, 121583.781250, 0.000, 0.000, 0.000,0.01988847,0.028270354,0.024215536,0.07266255,0.030780375, 15:31:19.471
68370.500000, 58555.199219, 114460.734375, 96932.132813, 125001.500000, 100009.164063, 90519.843750, 121603.031250, 0.000, 0.000, 0.000,0.01988847,0.028270354,0.024215536,0.07266255,0.030780375, 15:31:19.471
68512.609375, 58697.578125, 114303.937500, 96661.343750, 125151.726563, 100017.929688, 90386.921875, 121735.437500, 0.000, 0.000, 0.000,0.01988847,0.028270354,0.024215536,0.07266255,0.030780375, 15:31:19.471
68487.421875, 58670.980469, 114300.203125, 96766.421875, 125133.484375, 100130.578125, 90438.281250, 121727.593750, 0.000, 0.000, 0.000,0.01988847,0.028270354,0.024215536,0.07266255,0.030780375, 15:31:19.471
68341.414063, 58524.332031, 114445.890625, 97040.367188, 124984.265625, 100127.992188, 90569.507813, 121595.812500, 0.000, 0.000, 0.000,0.01988847,0.028270354,0.024215536,0.07266255,0.030780375, 15:31:19.472
68350.109375, 58533.742188, 114458.671875, 96971.562500, 124986.187500, 100025.125000, 90544.054688, 121586.023438, 0.000, 0.000, 0.000,0.01988847,0.028270354,0.024215536,0.07266255,0.030780375, 15:31:19.472
68490.679688, 58677.058594, 114300.109375, 96682.398438, 125129.445313, 100007.335938, 90397.265625, 121716.062500, 0.000, 0.000, 0.000,0.01988847,0.028270354,0.024215536,0.07266255,0.030780375, 15:31:19.472
68496.070313, 58681.976563, 114265.109375, 96721.742188, 125144.304688, 100116.968750, 90405.781250, 121746.148438, 0.204, 0.216, 0.944,0.01988847,0.028270354,0.024215536,0.07266255,0.030780375, 15:31:19.473
68352.460938, 58537.921875, 114416.500000, 97011.171875, 124996.023438, 100137.289063, 90539.851563, 121613.734375, 0.000, 0.000, 0.000,0.01988847,0.028270354,0.024215536,0.07266255,0.030780375, 15:31:19.473
68329.367188, 58514.652344, 114459.414063, 97011.867188, 124964.773438, 100040.414063, 90544.187500, 121573.343750, 0.000, 0.000, 0.000,0.004064881,0.012198502,0.008870417,0.022647822,0.013202977, 15:31:19.913
68461.000000, 58645.343750, 114322.281250, 96723.351563, 125100.273438, 99995.976563, 90404.890625, 121686.781250, 0.000, 0.000, 0.000,0.004064881,0.012198502,0.008870417,0.022647822,0.013202977, 15:31:19.915
68505.078125, 58688.058594, 114248.164063, 96677.304688, 125154.320313, 100101.679688, 90379.031250, 121749.859375, 0.000, 0.000, 0.000,0.004064881,0.012198502,0.008870417,0.022647822,0.013202977, 15:31:19.916
68366.359375, 58552.316406, 114378.718750, 96958.914063, 125012.898438, 100150.226563, 90512.226563, 121640.781250, 0.000, 0.000, 0.000,0.004064881,0.012198502,0.008870417,0.022647822,0.013202977, 15:31:19.916
68306.343750, 58492.812500, 114462.273438, 97035.578125, 124945.148438, 100055.546875, 90555.828125, 121564.226563, 0.000, 0.000, 0.000,0.004064881,0.012198502,0.008870417,0.022647822,0.013202977, 15:31:19.916
68433.304688, 58621.761719, 114326.242188, 96756.765625, 125080.734375, 99992.984375, 90433.609375, 121672.898438, 0.000, 0.000, 0.000,0.004064881,0.012198502,0.008870417,0.022647822,0.013202977, 15:31:19.917
68513.054688, 58699.410156, 114221.609375, 96640.781250, 125175.578125, 100081.429688, 90377.375000, 121764.453125, 0.000, 0.000, 0.000,0.004064881,0.012198502,0.008870417,0.022647822,0.013202977, 15:31:19.917
68403.531250, 58586.804688, 114320.500000, 96895.296875, 125064.421875, 100152.109375, 90495.882813, 121671.625000, 0.200, 0.220, 0.950,0.004064881,0.012198502,0.008870417,0.022647822,0.013202977, 15:31:19.917
68315.468750, 58498.625000, 114435.695313, 97047.382813, 124967.054688, 100084.070313, 90571.570313, 121578.109375, 0.000, 0.000, 0.000,0.004064881,0.012198502,0.008870417,0.022647822,0.013202977, 15:31:19.917
68401.007813, 58585.664063, 114360.437500, 96817.406250, 125054.500000, 99997.921875, 90468.953125, 121646.593750, 0.000, 0.000, 0.000,0.004064881,0.012198502,0.008870417,0.022647822,0.013202977, 15:31:19.918
68513.484375, 58697.535156, 114223.468750, 96624.351563, 125177.562500, 100056.953125, 90372.281250, 121760.367188, 0.000, 0.000, 0.000,0.004064881,0.012198502,0.008870417,0.022647822,0.013202977, 15:31:19.918
68423.429688, 58608.976563, 114292.156250, 96840.898438, 125097.726563, 100155.460938, 90475.812500, 121694.093750, 0.000, 0.000, 0.000,0.004064881,0.012198502,0.008870417,0.022647822,0.013202977, 15:31:19.918
68292.156250, 58481.816406, 114449.421875, 97057.398438, 124956.351563, 100103.539063, 90578.320313, 121572.539063, 0.000, 0.000, 0.000,0.004064881,0.012198502,0.008870417,0.022647822,0.013202977, 15:31:19.918
68364.437500, 58554.414063, 114388.156250, 96870.687500, 125031.343750, 100006.867188, 90501.695313, 121624.796875, 0.000, 0.000, 0.000,0.004064881,0.012198502,0.008870417,0.022647822,0.013202977, 15:31:19.918
68489.835938, 58680.187500, 114241.304688, 96631.148438, 125165.476563, 100035.898438, 90380.101563, 121745.187500, 0.000, 0.000, 0.000,0.004064881,0.012198502,0.008870417,0.022647822,0.013202977, 15:31:19.919
68434.984375, 58624.621094, 114277.890625, 96792.640625, 125117.867188, 100143.101563, 90452.726563, 121714.789063, 0.000, 0.000, 0.000,0.004064881,0.012198502,0.008870417,0.022647822,0.013202977, 15:31:19.919
68306.078125, 58494.648438, 114430.867188, 97048.726563, 124983.929688, 100123.539063, 90582.226563, 121594.179688, 0.000, 0.000, 0.000,0.004064881,0.012198502,0.008870417,0.022647822,0.013202977, 15:31:19.919
68340.679688, 58530.769531, 114421.078125, 96929.140625, 125009.523438, 100021.507813, 90532.140625, 121609.085938, 0.204, 0.222, 0.944,0.004064881,0.012198502,0.008870417,0.022647822,0.013202977, 15:31:19.919
68490.367188, 58679.519531, 114256.593750, 96649.343750, 125165.539063, 100030.492188, 90394.429688, 121747.062500, 0.000, 0.000, 0.000,0.004064881,0.012198502,0.008870417,0.022647822,0.013202977, 15:31:19.920
68470.742188, 58661.121094, 114247.515625, 96742.507813, 125153.250000, 100145.023438, 90435.203125, 121748.632813, 0.000, 0.000, 0.000,0.004064881,0.012198502,0.008870417,0.022647822,0.013202977, 15:31:19.920
68324.812500, 58519.300781, 114402.882813, 97028.000000, 125003.492188, 100150.945313, 90568.460938, 121619.125000, 0.000, 0.000, 0.000,0.004064881,0.012198502,0.008870417,0.022647822,0.013202977, 15:31:19.920
68321.234375, 58517.625000, 114429.234375, 96980.570313, 124992.851563, 100041.937500, 90549.906250, 121599.343750, 0.000, 0.000, 0.000,0.004064881,0.012198502,0.008870417,0.022647822,0.013202977, 15:31:19.920
68459.632813, 58654.929688, 114281.937500, 96687.984375, 125132.234375, 100010.796875, 90407.125000, 121715.437500, 0.000, 0.000, 0.000,0.004064881,0.012198502,0.008870417,0.022647822,0.013202977, 15:31:19.920
68483.398438, 58676.367188, 114232.718750, 96696.976563, 125167.726563, 100122.039063, 90412.578125, 121758.617188, 0.000, 0.000, 0.000,0.004064881,0.012198502,0.008870417,0.022647822,0.013202977, 15:31:19.921
68345.421875, 58539.058594, 114366.476563, 96982.789063, 125028.164063, 100149.539063, 90544.093750, 121629.226563, 0.000, 0.000, 0.000,0.004064881,0.012198502,0.008870417,0.022647822,0.013202977, 15:31:19.921
68299.125000, 58489.640625, 114443.695313, 97012.984375, 124973.132813, 100045.109375, 90562.312500, 121573.320313, 0.000, 0.000, 0.000,0.004064881,0.012198502,0.008870417,0.022647822,0.013202977, 15:31:19.921
68427.851563, 58621.492188, 114308.203125, 96723.171875, 125110.914063, 99998.820313, 90431.664063, 121695.343750, 0.000, 0.000, 0.000,0.004064881,0.012198502,0.008870417,0.022647822,0.013202977, 15:31:19.921
68484.539063, 58680.589844, 114218.820313, 96651.554688, 125176.648438, 100094.726563, 90391.570313, 121764.070313, 0.198, 0.232, 0.944,0.004064881,0.012198502,0.008870417,0.022647822,0.013202977, 15:31:19.922
68364.195313, 58557.074219, 114338.398438, 96930.820313, 125047.945313, 100153.718750, 90518.125000, 121657.609375, 0.000, 0.000, 0.000,0.004064881,0.012198502,0.008870417,0.022647822,0.013202977, 15:31:19.922
68291.328125, 58483.406250, 114443.210938, 97035.218750, 124964.039063, 100071.125000, 90574.320313, 121577.703125, 0.000, 0.000, 0.000,0.004064881,0.012198502,0.008870417,0.022647822,0.013202977, 15:31:19.922
68393.476563, 58588.300781, 114350.335938, 96777.484375, 125069.781250, 99997.882813, 90455.828125, 121665.054688, 0.000, 0.000, 0.000,0.004064881,0.012198502,0.008870417,0.022647822,0.013202977, 15:31:19.923
68488.695313, 58683.406250, 114233.500000, 96634.882813, 125173.875000, 100075.437500, 90382.695313, 121761.500000, 0.000, 0.000, 0.000,0.004064881,0.012198502,0.008870417,0.022647822,0.013202977, 15:31:19.923
68388.265625, 58581.484375, 114318.976563, 96881.218750, 125071.234375, 100153.851563, 90493.250000, 121679.585938, 0.000, 0.000, 0.000,0.004064881,0.012198502,0.008870417,0.022647822,0.013202977, 15:31:19.923
68290.703125, 58482.531250, 114447.273438, 97055.296875, 124964.757813, 100091.804688, 90581.695313, 121576.296875, 0.000, 0.000, 0.000,0.004064881,0.012198502,0.008870417,0.022647822,0.013202977, 15:31:19.923
68381.179688, 58570.664063, 114385.789063, 96840.000000, 125047.367188, 100000.609375, 90484.039063, 121638.789063, 0.000, 0.000, 0.000,0.004064881,0.012198502,0.008870417,0.022647822,0.013202977, 15:31:19.924
68501.992188, 58692.593750, 114240.078125, 96631.531250, 125180.937500, 100058.898438, 90380.773438, 121763.960938, 0.000, 0.000, 0.000,0.004064881,0.012198502,0.008870417,0.022647822,0.013202977, 15:31:19.924
68422.085938, 58610.453125, 114301.539063, 96836.109375, 125105.343750, 100155.835938, 90476.750000, 121708.820313, 0.194, 0.228, 0.942,0.004064881,0.012198502,0.008870417,0.022647822,0.013202977, 15:31:19.924
68299.015625, 58485.773438, 114449.132813, 97061.109375, 124977.921875, 100112.718750, 90589.742188, 121590.421875, 0.000, 0.000, 0.000,0.004064881,0.012198502,0.008870417,0.022647822,0.013202977, 15:31:19.924
68350.781250, 58543.710938, 114405.296875, 96895.968750, 125034.359375, 100015.132813, 90520.070313, 121629.875000, 0.000, 0.000, 0.000,0.004064881,0.012198502,0.008870417,0.022647822,0.013202977, 15:31:19.925
68480.335938, 58676.835938, 114253.578125, 96643.687500, 125175.039063, 100034.625000, 90395.812500, 121754.062500, 0.000, 0.000, 0.000,0.004064881,0.012198502,0.008870417,0.022647822,0.013202977, 15:31:19.925
68432.632813, 58627.683594, 114284.578125, 96785.531250, 125131.679688, 100133.843750, 90458.312500, 121718.703125, 0.000, 0.000, 0.000,0.004064881,0.012198502,0.008870417,0.022647822,0.013202977, 15:31:19.925
68302.929688, 58496.121094, 114426.687500, 97049.125000, 124993.453125, 100128.796875, 90580.867188, 121602.203125, 0.000, 0.000, 0.000,0.004064881,0.012198502,0.008870417,0.022647822,0.013202977, 15:31:19.925
68324.296875, 58518.003906, 114424.523438, 96951.203125, 125008.140625, 100028.210938, 90539.023438, 121609.000000, 0.000, 0.000, 0.000,0.004064881,0.012198502,0.008870417,0.022647822,0.013202977, 15:31:19.925
68468.265625, 58665.773438, 114258.132813, 96661.992188, 125159.125000, 100024.296875, 90394.851563, 121741.523438, 0.000, 0.000, 0.000,0.004064881,0.012198502,0.008870417,0.022647822,0.013202977, 15:31:19.926
