%OpenBCI Raw EEG Data
%
%Sample Rate = 250.0 Hz
%First Column = SampleIndex
%5 Columns before Timestamp are Frequency Power factors DELTA THETA ALPHA BETA GAMMA
%Last Column = Timestamp 
%Other Columns = EEG data in microvolts followed by Accel Data (in G) interleaved with Aux Data
0.000000, 0.000000, 0.000000, 0.000000, 0.000000, 0.000000, 0.000000, 0.000000, 0, 1, 1, 0, 1,0.0,0.0,0.0,0.0,0.0, 12:05:33.657
44132.042969, 40422.750000, 100183.687500, 81333.679688, 93376.218750, 69873.140625, 78320.687500, 98800.828125, 0, 1, 1, 0, 1,0.0,0.0,0.0,0.0,0.0, 12:05:34.134
44183.226563, 40456.679688, 100171.750000, 81301.804688, 93350.093750, 69805.929688, 78267.718750, 98756.617188, 0, 1, 1, 0, 1,0.0,0.0,0.0,0.0,0.0, 12:05:34.135
44280.257813, 40552.566406, 100058.921875, 81061.953125, 93400.445313, 69555.203125, 78185.281250, 98745.554688, 0, 1, 1, 0, 1,0.0,0.0,0.0,0.0,0.0, 12:05:34.135
44249.992188, 40536.429688, 100040.976563, 81055.265625, 93437.015625, 69596.421875, 78234.054688, 98800.851563, 0, 1, 1, 0, 1,0.0,0.0,0.0,0.0,0.0, 12:05:34.136
44127.214844, 40420.804688, 100146.968750, 81284.710938, 93379.125000, 69844.703125, 78313.890625, 98812.500000, 0, 1, 1, 0, 1,0.0,0.0,0.0,0.0,0.0, 12:05:34.136
44126.609375, 40420.492188, 100160.710938, 81314.343750, 93335.273438, 69837.773438, 78277.796875, 98761.578125, 0, 1, 1, 0, 1,0.0,0.0,0.0,0.0,0.0, 12:05:34.137
44266.867188, 40542.554688, 100049.664063, 81082.468750, 93380.648438, 69587.773438, 78189.101563, 98746.921875, 0, 1, 1, 0, 1,0.0,0.0,0.0,0.0,0.0, 12:05:34.138
44278.269531, 40558.402344, 100028.320313, 81027.015625, 93439.031250, 69566.312500, 78223.078125, 98798.890625, 0, 1, 1, 0, 1,0.0,0.0,0.0,0.0,0.0, 12:05:34.138
44147.531250, 40433.679688, 100128.523438, 81246.484375, 93396.289063, 69808.179688, 78313.382813, 98817.507813, 0, 1, 1, 0, 1,0.0,0.0,0.0,0.0,0.0, 12:05:34.139
44099.968750, 40395.031250, 100175.125000, 81339.914063, 93341.328125, 69866.882813, 78297.640625, 98768.601563, 0, 1, 1, 0, 1,0.0,0.0,0.0,0.0,0.0, 12:05:34.139
44222.074219, 40508.199219, 100075.328125, 81130.820313, 93384.515625, 69635.132813, 78212.281250, 98748.593750, 0, 1, 1, 0, 1,0.0,0.0,0.0,0.0,0.0, 12:05:34.140
44272.703125, 40550.824219, 100024.921875, 81019.078125, 93436.343750, 69547.960938, 78213.109375, 98787.820313, 0, 1, 1, 0, 1,0.0,0.0,0.0,0.0,0.0, 12:05:34.140
44163.468750, 40448.093750, 100108.187500, 81209.765625, 93413.343750, 69772.625000, 78303.570313, 98820.859375, 0, 1, 1, 0, 1,0.0,0.0,0.0,0.0,0.0, 12:05:34.141
44116.417969, 40402.812500, 100181.226563, 81357.867188, 93350.695313, 69894.773438, 78318.656250, 98786.679688, 0, 1, 1, 0, 1,0.0,0.0,0.0,0.0,0.0, 12:05:34.141
44197.085938, 40486.988281, 100114.015625, 81190.742188, 93371.304688, 69690.320313, 78230.031250, 98743.945313, 0, 1, 1, 0, 1,0.0,0.0,0.0,0.0,0.0, 12:05:34.142
44266.601563, 40555.093750, 100048.460938, 81031.914063, 93416.117188, 69538.734375, 78197.265625, 98766.117188, 0, 1, 1, 0, 1,0.0,0.0,0.0,0.0,0.0, 12:05:34.142
44168.968750, 40456.855469, 100122.890625, 81191.054688, 93407.195313, 69733.078125, 78285.664063, 98807.359375, 0, 1, 1, 0, 1,0.0,0.0,0.0,0.0,0.0, 12:05:34.143
44090.984375, 40370.914063, 100225.109375, 81394.390625, 93332.835938, 69908.007813, 78316.062500, 98775.398438, 0, 1, 1, 0, 1,0.0,0.0,0.0,0.0,0.0, 12:05:34.144
44170.554688, 40447.828125, 100194.953125, 81284.484375, 93336.906250, 69750.273438, 78237.671875, 98732.078125, 0, 1, 1, 0, 1,0.0,0.0,0.0,0.0,0.0, 12:05:34.144
44244.808594, 40529.320313, 100098.437500, 81072.320313, 93399.195313, 69543.804688, 78182.484375, 98746.781250, 0, 1, 1, 0, 1,0.0,0.0,0.0,0.0,0.0, 12:05:34.145
44186.089844, 40478.292969, 100142.765625, 81180.171875, 93411.648438, 69693.742188, 78265.460938, 98800.812500, 0, 1, 1, 0, 1,0.0,0.0,0.0,0.0,0.0, 12:05:34.145
44105.691406, 40395.480469, 100284.585938, 81428.656250, 93354.695313, 69922.781250, 78333.765625, 98793.343750, 0, 1, 1, 0, 1,0.0,0.0,0.0,0.0,0.0, 12:05:34.145
44140.691406, 40435.578125, 100260.335938, 81356.882813, 93343.250000, 69806.890625, 78262.531250, 98742.273438, 0, 1, 1, 0, 1,0.0,0.0,0.0,0.0,0.0, 12:05:34.146
44232.492188, 40521.230469, 100149.179688, 81119.640625, 93383.078125, 69564.125000, 78185.531250, 98735.046875, 0, 1, 1, 0, 1,0.0,0.0,0.0,0.0,0.0, 12:05:34.146
44197.265625, 40489.089844, 100181.945313, 81174.914063, 93401.406250, 69653.351563, 78248.070313, 98779.218750, 0, 1, 1, 0, 1,0.0,0.0,0.0,0.0,0.0, 12:05:34.146
44111.972656, 40406.519531, 100301.703125, 81421.929688, 93355.921875, 69899.515625, 78329.226563, 98790.148438, 0, 1, 1, 0, 1,0.0,0.0,0.0,0.0,0.0, 12:05:34.146
44118.339844, 40408.285156, 100293.281250, 81406.882813, 93324.046875, 69843.234375, 78276.632813, 98738.648438, 0, 1, 1, 0, 1,0.0,0.0,0.0,0.0,0.0, 12:05:34.147
44198.718750, 40494.699219, 100182.796875, 81164.054688, 93365.960938, 69587.101563, 78186.734375, 98721.304688, 0, 1, 1, 0, 1,0.0,0.0,0.0,0.0,0.0, 12:05:34.147
44202.718750, 40494.476563, 100183.015625, 81152.835938, 93407.468750, 69612.070313, 78231.351563, 98775.617188, 0, 1, 1, 0, 1,0.0,0.0,0.0,0.0,0.0, 12:05:34.147
44100.972656, 40387.902344, 100305.375000, 81396.468750, 93357.375000, 69866.859375, 78319.210938, 98789.273438, 0, 1, 1, 0, 1,0.0,0.0,0.0,0.0,0.0, 12:05:34.148
44096.703125, 40382.156250, 100339.859375, 81450.335938, 93311.398438, 69879.015625, 78286.265625, 98739.742188, 0, 1, 1, 0, 1,0.0,0.0,0.0,0.0,0.0, 12:05:34.148
44199.164063, 40484.171875, 100218.914063, 81209.742188, 93346.445313, 69620.250000, 78185.039063, 98712.500000, 0, 1, 1, 0, 1,0.0,0.0,0.0,0.0,0.0, 12:05:34.148
44227.863281, 40504.535156, 100172.289063, 81123.796875, 93399.312500, 69574.492188, 78204.664063, 98762.210938, 0, 1, 1, 0, 1,0.0,0.0,0.0,0.0,0.0, 12:05:34.148
44114.718750, 40404.531250, 100279.335938, 81348.703125, 93366.093750, 69824.210938, 78302.117188, 98792.156250, 0, 1, 1, 0, 1,0.0,0.0,0.0,0.0,0.0, 12:05:34.149
44072.699219, 40368.390625, 100334.968750, 81460.460938, 93304.156250, 69898.015625, 78293.445313, 98744.929688, 0, 1, 1, 0, 1,0.0,0.0,0.0,0.0,0.0, 12:05:34.149
44183.140625, 40478.628906, 100229.421875, 81247.492188, 93340.054688, 69662.585938, 78200.234375, 98717.304688, 0, 1, 1, 0, 1,0.0,0.0,0.0,0.0,0.0, 12:05:34.149
44218.031250, 40512.960938, 100157.289063, 81105.625000, 93394.617188, 69547.429688, 78192.453125, 98749.039063, 0, 1, 1, 0, 1,0.0,0.0,0.0,0.0,0.0, 12:05:34.150
44122.945313, 40415.773438, 100260.937500, 81306.859375, 93371.640625, 69775.015625, 78290.382813, 98785.859375, 0, 1, 1, 0, 1,0.0,0.0,0.0,0.0,0.0, 12:05:34.150
44059.824219, 40356.183594, 100337.671875, 81466.789063, 93310.125000, 69908.476563, 78304.843750, 98752.929688, 0, 1, 1, 0, 1,0.0,0.0,0.0,0.0,0.0, 12:05:34.150
44159.757813, 40455.406250, 100252.312500, 81294.429688, 93332.429688, 69709.750000, 78220.757813, 98720.765625, 0, 1, 1, 0, 1,0.0,0.0,0.0,0.0,0.0, 12:05:34.151
44232.558594, 40520.359375, 100165.804688, 81108.867188, 93394.234375, 69540.429688, 78189.101563, 98743.390625, 0, 1, 1, 0, 1,0.0,0.0,0.0,0.0,0.0, 12:05:34.151
44153.343750, 40437.457031, 100232.617188, 81253.640625, 93385.539063, 69724.562500, 78278.289063, 98785.296875, 0, 1, 1, 0, 1,0.0,0.0,0.0,0.0,0.0, 12:05:34.151
44068.585938, 40360.187500, 100327.476563, 81458.203125, 93323.085938, 69912.093750, 78320.484375, 98765.804688, 0, 1, 1, 0, 1,0.0,0.0,0.0,0.0,0.0, 12:05:34.151
44138.347656, 40434.660156, 100269.007813, 81336.898438, 93325.835938, 69756.234375, 78242.703125, 98722.843750, 0, 1, 1, 0, 1,0.0,0.0,0.0,0.0,0.0, 12:05:34.151
44231.394531, 40514.031250, 100161.742188, 81111.195313, 93383.039063, 69534.242188, 78181.726563, 98730.937500, 0, 1, 1, 0, 1,0.0,0.0,0.0,0.0,0.0, 12:05:34.152
44174.957031, 40461.261719, 100215.984375, 81212.648438, 93400.515625, 69674.117188, 78264.851563, 98783.507813, 0, 1, 1, 0, 1,0.0,0.0,0.0,0.0,0.0, 12:05:34.152
44079.179688, 40375.093750, 100336.890625, 81451.476563, 93339.968750, 69903.804688, 78332.335938, 98779.664063, 0, 1, 1, 0, 1,0.0,0.0,0.0,0.0,0.0, 12:05:34.152
44118.476563, 40407.394531, 100299.648438, 81381.398438, 93316.539063, 69797.812500, 78258.507813, 98727.000000, 0, 1, 1, 0, 1,0.0,0.0,0.0,0.0,0.0, 12:05:34.152
44235.574219, 40519.105469, 100169.695313, 81130.820313, 93377.179688, 69547.875000, 78181.234375, 98728.812500, 0, 1, 1, 0, 1,0.0,0.0,0.0,0.0,0.0, 12:05:34.153
44200.730469, 40489.000000, 100195.312500, 81173.578125, 93406.570313, 69627.601563, 78249.632813, 98781.007813, 0, 1, 1, 0, 1,0.0,0.0,0.0,0.0,0.0, 12:05:34.153
44088.925781, 40381.019531, 100321.062500, 81425.031250, 93344.125000, 69877.140625, 78325.625000, 98781.679688, 0, 1, 1, 0, 1,0.0,0.0,0.0,0.0,0.0, 12:05:34.160
44109.578125, 40405.628906, 100312.304688, 81418.843750, 93311.531250, 69836.460938, 78275.093750, 98735.273438, 0, 1, 1, 0, 1,0.0,0.0,0.0,0.0,0.0, 12:05:34.160
44228.289063, 40520.871094, 100182.328125, 81164.835938, 93365.289063, 69575.546875, 78186.062500, 98721.101563, 0, 1, 1, 0, 1,0.0,0.0,0.0,0.0,0.0, 12:05:34.161
44215.617188, 40502.433594, 100166.750000, 81132.406250, 93400.781250, 69579.656250, 78222.320313, 98765.406250, 0, 1, 1, 0, 1,0.0,0.0,0.0,0.0,0.0, 12:05:34.161
44097.957031, 40390.917969, 100285.140625, 81376.125000, 93357.000000, 69838.625000, 78313.492188, 98785.921875, 0, 1, 1, 0, 1,0.0,0.0,0.0,0.0,0.0, 12:05:34.161
44094.691406, 40384.882813, 100323.656250, 81445.710938, 93318.507813, 69871.664063, 78293.867188, 98749.648438, 0, 1, 1, 0, 1,0.0,0.0,0.0,0.0,0.0, 12:05:34.162
44214.027344, 40495.035156, 100201.703125, 81202.789063, 93353.640625, 69614.953125, 78196.390625, 98726.710938, 0, 1, 1, 0, 1,0.0,0.0,0.0,0.0,0.0, 12:05:34.162
44247.937500, 40532.562500, 100158.187500, 81106.968750, 93414.421875, 69556.031250, 78215.703125, 98779.710938, 0, 1, 1, 0, 1,0.0,0.0,0.0,0.0,0.0, 12:05:34.163
44120.507813, 40411.996094, 100270.210938, 81328.250000, 93373.671875, 69799.265625, 78306.492188, 98803.289063, 0, 1, 1, 0, 1,0.0,0.0,0.0,0.0,0.0, 12:05:34.163
44093.753906, 40385.375000, 100337.179688, 81460.351563, 93330.601563, 69898.460938, 78314.656250, 98772.710938, 0, 1, 1, 0, 1,0.0,0.0,0.0,0.0,0.0, 12:05:34.164
44196.953125, 40484.527344, 100230.851563, 81250.890625, 93357.015625, 69667.281250, 78217.492188, 98740.187500, 0, 1, 1, 0, 1,0.0,0.0,0.0,0.0,0.0, 12:05:34.164
44241.320313, 40521.988281, 100139.187500, 81078.937500, 93412.500000, 69530.039063, 78197.265625, 98766.187500, 0, 1, 1, 0, 1,0.0,0.0,0.0,0.0,0.0, 12:05:34.165
44144.984375, 40433.296875, 100230.492188, 81267.046875, 93396.468750, 69750.070313, 78296.078125, 98807.515625, 0, 1, 1, 0, 1,0.0,0.0,0.0,0.0,0.0, 12:05:34.165
44083.851563, 40375.160156, 100316.750000, 81443.718750, 93336.296875, 69901.750000, 78322.320313, 98778.679688, 0, 1, 1, 0, 1,0.0,0.0,0.0,0.0,0.0, 12:05:34.167
44168.097656, 40454.800781, 100232.078125, 81275.234375, 93344.546875, 69705.273438, 78228.601563, 98731.273438, 0, 1, 1, 0, 1,0.0,0.0,0.0,0.0,0.0, 12:05:34.167
44250.441406, 40534.687500, 100133.132813, 81070.804688, 93405.945313, 69520.671875, 78187.046875, 98752.929688, 0, 1, 1, 0, 1,0.0,0.0,0.0,0.0,0.0, 12:05:34.168
44181.304688, 40467.429688, 100210.734375, 81218.460938, 93411.671875, 69703.398438, 78279.937500, 98803.109375, 0, 1, 1, 0, 1,0.0,0.0,0.0,0.0,0.0, 12:05:34.169
44104.191406, 40394.832031, 100312.929688, 81437.390625, 93357.710938, 69907.562500, 78331.726563, 98795.984375, 0, 1, 1, 0, 1,0.0,0.0,0.0,0.0,0.0, 12:05:34.169
44170.753906, 40459.382813, 100250.164063, 81321.234375, 93348.656250, 69758.695313, 78247.757813, 98748.820313, 0, 1, 1, 0, 1,0.0,0.0,0.0,0.0,0.0, 12:05:34.170
44272.300781, 40557.148438, 100123.164063, 81077.062500, 93414.109375, 69528.476563, 78184.921875, 98761.093750, 0, 1, 1, 0, 1,0.0,0.0,0.0,0.0,0.0, 12:05:34.170
44218.609375, 40500.554688, 100173.632813, 81165.015625, 93428.632813, 69656.390625, 78264.117188, 98809.500000, 0, 1, 1, 0, 1,0.0,0.0,0.0,0.0,0.0, 12:05:34.171
44124.441406, 40411.527344, 100305.726563, 81420.046875, 93377.742188, 69896.539063, 78340.851563, 98806.843750, 0, 1, 1, 0, 1,0.0,0.0,0.0,0.0,0.0, 12:05:34.171
44163.757813, 40449.929688, 100273.789063, 81367.320313, 93357.335938, 69807.335938, 78279.539063, 98761.781250, 0, 1, 1, 0, 1,0.0,0.0,0.0,0.0,0.0, 12:05:34.171
44274.781250, 40553.148438, 100123.492188, 81094.851563, 93413.125000, 69546.937500, 78194.203125, 98760.867188, 0, 1, 1, 0, 1,0.0,0.0,0.0,0.0,0.0, 12:05:34.172
44250.171875, 40533.457031, 100148.890625, 81127.015625, 93447.882813, 69616.765625, 78260.851563, 98820.078125, 0, 1, 1, 0, 1,0.0,0.0,0.0,0.0,0.0, 12:05:34.172
44136.914063, 40424.378906, 100293.500000, 81395.039063, 93392.671875, 69880.890625, 78350.546875, 98834.851563, 0, 1, 1, 0, 1,0.0,0.0,0.0,0.0,0.0, 12:05:34.172
44140.984375, 40421.988281, 100302.937500, 81410.953125, 93352.859375, 69851.593750, 78299.812500, 98772.335938, 0, 1, 1, 0, 1,0.0,0.0,0.0,0.0,0.0, 12:05:34.173
44268.320313, 40549.550781, 100173.656250, 81157.820313, 93408.828125, 69589.226563, 78209.664063, 98758.632813, 0, 1, 1, 0, 1,0.0,0.0,0.0,0.0,0.0, 12:05:34.173
44276.390625, 40553.371094, 100158.367188, 81115.125000, 93462.992188, 69586.093750, 78253.054688, 98819.609375, 0, 1, 1, 0, 1,0.0,0.0,0.0,0.0,0.0, 12:05:34.173
44161.503906, 40445.835938, 100299.429688, 81374.562500, 93419.492188, 69852.015625, 78350.171875, 98840.843750, 0, 1, 1, 0, 1,0.0,0.0,0.0,0.0,0.0, 12:05:34.174
44134.410156, 40413.027344, 100335.210938, 81454.093750, 93365.554688, 69893.054688, 78327.328125, 98792.898438, 0, 1, 1, 0, 1,0.0,0.0,0.0,0.0,0.0, 12:05:34.174
44244.738281, 40517.207031, 100209.906250, 81213.250000, 93402.195313, 69643.382813, 78229.937500, 98765.960938, 0, 1, 1, 0, 1,0.0,0.0,0.0,0.0,0.0, 12:05:34.174
44288.125000, 40561.417969, 100161.250000, 81107.031250, 93467.257813, 69572.304688, 78247.148438, 98819.789063, 0, 1, 1, 0, 1,0.0,0.0,0.0,0.0,0.0, 12:05:34.175
44179.695313, 40455.785156, 100288.984375, 81341.484375, 93441.890625, 69826.039063, 78354.351563, 98860.328125, 0, 1, 1, 0, 1,0.0,0.0,0.0,0.0,0.0, 12:05:34.175
44126.320313, 40408.687500, 100380.585938, 81497.562500, 93378.882813, 69936.843750, 78356.406250, 98816.164063, 0, 1, 1, 0, 1,0.0,0.0,0.0,0.0,0.0, 12:05:34.175
44225.988281, 40504.488281, 100257.335938, 81278.695313, 93390.320313, 69690.656250, 78240.023438, 98764.351563, 0, 1, 1, 0, 1,0.0,0.0,0.0,0.0,0.0, 12:05:34.176
44298.363281, 40570.917969, 100155.703125, 81097.648438, 93459.726563, 69538.976563, 78218.453125, 98799.781250, 0, 1, 1, 0, 1,0.0,0.0,0.0,0.0,0.0, 12:05:34.176
44194.292969, 40465.015625, 100250.273438, 81281.242188, 93445.289063, 69755.007813, 78315.460938, 98839.164063, 0, 1, 1, 0, 1,0.0,0.0,0.0,0.0,0.0, 12:05:34.177
44116.238281, 40390.875000, 100365.070313, 81488.468750, 93380.804688, 69927.539063, 78348.468750, 98808.742188, 0, 1, 1, 0, 1,0.0,0.0,0.0,0.0,0.0, 12:05:34.177
44216.980469, 40495.125000, 100279.914063, 81333.968750, 93394.460938, 69742.671875, 78259.867188, 98772.218750, 0, 1, 1, 0, 1,0.0,0.0,0.0,0.0,0.0, 12:05:34.178
44305.000000, 40576.484375, 100152.484375, 81104.328125, 93456.570313, 69538.484375, 78207.968750, 98790.304688, 0, 1, 1, 0, 1,0.0,0.0,0.0,0.0,0.0, 12:05:34.178
44225.941406, 40491.835938, 100222.398438, 81235.000000, 93467.820313, 69717.078125, 78306.789063, 98843.476563, 0, 1, 1, 0, 1,0.0,0.0,0.0,0.0,0.0, 12:05:34.178
44125.070313, 40401.492188, 100363.445313, 81485.921875, 93400.359375, 69937.960938, 78365.078125, 98825.976563, 0, 1, 1, 0, 1,0.0,0.0,0.0,0.0,0.0, 12:05:34.178
44191.675781, 40468.144531, 100307.000000, 81386.921875, 93388.710938, 69799.781250, 78283.429688, 98781.046875, 0, 1, 1, 0, 1,0.0,0.0,0.0,0.0,0.0, 12:05:34.178
44301.894531, 40578.675781, 100181.703125, 81139.156250, 93455.054688, 69564.953125, 78215.703125, 98792.156250, 0, 1, 1, 0, 1,0.0,0.0,0.0,0.0,0.0, 12:05:34.179
44241.632813, 40511.687500, 100224.773438, 81214.031250, 93470.726563, 69672.820313, 78287.585938, 98835.117188, 0, 1, 1, 0, 1,0.0,0.0,0.0,0.0,0.0, 12:05:34.179
44127.839844, 40406.519531, 100364.000000, 81478.632813, 93410.906250, 69918.757813, 78364.296875, 98832.328125, 0, 1, 1, 0, 1,0.0,0.0,0.0,0.0,0.0, 12:05:34.179
44160.406250, 40433.343750, 100335.570313, 81430.289063, 93383.125000, 69839.296875, 78297.484375, 98778.187500, 0, 1, 1, 0, 1,0.0,0.0,0.0,0.0,0.0, 12:05:34.179
44293.957031, 40557.484375, 100184.226563, 81154.843750, 93445.039063, 69579.437500, 78212.218750, 98781.453125, 0, 1, 1, 0, 1,5.351126E-6,7.0883148E-6,8.712937E-6,2.7411124E-5,3.481393E-5, 12:05:34.179
44280.367188, 40550.601563, 100197.078125, 81166.085938, 93488.203125, 69627.070313, 78276.406250, 98840.484375, 0, 1, 1, 0, 1,5.351126E-6,7.0883148E-6,8.712937E-6,2.7411124E-5,3.481393E-5, 12:05:34.180
44150.527344, 40416.558594, 100345.898438, 81438.468750, 93430.687500, 69892.156250, 78367.312500, 98848.398438, 0, 1, 1, 0, 1,5.351126E-6,7.0883148E-6,8.712937E-6,2.7411124E-5,3.481393E-5, 12:05:34.180
44162.710938, 40433.878906, 100366.343750, 81472.554688, 93389.695313, 69886.125000, 78327.218750, 98800.515625, 0, 1, 1, 0, 1,5.351126E-6,7.0883148E-6,8.712937E-6,2.7411124E-5,3.481393E-5, 12:05:34.180
44291.812500, 40560.636719, 100212.390625, 81194.632813, 93436.679688, 69614.820313, 78226.382813, 98784.203125, 0, 1, 1, 0, 1,5.351126E-6,7.0883148E-6,8.712937E-6,2.7411124E-5,3.481393E-5, 12:05:34.180
44294.429688, 40560.503906, 100170.125000, 81117.671875, 93479.257813, 69583.101563, 78249.992188, 98824.835938, 0, 1, 1, 0, 1,5.351126E-6,7.0883148E-6,8.712937E-6,2.7411124E-5,3.481393E-5, 12:05:34.181
44178.824219, 40451.335938, 100302.085938, 81370.046875, 93434.132813, 69843.523438, 78345.234375, 98845.203125, 0, 1, 1, 0, 1,5.351126E-6,7.0883148E-6,8.712937E-6,2.7411124E-5,3.481393E-5, 12:05:34.181
44154.640625, 40422.480469, 100354.164063, 81477.070313, 93383.460938, 69905.882813, 78333.828125, 98803.710938, 0, 1, 1, 0, 1,5.351126E-6,7.0883148E-6,8.712937E-6,2.7411124E-5,3.481393E-5, 12:05:34.181
44257.390625, 40520.515625, 100231.164063, 81236.453125, 93412.875000, 69653.601563, 78232.132813, 98769.382813, 0, 1, 1, 0, 1,5.351126E-6,7.0883148E-6,8.712937E-6,2.7411124E-5,3.481393E-5, 12:05:34.181
44310.609375, 40572.257813, 100159.234375, 81098.203125, 93474.296875, 69553.039063, 78234.140625, 98812.609375, 0, 1, 1, 0, 1,5.351126E-6,7.0883148E-6,8.712937E-6,2.7411124E-5,3.481393E-5, 12:05:34.181
44206.070313, 40483.835938, 100289.054688, 81330.398438, 93450.765625, 69804.203125, 78340.093750, 98848.328125, 0, 1, 1, 0, 1,5.351126E-6,7.0883148E-6,8.712937E-6,2.7411124E-5,3.481393E-5, 12:05:34.182
44150.082031, 40431.109375, 100376.359375, 81502.125000, 93387.398438, 69934.156250, 78351.023438, 98816.476563, 0, 1, 1, 0, 1,5.351126E-6,7.0883148E-6,8.712937E-6,2.7411124E-5,3.481393E-5, 12:05:34.183
44227.796875, 40496.507813, 100263.398438, 81294.406250, 93387.171875, 69700.984375, 78235.351563, 98758.789063, 0, 1, 1, 0, 1,5.351126E-6,7.0883148E-6,8.712937E-6,2.7411124E-5,3.481393E-5, 12:05:34.183
44294.070313, 40559.453125, 100157.914063, 81087.812500, 93444.820313, 69531.046875, 78201.734375, 98779.242188, 0, 1, 1, 0, 1,5.351126E-6,7.0883148E-6,8.712937E-6,2.7411124E-5,3.481393E-5, 12:05:34.184
44212.308594, 40474.492188, 100257.453125, 81270.960938, 93445.734375, 69740.304688, 78309.179688, 98825.460938, 0, 1, 1, 0, 1,5.351126E-6,7.0883148E-6,8.712937E-6,2.7411124E-5,3.481393E-5, 12:05:34.184
44122.027344, 40387.566406, 100385.343750, 81497.539063, 93374.679688, 69929.125000, 78343.734375, 98797.234375, 0, 1, 1, 0, 1,5.351126E-6,7.0883148E-6,8.712937E-6,2.7411124E-5,3.481393E-5, 12:05:34.184
44213.335938, 40479.320313, 100292.093750, 81338.937500, 93377.671875, 69750.781250, 78250.640625, 98760.109375, 0, 1, 1, 0, 1,5.351126E-6,7.0883148E-6,8.712937E-6,2.7411124E-5,3.481393E-5, 12:05:34.184
44318.457031, 40592.800781, 100169.945313, 81108.578125, 93448.820313, 69539.718750, 78204.726563, 98785.453125, 0, 1, 1, 0, 1,5.351126E-6,7.0883148E-6,8.712937E-6,2.7411124E-5,3.481393E-5, 12:05:34.185
44260.765625, 40531.175781, 100239.367188, 81233.343750, 93462.296875, 69705.296875, 78298.406250, 98840.703125, 0, 1, 1, 0, 1,5.351126E-6,7.0883148E-6,8.712937E-6,2.7411124E-5,3.481393E-5, 12:05:34.185
44147.195313, 40414.968750, 100357.179688, 81461.507813, 93392.109375, 69928.031250, 78353.054688, 98823.164063, 0, 1, 1, 0, 1,5.351126E-6,7.0883148E-6,8.712937E-6,2.7411124E-5,3.481393E-5, 12:05:34.185
44203.433594, 40473.710938, 100314.539063, 81379.148438, 93381.609375, 69814.601563, 78283.765625, 98779.687500, 0, 1, 1, 0, 1,5.351126E-6,7.0883148E-6,8.712937E-6,2.7411124E-5,3.481393E-5, 12:05:34.185
44309.156250, 40582.699219, 100183.015625, 81122.617188, 93434.335938, 69563.343750, 78206.851563, 98775.796875, 0, 1, 1, 0, 1,5.351126E-6,7.0883148E-6,8.712937E-6,2.7411124E-5,3.481393E-5, 12:05:34.185
44271.898438, 40540.140625, 100224.148438, 81184.773438, 93456.953125, 69655.656250, 78275.226563, 98816.093750, 0, 1, 1, 0, 1,0.0,0.0,0.0,0.0,0.0, 12:05:34.614
44157.367188, 40424.289063, 100358.476563, 81443.742188, 93389.273438, 69908.812500, 78348.453125, 98819.718750, 0, 1, 1, 0, 1,0.0,0.0,0.0,0.0,0.0, 12:05:34.614
44175.515625, 40447.625000, 100346.632813, 81423.578125, 93352.617188, 69854.382813, 78291.320313, 98772.710938, 0, 1, 1, 0, 1,0.0,0.0,0.0,0.0,0.0, 12:05:34.615
44306.988281, 40576.617188, 100203.742188, 81157.328125, 93406.820313, 69588.710938, 78202.335938, 98766.390625, 0, 1, 1, 0, 1,0.0,0.0,0.0,0.0,0.0, 12:05:34.615
44306.519531, 40573.601563, 100199.398438, 81142.125000, 93454.406250, 69617.210938, 78255.492188, 98821.664063, 0, 1, 1, 0, 1,0.0,0.0,0.0,0.0,0.0, 12:05:34.615
44187.093750, 40461.484375, 100354.437500, 81426.757813, 93412.945313, 69887.796875, 78358.750000, 98837.757813, 0, 1, 1, 0, 1,0.0,0.0,0.0,0.0,0.0, 12:05:34.616
44166.800781, 40427.308594, 100387.960938, 81479.054688, 93359.257813, 69901.929688, 78322.546875, 98785.585938, 0, 1, 1, 0, 1,0.0,0.0,0.0,0.0,0.0, 12:05:34.616
44292.460938, 40549.394531, 100235.882813, 81201.851563, 93400.429688, 69632.476563, 78212.710938, 98765.156250, 0, 1, 1, 0, 1,0.0,0.0,0.0,0.0,0.0, 12:05:34.616
44307.996094, 40567.765625, 100203.445313, 81125.031250, 93467.593750, 69598.078125, 78250.187500, 98823.140625, 0, 1, 1, 0, 1,0.0,0.0,0.0,0.0,0.0, 12:05:34.617
44192.593750, 40465.953125, 100349.804688, 81385.132813, 93422.132813, 69860.867188, 78353.453125, 98843.367188, 0, 1, 1, 0, 1,0.0,0.0,0.0,0.0,0.0, 12:05:34.617
44152.160156, 40432.785156, 100422.515625, 81512.429688, 93350.585938, 69938.335938, 78337.046875, 98787.265625, 0, 1, 1, 0, 1,0.0,0.0,0.0,0.0,0.0, 12:05:34.617
44264.097656, 40544.656250, 100291.554688, 81275.882813, 93388.601563, 69689.968750, 78237.273438, 98760.531250, 0, 1, 1, 0, 1,0.0,0.0,0.0,0.0,0.0, 12:05:34.617
44299.636719, 40578.292969, 100218.492188, 81120.179688, 93445.351563, 69571.031250, 78227.953125, 98792.828125, 0, 1, 1, 0, 1,0.0,0.0,0.0,0.0,0.0, 12:05:34.618
44203.054688, 40485.960938, 100329.984375, 81332.453125, 93429.750000, 69801.750000, 78330.320313, 98831.429688, 0, 1, 1, 0, 1,0.0,0.0,0.0,0.0,0.0, 12:05:34.618
44138.167969, 40427.957031, 100416.210938, 81515.601563, 93367.101563, 69948.640625, 78352.117188, 98806.640625, 0, 1, 1, 0, 1,0.0,0.0,0.0,0.0,0.0, 12:05:34.619
44231.285156, 40518.371094, 100317.195313, 81329.078125, 93379.820313, 69741.820313, 78256.742188, 98769.718750, 0, 1, 1, 0, 1,0.0,0.0,0.0,0.0,0.0, 12:05:34.619
44314.367188, 40596.710938, 100198.640625, 81114.257813, 93446.273438, 69559.765625, 78216.351563, 98796.875000, 0, 1, 1, 0, 1,0.0,0.0,0.0,0.0,0.0, 12:05:34.619
44201.445313, 40500.152344, 100286.171875, 81282.273438, 93435.320313, 69754.804688, 78307.320313, 98832.257813, 0, 1, 1, 0, 1,0.0,0.0,0.0,0.0,0.0, 12:05:34.620
44105.957031, 40408.621094, 100401.062500, 81507.757813, 93358.000000, 69948.484375, 78341.539063, 98799.937500, 0, 1, 1, 0, 1,0.0,0.0,0.0,0.0,0.0, 12:05:34.620
44186.871094, 40490.496094, 100319.523438, 81370.945313, 93359.296875, 69786.101563, 78256.671875, 98758.539063, 0, 1, 1, 0, 1,0.0,0.0,0.0,0.0,0.0, 12:05:34.620
44286.714844, 40587.613281, 100184.132813, 81117.070313, 93427.804688, 69561.421875, 78201.757813, 98775.125000, 0, 1, 1, 0, 1,0.0,0.0,0.0,0.0,0.0, 12:05:34.620
44211.457031, 40519.554688, 100239.234375, 81221.898438, 93437.148438, 69704.851563, 78283.296875, 98823.320313, 0, 1, 1, 0, 1,0.0,0.0,0.0,0.0,0.0, 12:05:34.621
44091.140625, 40410.500000, 100377.835938, 81489.070313, 93358.898438, 69939.320313, 78341.789063, 98808.539063, 0, 1, 1, 0, 1,0.0,0.0,0.0,0.0,0.0, 12:05:34.621
44145.296875, 40462.378906, 100328.234375, 81416.492188, 93341.281250, 69837.820313, 78271.421875, 98764.757813, 0, 1, 1, 0, 1,0.0,0.0,0.0,0.0,0.0, 12:05:34.621
44261.058594, 40572.953125, 100172.335938, 81133.585938, 93406.843750, 69577.734375, 78193.906250, 98770.570313, 0, 1, 1, 0, 1,0.0,0.0,0.0,0.0,0.0, 12:05:34.621
44210.789063, 40526.906250, 100205.726563, 81173.554688, 93436.929688, 69656.328125, 78264.968750, 98822.421875, 0, 1, 1, 0, 1,0.0,0.0,0.0,0.0,0.0, 12:05:34.622
44090.871094, 40410.523438, 100364.734375, 81462.539063, 93363.164063, 69913.328125, 78336.132813, 98814.132813, 0, 1, 1, 0, 1,0.0,0.0,0.0,0.0,0.0, 12:05:34.622
44121.246094, 40439.980469, 100355.398438, 81461.648438, 93332.703125, 69872.421875, 78286.851563, 98766.343750, 0, 1, 1, 0, 1,0.0,0.0,0.0,0.0,0.0, 12:05:34.622
44247.667969, 40563.699219, 100202.781250, 81181.109375, 93397.921875, 69608.000000, 78204.414063, 98764.148438, 0, 1, 1, 0, 1,0.0,0.0,0.0,0.0,0.0, 12:05:34.623
44235.597656, 40550.199219, 100189.859375, 81147.984375, 93445.062500, 69617.078125, 78250.015625, 98814.914063, 0, 1, 1, 0, 1,0.0,0.0,0.0,0.0,0.0, 12:05:34.623
44118.742188, 40441.457031, 100329.179688, 81421.320313, 93389.453125, 69881.296875, 78334.789063, 98826.757813, 0, 1, 1, 0, 1,0.0,0.0,0.0,0.0,0.0, 12:05:34.623
44107.343750, 40428.558594, 100365.656250, 81501.250000, 93340.367188, 69916.585938, 78307.593750, 98781.273438, 0, 1, 1, 0, 1,0.0,0.0,0.0,0.0,0.0, 12:05:34.624
44219.371094, 40534.531250, 100235.656250, 81246.398438, 93378.632813, 69657.109375, 78209.601563, 98754.453125, 0, 1, 1, 0, 1,0.0,0.0,0.0,0.0,0.0, 12:05:34.624
44255.089844, 40571.187500, 100179.421875, 81135.843750, 93433.101563, 69585.203125, 78224.445313, 98800.226563, 0, 1, 1, 0, 1,0.0,0.0,0.0,0.0,0.0, 12:05:34.624
44135.304688, 40457.035156, 100311.359375, 81387.351563, 93391.375000, 69834.648438, 78320.398438, 98821.687500, 0, 1, 1, 0, 1,0.0,0.0,0.0,0.0,0.0, 12:05:34.625
44094.714844, 40419.128906, 100384.187500, 81537.015625, 93339.093750, 69935.992188, 78322.140625, 98784.695313, 0, 1, 1, 0, 1,0.0,0.0,0.0,0.0,0.0, 12:05:34.625
44192.617188, 40506.656250, 100268.289063, 81308.085938, 93363.656250, 69699.195313, 78228.015625, 98749.132813, 0, 1, 1, 0, 1,0.0,0.0,0.0,0.0,0.0, 12:05:34.626
44258.441406, 40571.277344, 100179.304688, 81126.906250, 93422.289063, 69561.109375, 78214.765625, 98789.453125, 0, 1, 1, 0, 1,0.0,0.0,0.0,0.0,0.0, 12:05:34.626
44160.808594, 40477.332031, 100294.328125, 81341.617188, 93409.453125, 69789.562500, 78317.648438, 98831.945313, 0, 1, 1, 0, 1,0.0,0.0,0.0,0.0,0.0, 12:05:34.627
44094.601563, 40411.347656, 100385.500000, 81537.726563, 93342.382813, 69948.242188, 78336.890625, 98802.976563, 0, 1, 1, 0, 1,0.0,0.0,0.0,0.0,0.0, 12:05:34.627
44182.445313, 40496.261719, 100295.757813, 81364.859375, 93353.843750, 69756.617188, 78250.976563, 98764.953125, 0, 1, 1, 0, 1,0.0,0.0,0.0,0.0,0.0, 12:05:34.628
44264.410156, 40575.007813, 100193.320313, 81145.031250, 93416.367188, 69566.609375, 78213.335938, 98787.265625, 0, 1, 1, 0, 1,0.0,0.0,0.0,0.0,0.0, 12:05:34.628
44180.812500, 40495.773438, 100274.640625, 81297.898438, 93404.562500, 69743.835938, 78298.429688, 98827.585938, 0, 1, 1, 0, 1,0.0,0.0,0.0,0.0,0.0, 12:05:34.629
44087.250000, 40408.531250, 100408.546875, 81551.765625, 93335.382813, 69954.476563, 78343.062500, 98804.117188, 0, 1, 1, 0, 1,0.0,0.0,0.0,0.0,0.0, 12:05:34.629
44165.882813, 40484.664063, 100342.500000, 81434.242188, 93334.335938, 69803.132813, 78264.500000, 98759.484375, 0, 1, 1, 0, 1,0.0,0.0,0.0,0.0,0.0, 12:05:34.629
44273.195313, 40589.851563, 100206.242188, 81170.515625, 93404.648438, 69573.828125, 78213.492188, 98780.468750, 0, 1, 1, 0, 1,0.0,0.0,0.0,0.0,0.0, 12:05:34.629
44207.031250, 40527.289063, 100258.859375, 81255.070313, 93422.289063, 69699.484375, 78291.273438, 98830.890625, 0, 1, 1, 0, 1,0.0,0.0,0.0,0.0,0.0, 12:05:34.630
44086.398438, 40411.550781, 100401.195313, 81531.359375, 93351.429688, 69942.648438, 78350.687500, 98816.343750, 0, 1, 1, 0, 1,0.0,0.0,0.0,0.0,0.0, 12:05:34.630
44128.355469, 40449.703125, 100375.554688, 81485.539063, 93327.203125, 69852.195313, 78284.968750, 98761.093750, 0, 1, 1, 0, 1,0.0,0.0,0.0,0.0,0.0, 12:05:34.631
44241.609375, 40561.308594, 100232.375000, 81202.453125, 93378.898438, 69590.320313, 78206.515625, 98759.523438, 0, 1, 1, 0, 1,0.0,0.0,0.0,0.0,0.0, 12:05:34.631
44216.195313, 40538.554688, 100243.343750, 81217.359375, 93412.742188, 69642.843750, 78259.867188, 98807.406250, 0, 1, 1, 0, 1,0.0,0.0,0.0,0.0,0.0, 12:05:34.631
44095.566406, 40424.378906, 100386.148438, 81502.101563, 93363.437500, 69904.429688, 78341.968750, 98813.976563, 0, 1, 1, 0, 1,0.0,0.0,0.0,0.0,0.0, 12:05:34.631
44108.730469, 40439.132813, 100388.742188, 81521.953125, 93325.656250, 69888.515625, 78303.585938, 98770.164063, 0, 1, 1, 0, 1,0.0,0.0,0.0,0.0,0.0, 12:05:34.631
44231.507813, 40555.382813, 100242.562500, 81237.234375, 93376.578125, 69617.609375, 78212.218750, 98756.796875, 0, 1, 1, 0, 1,0.0,0.0,0.0,0.0,0.0, 12:05:34.632
44237.921875, 40561.710938, 100225.109375, 81183.835938, 93424.078125, 69603.890625, 78246.187500, 98803.695313, 0, 1, 1, 0, 1,0.0,0.0,0.0,0.0,0.0, 12:05:34.632
44127.750000, 40452.187500, 100363.195313, 81457.554688, 93370.367188, 69865.203125, 78331.976563, 98820.679688, 0, 1, 1, 0, 1,0.0,0.0,0.0,0.0,0.0, 12:05:34.632
44098.222656, 40424.625000, 100411.476563, 81556.171875, 93319.914063, 69914.820313, 78310.539063, 98773.273438, 0, 1, 1, 0, 1,0.0,0.0,0.0,0.0,0.0, 12:05:34.632
44219.437500, 40541.125000, 100270.812500, 81290.875000, 93365.515625, 69662.382813, 78220.304688, 98755.726563, 0, 1, 1, 0, 1,0.0,0.0,0.0,0.0,0.0, 12:05:34.632
44254.687500, 40576.527344, 100203.984375, 81153.078125, 93426.468750, 69576.437500, 78233.070313, 98803.648438, 0, 1, 1, 0, 1,0.0,0.0,0.0,0.0,0.0, 12:05:34.633
44127.125000, 40454.511719, 100326.070313, 81392.132813, 93389.984375, 69820.859375, 78325.406250, 98828.257813, 0, 1, 1, 0, 1,0.0,0.0,0.0,0.0,0.0, 12:05:34.633
44088.121094, 40409.648438, 100408.859375, 81562.226563, 93321.304688, 69938.046875, 78329.046875, 98788.312500, 0, 1, 1, 0, 1,0.0,0.0,0.0,0.0,0.0, 12:05:34.633
44197.132813, 40517.476563, 100296.875000, 81344.742188, 93358.718750, 69712.968750, 78246.007813, 98761.289063, 0, 1, 1, 0, 1,0.0,0.0,0.0,0.0,0.0, 12:05:34.633
44257.949219, 40578.898438, 100196.023438, 81144.515625, 93432.632813, 69557.125000, 78230.703125, 98794.882813, 0, 1, 1, 0, 1,0.0,0.0,0.0,0.0,0.0, 12:05:34.633
44155.644531, 40478.875000, 100303.000000, 81341.820313, 93409.320313, 69768.976563, 78317.898438, 98824.460938, 0, 1, 1, 0, 1,0.0,0.0,0.0,0.0,0.0, 12:05:34.633
44095.406250, 40412.199219, 100421.671875, 81565.554688, 93318.351563, 69944.843750, 78337.968750, 98798.195313, 0, 1, 1, 0, 1,0.0,0.0,0.0,0.0,0.0, 12:05:34.634
44184.589844, 40500.175781, 100335.210938, 81400.179688, 93347.164063, 69763.187500, 78259.242188, 98765.250000, 0, 1, 1, 0, 1,0.0,0.0,0.0,0.0,0.0, 12:05:34.634
44266.757813, 40592.644531, 100189.632813, 81141.390625, 93420.367188, 69553.820313, 78216.773438, 98790.484375, 0, 1, 1, 0, 1,0.0,0.0,0.0,0.0,0.0, 12:05:34.634
44198.851563, 40524.023438, 100250.406250, 81274.156250, 93418.085938, 69717.320313, 78300.257813, 98838.875000, 0, 1, 1, 0, 1,0.0,0.0,0.0,0.0,0.0, 12:05:34.634
44087.273438, 40419.621094, 100386.890625, 81542.492188, 93333.929688, 69939.093750, 78347.000000, 98821.882813, 0, 1, 1, 0, 1,0.0,0.0,0.0,0.0,0.0, 12:05:34.634
44147.421875, 40474.960938, 100340.015625, 81445.460938, 93337.062500, 69813.390625, 78277.796875, 98778.679688, 0, 1, 1, 0, 1,0.0,0.0,0.0,0.0,0.0, 12:05:34.634
44263.312500, 40582.429688, 100199.382813, 81161.546875, 93398.593750, 69564.414063, 78214.742188, 98781.500000, 0, 1, 1, 0, 1,0.0,0.0,0.0,0.0,0.0, 12:05:34.635
44226.703125, 40546.777344, 100232.843750, 81226.820313, 93417.343750, 69674.093750, 78290.289063, 98842.921875, 0, 1, 1, 0, 1,0.0,0.0,0.0,0.0,0.0, 12:05:34.635
44101.800781, 40430.214844, 100384.632813, 81519.132813, 93342.578125, 69929.507813, 78353.031250, 98834.203125, 0, 1, 1, 0, 1,0.0,0.0,0.0,0.0,0.0, 12:05:34.635
44123.371094, 40451.156250, 100368.937500, 81491.976563, 93296.468750, 69856.375000, 78284.281250, 98771.617188, 0, 1, 1, 0, 1,0.0,0.0,0.0,0.0,0.0, 12:05:34.635
44256.386719, 40569.914063, 100223.523438, 81199.679688, 93361.375000, 69585.468750, 78202.289063, 98762.273438, 0, 1, 1, 0, 1,0.0,0.0,0.0,0.0,0.0, 12:05:34.635
44246.148438, 40569.019531, 100218.468750, 81186.226563, 93431.046875, 69623.828125, 78267.000000, 98828.656250, 0, 1, 1, 0, 1,0.0,0.0,0.0,0.0,0.0, 12:05:34.636
44105.667969, 40439.042969, 100355.304688, 81467.234375, 93365.625000, 69887.601563, 78342.750000, 98835.921875, 0, 1, 1, 0, 1,0.0,0.0,0.0,0.0,0.0, 12:05:34.636
44110.539063, 40444.003906, 100359.664063, 81506.796875, 93320.992188, 69888.445313, 78305.984375, 98793.968750, 0, 1, 1, 0, 1,0.0,0.0,0.0,0.0,0.0, 12:05:34.636
44246.304688, 40569.800781, 100220.750000, 81229.390625, 93378.835938, 69631.023438, 78227.257813, 98784.093750, 0, 1, 1, 0, 1,0.0,0.0,0.0,0.0,0.0, 12:05:34.636
44240.269531, 40581.960938, 100168.000000, 81133.367188, 93424.234375, 69590.679688, 78251.148438, 98831.007813, 0, 1, 1, 0, 1,0.0,0.0,0.0,0.0,0.0, 12:05:34.636
44109.421875, 40457.394531, 100300.585938, 81402.257813, 93364.398438, 69846.875000, 78332.625000, 98838.671875, 0, 1, 1, 0, 1,0.0,0.0,0.0,0.0,0.0, 12:05:34.637
44074.218750, 40419.910156, 100361.765625, 81528.921875, 93285.273438, 69913.281250, 78307.546875, 98785.367188, 0, 1, 1, 0, 1,0.0,0.0,0.0,0.0,0.0, 12:05:34.637
44204.171875, 40547.671875, 100221.796875, 81270.914063, 93327.382813, 69660.257813, 78217.468750, 98766.476563, 0, 1, 1, 0, 1,0.0,0.0,0.0,0.0,0.0, 12:05:34.637
44248.496094, 40603.664063, 100144.281250, 81112.109375, 93410.710938, 69556.437500, 78232.062500, 98818.601563, 0, 1, 1, 0, 1,0.0,0.0,0.0,0.0,0.0, 12:05:34.637
44121.046875, 40486.585938, 100263.125000, 81349.078125, 93359.523438, 69791.289063, 78309.937500, 98836.304688, 0, 1, 1, 0, 1,0.0,0.0,0.0,0.0,0.0, 12:05:34.637
44078.554688, 40431.441406, 100352.445313, 81535.492188, 93296.757813, 69924.164063, 78312.437500, 98793.390625, 0, 1, 1, 0, 1,0.0,0.0,0.0,0.0,0.0, 12:05:34.637
44176.500000, 40527.062500, 100228.304688, 81317.789063, 93311.960938, 69708.984375, 78224.421875, 98761.601563, 0, 1, 1, 0, 1,0.0,0.0,0.0,0.0,0.0, 12:05:34.638
44225.652344, 40593.402344, 100122.375000, 81103.390625, 93381.921875, 69542.937500, 78211.007813, 98795.179688, 0, 1, 1, 0, 1,0.0,0.0,0.0,0.0,0.0, 12:05:34.638
44128.914063, 40498.812500, 100217.414063, 81290.679688, 93365.335938, 69744.859375, 78298.226563, 98834.492188, 0, 1, 1, 0, 1,0.0,0.0,0.0,0.0,0.0, 12:05:34.638
44041.964844, 40405.851563, 100337.890625, 81533.281250, 93274.718750, 69931.695313, 78318.007813, 98797.414063, 0, 1, 1, 0, 1,0.0,0.0,0.0,0.0,0.0, 12:05:34.639
44108.281250, 40476.191406, 100245.562500, 81374.562500, 93279.773438, 69756.867188, 78235.484375, 98754.359375, 0, 1, 1, 0, 1,0.0,0.0,0.0,0.0,0.0, 12:05:34.639
44230.792969, 40593.671875, 100125.328125, 81118.968750, 93372.171875, 69545.078125, 78205.132813, 98786.031250, 0, 1, 1, 0, 1,0.0,0.0,0.0,0.0,0.0, 12:05:34.639
44160.339844, 40521.320313, 100202.664063, 81245.414063, 93378.546875, 69694.835938, 78287.562500, 98831.609375, 0, 1, 1, 0, 1,0.0,0.0,0.0,0.0,0.0, 12:05:34.639
44037.449219, 40407.816406, 100319.968750, 81506.906250, 93300.890625, 69916.742188, 78331.726563, 98811.429688, 0, 1, 1, 0, 1,0.0,0.0,0.0,0.0,0.0, 12:05:34.639
44114.207031, 40470.691406, 100273.789063, 81425.437500, 93295.664063, 69804.117188, 78269.054688, 98766.679688, 0, 1, 1, 0, 1,0.0,0.0,0.0,0.0,0.0, 12:05:34.639
44219.058594, 40579.187500, 100125.773438, 81130.640625, 93366.718750, 69548.390625, 78206.898438, 98778.726563, 0, 1, 1, 0, 1,0.0,0.0,0.0,0.0,0.0, 12:05:34.640
44183.765625, 40533.457031, 100147.125000, 81169.617188, 93385.632813, 69626.687500, 78266.554688, 98827.382813, 0, 1, 1, 0, 1,0.0,0.0,0.0,0.0,0.0, 12:05:34.640
44074.867188, 40422.234375, 100299.515625, 81468.906250, 93326.781250, 69889.273438, 78341.210938, 98826.492188, 0, 1, 1, 0, 1,0.0,0.0,0.0,0.0,0.0, 12:05:34.640
44066.531250, 40432.382813, 100297.906250, 81472.484375, 93293.250000, 69846.250000, 78289.820313, 98771.773438, 0, 1, 1, 0, 1,0.0,0.0,0.0,0.0,0.0, 12:05:34.640
44194.960938, 40554.800781, 100147.125000, 81174.421875, 93364.734375, 69578.203125, 78215.656250, 98771.929688, 0, 1, 1, 0, 1,0.0,0.0,0.0,0.0,0.0, 12:05:34.640
44218.386719, 40551.898438, 100136.929688, 81140.828125, 93408.023438, 69594.570313, 78263.492188, 98826.335938, 0, 1, 1, 0, 1,0.0,0.0,0.0,0.0,0.0, 12:05:34.641
44080.230469, 40435.511719, 100279.554688, 81431.984375, 93345.421875, 69858.812500, 78340.937500, 98832.820313, 0, 1, 1, 0, 1,0.0,0.0,0.0,0.0,0.0, 12:05:34.641
44059.218750, 40423.910156, 100298.289063, 81499.085938, 93300.960938, 69875.843750, 78304.843750, 98781.789063, 0, 1, 1, 0, 1,0.0,0.0,0.0,0.0,0.0, 12:05:34.641
44185.621094, 40537.480469, 100157.851563, 81215.437500, 93350.023438, 69613.546875, 78219.414063, 98766.164063, 0, 1, 1, 0, 1,0.0,0.0,0.0,0.0,0.0, 12:05:34.641
44224.800781, 40573.355469, 100104.007813, 81101.000000, 93406.484375, 69556.523438, 78246.390625, 98821.593750, 0, 1, 1, 0, 1,0.0,0.0,0.0,0.0,0.0, 12:05:34.641
44091.273438, 40452.164063, 100251.187500, 81379.078125, 93362.140625, 69816.703125, 78338.210938, 98839.992188, 0, 1, 1, 0, 1,0.0,0.0,0.0,0.0,0.0, 12:05:34.641
44047.957031, 40409.851563, 100321.578125, 81529.507813, 93295.195313, 69907.781250, 78324.960938, 98793.703125, 0, 1, 1, 0, 1,0.0,0.0,0.0,0.0,0.0, 12:05:34.642
44162.484375, 40517.789063, 100194.125000, 81281.578125, 93337.328125, 69664.882813, 78233.765625, 98766.296875, 0, 1, 1, 0, 1,0.0,0.0,0.0,0.0,0.0, 12:05:34.642
44244.292969, 40595.550781, 100107.492188, 81099.210938, 93430.039063, 69543.046875, 78243.867188, 98822.867188, 0, 1, 1, 0, 1,0.0,0.0,0.0,0.0,0.0, 12:05:34.642
44139.710938, 40487.636719, 100226.828125, 81324.070313, 93397.968750, 69773.250000, 78333.500000, 98855.679688, 0, 1, 1, 0, 1,0.0,0.0,0.0,0.0,0.0, 12:05:34.642
44067.558594, 40418.925781, 100327.343750, 81535.335938, 93317.320313, 69925.554688, 78340.109375, 98818.351563, 0, 1, 1, 0, 1,0.0,0.0,0.0,0.0,0.0, 12:05:34.642
44175.984375, 40513.585938, 100226.421875, 81339.515625, 93349.531250, 69724.320313, 78258.976563, 98784.359375, 0, 1, 1, 0, 1,0.0,0.0,0.0,0.0,0.0, 12:05:34.642
44240.941406, 40594.207031, 100106.773438, 81098.164063, 93433.617188, 69537.031250, 78237.335938, 98817.101563, 0, 1, 1, 0, 1,0.0,0.0,0.0,0.0,0.0, 12:05:34.643
44133.585938, 40501.671875, 100182.507813, 81258.734375, 93405.679688, 69718.148438, 78314.992188, 98854.523438, 0, 1, 1, 0, 1,0.0,0.0,0.0,0.0,0.0, 12:05:34.643
44046.324219, 40407.660156, 100313.664063, 81520.812500, 93332.585938, 69923.296875, 78351.156250, 98824.054688, 0, 1, 1, 0, 1,0.0,0.0,0.0,0.0,0.0, 12:05:34.643
44143.710938, 40496.175781, 100229.820313, 81383.234375, 93342.515625, 69769.601563, 78275.898438, 98786.820313, 0, 1, 1, 0, 1,0.0,0.0,0.0,0.0,0.0, 12:05:34.643
44235.820313, 40593.136719, 100089.070313, 81103.929688, 93422.109375, 69542.085938, 78230.859375, 98808.921875, 0, 1, 1, 0, 1,0.0,0.0,0.0,0.0,0.0, 12:05:34.643
44173.906250, 40522.347656, 100151.929688, 81207.687500, 93417.460938, 69674.343750, 78298.023438, 98848.484375, 0, 1, 1, 0, 1,0.0,0.0,0.0,0.0,0.0, 12:05:34.644
44065.367188, 40413.160156, 100295.312500, 81493.632813, 93351.093750, 69912.992188, 78350.664063, 98835.273438, 0, 1, 1, 0, 1,0.0,0.0,0.0,0.0,0.0, 12:05:34.644
44108.796875, 40458.621094, 100259.664063, 81432.117188, 93342.312500, 69821.570313, 78290.828125, 98791.421875, 0, 1, 1, 0, 1,0.0,0.0,0.0,0.0,0.0, 12:05:34.644
44210.964844, 40563.675781, 100121.328125, 81139.289063, 93408.765625, 69564.367188, 78228.843750, 98794.750000, 0, 1, 1, 0, 1,0.0,0.0,0.0,0.0,0.0, 12:05:35.095
44207.523438, 40544.296875, 100134.156250, 81156.656250, 93450.539063, 69628.585938, 78293.125000, 98853.648438, 0, 1, 1, 0, 1,0.0,0.0,0.0,0.0,0.0, 12:05:35.096
44073.683594, 40429.945313, 100286.976563, 81458.203125, 93376.710938, 69893.031250, 78362.890625, 98853.046875, 0, 1, 1, 0, 1,0.0,0.0,0.0,0.0,0.0, 12:05:35.096
44077.394531, 40435.019531, 100293.390625, 81480.640625, 93325.281250, 69865.445313, 78307.500000, 98797.679688, 0, 1, 1, 0, 1,0.0,0.0,0.0,0.0,0.0, 12:05:35.097
44211.054688, 40556.589844, 100137.507813, 81178.492188, 93389.632813, 69595.882813, 78229.070313, 98792.156250, 0, 1, 1, 0, 1,0.0,0.0,0.0,0.0,0.0, 12:05:35.097
44227.796875, 40569.890625, 100114.375000, 81121.562500, 93443.812500, 69593.093750, 78273.546875, 98848.218750, 0, 1, 1, 0, 1,0.0,0.0,0.0,0.0,0.0, 12:05:35.097
44077.078125, 40436.093750, 100258.343750, 81410.125000, 93383.148438, 69852.195313, 78346.882813, 98848.398438, 0, 1, 1, 0, 1,0.0,0.0,0.0,0.0,0.0, 12:05:35.098
44059.554688, 40417.003906, 100302.734375, 81505.679688, 93327.492188, 69889.562500, 78315.281250, 98792.671875, 0, 1, 1, 0, 1,0.0,0.0,0.0,0.0,0.0, 12:05:35.098
44197.667969, 40537.949219, 100155.953125, 81223.218750, 93380.195313, 69630.843750, 78230.703125, 98778.367188, 0, 1, 1, 0, 1,0.0,0.0,0.0,0.0,0.0, 12:05:35.098
44231.238281, 40574.046875, 100103.421875, 81091.882813, 93438.890625, 69556.187500, 78245.382813, 98825.710938, 0, 1, 1, 0, 1,0.0,0.0,0.0,0.0,0.0, 12:05:35.099
44107.949219, 40459.382813, 100229.914063, 81346.179688, 93387.710938, 69799.757813, 78322.898438, 98838.984375, 0, 1, 1, 0, 1,0.0,0.0,0.0,0.0,0.0, 12:05:35.099
44060.917969, 40410.589844, 100303.804688, 81509.546875, 93326.242188, 69905.953125, 78319.953125, 98800.656250, 0, 1, 1, 0, 1,0.0,0.0,0.0,0.0,0.0, 12:05:35.099
44162.933594, 40514.992188, 100187.804688, 81277.781250, 93366.562500, 69678.093750, 78237.921875, 98778.593750, 0, 1, 1, 0, 1,0.0,0.0,0.0,0.0,0.0, 12:05:35.099
44228.492188, 40576.664063, 100094.281250, 81078.648438, 93439.359375, 69532.875000, 78231.773438, 98817.015625, 0, 1, 1, 0, 1,0.0,0.0,0.0,0.0,0.0, 12:05:35.100
44132.378906, 40476.816406, 100204.703125, 81289.359375, 93410.328125, 69747.523438, 78315.523438, 98846.023438, 0, 1, 1, 0, 1,0.0,0.0,0.0,0.0,0.0, 12:05:35.100
44077.816406, 40419.351563, 100311.476563, 81514.085938, 93338.671875, 69916.679688, 78334.414063, 98817.546875, 0, 1, 1, 0, 1,0.0,0.0,0.0,0.0,0.0, 12:05:35.100
44167.804688, 40506.859375, 100201.125000, 81324.382813, 93364.554688, 69724.476563, 78257.031250, 98787.039063, 0, 1, 1, 0, 1,0.0,0.0,0.0,0.0,0.0, 12:05:35.101
44250.664063, 40588.488281, 100091.265625, 81079.320313, 93439.359375, 69527.468750, 78229.562500, 98814.625000, 0, 1, 1, 0, 1,0.0,0.0,0.0,0.0,0.0, 12:05:35.101
44173.011719, 40512.980469, 100180.828125, 81239.398438, 93432.992188, 69704.046875, 78314.898438, 98858.031250, 0, 1, 1, 0, 1,0.0,0.0,0.0,0.0,0.0, 12:05:35.101
44057.253906, 40402.363281, 100321.132813, 81514.664063, 93361.039063, 69921.375000, 78356.429688, 98832.414063, 0, 1, 1, 0, 1,0.0,0.0,0.0,0.0,0.0, 12:05:35.101
44111.925781, 40462.042969, 100259.906250, 81398.523438, 93352.125000, 69778.609375, 78277.843750, 98783.890625, 0, 1, 1, 0, 1,0.0,0.0,0.0,0.0,0.0, 12:05:35.102
44241.187500, 40576.929688, 100108.296875, 81102.226563, 93430.375000, 69534.531250, 78225.023438, 98801.656250, 0, 1, 1, 0, 1,0.0,0.0,0.0,0.0,0.0, 12:05:35.102
44191.097656, 40523.734375, 100151.007813, 81183.656250, 93444.414063, 69649.304688, 78296.148438, 98849.398438, 0, 1, 1, 0, 1,0.0,0.0,0.0,0.0,0.0, 12:05:35.102
44057.140625, 40405.402344, 100306.109375, 81487.390625, 93362.765625, 69896.406250, 78349.367188, 98831.187500, 0, 1, 1, 0, 1,0.0,0.0,0.0,0.0,0.0, 12:05:35.103
44100.816406, 40450.800781, 100278.460938, 81448.281250, 93340.140625, 69816.742188, 78286.062500, 98785.656250, 0, 1, 1, 0, 1,0.0,0.0,0.0,0.0,0.0, 12:05:35.103
44231.796875, 40574.425781, 100117.304688, 81138.171875, 93411.492188, 69550.554688, 78218.382813, 98791.890625, 0, 1, 1, 0, 1,0.0,0.0,0.0,0.0,0.0, 12:05:35.103
44211.347656, 40556.992188, 100143.101563, 81151.875000, 93442.179688, 69604.156250, 78276.296875, 98843.593750, 0, 1, 1, 0, 1,0.0,0.0,0.0,0.0,0.0, 12:05:35.103
44092.078125, 40444.093750, 100289.906250, 81451.523438, 93380.085938, 69865.000000, 78347.976563, 98844.414063, 0, 1, 1, 0, 1,0.0,0.0,0.0,0.0,0.0, 12:05:35.104
44078.062500, 40427.175781, 100288.789063, 81478.070313, 93332.546875, 69848.796875, 78303.187500, 98788.601563, 0, 1, 1, 0, 1,0.0,0.0,0.0,0.0,0.0, 12:05:35.104
44212.332031, 40555.070313, 100141.937500, 81183.570313, 93391.218750, 69584.484375, 78227.992188, 98781.945313, 0, 1, 1, 0, 1,0.0,0.0,0.0,0.0,0.0, 12:05:35.105
44224.289063, 40562.894531, 100117.015625, 81109.742188, 93439.164063, 69561.578125, 78263.890625, 98833.531250, 0, 1, 1, 0, 1,0.0,0.0,0.0,0.0,0.0, 12:05:35.105
44096.503906, 40442.058594, 100268.718750, 81399.593750, 93384.398438, 69826.085938, 78345.992188, 98848.734375, 0, 1, 1, 0, 1,0.0,0.0,0.0,0.0,0.0, 12:05:35.105
44068.609375, 40417.628906, 100315.382813, 81515.398438, 93329.460938, 69887.445313, 78324.664063, 98803.734375, 0, 1, 1, 0, 1,0.0,0.0,0.0,0.0,0.0, 12:05:35.105
44197.937500, 40536.988281, 100170.125000, 81242.148438, 93381.312500, 69635.093750, 78242.101563, 98786.234375, 0, 1, 1, 0, 1,0.0,0.0,0.0,0.0,0.0, 12:05:35.106
44246.507813, 40577.781250, 100106.351563, 81095.570313, 93448.015625, 69542.351563, 78255.804688, 98832.343750, 0, 1, 1, 0, 1,0.0,0.0,0.0,0.0,0.0, 12:05:35.106
44124.867188, 40465.082031, 100241.851563, 81353.531250, 93409.125000, 69788.578125, 78342.390625, 98855.773438, 0, 1, 1, 0, 1,0.0,0.0,0.0,0.0,0.0, 12:05:35.107
44067.066406, 40406.855469, 100332.328125, 81542.937500, 93337.750000, 69915.335938, 78341.054688, 98816.257813, 0, 1, 1, 0, 1,0.0,0.0,0.0,0.0,0.0, 12:05:35.108
44167.515625, 40500.824219, 100215.984375, 81318.976563, 93359.234375, 69690.367188, 78249.632813, 98783.242188, 0, 1, 1, 0, 1,0.0,0.0,0.0,0.0,0.0, 12:05:35.109
44249.343750, 40582.117188, 100114.171875, 81098.359375, 93436.320313, 69526.460938, 78236.039063, 98820.632813, 0, 1, 1, 0, 1,0.0,0.0,0.0,0.0,0.0, 12:05:35.109
44158.105469, 40495.144531, 100217.796875, 81295.664063, 93421.750000, 69733.617188, 78322.718750, 98857.156250, 0, 1, 1, 0, 1,0.0,0.0,0.0,0.0,0.0, 12:05:35.109
44059.800781, 40399.996094, 100336.421875, 81536.882813, 93343.296875, 69913.210938, 78346.484375, 98822.179688, 0, 1, 1, 0, 1,0.0,0.0,0.0,0.0,0.0, 12:05:35.109
44131.417969, 40466.757813, 100259.484375, 81375.320313, 93348.171875, 69735.609375, 78264.656250, 98776.000000, 0, 1, 1, 0, 1,0.0,0.0,0.0,0.0,0.0, 12:05:35.110
44252.808594, 40581.468750, 100116.898438, 81098.984375, 93435.273438, 69519.398438, 78230.562500, 98808.320313, 0, 1, 1, 0, 1,0.0,0.0,0.0,0.0,0.0, 12:05:35.110
44180.812500, 40511.777344, 100194.578125, 81238.101563, 93437.734375, 69680.804688, 78314.382813, 98853.757813, 0, 1, 1, 0, 1,0.0,0.0,0.0,0.0,0.0, 12:05:35.110
44071.042969, 40406.632813, 100342.875000, 81528.250000, 93360.726563, 69906.617188, 78355.671875, 98829.109375, 0, 1, 1, 0, 1,0.0,0.0,0.0,0.0,0.0, 12:05:35.110
44128.062500, 40460.476563, 100281.500000, 81427.718750, 93355.210938, 69783.195313, 78281.976563, 98787.265625, 0, 1, 1, 0, 1,0.0,0.0,0.0,0.0,0.0, 12:05:35.111
44247.937500, 40573.914063, 100128.617188, 81124.179688, 93433.843750, 69531.382813, 78228.578125, 98802.375000, 0, 1, 1, 0, 1,0.0,0.0,0.0,0.0,0.0, 12:05:35.111
44210.878906, 40540.117188, 100162.320313, 81182.921875, 93460.929688, 69627.851563, 78299.632813, 98853.000000, 0, 1, 1, 0, 1,0.0,0.0,0.0,0.0,0.0, 12:05:35.111
44081.257813, 40416.312500, 100325.687500, 81496.109375, 93381.789063, 69884.984375, 78354.460938, 98839.609375, 0, 1, 1, 0, 1,0.0,0.0,0.0,0.0,0.0, 12:05:35.111
44120.710938, 40445.613281, 100309.687500, 81482.031250, 93361.039063, 69828.945313, 78301.328125, 98794.390625, 0, 1, 1, 0, 1,0.0,0.0,0.0,0.0,0.0, 12:05:35.111
44235.195313, 40555.695313, 100155.500000, 81173.242188, 93432.390625, 69561.710938, 78234.703125, 98797.210938, 0, 1, 1, 0, 1,0.0,0.0,0.0,0.0,0.0, 12:05:35.112
44223.996094, 40546.734375, 100147.906250, 81146.867188, 93471.078125, 69582.875000, 78287.695313, 98846.632813, 0, 1, 1, 0, 1,0.0,0.0,0.0,0.0,0.0, 12:05:35.112
44103.343750, 40433.542969, 100304.835938, 81452.210938, 93404.070313, 69846.828125, 78361.234375, 98844.507813, 0, 1, 1, 0, 1,0.0,0.0,0.0,0.0,0.0, 12:05:35.112
44090.468750, 40426.636719, 100330.804688, 81517.367188, 93355.054688, 69857.398438, 78319.523438, 98791.890625, 0, 1, 1, 0, 1,0.0,0.0,0.0,0.0,0.0, 12:05:35.112
44199.632813, 40543.671875, 100172.554688, 81216.890625, 93409.320313, 69587.773438, 78234.367188, 98779.953125, 0, 1, 1, 0, 1,0.0,0.0,0.0,0.0,0.0, 12:05:35.112
44212.800781, 40542.351563, 100135.250000, 81116.734375, 93460.375000, 69541.437500, 78262.304688, 98826.156250, 0, 1, 1, 0, 1,0.0,0.0,0.0,0.0,0.0, 12:05:35.112
44099.589844, 40429.207031, 100276.539063, 81395.710938, 93405.570313, 69794.304688, 78340.046875, 98840.953125, 0, 1, 1, 0, 1,0.0,0.0,0.0,0.0,0.0, 12:05:35.113
44068.832031, 40405.468750, 100333.492188, 81532.765625, 93354.718750, 69875.171875, 78328.687500, 98807.875000, 0, 1, 1, 0, 1,0.0,0.0,0.0,0.0,0.0, 12:05:35.113
44180.054688, 40507.550781, 100197.367188, 81270.109375, 93398.460938, 69634.375000, 78245.523438, 98787.171875, 0, 1, 1, 0, 1,0.0,0.0,0.0,0.0,0.0, 12:05:35.113
44240.089844, 40562.402344, 100125.398438, 81097.132813, 93465.132813, 69519.554688, 78250.796875, 98828.414063, 0, 1, 1, 0, 1,0.0,0.0,0.0,0.0,0.0, 12:05:35.113
44128.132813, 40459.250000, 100250.968750, 81335.445313, 93435.609375, 69752.703125, 78341.695313, 98859.328125, 0, 1, 1, 0, 1,0.0,0.0,0.0,0.0,0.0, 12:05:35.114
44073.593750, 40410.320313, 100344.664063, 81536.281250, 93376.062500, 69893.765625, 78352.562500, 98826.890625, 0, 1, 1, 0, 1,0.0,0.0,0.0,0.0,0.0, 12:05:35.114
44151.644531, 40486.628906, 100232.640625, 81324.453125, 93397.117188, 69682.812500, 78271.312500, 98787.937500, 0, 1, 1, 0, 1,0.0,0.0,0.0,0.0,0.0, 12:05:35.114
44246.953125, 40569.152344, 100124.546875, 81088.281250, 93465.093750, 69503.570313, 78251.085938, 98821.101563, 0, 1, 1, 0, 1,0.0,0.0,0.0,0.0,0.0, 12:05:35.114
44143.621094, 40477.933594, 100228.460938, 81276.414063, 93442.445313, 69696.289063, 78328.312500, 98855.546875, 0, 1, 1, 0, 1,0.0,0.0,0.0,0.0,0.0, 12:05:35.115
44052.246094, 40387.746094, 100363.062500, 81540.703125, 93363.812500, 69893.500000, 78358.375000, 98823.406250, 0, 1, 1, 0, 1,0.0,0.0,0.0,0.0,0.0, 12:05:35.115
44124.554688, 40458.421875, 100268.718750, 81382.031250, 93364.148438, 69724.093750, 78277.726563, 98780.312500, 0, 1, 1, 0, 1,0.0,0.0,0.0,0.0,0.0, 12:05:35.115
44261.503906, 40581.156250, 100120.140625, 81098.093750, 93456.437500, 69502.726563, 78242.210938, 98815.960938, 0, 1, 1, 0, 1,0.0,0.0,0.0,0.0,0.0, 12:05:35.115
44195.343750, 40513.050781, 100194.039063, 81222.210938, 93470.585938, 69651.523438, 78327.148438, 98864.804688, 0, 1, 1, 0, 1,0.0,0.0,0.0,0.0,0.0, 12:05:35.115
44059.445313, 40392.976563, 100343.929688, 81517.414063, 93389.250000, 69886.437500, 78370.937500, 98837.781250, 0, 1, 1, 0, 1,0.0,0.0,0.0,0.0,0.0, 12:05:35.115
44100.683594, 40440.742188, 100285.234375, 81433.976563, 93366.046875, 69777.226563, 78297.171875, 98790.929688, 0, 1, 1, 0, 1,0.0,0.0,0.0,0.0,0.0, 12:05:35.116
44240.558594, 40556.097656, 100132.054688, 81128.718750, 93430.625000, 69523.507813, 78236.398438, 98799.156250, 0, 1, 1, 0, 1,0.0,0.0,0.0,0.0,0.0, 12:05:35.116
44189.285156, 40510.546875, 100168.000000, 81173.148438, 93455.343750, 69602.656250, 78301.468750, 98846.945313, 0, 1, 1, 0, 1,0.0,0.0,0.0,0.0,0.0, 12:05:35.116
44049.699219, 40392.328125, 100320.304688, 81476.015625, 93388.242188, 69855.437500, 78363.085938, 98838.804688, 0, 1, 1, 0, 1,0.0,0.0,0.0,0.0,0.0, 12:05:35.116
44087.652344, 40418.031250, 100315.656250, 81483.101563, 93367.414063, 69817.617188, 78315.257813, 98793.898438, 0, 1, 1, 0, 1,0.0,0.0,0.0,0.0,0.0, 12:05:35.116
44224.355469, 40548.074219, 100146.789063, 81170.671875, 93436.859375, 69549.929688, 78244.695313, 98799.515625, 0, 1, 1, 0, 1,0.0,0.0,0.0,0.0,0.0, 12:05:35.116
44248.472656, 40566.941406, 100139.812500, 81136.718750, 93500.156250, 69569.265625, 78303.609375, 98866.882813, 0, 1, 1, 0, 1,0.0,0.0,0.0,0.0,0.0, 12:05:35.117
44086.085938, 40420.691406, 100300.992188, 81443.359375, 93412.671875, 69836.054688, 78373.929688, 98862.812500, 0, 1, 1, 0, 1,0.0,0.0,0.0,0.0,0.0, 12:05:35.117
44062.863281, 40403.035156, 100327.968750, 81519.578125, 93354.648438, 69864.976563, 78335.734375, 98816.054688, 0, 1, 1, 0, 1,0.0,0.0,0.0,0.0,0.0, 12:05:35.117
44198.941406, 40527.375000, 100178.640625, 81223.601563, 93416.968750, 69607.820313, 78251.421875, 98808.250000, 0, 1, 1, 0, 1,0.0,0.0,0.0,0.0,0.0, 12:05:35.117
44215.906250, 40553.707031, 100119.335938, 81097.851563, 93477.765625, 69544.570313, 78277.195313, 98855.773438, 0, 1, 1, 0, 1,0.0,0.0,0.0,0.0,0.0, 12:05:35.117
44107.679688, 40437.007813, 100263.015625, 81374.226563, 93426.039063, 69799.000000, 78358.265625, 98873.164063, 0, 1, 1, 0, 1,0.0,0.0,0.0,0.0,0.0, 12:05:35.117
44060.917969, 40391.656250, 100347.773438, 81541.664063, 93376.375000, 69899.625000, 78349.164063, 98830.406250, 0, 1, 1, 0, 1,0.0,0.0,0.0,0.0,0.0, 12:05:35.118
44176.589844, 40508.714844, 100203.742188, 81287.343750, 93401.164063, 69661.492188, 78258.664063, 98808.875000, 0, 1, 1, 0, 1,0.0,0.0,0.0,0.0,0.0, 12:05:35.118
44248.160156, 40582.832031, 100121.750000, 81099.476563, 93485.359375, 69533.304688, 78268.789063, 98858.835938, 0, 1, 1, 0, 1,0.0,0.0,0.0,0.0,0.0, 12:05:35.118
44129.605469, 40464.949219, 100254.320313, 81339.226563, 93444.796875, 69762.945313, 78353.679688, 98884.781250, 0, 1, 1, 0, 1,0.0,0.0,0.0,0.0,0.0, 12:05:35.118
44029.851563, 40374.558594, 100362.773438, 81562.828125, 93355.273438, 69915.781250, 78353.609375, 98832.304688, 0, 1, 1, 0, 1,0.0,0.0,0.0,0.0,0.0, 12:05:35.118
44155.175781, 40483.500000, 100243.187500, 81356.257813, 93376.039063, 69710.039063, 78266.796875, 98799.515625, 0, 1, 1, 0, 1,0.0,0.0,0.0,0.0,0.0, 12:05:35.118
44241.855469, 40571.812500, 100119.695313, 81100.953125, 93464.195313, 69517.250000, 78246.953125, 98833.757813, 0, 1, 1, 0, 1,0.0,0.0,0.0,0.0,0.0, 12:05:35.118
44147.757813, 40488.550781, 100209.101563, 81267.343750, 93454.453125, 69699.085938, 78331.843750, 98871.867188, 0, 1, 1, 0, 1,0.0,0.0,0.0,0.0,0.0, 12:05:35.119
44050.437500, 40400.687500, 100335.773438, 81534.554688, 93378.789063, 69908.117188, 78368.609375, 98845.710938, 0, 1, 1, 0, 1,0.0,0.0,0.0,0.0,0.0, 12:05:35.119
44124.800781, 40465.617188, 100269.718750, 81411.468750, 93372.039063, 69764.710938, 78301.375000, 98804.898438, 0, 1, 1, 0, 1,0.0,0.0,0.0,0.0,0.0, 12:05:35.119
44239.332031, 40578.898438, 100112.609375, 81109.695313, 93443.718750, 69526.843750, 78257.078125, 98829.507813, 0, 1, 1, 0, 1,0.0,0.0,0.0,0.0,0.0, 12:05:35.119
44174.824219, 40511.531250, 100164.039063, 81203.414063, 93442.492188, 69651.500000, 78321.335938, 98868.335938, 0, 1, 1, 0, 1,0.0,0.0,0.0,0.0,0.0, 12:05:35.120
44047.957031, 40389.644531, 100331.101563, 81516.945313, 93362.492188, 69897.679688, 78371.070313, 98845.218750, 0, 1, 1, 0, 1,0.0,0.0,0.0,0.0,0.0, 12:05:35.120
44084.164063, 40423.640625, 100284.203125, 81453.242188, 93340.750000, 69804.156250, 78304.843750, 98794.820313, 0, 1, 1, 0, 1,0.0,0.0,0.0,0.0,0.0, 12:05:35.120
44214.050781, 40559.273438, 100122.445313, 81140.156250, 93425.328125, 69544.007813, 78248.468750, 98810.531250, 0, 1, 1, 0, 1,0.0,0.0,0.0,0.0,0.0, 12:05:35.120
44187.699219, 40532.785156, 100155.171875, 81167.359375, 93457.179688, 69608.671875, 78309.398438, 98859.546875, 0, 1, 1, 0, 1,0.0,0.0,0.0,0.0,0.0, 12:05:35.120
44064.539063, 40401.605469, 100309.375000, 81474.117188, 93383.101563, 69866.054688, 78368.500000, 98848.687500, 0, 1, 1, 0, 1,0.0,0.0,0.0,0.0,0.0, 12:05:35.121
44080.632813, 40411.640625, 100313.796875, 81500.578125, 93334.867188, 69845.757813, 78322.343750, 98800.632813, 0, 1, 1, 0, 1,0.0,0.0,0.0,0.0,0.0, 12:05:35.121
44206.808594, 40540.519531, 100158.031250, 81195.414063, 93401.164063, 69579.054688, 78245.992188, 98795.375000, 0, 1, 1, 0, 1,0.0,0.0,0.0,0.0,0.0, 12:05:35.121
44199.945313, 40548.835938, 100118.648438, 81115.664063, 93457.421875, 69560.593750, 78282.492188, 98847.703125, 0, 1, 1, 0, 1,0.0,0.0,0.0,0.0,0.0, 12:05:35.121
44071.089844, 40420.312500, 100272.335938, 81413.031250, 93405.007813, 69826.710938, 78368.562500, 98858.859375, 0, 1, 1, 0, 1,0.0,0.0,0.0,0.0,0.0, 12:05:35.122
44046.277344, 40392.910156, 100315.007813, 81515.531250, 93337.796875, 69872.734375, 78335.421875, 98809.390625, 0, 1, 1, 0, 1,0.0,0.0,0.0,0.0,0.0, 12:05:35.122
44165.347656, 40502.523438, 100166.546875, 81231.648438, 93379.015625, 69612.828125, 78247.015625, 98787.601563, 0, 1, 1, 0, 1,0.0,0.0,0.0,0.0,0.0, 12:05:35.122
44222.457031, 40556.480469, 100102.148438, 81085.937500, 93454.156250, 69528.718750, 78271.250000, 98843.078125, 0, 1, 1, 0, 1,0.0,0.0,0.0,0.0,0.0, 12:05:35.122
44102.718750, 40441.253906, 100243.953125, 81354.578125, 93415.226563, 69779.507813, 78358.218750, 98867.617188, 0, 1, 1, 0, 1,0.0,0.0,0.0,0.0,0.0, 12:05:35.122
44050.281250, 40389.937500, 100318.757813, 81529.210938, 93347.296875, 69896.179688, 78351.507813, 98829.890625, 0, 1, 1, 0, 1,0.0,0.0,0.0,0.0,0.0, 12:05:35.122
44155.847656, 40491.257813, 100197.031250, 81292.148438, 93382.164063, 69669.468750, 78266.437500, 98797.320313, 0, 1, 1, 0, 1,0.0,0.0,0.0,0.0,0.0, 12:05:35.123
44223.863281, 40558.246094, 100105.906250, 81084.343750, 93449.109375, 69515.601563, 78251.085938, 98828.257813, 0, 1, 1, 0, 1,0.0,0.0,0.0,0.0,0.0, 12:05:35.123
44133.046875, 40467.406250, 100216.570313, 81296.015625, 93428.500000, 69731.273438, 78336.781250, 98868.179688, 0, 1, 1, 0, 1,0.0,0.0,0.0,0.0,0.0, 12:05:35.123
44039.683594, 40382.203125, 100344.578125, 81544.570313, 93353.890625, 69911.046875, 78358.617188, 98836.773438, 0, 1, 1, 0, 1,0.0,0.0,0.0,0.0,0.0, 12:05:35.123
44126.656250, 40470.937500, 100248.507813, 81366.875000, 93370.296875, 69724.718750, 78276.882813, 98799.781250, 0, 1, 1, 0, 1,0.0,0.0,0.0,0.0,0.0, 12:05:35.123
44235.753906, 40569.933594, 100109.796875, 81093.710938, 93445.937500, 69514.679688, 78240.601563, 98825.398438, 0, 1, 1, 0, 1,0.0,0.0,0.0,0.0,0.0, 12:05:35.123
44163.113281, 40498.386719, 100195.421875, 81244.718750, 93448.796875, 69686.835938, 78325.226563, 98872.023438, 0, 1, 1, 0, 1,0.0,0.0,0.0,0.0,0.0, 12:05:35.124
44044.535156, 40389.914063, 100340.125000, 81527.109375, 93372.507813, 69907.179688, 78364.875000, 98845.218750, 0, 1, 1, 0, 1,0.0,0.0,0.0,0.0,0.0, 12:05:35.124
44107.343750, 40446.730469, 100279.937500, 81418.484375, 93360.773438, 69772.062500, 78287.742188, 98793.570313, 0, 1, 1, 0, 1,0.0,0.0,0.0,0.0,0.0, 12:05:35.124
44238.816406, 40570.671875, 100124.367188, 81117.359375, 93440.953125, 69525.593750, 78239.484375, 98813.976563, 0, 1, 1, 0, 1,0.0,0.0,0.0,0.0,0.0, 12:05:35.125
44186.289063, 40523.734375, 100169.765625, 81191.460938, 93460.640625, 69635.445313, 78314.093750, 98866.476563, 0, 1, 1, 0, 1,0.0,0.0,0.0,0.0,0.0, 12:05:35.125
44059.734375, 40399.277344, 100314.781250, 81487.437500, 93378.406250, 69879.125000, 78362.328125, 98846.875000, 0, 1, 1, 0, 1,0.0,0.0,0.0,0.0,0.0, 12:05:35.125
44089.820313, 40425.453125, 100296.453125, 81461.625000, 93348.414063, 69809.656250, 78305.734375, 98796.453125, 0, 1, 1, 0, 1,0.0,0.0,0.0,0.0,0.0, 12:05:35.574
44223.820313, 40559.808594, 100126.851563, 81142.328125, 93422.601563, 69541.015625, 78239.218750, 98805.929688, 0, 1, 1, 0, 1,0.0,0.0,0.0,0.0,0.0, 12:05:35.575
44209.781250, 40550.355469, 100131.945313, 81134.953125, 93462.296875, 69583.820313, 78295.968750, 98860.507813, 0, 1, 1, 0, 1,0.0,0.0,0.0,0.0,0.0, 12:05:35.575
44078.601563, 40416.644531, 100294.085938, 81444.765625, 93392.265625, 69847.453125, 78365.015625, 98854.070313, 0, 1, 1, 0, 1,0.0,0.0,0.0,0.0,0.0, 12:05:35.575
44071.132813, 40405.714844, 100315.007813, 81496.382813, 93347.070313, 69845.531250, 78321.109375, 98798.820313, 0, 1, 1, 0, 1,0.0,0.0,0.0,0.0,0.0, 12:05:35.575
44196.972656, 40527.218750, 100153.226563, 81187.609375, 93406.101563, 69576.062500, 78238.609375, 98791.601563, 0, 1, 1, 0, 1,0.0,0.0,0.0,0.0,0.0, 12:05:35.576
44209.378906, 40539.558594, 100113.820313, 81093.468750, 93455.679688, 69540.562500, 78269.437500, 98838.382813, 0, 1, 1, 0, 1,0.0,0.0,0.0,0.0,0.0, 12:05:35.576
44083.828125, 40422.121094, 100271.265625, 81389.781250, 93402.234375, 69804.875000, 78352.898438, 98849.289063, 0, 1, 1, 0, 1,0.0,0.0,0.0,0.0,0.0, 12:05:35.576
44048.847656, 40384.593750, 100331.367188, 81516.656250, 93338.375000, 69869.960938, 78327.976563, 98800.515625, 0, 1, 1, 0, 1,0.0,0.0,0.0,0.0,0.0, 12:05:35.577
44164.562500, 40496.285156, 100192.203125, 81247.960938, 93383.843750, 69620.359375, 78240.914063, 98781.046875, 0, 1, 1, 0, 1,0.0,0.0,0.0,0.0,0.0, 12:05:35.577
44219.640625, 40546.824219, 100113.171875, 81081.640625, 93456.125000, 69518.125000, 78252.804688, 98831.656250, 0, 1, 1, 0, 1,0.0,0.0,0.0,0.0,0.0, 12:05:35.577
44101.933594, 40438.683594, 100250.320313, 81338.375000, 93418.460938, 69761.648438, 78342.460938, 98857.429688, 0, 1, 1, 0, 1,0.0,0.0,0.0,0.0,0.0, 12:05:35.578
44036.800781, 40375.988281, 100340.976563, 81531.046875, 93342.914063, 69891.578125, 78338.593750, 98812.343750, 0, 1, 1, 0, 1,0.0,0.0,0.0,0.0,0.0, 12:05:35.578
44144.828125, 40480.976563, 100223.921875, 81311.015625, 93375.992188, 69676.640625, 78256.046875, 98783.218750, 0, 1, 1, 0, 1,0.0,0.0,0.0,0.0,0.0, 12:05:35.579
44234.996094, 40569.914063, 100112.500000, 81083.210938, 93457.710938, 69507.640625, 78245.453125, 98824.968750, 0, 1, 1, 0, 1,0.0,0.0,0.0,0.0,0.0, 12:05:35.579
44147.464844, 40485.914063, 100212.523438, 81277.398438, 93443.164063, 69712.273438, 78333.007813, 98865.585938, 0, 1, 1, 0, 1,0.0,0.0,0.0,0.0,0.0, 12:05:35.579
44038.390625, 40382.582031, 100339.367188, 81531.359375, 93356.125000, 69899.062500, 78350.328125, 98823.968750, 0, 1, 1, 0, 1,0.0,0.0,0.0,0.0,0.0, 12:05:35.580
44127.593750, 40462.757813, 100251.257813, 81371.921875, 93369.156250, 69726.156250, 78271.937500, 98786.726563, 0, 1, 1, 0, 1,0.0,0.0,0.0,0.0,0.0, 12:05:35.580
44237.097656, 40571.363281, 100114.218750, 81097.781250, 93453.000000, 69510.726563, 78238.882813, 98817.304688, 0, 1, 1, 0, 1,0.0,0.0,0.0,0.0,0.0, 12:05:35.580
44154.820313, 40482.718750, 100182.281250, 81218.859375, 93450.718750, 69659.703125, 78316.015625, 98858.789063, 0, 1, 1, 0, 1,0.0,0.0,0.0,0.0,0.0, 12:05:35.581
44034.121094, 40374.199219, 100322.937500, 81501.523438, 93369.625000, 69885.382813, 78356.968750, 98832.171875, 0, 1, 1, 0, 1,0.0,0.0,0.0,0.0,0.0, 12:05:35.581
44106.898438, 40446.195313, 100266.703125, 81412.273438, 93353.445313, 69766.539063, 78280.031250, 98782.835938, 0, 1, 1, 0, 1,0.0,0.0,0.0,0.0,0.0, 12:05:35.581
44239.265625, 40572.707031, 100108.187500, 81106.070313, 93440.726563, 69515.195313, 78229.289063, 98806.015625, 0, 1, 1, 0, 1,0.0,0.0,0.0,0.0,0.0, 12:05:35.582
44198.070313, 40538.218750, 100154.609375, 81167.812500, 93469.984375, 69611.132813, 78304.218750, 98859.148438, 0, 1, 1, 0, 1,0.0,0.0,0.0,0.0,0.0, 12:05:35.582
44067.804688, 40410.453125, 100311.812500, 81474.296875, 93387.437500, 69864.625000, 78360.429688, 98838.335938, 0, 1, 1, 0, 1,0.0,0.0,0.0,0.0,0.0, 12:05:35.582
44096.300781, 40436.808594, 100310.515625, 81474.632813, 93357.843750, 69820.234375, 78307.187500, 98789.320313, 0, 1, 1, 0, 1,0.0,0.0,0.0,0.0,0.0, 12:05:35.582
44231.464844, 40563.160156, 100151.257813, 81162.867188, 93428.210938, 69548.117188, 78234.164063, 98791.421875, 0, 1, 1, 0, 1,0.0,0.0,0.0,0.0,0.0, 12:05:35.583
44222.500000, 40555.046875, 100137.578125, 81127.148438, 93473.648438, 69565.156250, 78281.976563, 98845.710938, 0, 1, 1, 0, 1,0.0,0.0,0.0,0.0,0.0, 12:05:35.583
44092.144531, 40434.058594, 100296.226563, 81432.273438, 93408.476563, 69832.968750, 78357.257813, 98850.671875, 0, 1, 1, 0, 1,0.0,0.0,0.0,0.0,0.0, 12:05:35.583
44078.175781, 40415.328125, 100321.015625, 81499.734375, 93365.335938, 69852.531250, 78328.351563, 98804.968750, 0, 1, 1, 0, 1,0.0,0.0,0.0,0.0,0.0, 12:05:35.584
44212.218750, 40546.421875, 100170.320313, 81209.156250, 93427.179688, 69591.062500, 78251.710938, 98797.007813, 0, 1, 1, 0, 1,0.0,0.0,0.0,0.0,0.0, 12:05:35.584
44245.320313, 40580.640625, 100128.476563, 81107.859375, 93487.976563, 69542.242188, 78278.132813, 98849.242188, 0, 1, 1, 0, 1,0.0,0.0,0.0,0.0,0.0, 12:05:35.584
44118.855469, 40459.203125, 100274.015625, 81388.445313, 93440.031250, 69798.703125, 78360.164063, 98864.289063, 0, 1, 1, 0, 1,0.0,0.0,0.0,0.0,0.0, 12:05:35.585
44071.761719, 40411.773438, 100341.046875, 81535.140625, 93375.171875, 69885.656250, 78342.640625, 98819.453125, 0, 1, 1, 0, 1,0.0,0.0,0.0,0.0,0.0, 12:05:35.586
44176.343750, 40504.085938, 100198.976563, 81265.710938, 93410.148438, 69636.882813, 78253.343750, 98792.468750, 0, 1, 1, 0, 1,0.0,0.0,0.0,0.0,0.0, 12:05:35.586
44252.296875, 40580.664063, 100104.476563, 81069.640625, 93494.882813, 69513.968750, 78265.726563, 98845.734375, 0, 1, 1, 0, 1,0.0,0.0,0.0,0.0,0.0, 12:05:35.586
44133.898438, 40467.207031, 100242.718750, 81317.656250, 93462.273438, 69753.554688, 78357.140625, 98874.187500, 0, 1, 1, 0, 1,0.0,0.0,0.0,0.0,0.0, 12:05:35.587
44057.074219, 40393.355469, 100352.578125, 81535.609375, 93383.328125, 69898.414063, 78361.125000, 98832.640625, 0, 1, 1, 0, 1,0.0,0.0,0.0,0.0,0.0, 12:05:35.587
44170.062500, 40503.574219, 100234.023438, 81325.101563, 93413.632813, 69689.335938, 78281.281250, 98808.054688, 0, 1, 1, 0, 1,0.0,0.0,0.0,0.0,0.0, 12:05:35.588
44265.953125, 40589.246094, 100117.906250, 81084.304688, 93501.257813, 69511.601563, 78270.351563, 98851.125000, 0, 1, 1, 0, 1,0.0,0.0,0.0,0.0,0.0, 12:05:35.589
44177.171875, 40508.488281, 100232.859375, 81277.218750, 93490.976563, 69714.843750, 78364.382813, 98894.484375, 0, 1, 1, 0, 1,0.0,0.0,0.0,0.0,0.0, 12:05:35.589
44090.714844, 40435.578125, 100383.156250, 81563.007813, 93417.390625, 69917.953125, 78399.906250, 98866.296875, 0, 1, 1, 0, 1,0.0,0.0,0.0,0.0,0.0, 12:05:35.590
44155.289063, 40483.343750, 100288.921875, 81412.445313, 93417.703125, 69751.007813, 78316.398438, 98821.906250, 0, 1, 1, 0, 1,0.0,0.0,0.0,0.0,0.0, 12:05:35.590
44257.750000, 40579.078125, 100141.242188, 81107.367188, 93491.468750, 69519.242188, 78267.757813, 98839.632813, 0, 1, 1, 0, 1,0.0,0.0,0.0,0.0,0.0, 12:05:35.590
44204.261719, 40536.542969, 100211.625000, 81224.156250, 93506.039063, 69659.968750, 78344.585938, 98889.453125, 0, 1, 1, 0, 1,0.0,0.0,0.0,0.0,0.0, 12:05:35.590
44079.539063, 40420.691406, 100374.773438, 81532.234375, 93422.625000, 69904.500000, 78391.273438, 98869.968750, 0, 1, 1, 0, 1,0.0,0.0,0.0,0.0,0.0, 12:05:35.591
44117.960938, 40461.058594, 100347.171875, 81470.359375, 93394.656250, 69802.750000, 78316.460938, 98810.171875, 0, 1, 1, 0, 1,0.0,0.0,0.0,0.0,0.0, 12:05:35.591
44251.535156, 40571.050781, 100175.757813, 81145.632813, 93473.625000, 69536.695313, 78251.781250, 98820.390625, 0, 1, 1, 0, 1,0.0,0.0,0.0,0.0,0.0, 12:05:35.591
44226.367188, 40556.007813, 100187.914063, 81170.710938, 93501.726563, 69606.593750, 78315.703125, 98872.867188, 0, 1, 1, 0, 1,0.0,0.0,0.0,0.0,0.0, 12:05:35.592
44104.394531, 40439.601563, 100350.992188, 81490.906250, 93433.015625, 69873.476563, 78383.585938, 98872.242188, 0, 1, 1, 0, 1,0.0,0.0,0.0,0.0,0.0, 12:05:35.592
44105.710938, 40427.464844, 100348.648438, 81506.507813, 93392.359375, 69839.007813, 78329.648438, 98820.609375, 0, 1, 1, 0, 1,0.0,0.0,0.0,0.0,0.0, 12:05:35.592
44229.316406, 40547.851563, 100186.234375, 81183.187500, 93450.140625, 69569.578125, 78252.492188, 98812.921875, 0, 1, 1, 0, 1,0.0,0.0,0.0,0.0,0.0, 12:05:35.592
44231.375000, 40557.640625, 100176.851563, 81133.812500, 93499.179688, 69571.453125, 78299.523438, 98864.132813, 0, 1, 1, 0, 1,0.0,0.0,0.0,0.0,0.0, 12:05:35.593
44112.441406, 40440.292969, 100345.648438, 81451.851563, 93444.546875, 69844.234375, 78383.812500, 98874.703125, 0, 1, 1, 0, 1,0.0,0.0,0.0,0.0,0.0, 12:05:35.593
44102.671875, 40430.570313, 100381.593750, 81549.781250, 93394.882813, 69879.734375, 78354.195313, 98827.007813, 0, 1, 1, 0, 1,0.0,0.0,0.0,0.0,0.0, 12:05:35.593
44221.718750, 40542.531250, 100221.437500, 81247.671875, 93438.601563, 69613.429688, 78263.218750, 98806.421875, 0, 1, 1, 0, 1,0.0,0.0,0.0,0.0,0.0, 12:05:35.594
44264.476563, 40591.257813, 100169.359375, 81125.031250, 93511.734375, 69555.835938, 78291.921875, 98866.273438, 0, 1, 1, 0, 1,0.0,0.0,0.0,0.0,0.0, 12:05:35.594
44125.113281, 40449.972656, 100313.421875, 81401.609375, 93458.359375, 69806.531250, 78372.093750, 98881.070313, 0, 1, 1, 0, 1,0.0,0.0,0.0,0.0,0.0, 12:05:35.594
44070.867188, 40402.140625, 100391.312500, 81567.460938, 93382.210938, 69900.812500, 78354.218750, 98826.312500, 0, 1, 1, 0, 1,0.0,0.0,0.0,0.0,0.0, 12:05:35.594
44197.667969, 40517.898438, 100257.203125, 81311.843750, 93420.812500, 69665.289063, 78268.320313, 98803.445313, 0, 1, 1, 0, 1,0.0,0.0,0.0,0.0,0.0, 12:05:35.595
44281.933594, 40601.027344, 100163.015625, 81116.000000, 93507.046875, 69531.226563, 78276.390625, 98858.429688, 0, 1, 1, 0, 1,0.0,0.0,0.0,0.0,0.0, 12:05:35.595
44167.222656, 40496.175781, 100289.390625, 81347.312500, 93474.101563, 69759.812500, 78364.500000, 98888.156250, 0, 1, 1, 0, 1,0.0,0.0,0.0,0.0,0.0, 12:05:35.595
44079.628906, 40414.230469, 100409.109375, 81585.250000, 93389.851563, 69928.523438, 78373.531250, 98844.257813, 0, 1, 1, 0, 1,0.0,0.0,0.0,0.0,0.0, 12:05:35.595
44172.566406, 40496.867188, 100294.601563, 81379.234375, 93405.679688, 69714.687500, 78281.375000, 98796.851563, 0, 1, 1, 0, 1,0.0,0.0,0.0,0.0,0.0, 12:05:35.596
44272.566406, 40593.539063, 100157.914063, 81110.656250, 93480.242188, 69511.265625, 78251.312500, 98828.210938, 0, 1, 1, 0, 1,0.0,0.0,0.0,0.0,0.0, 12:05:35.596
44186.199219, 40510.433594, 100244.757813, 81273.421875, 93484.203125, 69691.710938, 78341.500000, 98872.000000, 0, 1, 1, 0, 1,0.0,0.0,0.0,0.0,0.0, 12:05:35.596
44081.906250, 40415.351563, 100376.070313, 81550.335938, 93395.976563, 69904.250000, 78370.648438, 98840.750000, 0, 1, 1, 0, 1,0.0,0.0,0.0,0.0,0.0, 12:05:35.596
44155.242188, 40482.339844, 100308.164063, 81431.093750, 93399.601563, 69764.398438, 78298.515625, 98799.062500, 0, 1, 1, 0, 1,0.0,0.0,0.0,0.0,0.0, 12:05:35.597
44268.187500, 40593.046875, 100156.351563, 81126.148438, 93479.484375, 69527.421875, 78251.132813, 98821.507813, 0, 1, 1, 0, 1,0.0,0.0,0.0,0.0,0.0, 12:05:35.597
44207.187500, 40530.371094, 100200.273438, 81208.375000, 93485.765625, 69645.617188, 78319.414063, 98865.945313, 0, 1, 1, 0, 1,0.0,0.0,0.0,0.0,0.0, 12:05:35.597
44083.828125, 40413.585938, 100361.656250, 81525.882813, 93403.000000, 69896.609375, 78375.476563, 98847.703125, 0, 1, 1, 0, 1,0.0,0.0,0.0,0.0,0.0, 12:05:35.597
44108.105469, 40441.835938, 100325.601563, 81476.289063, 93371.328125, 69812.226563, 78304.726563, 98792.515625, 0, 1, 1, 0, 1,0.0,0.0,0.0,0.0,0.0, 12:05:35.598
44237.609375, 40568.257813, 100164.109375, 81160.234375, 93449.531250, 69546.351563, 78241.695313, 98802.578125, 0, 1, 1, 0, 1,0.0,0.0,0.0,0.0,0.0, 12:05:35.598
44226.746094, 40557.550781, 100179.421875, 81171.968750, 93481.984375, 69601.921875, 78298.671875, 98855.992188, 0, 1, 1, 0, 1,0.0,0.0,0.0,0.0,0.0, 12:05:35.598
44094.468750, 40431.265625, 100338.140625, 81485.093750, 93410.750000, 69867.367188, 78366.640625, 98850.945313, 0, 1, 1, 0, 1,0.0,0.0,0.0,0.0,0.0, 12:05:35.599
44088.480469, 40426.347656, 100350.078125, 81515.984375, 93362.250000, 69849.734375, 78316.914063, 98793.835938, 0, 1, 1, 0, 1,0.0,0.0,0.0,0.0,0.0, 12:05:35.599
44227.214844, 40553.371094, 100183.781250, 81202.546875, 93427.585938, 69579.148438, 78239.125000, 98790.843750, 0, 1, 1, 0, 1,0.0,0.0,0.0,0.0,0.0, 12:05:35.599
44233.339844, 40562.828125, 100165.335938, 81135.531250, 93479.507813, 69563.343750, 78281.867188, 98842.898438, 0, 1, 1, 0, 1,0.0,0.0,0.0,0.0,0.0, 12:05:35.599
44108.996094, 40443.667969, 100315.296875, 81429.210938, 93423.023438, 69827.226563, 78359.648438, 98850.671875, 0, 1, 1, 0, 1,0.0,0.0,0.0,0.0,0.0, 12:05:35.599
44078.355469, 40415.617188, 100366.343750, 81546.156250, 93361.734375, 69881.656250, 78331.640625, 98800.476563, 0, 1, 1, 0, 1,0.0,0.0,0.0,0.0,0.0, 12:05:35.599
44194.472656, 40527.667969, 100227.476563, 81269.242188, 93404.945313, 69631.718750, 78247.890625, 98782.007813, 0, 1, 1, 0, 1,0.0,0.0,0.0,0.0,0.0, 12:05:35.600
44241.968750, 40572.214844, 100164.335938, 81117.296875, 93471.015625, 69540.609375, 78265.367188, 98828.437500, 0, 1, 1, 0, 1,0.0,0.0,0.0,0.0,0.0, 12:05:35.600
44126.609375, 40464.390625, 100301.593750, 81384.757813, 93425.304688, 69787.304688, 78349.296875, 98855.414063, 0, 1, 1, 0, 1,0.0,0.0,0.0,0.0,0.0, 12:05:35.600
44067.804688, 40404.597656, 100392.093750, 81577.312500, 93362.070313, 69910.445313, 78349.570313, 98819.312500, 0, 1, 1, 0, 1,0.0,0.0,0.0,0.0,0.0, 12:05:35.600
44176.968750, 40516.648438, 100261.320313, 81337.484375, 93396.875000, 69683.664063, 78267.132813, 98793.679688, 0, 1, 1, 0, 1,0.0,0.0,0.0,0.0,0.0, 12:05:35.600
44255.828125, 40594.140625, 100143.453125, 81104.242188, 93477.203125, 69525.921875, 78263.625000, 98838.671875, 0, 1, 1, 0, 1,0.0,0.0,0.0,0.0,0.0, 12:05:35.600
44160.406250, 40500.511719, 100250.992188, 81316.585938, 93456.617188, 69737.125000, 78352.296875, 98874.367188, 0, 1, 1, 0, 1,0.0,0.0,0.0,0.0,0.0, 12:05:35.601
44073.859375, 40416.914063, 100368.539063, 81564.820313, 93376.554688, 69916.031250, 78369.328125, 98835.945313, 0, 1, 1, 0, 1,0.0,0.0,0.0,0.0,0.0, 12:05:35.601
44153.433594, 40493.871094, 100275.820313, 81390.945313, 93389.562500, 69736.140625, 78288.632813, 98796.359375, 0, 1, 1, 0, 1,0.0,0.0,0.0,0.0,0.0, 12:05:35.601
44256.988281, 40589.113281, 100147.703125, 81119.195313, 93461.828125, 69526.257813, 78252.226563, 98822.132813, 0, 1, 1, 0, 1,0.0,0.0,0.0,0.0,0.0, 12:05:35.601
44184.859375, 40518.281250, 100231.500000, 81265.085938, 93458.671875, 69689.023438, 78333.023438, 98864.085938, 0, 1, 1, 0, 1,0.0,0.0,0.0,0.0,0.0, 12:05:35.601
44072.945313, 40414.007813, 100382.484375, 81560.351563, 93387.593750, 69912.390625, 78375.789063, 98838.804688, 0, 1, 1, 0, 1,0.0,0.0,0.0,0.0,0.0, 12:05:35.601
44123.527344, 40468.882813, 100321.015625, 81453.734375, 93374.718750, 69785.117188, 78299.140625, 98792.937500, 0, 1, 1, 0, 1,0.0,0.0,0.0,0.0,0.0, 12:05:35.602
44246.839844, 40585.984375, 100160.328125, 81135.015625, 93444.351563, 69533.304688, 78241.515625, 98807.828125, 0, 1, 1, 0, 1,0.0,0.0,0.0,0.0,0.0, 12:05:35.602
44203.726563, 40543.402344, 100204.343750, 81203.796875, 93467.234375, 69638.023438, 78311.812500, 98855.367188, 0, 1, 1, 0, 1,0.0,0.0,0.0,0.0,0.0, 12:05:35.602
44079.292969, 40423.621094, 100368.585938, 81523.421875, 93384.710938, 69890.125000, 78366.398438, 98837.156250, 0, 1, 1, 0, 1,0.0,0.0,0.0,0.0,0.0, 12:05:35.602
44109.578125, 40453.214844, 100353.585938, 81506.171875, 93361.648438, 69831.226563, 78312.398438, 98792.289063, 0, 1, 1, 0, 1,0.0,0.0,0.0,0.0,0.0, 12:05:35.602
44233.003906, 40571.992188, 100184.445313, 81180.484375, 93427.765625, 69558.781250, 78237.742188, 98794.304688, 0, 1, 1, 0, 1,0.0,0.0,0.0,0.0,0.0, 12:05:35.602
44230.992188, 40561.128906, 100193.296875, 81165.257813, 93466.718750, 69591.460938, 78289.148438, 98846.656250, 0, 1, 1, 0, 1,0.0,0.0,0.0,0.0,0.0, 12:05:35.603
44095.609375, 40440.449219, 100352.156250, 81481.312500, 93399.687500, 69857.046875, 78361.703125, 98846.203125, 0, 1, 1, 0, 1,0.0,0.0,0.0,0.0,0.0, 12:05:35.604
44099.519531, 40440.875000, 100361.789063, 81535.070313, 93349.015625, 69856.687500, 78318.406250, 98795.984375, 0, 1, 1, 0, 1,0.0,0.0,0.0,0.0,0.0, 12:05:35.604
44223.863281, 40559.675781, 100225.015625, 81235.601563, 93406.351563, 69595.351563, 78241.179688, 98786.750000, 0, 1, 1, 0, 1,0.0,0.0,0.0,0.0,0.0, 12:05:35.604
44245.031250, 40586.699219, 100185.343750, 81137.570313, 93469.093750, 69555.250000, 78273.437500, 98839.234375, 0, 1, 1, 0, 1,0.0,0.0,0.0,0.0,0.0, 12:05:35.604
44127.191406, 40473.285156, 100321.640625, 81421.726563, 93413.835938, 69809.750000, 78356.140625, 98854.656250, 0, 1, 1, 0, 1,0.0,0.0,0.0,0.0,0.0, 12:05:35.604
44099.343750, 40435.781250, 100396.140625, 81571.125000, 93358.742188, 69889.406250, 78343.242188, 98808.406250, 0, 1, 1, 0, 1,0.0,0.0,0.0,0.0,0.0, 12:05:35.604
44213.894531, 40549.550781, 100267.039063, 81305.789063, 93411.359375, 69646.445313, 78264.359375, 98792.226563, 0, 1, 1, 0, 1,0.0,0.0,0.0,0.0,0.0, 12:05:35.604
44270.710938, 40600.066406, 100178.882813, 81121.562500, 93466.742188, 69526.726563, 78263.984375, 98832.726563, 0, 1, 1, 0, 1,0.0,0.0,0.0,0.0,0.0, 12:05:35.605
44144.089844, 40490.585938, 100307.359375, 81374.359375, 93442.742188, 69765.382813, 78355.671875, 98862.898438, 0, 1, 1, 0, 1,0.0,0.0,0.0,0.0,0.0, 12:05:35.605
44072.093750, 40422.882813, 100404.929688, 81587.578125, 93359.414063, 69907.695313, 78356.656250, 98822.203125, 0, 1, 1, 0, 1,0.0,0.0,0.0,0.0,0.0, 12:05:35.605
44190.984375, 40532.628906, 100290.687500, 81365.757813, 93396.601563, 69696.804688, 78272.875000, 98795.335938, 0, 1, 1, 0, 1,0.0,0.0,0.0,0.0,0.0, 12:05:35.605
44272.703125, 40614.144531, 100181.632813, 81125.164063, 93481.273438, 69523.734375, 78261.390625, 98835.070313, 0, 1, 1, 0, 1,0.0,0.0,0.0,0.0,0.0, 12:05:35.605
44173.281250, 40520.781250, 100265.273438, 81312.804688, 93459.773438, 69721.953125, 78345.812500, 98873.812500, 0, 1, 1, 0, 1,0.0,0.0,0.0,0.0,0.0, 12:05:35.606
44074.175781, 40420.468750, 100421.507813, 81597.140625, 93380.648438, 69922.828125, 78374.156250, 98836.195313, 0, 1, 1, 0, 1,0.0,0.0,0.0,0.0,0.0, 12:05:35.606
44179.273438, 40508.042969, 100336.351563, 81437.687500, 93371.929688, 69749.312500, 78279.875000, 98786.820313, 0, 1, 1, 0, 1,0.0,0.0,0.0,0.0,0.0, 12:05:35.606
44272.949219, 40614.191406, 100181.585938, 81136.960938, 93455.234375, 69526.414063, 78244.601563, 98821.328125, 0, 1, 1, 0, 1,0.0,0.0,0.0,0.0,0.0, 12:05:35.606
44193.734375, 40530.773438, 100260.062500, 81269.242188, 93463.390625, 69676.171875, 78328.914063, 98862.273438, 0, 1, 1, 0, 1,0.0,0.0,0.0,0.0,0.0, 12:05:35.607
44072.429688, 40426.167969, 100405.125000, 81567.234375, 93395.351563, 69910.062500, 78375.023438, 98842.250000, 0, 1, 1, 0, 1,0.0,0.0,0.0,0.0,0.0, 12:05:35.607
44121.136719, 40477.019531, 100344.109375, 81482.164063, 93358.804688, 69801.320313, 78303.789063, 98797.546875, 0, 1, 1, 0, 1,0.0,0.0,0.0,0.0,0.0, 12:05:35.607
44251.019531, 40605.382813, 100162.992188, 81155.914063, 93454.046875, 69546.242188, 78251.328125, 98821.062500, 0, 1, 1, 0, 1,0.0,0.0,0.0,0.0,0.0, 12:05:35.607
44211.011719, 40561.015625, 100189.054688, 81197.781250, 93467.882813, 69632.234375, 78314.343750, 98869.335938, 0, 1, 1, 0, 1,0.0,0.0,0.91065085,0.0,0.6951896, 12:05:35.608
44067.402344, 40432.070313, 100364.382813, 81525.484375, 93386.343750, 69896.476563, 78377.101563, 98857.828125, 0, 1, 1, 0, 1,0.031788573,0.077026345,0.03179884,0.066690914,0.047651995, 12:05:36.054
44089.460938, 40443.421875, 100356.890625, 81528.679688, 93342.109375, 69849.671875, 78319.367188, 98801.281250, 0, 1, 1, 0, 1,0.031788573,0.077026345,0.03179884,0.066690914,0.047651995, 12:05:36.054
44222.054688, 40573.308594, 100186.703125, 81204.085938, 93409.773438, 69578.093750, 78245.523438, 98800.828125, 0, 1, 1, 0, 1,0.031788573,0.077026345,0.03179884,0.066690914,0.047651995, 12:05:36.055
44204.574219, 40569.824219, 100162.812500, 81156.140625, 93446.132813, 69589.453125, 78295.210938, 98857.046875, 0, 1, 1, 0, 1,0.031788573,0.077026345,0.03179884,0.066690914,0.047651995, 12:05:36.055
44096.437500, 40446.464844, 100335.859375, 81476.218750, 93384.421875, 69862.140625, 78372.343750, 98858.390625, 0, 1, 1, 0, 1,0.031788573,0.077026345,0.03179884,0.066690914,0.047651995, 12:05:36.055
44094.492188, 40443.246094, 100376.671875, 81558.515625, 93346.289063, 69889.367188, 78336.312500, 98809.054688, 0, 1, 1, 0, 1,0.031788573,0.077026345,0.03179884,0.066690914,0.047651995, 12:05:36.055
44202.898438, 40559.273438, 100213.101563, 81249.414063, 93384.625000, 69623.023438, 78248.515625, 98791.328125, 0, 1, 1, 0, 1,0.031788573,0.077026345,0.03179884,0.066690914,0.047651995, 12:05:36.055
44220.734375, 40577.289063, 100154.007813, 81120.914063, 93447.523438, 69558.046875, 78272.140625, 98836.523438, 0, 1, 1, 0, 1,0.031788573,0.077026345,0.03179884,0.066690914,0.047651995, 12:05:36.056
44103.500000, 40461.394531, 100292.539063, 81401.117188, 93411.710938, 69812.812500, 78360.093750, 98856.757813, 0, 1, 1, 0, 1,0.031788573,0.077026345,0.03179884,0.066690914,0.047651995, 12:05:36.056
44065.300781, 40425.765625, 100371.578125, 81564.953125, 93341.507813, 69908.476563, 78348.312500, 98813.640625, 0, 1, 1, 0, 1,0.031788573,0.077026345,0.03179884,0.066690914,0.047651995, 12:05:36.056
44173.886719, 40534.394531, 100233.578125, 81299.484375, 93369.625000, 69665.445313, 78260.117188, 98788.132813, 0, 1, 1, 0, 1,0.031788573,0.077026345,0.03179884,0.066690914,0.047651995, 12:05:36.056
44243.621094, 40593.382813, 100134.671875, 81098.296875, 93441.890625, 69533.617188, 78261.054688, 98834.406250, 0, 1, 1, 0, 1,0.031788573,0.077026345,0.03179884,0.066690914,0.047651995, 12:05:36.056
44124.039063, 40483.164063, 100259.015625, 81334.929688, 93405.968750, 69763.164063, 78345.703125, 98863.390625, 0, 1, 1, 0, 1,0.031788573,0.077026345,0.03179884,0.066690914,0.047651995, 12:05:36.057
44046.101563, 40411.101563, 100368.429688, 81563.546875, 93324.382813, 69918.468750, 78353.453125, 98823.296875, 0, 1, 1, 0, 1,0.031788573,0.077026345,0.03179884,0.066690914,0.047651995, 12:05:36.057
44146.839844, 40510.835938, 100263.867188, 81363.273438, 93356.304688, 69718.265625, 78277.015625, 98794.570313, 0, 1, 1, 0, 1,0.031788573,0.077026345,0.03179884,0.066690914,0.047651995, 12:05:36.057
44232.691406, 40582.070313, 100144.437500, 81103.835938, 93432.320313, 69525.921875, 78253.476563, 98824.750000, 0, 1, 1, 0, 1,0.031788573,0.077026345,0.03179884,0.066690914,0.047651995, 12:05:36.057
44122.273438, 40495.300781, 100236.375000, 81277.828125, 93418.914063, 69710.015625, 78337.632813, 98866.632813, 0, 1, 1, 0, 1,0.031788573,0.077026345,0.03179884,0.066690914,0.047651995, 12:05:36.057
44043.015625, 40409.425781, 100368.914063, 81555.007813, 93338.398438, 69920.703125, 78366.484375, 98842.179688, 0, 1, 1, 0, 1,0.031788573,0.077026345,0.03179884,0.066690914,0.047651995, 12:05:36.058
44120.820313, 40488.550781, 100297.570313, 81418.773438, 93347.898438, 69774.031250, 78291.945313, 98806.195313, 0, 1, 1, 0, 1,0.031788573,0.077026345,0.03179884,0.066690914,0.047651995, 12:05:36.058
44242.437500, 40600.757813, 100139.546875, 81111.703125, 93432.281250, 69539.093750, 78250.929688, 98832.929688, 0, 1, 1, 0, 1,0.031788573,0.077026345,0.03179884,0.066690914,0.047651995, 12:05:36.058
44184.414063, 40534.261719, 100201.773438, 81218.437500, 93434.398438, 69670.812500, 78327.039063, 98875.640625, 0, 1, 1, 0, 1,0.031788573,0.077026345,0.03179884,0.066690914,0.047651995, 12:05:36.058
44058.550781, 40426.839844, 100350.500000, 81527.132813, 93363.101563, 69914.601563, 78379.117188, 98858.875000, 0, 1, 1, 0, 1,0.031788573,0.077026345,0.03179884,0.066690914,0.047651995, 12:05:36.058
44077.371094, 40451.605469, 100313.554688, 81465.757813, 93333.617188, 69822.734375, 78310.585938, 98806.062500, 0, 1, 1, 0, 1,0.031788573,0.077026345,0.03179884,0.066690914,0.047651995, 12:05:36.059
44219.839844, 40574.046875, 100160.109375, 81148.875000, 93404.898438, 69561.484375, 78244.156250, 98812.406250, 0, 1, 1, 0, 1,0.031788573,0.077026345,0.03179884,0.066690914,0.047651995, 12:05:36.059
44196.503906, 40553.550781, 100173.273438, 81164.117188, 93440.101563, 69623.492188, 78306.093750, 98867.148438, 0, 1, 1, 0, 1,0.031788573,0.077026345,0.03179884,0.066690914,0.047651995, 12:05:36.059
44056.582031, 40429.074219, 100329.445313, 81481.359375, 93368.687500, 69882.992188, 78371.765625, 98861.359375, 0, 1, 1, 0, 1,0.031788573,0.077026345,0.03179884,0.066690914,0.047651995, 12:05:36.059
44081.617188, 40439.042969, 100334.070313, 81505.078125, 93325.257813, 69856.195313, 78321.132813, 98808.609375, 0, 1, 1, 0, 1,0.031788573,0.077026345,0.03179884,0.066690914,0.047651995, 12:05:36.060
44200.304688, 40556.656250, 100183.445313, 81193.828125, 93395.664063, 69589.289063, 78249.406250, 98803.179688, 0, 1, 1, 0, 1,0.031788573,0.077026345,0.03179884,0.066690914,0.047651995, 12:05:36.060
44191.542969, 40555.117188, 100160.312500, 81128.937500, 93431.000000, 69575.812500, 78285.414063, 98849.156250, 0, 1, 1, 0, 1,0.031788573,0.077026345,0.03179884,0.066690914,0.047651995, 12:05:36.060
44079.785156, 40449.324219, 100303.875000, 81426.757813, 93377.960938, 69838.875000, 78364.765625, 98865.023438, 0, 1, 1, 0, 1,0.031788573,0.077026345,0.03179884,0.066690914,0.047651995, 12:05:36.060
44056.515625, 40426.054688, 100344.625000, 81530.398438, 93333.078125, 69888.539063, 78344.804688, 98823.671875, 0, 1, 1, 0, 1,0.031788573,0.077026345,0.03179884,0.066690914,0.047651995, 12:05:36.060
44191.855469, 40546.644531, 100203.335938, 81247.562500, 93384.421875, 69632.992188, 78265.281250, 98806.914063, 0, 1, 1, 0, 1,0.031788573,0.077026345,0.03179884,0.066690914,0.047651995, 12:05:36.061
44226.992188, 40578.070313, 100146.023438, 81107.304688, 93440.328125, 69549.882813, 78275.046875, 98851.414063, 0, 1, 1, 0, 1,0.031788573,0.077026345,0.03179884,0.066690914,0.047651995, 12:05:36.061
44102.359375, 40469.597656, 100284.250000, 81379.164063, 93394.125000, 69796.429688, 78356.492188, 98870.570313, 0, 1, 1, 0, 1,0.031788573,0.077026345,0.03179884,0.066690914,0.047651995, 12:05:36.061
44039.863281, 40412.062500, 100364.937500, 81556.843750, 93335.789063, 69908.054688, 78350.351563, 98826.984375, 0, 1, 1, 0, 1,0.031788573,0.077026345,0.03179884,0.066690914,0.047651995, 12:05:36.061
44156.070313, 40516.601563, 100233.664063, 81305.851563, 93380.289063, 69678.703125, 78272.539063, 98804.695313, 0, 1, 1, 0, 1,0.031788573,0.077026345,0.03179884,0.066690914,0.047651995, 12:05:36.061
44235.574219, 40596.464844, 100132.882813, 81090.179688, 93455.187500, 69532.117188, 78271.250000, 98847.164063, 0, 1, 1, 0, 1,0.031788573,0.077026345,0.03179884,0.066690914,0.047651995, 12:05:36.061
44149.164063, 40512.355469, 100240.351563, 81307.531250, 93431.765625, 69748.257813, 78355.804688, 98880.625000, 0, 1, 1, 0, 1,0.031788573,0.077026345,0.03179884,0.066690914,0.047651995, 12:05:36.062
44077.324219, 40428.312500, 100366.078125, 81555.789063, 93364.617188, 69919.585938, 78371.562500, 98838.648438, 0, 1, 1, 0, 1,0.031788573,0.077026345,0.03179884,0.066690914,0.047651995, 12:05:36.062
44154.058594, 40513.945313, 100279.132813, 81380.015625, 93382.945313, 69732.921875, 78293.109375, 98802.578125, 0, 1, 1, 0, 1,0.031788573,0.077026345,0.03179884,0.066690914,0.047651995, 12:05:36.062
44242.214844, 40614.437500, 100140.507813, 81105.289063, 93442.109375, 69527.421875, 78257.968750, 98835.296875, 0, 1, 1, 0, 1,0.031788573,0.077026345,0.03179884,0.066690914,0.047651995, 12:05:36.062
44183.406250, 40545.707031, 100228.546875, 81262.937500, 93442.851563, 69702.640625, 78343.109375, 98883.195313, 0, 1, 1, 0, 1,0.031788573,0.077026345,0.03179884,0.066690914,0.047651995, 12:05:36.062
44075.941406, 40441.792969, 100359.976563, 81543.164063, 93369.179688, 69918.984375, 78378.781250, 98857.156250, 0, 1, 1, 0, 1,0.031788573,0.077026345,0.03179884,0.066690914,0.047651995, 12:05:36.062
44124.152344, 40493.132813, 100310.179688, 81439.312500, 93368.601563, 69789.367188, 78310.046875, 98811.601563, 0, 1, 1, 0, 1,0.031788573,0.077026345,0.03179884,0.066690914,0.047651995, 12:05:36.063
44252.429688, 40611.015625, 100169.789063, 81139.648438, 93443.789063, 69544.414063, 78261.609375, 98831.382813, 0, 1, 1, 0, 1,0.031788573,0.077026345,0.03179884,0.066690914,0.047651995, 12:05:36.063
44197.464844, 40560.750000, 100210.664063, 81215.867188, 93460.171875, 69654.648438, 78334.054688, 98881.585938, 0, 1, 1, 0, 1,0.031788573,0.077026345,0.03179884,0.066690914,0.047651995, 12:05:36.063
44061.410156, 40444.070313, 100361.140625, 81523.312500, 93391.843750, 69905.414063, 78387.789063, 98870.210938, 0, 1, 1, 0, 1,0.031788573,0.077026345,0.03179884,0.066690914,0.047651995, 12:05:36.063
44097.644531, 40472.078125, 100329.000000, 81485.000000, 93362.695313, 69833.375000, 78327.570313, 98825.039063, 0, 1, 1, 0, 1,0.031788573,0.077026345,0.03179884,0.066690914,0.047651995, 12:05:36.063
44222.300781, 40587.859375, 100172.890625, 81171.007813, 93433.085938, 69569.335938, 78261.835938, 98825.531250, 0, 1, 1, 0, 1,0.031788573,0.077026345,0.03179884,0.066690914,0.047651995, 12:05:36.063
44196.035156, 40558.781250, 100180.093750, 81168.812500, 93470.273438, 69611.328125, 78316.289063, 98876.312500, 0, 1, 1, 0, 1,0.031788573,0.077026345,0.03179884,0.066690914,0.047651995, 12:05:36.064
44091.183594, 40443.132813, 100349.296875, 81486.882813, 93405.523438, 69880.515625, 78389.195313, 98882.617188, 0, 1, 1, 0, 1,0.031788573,0.077026345,0.03179884,0.066690914,0.047651995, 12:05:36.064
44080.855469, 40441.925781, 100369.765625, 81536.882813, 93360.867188, 69876.398438, 78342.953125, 98829.757813, 0, 1, 1, 0, 1,0.031788573,0.077026345,0.03179884,0.066690914,0.047651995, 12:05:36.064
44210.207031, 40570.894531, 100193.812500, 81213.429688, 93422.554688, 69603.148438, 78260.429688, 98824.460938, 0, 1, 1, 0, 1,0.031788573,0.077026345,0.03179884,0.066690914,0.047651995, 12:05:36.064
44235.441406, 40592.242188, 100158.406250, 81125.226563, 93484.179688, 69574.671875, 78300.437500, 98878.304688, 0, 1, 1, 0, 1,0.031788573,0.077026345,0.03179884,0.066690914,0.047651995, 12:05:36.064
44106.160156, 40467.542969, 100298.734375, 81414.414063, 93429.218750, 69829.570313, 78374.578125, 98884.023438, 0, 1, 1, 0, 1,0.031788573,0.077026345,0.03179884,0.066690914,0.047651995, 12:05:36.064
44065.187500, 40431.824219, 100358.367188, 81545.976563, 93353.218750, 69894.710938, 78349.453125, 98833.640625, 0, 1, 1, 0, 1,0.031788573,0.077026345,0.03179884,0.066690914,0.047651995, 12:05:36.065
44195.812500, 40547.718750, 100222.289063, 81273.664063, 93399.976563, 69645.867188, 78271.648438, 98815.070313, 0, 1, 1, 0, 1,0.031788573,0.077026345,0.03179884,0.066690914,0.047651995, 12:05:36.065
44267.984375, 40603.933594, 100151.859375, 81110.679688, 93465.132813, 69542.890625, 78285.796875, 98861.804688, 0, 1, 1, 0, 1,0.031788573,0.077026345,0.03179884,0.066690914,0.047651995, 12:05:36.065
44121.941406, 40488.105469, 100288.273438, 81372.773438, 93422.843750, 69783.460938, 78366.578125, 98886.054688, 0, 1, 1, 0, 1,0.031788573,0.077026345,0.03179884,0.066690914,0.047651995, 12:05:36.065
44042.234375, 40409.515625, 100370.750000, 81565.492188, 93349.531250, 69908.210938, 78358.554688, 98836.523438, 0, 1, 1, 0, 1,0.031788573,0.077026345,0.03179884,0.066690914,0.047651995, 12:05:36.065
44169.214844, 40524.070313, 100256.375000, 81337.328125, 93370.453125, 69687.906250, 78271.023438, 98802.554688, 0, 1, 1, 0, 1,0.031788573,0.077026345,0.03179884,0.066690914,0.047651995, 12:05:36.066
44250.171875, 40611.710938, 100133.507813, 81097.023438, 93453.937500, 69521.765625, 78261.164063, 98847.125000, 0, 1, 1, 0, 1,0.031788573,0.077026345,0.03179884,0.066690914,0.047651995, 12:05:36.066
44147.421875, 40511.507813, 100239.726563, 81305.429688, 93437.242188, 69730.890625, 78348.359375, 98883.578125, 0, 1, 1, 0, 1,0.031788573,0.077026345,0.03179884,0.066690914,0.047651995, 12:05:36.066
44063.355469, 40425.832031, 100375.179688, 81572.843750, 93360.218750, 69922.671875, 78373.195313, 98850.945313, 0, 1, 1, 0, 1,0.031788573,0.077026345,0.03179884,0.066690914,0.047651995, 12:05:36.066
44147.757813, 40508.601563, 100292.070313, 81408.671875, 93368.507813, 69747.546875, 78294.203125, 98810.664063, 0, 1, 1, 0, 1,0.031788573,0.077026345,0.03179884,0.066690914,0.047651995, 12:05:36.066
44266.601563, 40610.593750, 100164.062500, 81129.835938, 93450.562500, 69530.218750, 78260.742188, 98834.070313, 0, 1, 1, 0, 1,0.031788573,0.077026345,0.03179884,0.066690914,0.047651995, 12:05:36.067
44166.710938, 40527.601563, 100223.476563, 81251.289063, 93452.460938, 69680.531250, 78333.562500, 98876.937500, 0, 1, 1, 0, 1,0.031788573,0.077026345,0.03179884,0.066690914,0.047651995, 12:05:36.067
44061.253906, 40424.335938, 100364.937500, 81544.546875, 93375.281250, 69909.304688, 78377.281250, 98856.781250, 0, 1, 1, 0, 1,0.031788573,0.077026345,0.03179884,0.066690914,0.047651995, 12:05:36.067
44126.433594, 40481.109375, 100299.179688, 81440.523438, 93365.289063, 69787.976563, 78309.648438, 98814.265625, 0, 1, 1, 0, 1,0.031788573,0.077026345,0.03179884,0.066690914,0.047651995, 12:05:36.067
44240.605469, 40593.269531, 100156.062500, 81134.976563, 93441.578125, 69544.078125, 78260.273438, 98831.945313, 0, 1, 1, 0, 1,0.031788573,0.077026345,0.03179884,0.066690914,0.047651995, 12:05:36.067
44195.523438, 40548.699219, 100198.554688, 81195.593750, 93459.078125, 69637.820313, 78325.515625, 98879.351563, 0, 1, 1, 0, 1,0.031788573,0.077026345,0.03179884,0.066690914,0.047651995, 12:05:36.067
44068.921875, 40436.070313, 100351.195313, 81508.515625, 93387.218750, 69889.367188, 78381.125000, 98869.453125, 0, 1, 1, 0, 1,0.031788573,0.077026345,0.03179884,0.066690914,0.047651995, 12:05:36.068
44089.082031, 40455.628906, 100337.804688, 81498.320313, 93363.968750, 69837.445313, 78332.421875, 98821.843750, 0, 1, 1, 0, 1,0.031788573,0.077026345,0.03179884,0.066690914,0.047651995, 12:05:36.068
44222.945313, 40573.308594, 100170.992188, 81175.210938, 93430.421875, 69569.351563, 78264.718750, 98824.750000, 0, 1, 1, 0, 1,0.031788573,0.077026345,0.03179884,0.066690914,0.047651995, 12:05:36.068
44212.105469, 40560.726563, 100168.132813, 81147.421875, 93466.296875, 69591.437500, 78314.453125, 98875.421875, 0, 1, 1, 0, 1,0.031788573,0.077026345,0.03179884,0.066690914,0.047651995, 12:05:36.068
44078.355469, 40437.722656, 100325.398438, 81459.453125, 93400.742188, 69855.617188, 78382.890625, 98874.390625, 0, 1, 1, 0, 1,0.031788573,0.077026345,0.03179884,0.066690914,0.047651995, 12:05:36.069
44071.359375, 40423.820313, 100345.851563, 81523.093750, 93339.476563, 69865.757813, 78333.500000, 98817.484375, 0, 1, 1, 0, 1,0.031788573,0.077026345,0.03179884,0.066690914,0.047651995, 12:05:36.069
44218.097656, 40557.886719, 100194.929688, 81219.734375, 93405.117188, 69603.640625, 78259.085938, 98811.742188, 0, 1, 1, 0, 1,0.031788573,0.077026345,0.03179884,0.066690914,0.047651995, 12:05:36.069
44230.816406, 40579.835938, 100146.742188, 81104.445313, 93482.007813, 69554.046875, 78294.851563, 98865.804688, 0, 1, 1, 0, 1,0.031788573,0.077026345,0.03179884,0.066690914,0.047651995, 12:05:36.069
44086.937500, 40451.984375, 100282.507813, 81387.703125, 93409.343750, 69803.804688, 78362.445313, 98870.546875, 0, 1, 1, 0, 1,0.031788573,0.077026345,0.03179884,0.066690914,0.047651995, 12:05:36.069
44039.863281, 40408.355469, 100351.257813, 81539.656250, 93342.421875, 69884.757813, 78338.679688, 98815.406250, 0, 1, 1, 0, 1,0.031788573,0.077026345,0.03179884,0.066690914,0.047651995, 12:05:36.070
44181.820313, 40529.546875, 100227.632813, 81279.945313, 93391.531250, 69648.523438, 78266.617188, 98796.203125, 0, 1, 1, 0, 1,0.031788573,0.077026345,0.03179884,0.066690914,0.047651995, 12:05:36.070
44238.414063, 40590.117188, 100142.359375, 81089.687500, 93478.125000, 69529.992188, 78280.140625, 98847.617188, 0, 1, 1, 0, 1,0.031788573,0.077026345,0.03179884,0.066690914,0.047651995, 12:05:36.070
44134.570313, 40494.093750, 100260.648438, 81332.453125, 93429.039063, 69762.875000, 78359.734375, 98878.234375, 0, 1, 1, 0, 1,0.031788573,0.077026345,0.03179884,0.066690914,0.047651995, 12:05:36.070
44067.378906, 40429.992188, 100369.968750, 81558.070313, 93363.679688, 69914.445313, 78367.757813, 98841.781250, 0, 1, 1, 0, 1,0.031788573,0.077026345,0.03179884,0.066690914,0.047651995, 12:05:36.071
44145.343750, 40497.804688, 100256.218750, 81342.195313, 93383.484375, 69704.289063, 78283.718750, 98803.625000, 0, 1, 1, 0, 1,0.031788573,0.077026345,0.03179884,0.066690914,0.047651995, 12:05:36.071
44246.574219, 40594.097656, 100142.585938, 81093.828125, 93461.132813, 69526.664063, 78270.531250, 98845.023438, 0, 1, 1, 0, 1,0.031788573,0.077026345,0.03179884,0.066690914,0.047651995, 12:05:36.071
44165.839844, 40519.777344, 100238.718750, 81278.023438, 93450.945313, 69717.476563, 78355.554688, 98886.078125, 0, 1, 1, 0, 1,0.031788573,0.077026345,0.03179884,0.066690914,0.047651995, 12:05:36.071
44067.937500, 40424.558594, 100366.906250, 81548.257813, 93372.757813, 69913.929688, 78381.101563, 98857.937500, 0, 1, 1, 0, 1,0.031788573,0.077026345,0.03179884,0.066690914,0.047651995, 12:05:36.071
44149.363281, 40500.621094, 100290.734375, 81405.875000, 93379.664063, 69760.148438, 78309.867188, 98822.445313, 0, 1, 1, 0, 1,0.031788573,0.077026345,0.03179884,0.066690914,0.047651995, 12:05:36.071
44262.128906, 40604.402344, 100158.562500, 81119.773438, 93465.132813, 69538.867188, 78281.218750, 98851.125000, 0, 1, 1, 0, 1,0.031788573,0.077026345,0.03179884,0.066690914,0.047651995, 12:05:36.072
44206.921875, 40544.273438, 100229.445313, 81239.226563, 93477.539063, 69676.601563, 78359.468750, 98899.851563, 0, 1, 1, 0, 1,0.031788573,0.077026345,0.03179884,0.066690914,0.047651995, 12:05:36.073
44070.261719, 40427.980469, 100366.929688, 81533.929688, 93393.250000, 69906.109375, 78395.726563, 98875.578125, 0, 1, 1, 0, 1,0.031788573,0.077026345,0.03179884,0.066690914,0.047651995, 12:05:36.073
44097.332031, 40462.824219, 100324.078125, 81462.718750, 93363.835938, 69802.351563, 78320.148438, 98817.867188, 0, 1, 1, 0, 1,0.031788573,0.077026345,0.03179884,0.066690914,0.047651995, 12:05:36.073
44224.890625, 40591.371094, 100155.992188, 81136.156250, 93446.625000, 69545.929688, 78262.953125, 98830.492188, 0, 1, 1, 0, 1,0.031788573,0.077026345,0.03179884,0.066690914,0.047651995, 12:05:36.073
44188.660156, 40555.429688, 100182.031250, 81169.421875, 93477.945313, 69626.281250, 78330.054688, 98888.609375, 0, 1, 1, 0, 1,0.031788573,0.077026345,0.03179884,0.066690914,0.047651995, 12:05:36.074
44044.246094, 40416.445313, 100327.570313, 81479.234375, 93398.953125, 69876.046875, 78384.078125, 98872.265625, 0, 1, 1, 0, 1,0.031788573,0.077026345,0.03179884,0.066690914,0.047651995, 12:05:36.074
44048.468750, 40419.531250, 100332.531250, 81498.703125, 93356.390625, 69840.593750, 78332.851563, 98815.648438, 0, 1, 1, 0, 1,0.031788573,0.077026345,0.03179884,0.066690914,0.047651995, 12:05:36.074
44192.636719, 40552.968750, 100180.648438, 81185.843750, 93431.765625, 69580.820313, 78270.289063, 98824.078125, 0, 1, 1, 0, 1,0.031788573,0.077026345,0.03179884,0.066690914,0.047651995, 12:05:36.074
44194.785156, 40551.742188, 100169.273438, 81134.281250, 93479.820313, 69582.945313, 78317.070313, 98873.320313, 0, 1, 1, 0, 1,0.031788573,0.077026345,0.03179884,0.066690914,0.047651995, 12:05:36.074
44063.085938, 40424.000000, 100324.101563, 81437.281250, 93411.335938, 69836.523438, 78380.007813, 98871.710938, 0, 1, 1, 0, 1,0.031788573,0.077026345,0.03179884,0.066690914,0.047651995, 12:05:36.074
44043.039063, 40408.308594, 100365.609375, 81535.492188, 93359.273438, 69868.328125, 78346.234375, 98825.375000, 0, 1, 1, 0, 1,0.031788573,0.077026345,0.03179884,0.066690914,0.047651995, 12:05:36.075
44168.519531, 40524.160156, 100206.796875, 81233.726563, 93415.671875, 69611.062500, 78271.937500, 98816.429688, 0, 1, 1, 0, 1,0.031788573,0.077026345,0.03179884,0.066690914,0.047651995, 12:05:36.075
44206.699219, 40561.464844, 100152.601563, 81100.796875, 93482.773438, 69546.601563, 78303.054688, 98869.671875, 0, 1, 1, 0, 1,0.031788573,0.077026345,0.03179884,0.066690914,0.047651995, 12:05:36.075
44080.656250, 40444.628906, 100290.867188, 81377.359375, 93423.960938, 69788.562500, 78370.781250, 98877.539063, 0, 1, 1, 0, 1,0.031788573,0.077026345,0.03179884,0.066690914,0.047651995, 12:05:36.075
44031.683594, 40395.679688, 100360.179688, 81542.937500, 93357.984375, 69884.625000, 78354.687500, 98830.203125, 0, 1, 1, 0, 1,0.031788573,0.077026345,0.03179884,0.066690914,0.047651995, 12:05:36.075
44153.210938, 40507.460938, 100230.828125, 81288.148438, 93408.828125, 69660.234375, 78285.484375, 98815.765625, 0, 1, 1, 0, 1,0.031788573,0.077026345,0.03179884,0.066690914,0.047651995, 12:05:36.075
44221.070313, 40576.996094, 100144.398438, 81085.148438, 93486.992188, 69530.890625, 78295.609375, 98863.234375, 0, 1, 1, 0, 1,0.031788573,0.077026345,0.03179884,0.066690914,0.047651995, 12:05:36.076
44107.523438, 40465.058594, 100265.070313, 81315.062500, 93446.875000, 69743.585938, 78367.312500, 98881.945313, 0, 1, 1, 0, 1,0.031788573,0.077026345,0.03179884,0.066690914,0.047651995, 12:05:36.076
44029.023438, 40382.695313, 100357.695313, 81535.742188, 93372.328125, 69895.335938, 78369.351563, 98840.328125, 0, 1, 1, 0, 1,0.031788573,0.077026345,0.03179884,0.066690914,0.047651995, 12:05:36.076
44125.718750, 40477.085938, 100257.609375, 81346.132813, 93399.914063, 69709.054688, 78300.101563, 98810.781250, 0, 1, 1, 0, 1,0.031788573,0.077026345,0.03179884,0.066690914,0.047651995, 12:05:36.076
44227.148438, 40575.433594, 100140.750000, 81086.695313, 93492.273438, 69520.539063, 78294.695313, 98853.625000, 0, 1, 1, 0, 1,0.031788573,0.077026345,0.03179884,0.066690914,0.047651995, 12:05:36.076
44138.367188, 40490.496094, 100226.156250, 81249.460938, 93475.726563, 69689.921875, 78367.273438, 98888.093750, 0, 1, 1, 0, 1,0.031788573,0.077026345,0.03179884,0.066690914,0.047651995, 12:05:36.076
44030.855469, 40384.773438, 100358.679688, 81531.625000, 93393.562500, 69895.531250, 78394.921875, 98858.789063, 0, 1, 1, 0, 1,0.031788573,0.077026345,0.03179884,0.066690914,0.047651995, 12:05:36.077
44102.046875, 40453.683594, 100284.429688, 81406.078125, 93399.156250, 69759.593750, 78328.867188, 98824.617188, 0, 1, 1, 0, 1,0.031788573,0.077026345,0.03179884,0.066690914,0.047651995, 12:05:36.077
44227.125000, 40574.917969, 100147.367188, 81111.773438, 93490.171875, 69534.445313, 78298.585938, 98853.515625, 0, 1, 1, 0, 1,0.031788573,0.077026345,0.03179884,0.066690914,0.047651995, 12:05:36.077
44167.738281, 40515.152344, 100203.023438, 81205.609375, 93498.664063, 69650.132813, 78363.562500, 98896.500000, 0, 1, 1, 0, 1,0.031788573,0.077026345,0.03179884,0.066690914,0.047651995, 12:05:36.077
44037.359375, 40388.820313, 100349.765625, 81510.195313, 93405.164063, 69881.250000, 78394.046875, 98862.945313, 0, 1, 1, 0, 1,0.031788573,0.077026345,0.03179884,0.066690914,0.047651995, 12:05:36.077
44096.593750, 40443.109375, 100315.523438, 81463.429688, 93403.531250, 69808.875000, 78343.953125, 98830.851563, 0, 1, 1, 0, 1,0.031788573,0.077026345,0.03179884,0.066690914,0.047651995, 12:05:36.077
44218.253906, 40555.921875, 100167.148438, 81149.281250, 93484.539063, 69558.648438, 78295.250000, 98843.859375, 0, 1, 1, 0, 1,0.031788573,0.077026345,0.03179884,0.066690914,0.047651995, 12:05:36.078
44188.593750, 40523.621094, 100176.734375, 81151.070313, 93513.726563, 69602.343750, 78346.906250, 98887.398438, 0, 1, 1, 0, 1,0.031788573,0.077026345,0.03179884,0.066690914,0.047651995, 12:05:36.078
44057.320313, 40394.539063, 100333.531250, 81468.460938, 93435.585938, 69854.140625, 78399.500000, 98877.453125, 0, 1, 1, 0, 1,0.015810667,0.02227057,0.018330516,0.02429987,0.016764013, 12:05:36.534
44067.156250, 40412.554688, 100343.953125, 81508.695313, 93395.578125, 69838.070313, 78352.179688, 98829.953125, 0, 1, 1, 0, 1,0.015810667,0.02227057,0.018330516,0.02429987,0.016764013, 12:05:36.535
44194.941406, 40532.339844, 100194.398438, 81200.132813, 93465.406250, 69580.125000, 78291.140625, 98832.078125, 0, 1, 1, 0, 1,0.015810667,0.02227057,0.018330516,0.02429987,0.016764013, 12:05:36.535
44210.230469, 40550.511719, 100181.453125, 81129.945313, 93517.148438, 69568.507813, 78333.968750, 98888.250000, 0, 1, 1, 0, 1,0.015810667,0.02227057,0.018330516,0.02429987,0.016764013, 12:05:36.535
44065.679688, 40403.839844, 100327.257813, 81424.789063, 93438.937500, 69816.609375, 78385.085938, 98884.648438, 0, 1, 1, 0, 1,0.015810667,0.02227057,0.018330516,0.02429987,0.016764013, 12:05:36.536
44045.003906, 40388.394531, 100366.031250, 81533.703125, 93382.101563, 69866.007813, 78352.359375, 98839.523438, 0, 1, 1, 0, 1,0.015810667,0.02227057,0.018330516,0.02429987,0.016764013, 12:05:36.536
44181.105469, 40524.359375, 100219.632813, 81248.562500, 93448.039063, 69625.882813, 78291.898438, 98838.828125, 0, 1, 1, 0, 1,0.015810667,0.02227057,0.018330516,0.02429987,0.016764013, 12:05:36.536
44226.234375, 40569.667969, 100161.984375, 81099.343750, 93516.187500, 69540.078125, 78318.093750, 98885.609375, 0, 1, 1, 0, 1,0.015810667,0.02227057,0.018330516,0.02429987,0.016764013, 12:05:36.536
44103.074219, 40445.234375, 100286.484375, 81357.125000, 93458.984375, 69766.812500, 78378.531250, 98893.296875, 0, 1, 1, 0, 1,0.015810667,0.02227057,0.018330516,0.02429987,0.016764013, 12:05:36.536
44035.417969, 40383.812500, 100365.500000, 81545.289063, 93382.992188, 69878.257813, 78362.757813, 98842.562500, 0, 1, 1, 0, 1,0.015810667,0.02227057,0.018330516,0.02429987,0.016764013, 12:05:36.537
44148.402344, 40493.132813, 100249.804688, 81315.578125, 93426.351563, 69665.156250, 78297.976563, 98822.445313, 0, 1, 1, 0, 1,0.015810667,0.02227057,0.018330516,0.02429987,0.016764013, 12:05:36.537
44232.582031, 40572.683594, 100149.804688, 81091.476563, 93508.007813, 69513.453125, 78299.078125, 98864.195313, 0, 1, 1, 0, 1,0.015810667,0.02227057,0.018330516,0.02429987,0.016764013, 12:05:36.537
44120.664063, 40459.988281, 100256.132813, 81300.375000, 93469.601563, 69713.296875, 78362.242188, 98883.578125, 0, 1, 1, 0, 1,0.015810667,0.02227057,0.018330516,0.02429987,0.016764013, 12:05:36.537
44032.199219, 40381.824219, 100363.507813, 81545.687500, 93382.117188, 69879.039063, 78364.523438, 98838.429688, 0, 1, 1, 0, 1,0.015810667,0.02227057,0.018330516,0.02429987,0.016764013, 12:05:36.537
44137.472656, 40479.050781, 100275.015625, 81378.203125, 93417.570313, 69713.234375, 78308.281250, 98820.992188, 0, 1, 1, 0, 1,0.015810667,0.02227057,0.018330516,0.02429987,0.016764013, 12:05:36.537
44236.582031, 40567.230469, 100167.710938, 81115.101563, 93496.312500, 69517.812500, 78287.921875, 98855.773438, 0, 1, 1, 0, 1,0.015810667,0.02227057,0.018330516,0.02429987,0.016764013, 12:05:36.538
44155.914063, 40494.968750, 100241.132813, 81251.851563, 93484.023438, 69664.507813, 78349.476563, 98886.617188, 0, 1, 1, 0, 1,0.015810667,0.02227057,0.018330516,0.02429987,0.016764013, 12:05:36.538
44051.867188, 40391.992188, 100369.140625, 81534.710938, 93407.625000, 69877.335938, 78384.414063, 98863.796875, 0, 1, 1, 0, 1,0.015810667,0.02227057,0.018330516,0.02429987,0.016764013, 12:05:36.538
44094.312500, 40421.945313, 100317.820313, 81432.140625, 93388.203125, 69752.054688, 78318.210938, 98813.351563, 0, 1, 1, 0, 1,0.015810667,0.02227057,0.018330516,0.02429987,0.016764013, 12:05:36.538
44239.109375, 40564.750000, 100174.523438, 81127.460938, 93480.890625, 69519.492188, 78282.710938, 98845.265625, 0, 1, 1, 0, 1,0.015810667,0.02227057,0.018330516,0.02429987,0.016764013, 12:05:36.539
44199.031250, 40526.750000, 100222.359375, 81199.570313, 93502.976563, 69623.046875, 78351.085938, 98897.968750, 0, 1, 1, 0, 1,0.015810667,0.02227057,0.018330516,0.02429987,0.016764013, 12:05:36.539
44068.699219, 40413.160156, 100384.273438, 81522.148438, 93422.132813, 69865.156250, 78395.367188, 98875.554688, 0, 1, 1, 0, 1,0.015810667,0.02227057,0.018330516,0.02429987,0.016764013, 12:05:36.540
44092.414063, 40424.445313, 100357.335938, 81498.125000, 93402.171875, 69804.492188, 78340.000000, 98833.398438, 0, 1, 1, 0, 1,0.015810667,0.02227057,0.018330516,0.02429987,0.016764013, 12:05:36.540
44222.542969, 40549.730469, 100192.070313, 81163.023438, 93483.867188, 69546.671875, 78287.296875, 98845.046875, 0, 1, 1, 0, 1,0.015810667,0.02227057,0.018330516,0.02429987,0.016764013, 12:05:36.541
44215.839844, 40549.125000, 100194.398438, 81148.140625, 93532.187500, 69581.132813, 78346.234375, 98901.234375, 0, 1, 1, 0, 1,0.015810667,0.02227057,0.018330516,0.02429987,0.016764013, 12:05:36.541
44089.148438, 40425.386719, 100346.078125, 81459.406250, 93461.023438, 69832.281250, 78403.031250, 98895.781250, 0, 1, 1, 0, 1,0.015810667,0.02227057,0.018330516,0.02429987,0.016764013, 12:05:36.541
44084.589844, 40424.937500, 100378.101563, 81537.414063, 93414.281250, 69844.726563, 78361.640625, 98848.015625, 0, 1, 1, 0, 1,0.015810667,0.02227057,0.018330516,0.02429987,0.016764013, 12:05:36.541
44202.851563, 40519.464844, 100219.226563, 81220.734375, 93476.804688, 69588.960938, 78294.226563, 98845.625000, 0, 1, 1, 0, 1,0.015810667,0.02227057,0.018330516,0.02429987,0.016764013, 12:05:36.541
44225.183594, 40542.531250, 100193.570313, 81121.695313, 93529.773438, 69549.976563, 78327.281250, 98892.250000, 0, 1, 1, 0, 1,0.015810667,0.02227057,0.018330516,0.02429987,0.016764013, 12:05:36.542
44095.496094, 40423.957031, 100344.375000, 81415.085938, 93460.796875, 69794.906250, 78385.843750, 98889.945313, 0, 1, 1, 0, 1,0.015810667,0.02227057,0.018330516,0.02429987,0.016764013, 12:05:36.542
44046.835938, 40379.410156, 100401.687500, 81555.632813, 93393.007813, 69858.250000, 78355.937500, 98835.968750, 0, 1, 1, 0, 1,0.015810667,0.02227057,0.018330516,0.02429987,0.016764013, 12:05:36.542
44182.601563, 40517.093750, 100260.156250, 81282.945313, 93456.015625, 69628.117188, 78292.726563, 98835.210938, 0, 1, 1, 0, 1,0.015810667,0.02227057,0.018330516,0.02429987,0.016764013, 12:05:36.542
44249.031250, 40581.246094, 100192.875000, 81113.781250, 93536.570313, 69528.968750, 78319.523438, 98890.640625, 0, 1, 1, 0, 1,0.015810667,0.02227057,0.018330516,0.02429987,0.016764013, 12:05:36.543
44122.273438, 40437.613281, 100319.406250, 81356.367188, 93482.968750, 69751.054688, 78384.968750, 98897.078125, 0, 1, 1, 0, 1,0.015810667,0.02227057,0.018330516,0.02429987,0.016764013, 12:05:36.543
44049.968750, 40376.210938, 100411.500000, 81560.976563, 93399.039063, 69877.382813, 78373.390625, 98843.140625, 0, 1, 1, 0, 1,0.015810667,0.02227057,0.018330516,0.02429987,0.016764013, 12:05:36.543
44151.042969, 40467.542969, 100296.703125, 81339.093750, 93426.664063, 69672.460938, 78300.367188, 98817.640625, 0, 1, 1, 0, 1,0.015810667,0.02227057,0.018330516,0.02429987,0.016764013, 12:05:36.543
44230.835938, 40542.976563, 100191.554688, 81096.195313, 93496.875000, 69509.453125, 78292.796875, 98855.859375, 0, 1, 1, 0, 1,0.015810667,0.02227057,0.018330516,0.02429987,0.016764013, 12:05:36.543
44147.597656, 40461.484375, 100297.101563, 81293.757813, 93481.320313, 69710.531250, 78375.023438, 98896.453125, 0, 1, 1, 0, 1,0.015810667,0.02227057,0.018330516,0.02429987,0.016764013, 12:05:36.543
44053.656250, 40374.535156, 100421.398438, 81554.671875, 93401.210938, 69905.187500, 78390.625000, 98863.015625, 0, 1, 1, 0, 1,0.015810667,0.02227057,0.018330516,0.02429987,0.016764013, 12:05:36.543
44119.503906, 40442.796875, 100333.828125, 81390.679688, 93400.093750, 69727.585938, 78307.812500, 98815.226563, 0, 1, 1, 0, 1,0.015810667,0.02227057,0.018330516,0.02429987,0.016764013, 12:05:36.544
44244.515625, 40566.156250, 100206.421875, 81109.898438, 93489.210938, 69516.109375, 78285.554688, 98850.093750, 0, 1, 1, 0, 1,0.015810667,0.02227057,0.018330516,0.02429987,0.016764013, 12:05:36.544
44190.269531, 40504.511719, 100263.414063, 81227.015625, 93498.546875, 69657.687500, 78361.101563, 98898.953125, 0, 1, 1, 0, 1,0.015810667,0.02227057,0.018330516,0.02429987,0.016764013, 12:05:36.544
44061.746094, 40383.273438, 100404.414063, 81529.859375, 93413.906250, 69878.703125, 78392.039063, 98870.187500, 0, 1, 1, 0, 1,0.015810667,0.02227057,0.018330516,0.02429987,0.016764013, 12:05:36.544
44120.085938, 40443.984375, 100361.789063, 81453.757813, 93407.289063, 69775.664063, 78330.945313, 98826.312500, 0, 1, 1, 0, 1,0.015810667,0.02227057,0.018330516,0.02429987,0.016764013, 12:05:36.544
44254.843750, 40577.378906, 100220.500000, 81148.203125, 93499.781250, 69539.093750, 78298.429688, 98847.437500, 0, 1, 1, 0, 1,0.015810667,0.02227057,0.018330516,0.02429987,0.016764013, 12:05:36.544
44199.230469, 40520.695313, 100263.257813, 81202.187500, 93512.343750, 69620.968750, 78353.523438, 98886.390625, 0, 1, 1, 0, 1,0.015810667,0.02227057,0.018330516,0.02429987,0.016764013, 12:05:36.544
44065.500000, 40398.789063, 100399.875000, 81507.492188, 93419.695313, 69852.593750, 78385.328125, 98859.234375, 0, 1, 1, 0, 1,0.015810667,0.02227057,0.018330516,0.02429987,0.016764013, 12:05:36.545
44082.289063, 40406.746094, 100383.046875, 81503.976563, 93390.078125, 69815.875000, 78338.281250, 98817.234375, 0, 1, 1, 0, 1,0.015810667,0.02227057,0.018330516,0.02429987,0.016764013, 12:05:36.545
44227.664063, 40548.363281, 100237.312500, 81188.867188, 93471.210938, 69564.148438, 78291.812500, 98828.210938, 0, 1, 1, 0, 1,0.015810667,0.02227057,0.018330516,0.02429987,0.016764013, 12:05:36.545
44231.375000, 40548.453125, 100230.539063, 81149.367188, 93521.281250, 69580.460938, 78345.859375, 98882.460938, 0, 1, 1, 0, 1,0.015810667,0.02227057,0.018330516,0.02429987,0.016764013, 12:05:36.545
44097.843750, 40420.312500, 100390.781250, 81472.687500, 93451.921875, 69837.820313, 78406.164063, 98882.148438, 0, 1, 1, 0, 1,0.015810667,0.02227057,0.018330516,0.02429987,0.016764013, 12:05:36.545
44089.460938, 40412.042969, 100417.242188, 81564.687500, 93400.046875, 69863.257813, 78368.320313, 98836.304688, 0, 1, 1, 0, 1,0.015810667,0.02227057,0.018330516,0.02429987,0.016764013, 12:05:36.545
44218.679688, 40535.246094, 100252.781250, 81252.296875, 93464.109375, 69612.765625, 78304.929688, 98835.609375, 0, 1, 1, 0, 1,0.015810667,0.02227057,0.018330516,0.02429987,0.016764013, 12:05:36.545
44243.308594, 40556.656250, 100217.101563, 81131.937500, 93519.718750, 69560.640625, 78333.945313, 98881.054688, 0, 1, 1, 0, 1,0.015810667,0.02227057,0.018330516,0.02429987,0.016764013, 12:05:36.545
44109.242188, 40429.050781, 100362.968750, 81421.632813, 93456.617188, 69808.203125, 78395.414063, 98885.726563, 0, 1, 1, 0, 1,0.015810667,0.02227057,0.018330516,0.02429987,0.016764013, 12:05:36.546
44059.355469, 40383.968750, 100428.460938, 81585.875000, 93381.179688, 69886.101563, 78365.929688, 98830.179688, 0, 1, 1, 0, 1,0.015810667,0.02227057,0.018330516,0.02429987,0.016764013, 12:05:36.546
44192.726563, 40516.042969, 100307.492188, 81338.195313, 93436.929688, 69661.601563, 78304.039063, 98823.382813, 0, 1, 1, 0, 1,0.015810667,0.02227057,0.018330516,0.02429987,0.016764013, 12:05:36.546
44248.605469, 40566.960938, 100210.468750, 81132.000000, 93508.921875, 69532.515625, 78310.007813, 98870.859375, 0, 1, 1, 0, 1,0.015810667,0.02227057,0.018330516,0.02429987,0.016764013, 12:05:36.546
44126.007813, 40455.695313, 100317.554688, 81364.125000, 93462.609375, 69741.351563, 78374.312500, 98885.546875, 0, 1, 1, 0, 1,0.015810667,0.02227057,0.018330516,0.02429987,0.016764013, 12:05:36.546
44060.562500, 40396.910156, 100416.546875, 81594.125000, 93391.304688, 69893.187500, 78379.921875, 98854.296875, 0, 1, 1, 0, 1,0.015810667,0.02227057,0.018330516,0.02429987,0.016764013, 12:05:36.547
44151.980469, 40480.976563, 100314.648438, 81390.367188, 93419.312500, 69705.187500, 78313.734375, 98825.750000, 0, 1, 1, 0, 1,0.015810667,0.02227057,0.018330516,0.02429987,0.016764013, 12:05:36.547
44249.968750, 40573.332031, 100200.140625, 81127.843750, 93500.250000, 69529.210938, 78303.414063, 98865.273438, 0, 1, 1, 0, 1,0.015810667,0.02227057,0.018330516,0.02429987,0.016764013, 12:05:36.547
44158.574219, 40483.746094, 100299.445313, 81310.929688, 93476.625000, 69711.023438, 78373.867188, 98896.226563, 0, 1, 1, 0, 1,0.015810667,0.02227057,0.018330516,0.02429987,0.016764013, 12:05:36.547
44053.050781, 40385.421875, 100423.390625, 81586.593750, 93388.445313, 69900.320313, 78389.351563, 98854.812500, 0, 1, 1, 0, 1,0.015810667,0.02227057,0.018330516,0.02429987,0.016764013, 12:05:36.547
44124.890625, 40454.355469, 100349.781250, 81444.656250, 93392.289063, 69754.156250, 78323.367188, 98816.945313, 0, 1, 1, 0, 1,0.015810667,0.02227057,0.018330516,0.02429987,0.016764013, 12:05:36.547
44243.734375, 40567.343750, 100205.726563, 81136.406250, 93468.312500, 69531.226563, 78286.421875, 98843.234375, 0, 1, 1, 0, 1,0.015810667,0.02227057,0.018330516,0.02429987,0.016764013, 12:05:36.547
44176.949219, 40509.226563, 100257.984375, 81238.640625, 93475.351563, 69652.656250, 78354.507813, 98880.445313, 0, 1, 1, 0, 1,0.015810667,0.02227057,0.018330516,0.02429987,0.016764013, 12:05:36.548
44072.117188, 40403.257813, 100416.976563, 81564.242188, 93403.039063, 69889.812500, 78401.734375, 98863.460938, 0, 1, 1, 0, 1,0.015810667,0.02227057,0.018330516,0.02429987,0.016764013, 12:05:36.548
44120.800781, 40450.843750, 100375.085938, 81500.625000, 93380.195313, 69799.398438, 78329.828125, 98815.671875, 0, 1, 1, 0, 1,0.015810667,0.02227057,0.018330516,0.02429987,0.016764013, 12:05:36.548
44239.062500, 40563.742188, 100226.265625, 81180.367188, 93451.656250, 69551.921875, 78280.140625, 98824.257813, 0, 1, 1, 0, 1,0.015810667,0.02227057,0.018330516,0.02429987,0.016764013, 12:05:36.548
44220.242188, 40547.449219, 100233.625000, 81192.710938, 93500.632813, 69614.796875, 78350.750000, 98885.007813, 0, 1, 1, 0, 1,0.015810667,0.02227057,0.018330516,0.02429987,0.016764013, 12:05:36.548
44092.949219, 40430.503906, 100395.648438, 81521.031250, 93423.179688, 69869.046875, 78407.953125, 98875.531250, 0, 1, 1, 0, 1,0.015810667,0.02227057,0.018330516,0.02429987,0.016764013, 12:05:36.548
44099.253906, 40438.484375, 100399.695313, 81549.351563, 93375.078125, 69840.640625, 78353.007813, 98823.226563, 0, 1, 1, 0, 1,0.015810667,0.02227057,0.018330516,0.02429987,0.016764013, 12:05:36.548
44231.394531, 40565.375000, 100246.203125, 81232.648438, 93448.703125, 69587.039063, 78296.570313, 98831.679688, 0, 1, 1, 0, 1,0.015810667,0.02227057,0.018330516,0.02429987,0.016764013, 12:05:36.549
44232.023438, 40567.945313, 100231.117188, 81169.375000, 93491.914063, 69589.625000, 78343.421875, 98884.898438, 0, 1, 1, 0, 1,0.015810667,0.02227057,0.018330516,0.02429987,0.016764013, 12:05:36.549
44093.484375, 40427.128906, 100389.234375, 81484.468750, 93409.320313, 69836.484375, 78397.843750, 98872.335938, 0, 1, 1, 0, 1,0.015810667,0.02227057,0.018330516,0.02429987,0.016764013, 12:05:36.549
44063.601563, 40401.269531, 100426.070313, 81586.812500, 93340.570313, 69868.375000, 78354.531250, 98815.648438, 0, 1, 1, 0, 1,0.015810667,0.02227057,0.018330516,0.02429987,0.016764013, 12:05:36.549
44203.613281, 40537.792969, 100273.140625, 81289.539063, 93414.531250, 69622.437500, 78299.656250, 98817.414063, 0, 1, 1, 0, 1,0.015810667,0.02227057,0.018330516,0.02429987,0.016764013, 12:05:36.549
44245.140625, 40581.468750, 100212.679688, 81142.687500, 93497.609375, 69555.406250, 78331.710938, 98875.773438, 0, 1, 1, 0, 1,0.015810667,0.02227057,0.018330516,0.02429987,0.016764013, 12:05:36.550
44115.882813, 40456.812500, 100353.312500, 81420.984375, 93439.718750, 69788.085938, 78394.765625, 98881.562500, 0, 1, 1, 0, 1,0.015810667,0.02227057,0.018330516,0.02429987,0.016764013, 12:05:36.550
44077.281250, 40406.230469, 100437.804688, 81606.867188, 93357.062500, 69883.820313, 78370.804688, 98829.929688, 0, 1, 1, 0, 1,0.015810667,0.02227057,0.018330516,0.02429987,0.016764013, 12:05:36.550
44170.667969, 40506.523438, 100313.664063, 81355.070313, 93397.367188, 69667.031250, 78304.570313, 98812.562500, 0, 1, 1, 0, 1,0.015810667,0.02227057,0.018330516,0.02429987,0.016764013, 12:05:36.550
44237.164063, 40576.105469, 100213.796875, 81132.781250, 93477.875000, 69529.945313, 78313.890625, 98859.546875, 0, 1, 1, 0, 1,0.015810667,0.02227057,0.018330516,0.02429987,0.016764013, 12:05:36.550
44154.238281, 40493.625000, 100326.406250, 81362.312500, 93457.648438, 69740.750000, 78390.601563, 98893.210938, 0, 1, 1, 0, 1,0.015810667,0.02227057,0.018330516,0.02429987,0.016764013, 12:05:36.550
44071.312500, 40410.789063, 100445.960938, 81614.062500, 93387.398438, 69903.085938, 78396.281250, 98854.210938, 0, 1, 1, 0, 1,0.015810667,0.02227057,0.018330516,0.02429987,0.016764013, 12:05:36.551
44149.542969, 40488.550781, 100337.804688, 81418.390625, 93384.335938, 69719.398438, 78325.960938, 98820.679688, 0, 1, 1, 0, 1,0.015810667,0.02227057,0.018330516,0.02429987,0.016764013, 12:05:36.551
