%OpenBCI Raw EEG Data
%
%Sample Rate = 250.0 Hz
%First Column = SampleIndex
%5 Columns before Timestamp are Frequency Power factors DELTA THETA ALPHA BETA GAMMA
%Last Column = Timestamp 
%Other Columns = EEG data in microvolts followed by Accel Data (in G) interleaved with Aux Data
0.000000, 0.000000, 0.000000, 0.000000, 0.000000, 0.000000, 0.000000, 0.000000, 0.000, 0.000, 0.000,0.0,0.0,0.0,0.0,0.0, 13:18:57.995
62723.128906, 91784.351563, 187500.015625, 103324.710938, 127901.726563, 119146.234375, 112829.812500, 120823.179688, 0.000, 0.000, 0.000,0.0,0.0,0.0,0.0,0.0, 13:18:58.476
62755.203125, 91830.039063, 187500.015625, 103237.359375, 127947.726563, 119193.671875, 112832.476563, 120870.335938, 0.000, 0.000, 0.000,0.0,0.0,0.0,0.0,0.0, 13:18:58.477
62689.734375, 91748.070313, 187500.015625, 103473.265625, 127915.187500, 119208.781250, 112879.703125, 120857.640625, 0.000, 0.000, 0.000,0.0,0.0,0.0,0.0,0.0, 13:18:58.478
62660.988281, 91714.031250, 187500.015625, 103584.257813, 127879.734375, 119177.484375, 112891.906250, 120823.109375, 0.000, 0.000, 0.000,0.0,0.0,0.0,0.0,0.0, 13:18:58.478
62724.156250, 91786.695313, 187500.015625, 103366.507813, 127908.609375, 119163.093750, 112851.382813, 120834.195313, 0.000, 0.000, 0.000,0.0,0.0,0.0,0.0,0.0, 13:18:58.479
62755.226563, 91822.820313, 187500.015625, 103224.421875, 127943.750000, 119188.484375, 112825.921875, 120864.953125, 0.000, 0.000, 0.000,0.0,0.0,0.0,0.0,0.0, 13:18:58.480
62693.644531, 91753.281250, 187500.015625, 103428.382813, 127917.773438, 119205.898438, 112864.664063, 120855.921875, 0.000, 0.000, 0.000,0.0,0.0,0.0,0.0,0.0, 13:18:58.481
62657.281250, 91712.984375, 187500.015625, 103599.328125, 127881.054688, 119185.289063, 112892.554688, 120823.218750, 0.000, 0.000, 0.000,0.0,0.0,0.0,0.0,0.0, 13:18:58.481
62706.855469, 91776.101563, 187500.015625, 103419.171875, 127899.335938, 119160.320313, 112853.554688, 120821.234375, 0.000, 0.000, 0.000,0.0,0.0,0.0,0.0,0.0, 13:18:58.482
62756.187500, 91836.476563, 187500.015625, 103214.695313, 127946.546875, 119178.539063, 112825.320313, 120859.210938, 0.000, 0.000, 0.000,0.0,0.0,0.0,0.0,0.0, 13:18:58.483
62708.128906, 91775.898438, 187500.015625, 103376.164063, 127928.531250, 119203.007813, 112857.148438, 120861.843750, 0.000, 0.000, 0.000,0.0,0.0,0.0,0.0,0.0, 13:18:58.483
62656.093750, 91712.023438, 187500.015625, 103583.921875, 127884.203125, 119186.226563, 112888.242188, 120828.406250, 0.000, 0.000, 0.000,0.0,0.0,0.0,0.0,0.0, 13:18:58.484
62686.089844, 91744.632813, 187500.015625, 103463.250000, 127892.140625, 119153.617188, 112864.390625, 120817.210938, 0.000, 0.000, 0.000,0.0,0.0,0.0,0.0,0.0, 13:18:58.484
62751.851563, 91822.257813, 187500.015625, 103237.812500, 127944.625000, 119169.570313, 112835.203125, 120853.796875, 0.000, 0.000, 0.000,0.0,0.0,0.0,0.0,0.0, 13:18:58.484
62728.132813, 91791.101563, 187500.015625, 103330.632813, 127947.796875, 119210.093750, 112859.164063, 120874.070313, 0.000, 0.000, 0.000,0.0,0.0,0.0,0.0,0.0, 13:18:58.485
62658.820313, 91714.945313, 187500.015625, 103567.476563, 127896.921875, 119202.140625, 112890.609375, 120841.281250, 0.000, 0.000, 0.000,0.0,0.0,0.0,0.0,0.0, 13:18:58.485
62672.320313, 91730.437500, 187500.015625, 103510.054688, 127887.539063, 119166.132813, 112870.023438, 120818.929688, 0.000, 0.000, 0.000,0.0,0.0,0.0,0.0,0.0, 13:18:58.485
62748.519531, 91818.210938, 187500.015625, 103261.570313, 127938.585938, 119169.867188, 112830.062500, 120848.523438, 0.000, 0.000, 0.000,0.0,0.0,0.0,0.0,0.0, 13:18:58.486
62737.457031, 91809.476563, 187500.015625, 103292.343750, 127951.375000, 119206.500000, 112849.726563, 120872.578125, 0.000, 0.000, 0.000,0.0,0.0,0.0,0.0,0.0, 13:18:58.486
62662.019531, 91722.773438, 187500.015625, 103549.859375, 127907.945313, 119206.031250, 112897.695313, 120846.851563, 0.000, 0.000, 0.000,0.0,0.0,0.0,0.0,0.0, 13:18:58.486
62654.867188, 91715.101563, 187500.015625, 103550.687500, 127877.320313, 119168.117188, 112881.062500, 120818.171875, 0.000, 0.000, 0.000,0.0,0.0,0.0,0.0,0.0, 13:18:58.487
62734.238281, 91805.968750, 187500.015625, 103290.601563, 127920.257813, 119164.320313, 112833.703125, 120840.882813, 0.000, 0.000, 0.000,0.0,0.0,0.0,0.0,0.0, 13:18:58.487
62747.042969, 91822.234375, 187500.015625, 103260.742188, 127961.406250, 119205.578125, 112847.492188, 120876.421875, 0.000, 0.000, 0.000,0.0,0.0,0.0,0.0,0.0, 13:18:58.487
62679.339844, 91736.968750, 187500.015625, 103504.687500, 127921.289063, 119210.390625, 112889.406250, 120855.921875, 0.000, 0.000, 0.000,0.0,0.0,0.0,0.0,0.0, 13:18:58.488
62662.597656, 91717.921875, 187500.015625, 103570.562500, 127882.929688, 119171.320313, 112881.492188, 120819.757813, 0.000, 0.000, 0.000,0.0,0.0,0.0,0.0,0.0, 13:18:58.488
62727.730469, 91797.648438, 187500.015625, 103337.046875, 127927.968750, 119162.734375, 112850.179688, 120841.617188, 0.000, 0.000, 0.000,0.0,0.0,0.0,0.0,0.0, 13:18:58.488
62746.664063, 91816.875000, 187500.015625, 103243.375000, 127961.656250, 119194.179688, 112844.945313, 120873.710938, 0.000, 0.000, 0.000,0.0,0.0,0.0,0.0,0.0, 13:18:58.488
62683.699219, 91727.843750, 187500.015625, 103469.171875, 127927.703125, 119204.929688, 112883.437500, 120853.554688, 0.000, 0.000, 0.000,0.0,0.0,0.0,0.0,0.0, 13:18:58.489
62651.445313, 91695.054688, 187500.015625, 103594.453125, 127897.976563, 119176.101563, 112895.664063, 120820.156250, 0.000, 0.000, 0.000,0.0,0.0,0.0,0.0,0.0, 13:18:58.489
62706.609375, 91774.335938, 187500.015625, 103385.218750, 127915.789063, 119151.156250, 112855.023438, 120821.343750, 0.000, 0.000, 0.000,0.0,0.0,0.0,0.0,0.0, 13:18:58.489
62754.332031, 91824.382813, 187500.015625, 103218.632813, 127952.312500, 119180.390625, 112832.382813, 120859.078125, 0.000, 0.000, 0.000,0.0,0.0,0.0,0.0,0.0, 13:18:58.489
62700.375000, 91761.039063, 187500.015625, 103404.062500, 127934.632813, 119212.218750, 112872.171875, 120865.156250, 0.000, 0.000, 0.000,0.0,0.0,0.0,0.0,0.0, 13:18:58.490
62647.289063, 91697.937500, 187500.015625, 103589.710938, 127890.507813, 119186.179688, 112899.414063, 120827.578125, 0.000, 0.000, 0.000,0.0,0.0,0.0,0.0,0.0, 13:18:58.490
62689.847656, 91751.875000, 187500.015625, 103434.507813, 127896.765625, 119153.210938, 112862.515625, 120818.882813, 0.000, 0.000, 0.000,0.0,0.0,0.0,0.0,0.0, 13:18:58.490
62750.597656, 91829.476563, 187500.015625, 103220.601563, 127947.617188, 119176.812500, 112827.179688, 120860.078125, 0.000, 0.000, 0.000,0.0,0.0,0.0,0.0,0.0, 13:18:58.490
62714.769531, 91786.742188, 187500.015625, 103362.531250, 127952.468750, 119216.289063, 112867.945313, 120875.148438, 0.000, 0.000, 0.000,0.0,0.0,0.0,0.0,0.0, 13:18:58.491
62663.738281, 91717.789063, 187500.015625, 103592.554688, 127899.226563, 119199.437500, 112901.070313, 120837.390625, 0.000, 0.000, 0.000,0.0,0.0,0.0,0.0,0.0, 13:18:58.491
62697.937500, 91757.125000, 187500.015625, 103489.531250, 127905.531250, 119168.343750, 112882.203125, 120827.132813, 0.000, 0.000, 0.000,0.0,0.0,0.0,0.0,0.0, 13:18:58.491
62760.925781, 91836.453125, 187500.015625, 103258.843750, 127955.843750, 119175.117188, 112849.171875, 120857.781250, 0.000, 0.000, 0.000,0.0,0.0,0.0,0.0,0.0, 13:18:58.491
62739.152344, 91804.515625, 187500.015625, 103333.429688, 127957.585938, 119210.882813, 112858.070313, 120876.757813, 0.000, 0.000, 0.000,0.0,0.0,0.0,0.0,0.0, 13:18:58.492
62662.039063, 91719.796875, 187500.015625, 103578.937500, 127911.023438, 119202.226563, 112901.492188, 120846.179688, 0.000, 0.000, 0.000,0.0,0.0,0.0,0.0,0.0, 13:18:58.492
62672.480469, 91728.984375, 187500.015625, 103538.773438, 127893.968750, 119160.656250, 112883.882813, 120814.953125, 0.000, 0.000, 0.000,0.0,0.0,0.0,0.0,0.0, 13:18:58.493
62748.921875, 91811.304688, 187500.015625, 103279.875000, 127938.007813, 119162.867188, 112837.906250, 120845.015625, 0.000, 0.000, 0.000,0.0,0.0,0.0,0.0,0.0, 13:18:58.493
62751.648438, 91807.218750, 187500.015625, 103294.781250, 127964.289063, 119208.843750, 112858.445313, 120880.484375, 0.000, 0.000, 0.000,0.0,0.0,0.0,0.0,0.0, 13:18:58.493
62679.140625, 91723.398438, 187500.015625, 103551.625000, 127920.171875, 119207.367188, 112904.156250, 120853.531250, 0.000, 0.000, 0.000,0.0,0.0,0.0,0.0,0.0, 13:18:58.494
62669.640625, 91716.781250, 187500.015625, 103571.031250, 127896.382813, 119167.851563, 112898.414063, 120824.921875, 0.000, 0.000, 0.000,0.0,0.0,0.0,0.0,0.0, 13:18:58.494
62745.078125, 91806.812500, 187500.015625, 103314.367188, 127950.257813, 119170.375000, 112862.695313, 120855.031250, 0.000, 0.000, 0.000,0.0,0.0,0.0,0.0,0.0, 13:18:58.495
62749.996094, 91815.460938, 187500.015625, 103261.882813, 127973.476563, 119205.250000, 112860.750000, 120882.789063, 0.000, 0.000, 0.000,0.0,0.0,0.0,0.0,0.0, 13:18:58.503
62681.820313, 91737.500000, 187500.015625, 103500.687500, 127927.968750, 119215.570313, 112892.664063, 120863.414063, 0.000, 0.000, 0.000,0.0,0.0,0.0,0.0,0.0, 13:18:58.503
62655.156250, 91704.781250, 187500.015625, 103595.257813, 127896.429688, 119176.343750, 112902.968750, 120828.539063, 0.000, 0.000, 0.000,0.0,0.0,0.0,0.0,0.0, 13:18:58.504
62716.511719, 91774.937500, 187500.015625, 103362.015625, 127918.109375, 119153.546875, 112849.437500, 120832.562500, 0.000, 0.000, 0.000,0.0,0.0,0.0,0.0,0.0, 13:18:58.504
62750.644531, 91816.648438, 187500.015625, 103240.179688, 127960.421875, 119192.062500, 112836.164063, 120872.664063, 0.000, 0.000, 0.000,0.0,0.0,0.0,0.0,0.0, 13:18:58.505
62686.515625, 91743.937500, 187500.015625, 103460.726563, 127934.984375, 119207.234375, 112883.078125, 120862.406250, 0.000, 0.000, 0.000,0.0,0.0,0.0,0.0,0.0, 13:18:58.505
62649.343750, 91699.015625, 187500.015625, 103603.257813, 127886.554688, 119172.882813, 112898.632813, 120820.429688, 0.000, 0.000, 0.000,0.0,0.0,0.0,0.0,0.0, 13:18:58.505
62702.898438, 91763.429688, 187500.015625, 103409.804688, 127902.062500, 119147.445313, 112852.679688, 120818.171875, 0.000, 0.000, 0.000,0.0,0.0,0.0,0.0,0.0, 13:18:58.506
62754.062500, 91815.914063, 187500.015625, 103233.453125, 127948.468750, 119174.851563, 112828.945313, 120855.742188, 0.000, 0.000, 0.000,0.0,0.0,0.0,0.0,0.0, 13:18:58.506
62699.972656, 91748.343750, 187500.015625, 103414.570313, 127931.992188, 119196.460938, 112867.718750, 120848.367188, 0.000, 0.000, 0.000,0.0,0.0,0.0,0.0,0.0, 13:18:58.506
62645.859375, 91687.726563, 187500.015625, 103611.148438, 127888.296875, 119174.242188, 112903.554688, 120814.281250, 0.000, 0.000, 0.000,0.0,0.0,0.0,0.0,0.0, 13:18:58.507
62680.257813, 91734.906250, 187500.015625, 103460.453125, 127889.703125, 119140.070313, 112862.851563, 120805.046875, 0.000, 0.000, 0.000,0.0,0.0,0.0,0.0,0.0, 13:18:58.507
62735.175781, 91802.906250, 187500.015625, 103229.093750, 127930.742188, 119160.343750, 112816.734375, 120839.382813, 0.000, 0.000, 0.000,0.0,0.0,0.0,0.0,0.0, 13:18:58.507
62708.285156, 91758.710938, 187500.015625, 103352.648438, 127932.710938, 119201.335938, 112854.218750, 120856.859375, 0.000, 0.000, 0.000,0.0,0.0,0.0,0.0,0.0, 13:18:58.508
62654.867188, 91691.859375, 187500.015625, 103587.187500, 127888.539063, 119188.664063, 112894.679688, 120825.726563, 0.000, 0.000, 0.000,0.0,0.0,0.0,0.0,0.0, 13:18:58.508
62674.804688, 91719.929688, 187500.015625, 103501.804688, 127880.453125, 119152.093750, 112868.750000, 120808.515625, 0.000, 0.000, 0.000,0.0,0.0,0.0,0.0,0.0, 13:18:58.509
62747.355469, 91800.984375, 187500.015625, 103252.492188, 127934.718750, 119164.656250, 112836.609375, 120845.976563, 0.000, 0.000, 0.000,0.0,0.0,0.0,0.0,0.0, 13:18:58.509
62736.046875, 91782.000000, 187500.015625, 103318.031250, 127950.921875, 119209.539063, 112864.640625, 120877.132813, 0.000, 0.000, 0.000,0.0,0.0,0.0,0.0,0.0, 13:18:58.510
62667.496094, 91698.679688, 187500.015625, 103574.226563, 127895.562500, 119198.984375, 112895.039063, 120840.679688, 0.000, 0.000, 0.000,0.0,0.0,0.0,0.0,0.0, 13:18:58.510
62675.941406, 91713.023438, 187500.015625, 103553.148438, 127890.867188, 119162.507813, 112892.421875, 120815.734375, 0.000, 0.000, 0.000,0.0,0.0,0.0,0.0,0.0, 13:18:58.510
62750.171875, 91799.882813, 187500.015625, 103295.234375, 127931.593750, 119163.429688, 112844.093750, 120844.390625, 0.000, 0.000, 0.000,0.0,0.0,0.0,0.0,0.0, 13:18:58.511
62745.433594, 91798.546875, 187500.015625, 103296.484375, 127937.648438, 119202.609375, 112842.531250, 120869.757813, 0.000, 0.000, 0.000,0.0,0.0,0.0,0.0,0.0, 13:18:58.511
62664.921875, 91707.125000, 187500.015625, 103548.875000, 127892.992188, 119202.656250, 112878.789063, 120841.906250, 0.000, 0.000, 0.000,0.0,0.0,0.0,0.0,0.0, 13:18:58.511
62653.257813, 91693.265625, 187500.015625, 103584.726563, 127863.148438, 119162.867188, 112873.492188, 120806.125000, 0.000, 0.000, 0.000,0.0,0.0,0.0,0.0,0.0, 13:18:58.512
62721.472656, 91777.039063, 187500.015625, 103340.132813, 127900.789063, 119158.015625, 112834.734375, 120828.695313, 0.000, 0.000, 0.000,0.0,0.0,0.0,0.0,0.0, 13:18:58.512
62744.562500, 91801.562500, 187500.015625, 103266.085938, 127936.617188, 119195.656250, 112837.617188, 120862.781250, 0.000, 0.000, 0.000,0.0,0.0,0.0,0.0,0.0, 13:18:58.512
62678.042969, 91723.445313, 187500.015625, 103505.492188, 127898.171875, 119204.617188, 112878.585938, 120844.054688, 0.000, 0.000, 0.000,0.0,0.0,0.0,0.0,0.0, 13:18:58.513
62646.148438, 91688.062500, 187500.015625, 103604.398438, 127854.078125, 119163.382813, 112876.726563, 120799.593750, 0.000, 0.000, 0.000,0.0,0.0,0.0,0.0,0.0, 13:18:58.513
62711.437500, 91764.031250, 187500.015625, 103373.726563, 127884.632813, 119145.390625, 112835.601563, 120810.304688, 0.000, 0.000, 0.000,0.0,0.0,0.0,0.0,0.0, 13:18:58.513
62751.691406, 91807.218750, 187500.015625, 103234.296875, 127925.195313, 119176.281250, 112819.843750, 120847.984375, 0.000, 0.000, 0.000,0.0,0.0,0.0,0.0,0.0, 13:18:58.514
62696.574219, 91737.476563, 187500.015625, 103447.492188, 127902.625000, 119193.843750, 112865.625000, 120839.984375, 0.000, 0.000, 0.000,0.0,0.0,0.0,0.0,0.0, 13:18:58.514
62654.417969, 91688.726563, 187500.015625, 103610.859375, 127861.984375, 119166.664063, 112887.835938, 120803.906250, 0.000, 0.000, 0.000,0.0,0.0,0.0,0.0,0.0, 13:18:58.515
62699.433594, 91745.343750, 187500.015625, 103426.726563, 127880.000000, 119142.281250, 112852.656250, 120806.234375, 0.000, 0.000, 0.000,0.0,0.0,0.0,0.0,0.0, 13:18:58.515
62747.601563, 91794.406250, 187500.015625, 103237.273438, 127924.054688, 119168.632813, 112825.320313, 120841.976563, 0.000, 0.000, 0.000,0.0,0.0,0.0,0.0,0.0, 13:18:58.515
62708.753906, 91745.796875, 187500.015625, 103416.289063, 127919.273438, 119208.015625, 112868.820313, 120859.054688, 0.000, 0.000, 0.000,0.0,0.0,0.0,0.0,0.0, 13:18:58.516
62662.488281, 91687.632813, 187500.015625, 103632.382813, 127876.601563, 119190.156250, 112900.132813, 120824.921875, 0.000, 0.000, 0.000,0.0,0.0,0.0,0.0,0.0, 13:18:58.516
62706.832031, 91744.875000, 187500.015625, 103491.679688, 127890.375000, 119162.085938, 112873.601563, 120819.156250, 0.000, 0.000, 0.000,0.0,0.0,0.0,0.0,0.0, 13:18:58.516
62772.839844, 91828.250000, 187500.015625, 103262.195313, 127937.179688, 119179.406250, 112838.125000, 120856.796875, 0.000, 0.000, 0.000,5.831462E-6,7.724576E-6,9.494996E-6,2.98711E-5,3.7937243E-5, 13:18:58.517
62742.214844, 91788.148438, 187500.015625, 103385.578125, 127942.812500, 119218.296875, 112871.632813, 120871.679688, 0.000, 0.000, 0.000,5.831462E-6,7.724576E-6,9.494996E-6,2.98711E-5,3.7937243E-5, 13:18:58.517
62672.410156, 91702.812500, 187500.015625, 103639.265625, 127888.539063, 119203.281250, 112910.976563, 120834.171875, 0.000, 0.000, 0.000,5.831462E-6,7.724576E-6,9.494996E-6,2.98711E-5,3.7937243E-5, 13:18:58.517
62689.218750, 91727.578125, 187500.015625, 103568.390625, 127875.375000, 119162.484375, 112887.640625, 120812.492188, 0.000, 0.000, 0.000,5.831462E-6,7.724576E-6,9.494996E-6,2.98711E-5,3.7937243E-5, 13:18:58.518
62747.179688, 91799.328125, 187500.015625, 103316.507813, 127921.109375, 119171.203125, 112847.093750, 120844.789063, 0.000, 0.000, 0.000,5.831462E-6,7.724576E-6,9.494996E-6,2.98711E-5,3.7937243E-5, 13:18:58.518
62729.363281, 91772.820313, 187500.015625, 103366.039063, 127935.882813, 119209.695313, 112871.632813, 120867.414063, 0.000, 0.000, 0.000,5.831462E-6,7.724576E-6,9.494996E-6,2.98711E-5,3.7937243E-5, 13:18:58.519
62653.589844, 91690.453125, 187500.015625, 103618.125000, 127878.078125, 119197.000000, 112900.578125, 120829.257813, 0.000, 0.000, 0.000,5.831462E-6,7.724576E-6,9.494996E-6,2.98711E-5,3.7937243E-5, 13:18:58.519
62658.285156, 91702.320313, 187500.015625, 103597.625000, 127856.507813, 119158.421875, 112878.117188, 120800.601563, 0.000, 0.000, 0.000,5.831462E-6,7.724576E-6,9.494996E-6,2.98711E-5,3.7937243E-5, 13:18:58.520
62732.695313, 91786.718750, 187500.015625, 103334.234375, 127901.726563, 119155.382813, 112831.109375, 120825.789063, 0.000, 0.000, 0.000,5.831462E-6,7.724576E-6,9.494996E-6,2.98711E-5,3.7937243E-5, 13:18:58.520
62747.582031, 91796.843750, 187500.015625, 103318.210938, 127931.882813, 119195.453125, 112844.945313, 120858.539063, 0.000, 0.000, 0.000,5.831462E-6,7.724576E-6,9.494996E-6,2.98711E-5,3.7937243E-5, 13:18:58.521
62674.714844, 91713.789063, 187500.015625, 103581.492188, 127889.593750, 119200.890625, 112894.210938, 120835.429688, 0.000, 0.000, 0.000,5.831462E-6,7.724576E-6,9.494996E-6,2.98711E-5,3.7937243E-5, 13:18:58.521
62661.750000, 91693.914063, 187500.015625, 103643.000000, 127865.656250, 119162.421875, 112900.023438, 120797.492188, 0.000, 0.000, 0.000,5.831462E-6,7.724576E-6,9.494996E-6,2.98711E-5,3.7937243E-5, 13:18:58.522
62737.632813, 91778.335938, 187500.015625, 103397.625000, 127902.734375, 119154.796875, 112856.632813, 120825.078125, 0.000, 0.000, 0.000,5.831462E-6,7.724576E-6,9.494996E-6,2.98711E-5,3.7937243E-5, 13:18:58.522
62762.445313, 91804.445313, 187500.015625, 103309.984375, 127938.359375, 119197.398438, 112851.539063, 120872.218750, 0.000, 0.000, 0.000,5.831462E-6,7.724576E-6,9.494996E-6,2.98711E-5,3.7937243E-5, 13:18:58.522
62693.042969, 91723.820313, 187500.015625, 103555.781250, 127909.796875, 119208.085938, 112904.226563, 120854.562500, 0.000, 0.000, 0.000,5.831462E-6,7.724576E-6,9.494996E-6,2.98711E-5,3.7937243E-5, 13:18:58.524
62662.242188, 91684.507813, 187500.015625, 103682.164063, 127867.617188, 119172.593750, 112914.484375, 120816.695313, 0.000, 0.000, 0.000,5.831462E-6,7.724576E-6,9.494996E-6,2.98711E-5,3.7937243E-5, 13:18:58.524
62726.390625, 91758.468750, 187500.015625, 103467.046875, 127904.523438, 119158.289063, 112880.171875, 120824.875000, 0.000, 0.000, 0.000,5.831462E-6,7.724576E-6,9.494996E-6,2.98711E-5,3.7937243E-5, 13:18:58.524
62772.324219, 91809.609375, 187500.015625, 103313.242188, 127946.320313, 119195.257813, 112854.914063, 120860.195313, 0.000, 0.000, 0.000,5.831462E-6,7.724576E-6,9.494996E-6,2.98711E-5,3.7937243E-5, 13:18:58.525
62716.914063, 91746.351563, 187500.015625, 103514.546875, 127909.101563, 119210.093750, 112889.179688, 120858.828125, 0.000, 0.000, 0.000,5.831462E-6,7.724576E-6,9.494996E-6,2.98711E-5,3.7937243E-5, 13:18:58.525
62660.363281, 91685.156250, 187500.015625, 103694.250000, 127877.164063, 119185.132813, 112921.187500, 120823.804688, 0.000, 0.000, 0.000,5.831462E-6,7.724576E-6,9.494996E-6,2.98711E-5,3.7937243E-5, 13:18:58.526
62705.558594, 91740.968750, 187500.015625, 103519.914063, 127900.453125, 119158.796875, 112882.765625, 120821.054688, 0.000, 0.000, 0.000,5.831462E-6,7.724576E-6,9.494996E-6,2.98711E-5,3.7937243E-5, 13:18:58.526
62763.070313, 91806.343750, 187500.015625, 103301.984375, 127923.789063, 119180.968750, 112843.093750, 120854.601563, 0.000, 0.000, 0.000,5.831462E-6,7.724576E-6,9.494996E-6,2.98711E-5,3.7937243E-5, 13:18:58.526
62723.105469, 91755.742188, 187500.015625, 103453.640625, 127907.335938, 119210.320313, 112871.414063, 120859.273438, 0.000, 0.000, 0.000,5.831462E-6,7.724576E-6,9.494996E-6,2.98711E-5,3.7937243E-5, 13:18:58.527
62658.375000, 91683.367188, 187500.015625, 103678.968750, 127867.773438, 119184.679688, 112903.039063, 120817.945313, 0.000, 0.000, 0.000,5.831462E-6,7.724576E-6,9.494996E-6,2.98711E-5,3.7937243E-5, 13:18:58.527
62692.527344, 91729.968750, 187500.015625, 103558.289063, 127870.328125, 119156.835938, 112878.453125, 120809.007813, 0.000, 0.000, 0.000,5.831462E-6,7.724576E-6,9.494996E-6,2.98711E-5,3.7937243E-5, 13:18:58.528
62763.003906, 91811.687500, 187500.015625, 103310.140625, 127911.203125, 119171.984375, 112839.312500, 120841.218750, 0.000, 0.000, 0.000,5.831462E-6,7.724576E-6,9.494996E-6,2.98711E-5,3.7937243E-5, 13:18:58.528
62736.652344, 91778.000000, 187500.015625, 103405.828125, 127914.875000, 119202.609375, 112861.375000, 120852.500000, 0.000, 0.000, 0.000,5.831462E-6,7.724576E-6,9.494996E-6,2.98711E-5,3.7937243E-5, 13:18:58.528
62668.074219, 91691.437500, 187500.015625, 103658.671875, 127866.210938, 119191.296875, 112902.546875, 120820.648438, 0.000, 0.000, 0.000,5.831462E-6,7.724576E-6,9.494996E-6,2.98711E-5,3.7937243E-5, 13:18:58.530
62689.445313, 91717.632813, 187500.015625, 103606.921875, 127862.210938, 119161.929688, 112891.820313, 120804.109375, 0.000, 0.000, 0.000,5.831462E-6,7.724576E-6,9.494996E-6,2.98711E-5,3.7937243E-5, 13:18:58.530
62753.949219, 91799.859375, 187500.015625, 103342.414063, 127909.640625, 119166.132813, 112850.937500, 120830.601563, 0.000, 0.000, 0.000,5.831462E-6,7.724576E-6,9.494996E-6,2.98711E-5,3.7937243E-5, 13:18:58.531
62752.339844, 91793.468750, 187500.015625, 103370.000000, 127926.070313, 119204.890625, 112862.734375, 120860.679688, 0.000, 0.000, 0.000,5.831462E-6,7.724576E-6,9.494996E-6,2.98711E-5,3.7937243E-5, 13:18:58.531
62687.609375, 91705.828125, 187500.015625, 103635.648438, 127880.515625, 119203.882813, 112903.976563, 120837.906250, 0.000, 0.000, 0.000,5.831462E-6,7.724576E-6,9.494996E-6,2.98711E-5,3.7937243E-5, 13:18:58.532
62689.824219, 91704.312500, 187500.015625, 103646.976563, 127863.460938, 119169.726563, 112900.421875, 120811.531250, 0.000, 0.000, 0.000,5.831462E-6,7.724576E-6,9.494996E-6,2.98711E-5,3.7937243E-5, 13:18:58.532
62763.359375, 91794.945313, 187500.015625, 103385.820313, 127911.382813, 119166.015625, 112860.343750, 120836.390625, 0.000, 0.000, 0.000,5.831462E-6,7.724576E-6,9.494996E-6,2.98711E-5,3.7937243E-5, 13:18:58.532
62771.207031, 91803.390625, 187500.015625, 103337.898438, 127936.664063, 119199.703125, 112859.250000, 120859.210938, 0.000, 0.000, 0.000,5.831462E-6,7.724576E-6,9.494996E-6,2.98711E-5,3.7937243E-5, 13:18:58.533
62701.625000, 91719.421875, 187500.015625, 103590.140625, 127888.562500, 119201.828125, 112889.585938, 120832.031250, 0.000, 0.000, 0.000,5.831462E-6,7.724576E-6,9.494996E-6,2.98711E-5,3.7937243E-5, 13:18:58.533
62692.527344, 91709.335938, 187500.015625, 103676.687500, 127872.960938, 119173.281250, 112906.882813, 120817.523438, 0.000, 0.000, 0.000,0.0,0.0,0.0,0.0,0.0, 13:18:58.957
62768.324219, 91802.609375, 187500.015625, 103429.875000, 127911.656250, 119168.812500, 112875.234375, 120845.507813, 0.000, 0.000, 0.000,0.0,0.0,0.0,0.0,0.0, 13:18:58.958
62791.097656, 91832.609375, 187500.015625, 103330.414063, 127951.570313, 119197.757813, 112865.914063, 120874.562500, 0.000, 0.000, 0.000,0.0,0.0,0.0,0.0,0.0, 13:18:58.958
62731.218750, 91760.773438, 187500.015625, 103565.328125, 127922.429688, 119215.078125, 112917.585938, 120865.531250, 0.000, 0.000, 0.000,0.0,0.0,0.0,0.0,0.0, 13:18:58.959
62695.769531, 91718.796875, 187500.015625, 103707.242188, 127887.578125, 119186.179688, 112939.468750, 120830.195313, 0.000, 0.000, 0.000,0.0,0.0,0.0,0.0,0.0, 13:18:58.959
62747.871094, 91784.843750, 187500.015625, 103498.320313, 127910.203125, 119160.273438, 112886.945313, 120825.187500, 0.000, 0.000, 0.000,0.0,0.0,0.0,0.0,0.0, 13:18:58.959
62796.976563, 91837.796875, 187500.015625, 103324.312500, 127943.859375, 119190.898438, 112853.039063, 120862.406250, 0.000, 0.000, 0.000,0.0,0.0,0.0,0.0,0.0, 13:18:58.959
62742.304688, 91769.820313, 187500.015625, 103514.968750, 127919.320313, 119220.023438, 112887.835938, 120865.578125, 0.000, 0.000, 0.000,0.0,0.0,0.0,0.0,0.0, 13:18:58.960
62684.144531, 91701.335938, 187500.015625, 103708.804688, 127878.234375, 119193.335938, 112920.140625, 120831.757813, 0.000, 0.000, 0.000,0.0,0.0,0.0,0.0,0.0, 13:18:58.960
62729.988281, 91758.023438, 187500.015625, 103544.476563, 127902.195313, 119169.546875, 112900.937500, 120831.265625, 0.000, 0.000, 0.000,0.0,0.0,0.0,0.0,0.0, 13:18:58.960
62790.765625, 91829.546875, 187500.015625, 103323.531250, 127935.656250, 119185.796875, 112849.976563, 120857.445313, 0.000, 0.000, 0.000,0.0,0.0,0.0,0.0,0.0, 13:18:58.961
62751.738281, 91788.820313, 187500.015625, 103468.945313, 127926.429688, 119219.593750, 112877.468750, 120865.468750, 0.000, 0.000, 0.000,0.0,0.0,0.0,0.0,0.0, 13:18:58.961
62683.609375, 91709.429688, 187500.015625, 103700.000000, 127870.257813, 119200.148438, 112905.898438, 120828.515625, 0.000, 0.000, 0.000,0.0,0.0,0.0,0.0,0.0, 13:18:58.961
62711.011719, 91746.640625, 187500.015625, 103587.617188, 127867.757813, 119161.859375, 112875.921875, 120807.640625, 0.000, 0.000, 0.000,0.0,0.0,0.0,0.0,0.0, 13:18:58.962
62777.128906, 91823.171875, 187500.015625, 103327.664063, 127924.257813, 119170.867188, 112839.960938, 120843.093750, 0.000, 0.000, 0.000,0.0,0.0,0.0,0.0,0.0, 13:18:58.962
62753.882813, 91798.546875, 187500.015625, 103396.507813, 127927.343750, 119206.718750, 112863.945313, 120866.492188, 0.000, 0.000, 0.000,0.0,0.0,0.0,0.0,0.0, 13:18:58.962
62686.785156, 91721.875000, 187500.015625, 103649.664063, 127873.296875, 119200.484375, 112901.765625, 120835.585938, 0.000, 0.000, 0.000,0.0,0.0,0.0,0.0,0.0, 13:18:58.963
62705.378906, 91732.359375, 187500.015625, 103606.414063, 127868.695313, 119164.164063, 112892.039063, 120813.367188, 0.000, 0.000, 0.000,0.0,0.0,0.0,0.0,0.0, 13:18:58.963
62766.042969, 91809.500000, 187500.015625, 103341.500000, 127909.843750, 119161.570313, 112845.859375, 120837.687500, 0.000, 0.000, 0.000,0.0,0.0,0.0,0.0,0.0, 13:18:58.963
62772.769531, 91819.578125, 187500.015625, 103356.007813, 127939.187500, 119207.593750, 112866.757813, 120874.671875, 0.000, 0.000, 0.000,0.0,0.0,0.0,0.0,0.0, 13:18:58.963
62713.003906, 91741.992188, 187500.015625, 103615.554688, 127901.078125, 119211.546875, 112911.625000, 120844.882813, 0.000, 0.000, 0.000,0.0,0.0,0.0,0.0,0.0, 13:18:58.964
62706.363281, 91733.414063, 187500.015625, 103644.679688, 127874.304688, 119173.085938, 112902.945313, 120806.234375, 0.000, 0.000, 0.000,0.0,0.0,0.0,0.0,0.0, 13:18:58.964
62781.777344, 91824.070313, 187500.015625, 103378.062500, 127916.617188, 119167.273438, 112859.007813, 120849.734375, 0.000, 0.000, 0.000,0.0,0.0,0.0,0.0,0.0, 13:18:58.965
62795.121094, 91836.968750, 187500.015625, 103319.195313, 127952.984375, 119211.859375, 112867.164063, 120888.445313, 0.000, 0.000, 0.000,0.0,0.0,0.0,0.0,0.0, 13:18:58.965
62728.222656, 91756.679688, 187500.015625, 103563.539063, 127913.687500, 119219.976563, 112910.367188, 120863.164063, 0.000, 0.000, 0.000,0.0,0.0,0.0,0.0,0.0, 13:18:58.965
62705.984375, 91733.320313, 187500.015625, 103656.414063, 127882.062500, 119183.273438, 112923.937500, 120826.773438, 0.000, 0.000, 0.000,0.0,0.0,0.0,0.0,0.0, 13:18:58.966
62770.066406, 91815.148438, 187500.015625, 103421.179688, 127921.578125, 119173.929688, 112885.492188, 120846.062500, 0.000, 0.000, 0.000,0.0,0.0,0.0,0.0,0.0, 13:18:58.966
62803.839844, 91843.804688, 187500.015625, 103300.820313, 127961.695313, 119216.218750, 112874.562500, 120893.828125, 0.000, 0.000, 0.000,0.0,0.0,0.0,0.0,0.0, 13:18:58.966
62742.148438, 91772.773438, 187500.015625, 103520.289063, 127933.375000, 119237.703125, 112919.625000, 120889.359375, 0.000, 0.000, 0.000,0.0,0.0,0.0,0.0,0.0, 13:18:58.967
62690.984375, 91728.359375, 187500.015625, 103663.679688, 127871.328125, 119189.757813, 112906.414063, 120829.257813, 0.000, 0.000, 0.000,0.0,0.0,0.0,0.0,0.0, 13:18:58.967
62750.710938, 91801.000000, 187500.015625, 103463.804688, 127899.000000, 119172.992188, 112872.906250, 120835.156250, 0.000, 0.000, 0.000,0.0,0.0,0.0,0.0,0.0, 13:18:58.967
62799.949219, 91861.328125, 187500.015625, 103275.515625, 127957.382813, 119204.617188, 112855.515625, 120877.492188, 0.000, 0.000, 0.000,0.0,0.0,0.0,0.0,0.0, 13:18:58.968
62745.589844, 91792.953125, 187500.015625, 103456.585938, 127930.671875, 119228.421875, 112891.859375, 120877.804688, 0.000, 0.000, 0.000,0.0,0.0,0.0,0.0,0.0, 13:18:58.968
62674.937500, 91710.812500, 187500.015625, 103658.156250, 127865.453125, 119187.523438, 112895.773438, 120820.382813, 0.000, 0.000, 0.000,0.0,0.0,0.0,0.0,0.0, 13:18:58.968
62712.710938, 91757.710938, 187500.015625, 103501.828125, 127868.984375, 119161.078125, 112859.296875, 120812.539063, 0.000, 0.000, 0.000,0.0,0.0,0.0,0.0,0.0, 13:18:58.969
62784.593750, 91847.828125, 187500.015625, 103273.617188, 127925.039063, 119187.945313, 112832.070313, 120862.828125, 0.000, 0.000, 0.000,0.0,0.0,0.0,0.0,0.0, 13:18:58.969
62747.066406, 91805.117188, 187500.015625, 103392.953125, 127922.625000, 119221.476563, 112863.343750, 120876.687500, 0.000, 0.000, 0.000,0.0,0.0,0.0,0.0,0.0, 13:18:58.969
62666.621094, 91703.593750, 187500.015625, 103636.070313, 127871.242188, 119197.359375, 112899.171875, 120831.492188, 0.000, 0.000, 0.000,0.0,0.0,0.0,0.0,0.0, 13:18:58.970
62700.707031, 91744.320313, 187500.015625, 103546.039063, 127875.062500, 119167.937500, 112879.789063, 120820.359375, 0.000, 0.000, 0.000,0.0,0.0,0.0,0.0,0.0, 13:18:58.970
62777.843750, 91838.265625, 187500.015625, 103291.117188, 127937.382813, 119190.937500, 112846.000000, 120861.398438, 0.000, 0.000, 0.000,0.0,0.0,0.0,0.0,0.0, 13:18:58.971
62754.957031, 91804.687500, 187500.015625, 103352.429688, 127943.257813, 119225.093750, 112854.960938, 120864.796875, 0.000, 0.000, 0.000,0.0,0.0,0.0,0.0,0.0, 13:18:58.971
62685.843750, 91734.039063, 187500.015625, 103602.968750, 127881.632813, 119209.023438, 112902.054688, 120833.976563, 0.000, 0.000, 0.000,0.0,0.0,0.0,0.0,0.0, 13:18:58.971
62682.046875, 91736.046875, 187500.015625, 103572.750000, 127868.179688, 119167.250000, 112892.937500, 120813.992188, 0.000, 0.000, 0.000,0.0,0.0,0.0,0.0,0.0, 13:18:58.972
62751.917969, 91816.781250, 187500.015625, 103298.539063, 127924.617188, 119170.914063, 112856.007813, 120854.109375, 0.000, 0.000, 0.000,0.0,0.0,0.0,0.0,0.0, 13:18:58.972
62745.570313, 91812.781250, 187500.015625, 103280.296875, 127937.937500, 119202.562500, 112855.320313, 120880.625000, 0.000, 0.000, 0.000,0.0,0.0,0.0,0.0,0.0, 13:18:58.972
62669.863281, 91728.023438, 187500.015625, 103540.453125, 127897.820313, 119206.812500, 112891.171875, 120850.734375, 0.000, 0.000, 0.000,0.0,0.0,0.0,0.0,0.0, 13:18:58.973
62676.769531, 91720.468750, 187500.015625, 103586.164063, 127872.335938, 119178.695313, 112890.703125, 120825.679688, 0.000, 0.000, 0.000,0.0,0.0,0.0,0.0,0.0, 13:18:58.973
62752.164063, 91806.929688, 187500.015625, 103324.156250, 127904.921875, 119168.570313, 112845.195313, 120844.609375, 0.000, 0.000, 0.000,0.0,0.0,0.0,0.0,0.0, 13:18:58.973
62769.464844, 91829.882813, 187500.015625, 103239.929688, 127944.265625, 119206.562500, 112850.734375, 120882.765625, 0.000, 0.000, 0.000,0.0,0.0,0.0,0.0,0.0, 13:18:58.974
62705.605469, 91754.781250, 187500.015625, 103486.945313, 127917.195313, 119224.539063, 112905.898438, 120873.109375, 0.000, 0.000, 0.000,0.0,0.0,0.0,0.0,0.0, 13:18:58.974
62672.300781, 91715.867188, 187500.015625, 103599.703125, 127864.312500, 119186.515625, 112890.812500, 120829.148438, 0.000, 0.000, 0.000,0.0,0.0,0.0,0.0,0.0, 13:18:58.974
62734.238281, 91790.046875, 187500.015625, 103371.828125, 127894.351563, 119162.710938, 112850.398438, 120833.992188, 0.000, 0.000, 0.000,0.0,0.0,0.0,0.0,0.0, 13:18:58.975
62789.246094, 91856.210938, 187500.015625, 103225.359375, 127957.656250, 119215.507813, 112849.796875, 120888.421875, 0.000, 0.000, 0.000,0.0,0.0,0.0,0.0,0.0, 13:18:58.975
62726.726563, 91785.625000, 187500.015625, 103430.656250, 127925.554688, 119237.789063, 112877.687500, 120883.101563, 0.000, 0.000, 0.000,0.0,0.0,0.0,0.0,0.0, 13:18:58.975
62682.984375, 91739.000000, 187500.015625, 103600.781250, 127886.820313, 119200.820313, 112904.265625, 120834.328125, 0.000, 0.000, 0.000,0.0,0.0,0.0,0.0,0.0, 13:18:58.976
62727.531250, 91790.500000, 187500.015625, 103400.328125, 127906.000000, 119167.179688, 112871.031250, 120833.390625, 0.000, 0.000, 0.000,0.0,0.0,0.0,0.0,0.0, 13:18:58.976
62779.656250, 91845.460938, 187500.015625, 103192.726563, 127937.851563, 119184.257813, 112832.945313, 120864.703125, 0.000, 0.000, 0.000,0.0,0.0,0.0,0.0,0.0, 13:18:58.976
62747.984375, 91802.726563, 187500.015625, 103360.164063, 127932.929688, 119215.593750, 112872.687500, 120868.820313, 0.000, 0.000, 0.000,0.0,0.0,0.0,0.0,0.0, 13:18:58.977
62694.070313, 91739.984375, 187500.015625, 103570.914063, 127884.203125, 119194.765625, 112890.656250, 120835.468750, 0.000, 0.000, 0.000,0.0,0.0,0.0,0.0,0.0, 13:18:58.977
62735.933594, 91786.585938, 187500.015625, 103425.273438, 127902.062500, 119171.023438, 112865.890625, 120830.460938, 0.000, 0.000, 0.000,0.0,0.0,0.0,0.0,0.0, 13:18:58.977
62800.664063, 91865.914063, 187500.015625, 103181.859375, 127962.679688, 119196.640625, 112842.484375, 120877.601563, 0.000, 0.000, 0.000,0.0,0.0,0.0,0.0,0.0, 13:18:58.978
62771.296875, 91829.367188, 187500.015625, 103293.351563, 127955.218750, 119233.500000, 112863.585938, 120891.953125, 0.000, 0.000, 0.000,0.0,0.0,0.0,0.0,0.0, 13:18:58.978
62710.812500, 91757.328125, 187500.015625, 103529.054688, 127908.210938, 119222.460938, 112890.703125, 120859.835938, 0.000, 0.000, 0.000,0.0,0.0,0.0,0.0,0.0, 13:18:58.979
62741.410156, 91797.093750, 187500.015625, 103447.578125, 127912.054688, 119193.890625, 112861.218750, 120846.601563, 0.000, 0.000, 0.000,0.0,0.0,0.0,0.0,0.0, 13:18:58.979
62819.328125, 91888.148438, 187500.015625, 103182.710938, 127957.382813, 119209.109375, 112829.320313, 120886.742188, 0.000, 0.000, 0.000,0.0,0.0,0.0,0.0,0.0, 13:18:58.979
62811.707031, 91875.414063, 187500.015625, 103223.257813, 127971.375000, 119249.812500, 112855.250000, 120912.406250, 0.000, 0.000, 0.000,0.0,0.0,0.0,0.0,0.0, 13:18:58.979
62752.093750, 91803.796875, 187500.015625, 103485.625000, 127918.671875, 119242.531250, 112881.695313, 120877.359375, 0.000, 0.000, 0.000,0.0,0.0,0.0,0.0,0.0, 13:18:58.980
62760.968750, 91819.601563, 187500.015625, 103480.570313, 127906.890625, 119209.273438, 112878.921875, 120853.929688, 0.000, 0.000, 0.000,0.0,0.0,0.0,0.0,0.0, 13:18:58.980
62852.453125, 91925.140625, 187500.015625, 103208.507813, 127964.289063, 119220.578125, 112845.546875, 120893.023438, 0.000, 0.000, 0.000,0.0,0.0,0.0,0.0,0.0, 13:18:58.980
62855.695313, 91926.062500, 187500.015625, 103167.492188, 127982.375000, 119256.210938, 112835.203125, 120919.203125, 0.000, 0.000, 0.000,0.0,0.0,0.0,0.0,0.0, 13:18:58.981
62784.082031, 91848.210938, 187500.015625, 103416.843750, 127934.046875, 119252.718750, 112867.632813, 120891.414063, 0.000, 0.000, 0.000,0.0,0.0,0.0,0.0,0.0, 13:18:58.981
62777.621094, 91841.679688, 187500.015625, 103481.218750, 127904.367188, 119214.031250, 112873.000000, 120857.195313, 0.000, 0.000, 0.000,0.0,0.0,0.0,0.0,0.0, 13:18:58.981
62867.789063, 91950.781250, 187500.015625, 103228.109375, 127950.234375, 119205.289063, 112832.671875, 120875.281250, 0.000, 0.000, 0.000,0.0,0.0,0.0,0.0,0.0, 13:18:58.982
62898.140625, 91984.195313, 187500.015625, 103119.210938, 127990.148438, 119243.554688, 112828.671875, 120917.992188, 0.000, 0.000, 0.000,0.0,0.0,0.0,0.0,0.0, 13:18:58.982
62839.625000, 91912.406250, 187500.015625, 103360.140625, 127961.117188, 119268.164063, 112876.570313, 120911.085938, 0.000, 0.000, 0.000,0.0,0.0,0.0,0.0,0.0, 13:18:58.983
62808.175781, 91877.539063, 187500.015625, 103488.304688, 127918.851563, 119226.656250, 112880.015625, 120866.023438, 0.000, 0.000, 0.000,0.0,0.0,0.0,0.0,0.0, 13:18:58.983
62870.292969, 91944.164063, 187500.015625, 103256.468750, 127945.875000, 119212.960938, 112839.734375, 120880.468750, 0.000, 0.000, 0.000,0.0,0.0,0.0,0.0,0.0, 13:18:58.984
62932.050781, 92019.046875, 187500.015625, 103097.375000, 128002.671875, 119258.601563, 112839.179688, 120934.312500, 0.000, 0.000, 0.000,0.0,0.0,0.0,0.0,0.0, 13:18:58.984
62868.214844, 91949.640625, 187500.015625, 103302.359375, 127989.460938, 119279.835938, 112875.210938, 120927.445313, 0.000, 0.000, 0.000,0.0,0.0,0.0,0.0,0.0, 13:18:58.985
62793.402344, 91876.687500, 187500.015625, 103475.140625, 127913.757813, 119229.875000, 112886.031250, 120873.085938, 0.000, 0.000, 0.000,0.0,0.0,0.0,0.0,0.0, 13:18:58.985
62842.195313, 91937.703125, 187500.015625, 103287.500000, 127926.429688, 119203.968750, 112846.062500, 120874.851563, 0.000, 0.000, 0.000,0.0,0.0,0.0,0.0,0.0, 13:18:58.985
62917.632813, 92015.156250, 187500.015625, 103084.273438, 127989.593750, 119241.656250, 112824.179688, 120922.460938, 0.000, 0.000, 0.000,0.0,0.0,0.0,0.0,0.0, 13:18:58.986
62864.300781, 91946.062500, 187500.015625, 103237.789063, 127974.195313, 119273.171875, 112852.921875, 120926.757813, 0.000, 0.000, 0.000,0.0,0.0,0.0,0.0,0.0, 13:18:58.986
62800.664063, 91876.460938, 187500.015625, 103472.125000, 127929.671875, 119252.210938, 112886.632813, 120889.765625, 0.000, 0.000, 0.000,0.0,0.0,0.0,0.0,0.0, 13:18:58.987
62830.148438, 91915.195313, 187500.015625, 103368.320313, 127947.460938, 119225.406250, 112878.609375, 120881.203125, 0.000, 0.000, 0.000,0.0,0.0,0.0,0.0,0.0, 13:18:58.988
62907.394531, 92001.921875, 187500.015625, 103124.554688, 127998.757813, 119247.242188, 112865.132813, 120930.960938, 0.000, 0.000, 0.000,0.0,0.0,0.0,0.0,0.0, 13:18:58.988
62867.074219, 91959.859375, 187500.015625, 103216.976563, 127981.234375, 119267.296875, 112862.984375, 120928.210938, 0.000, 0.000, 0.000,0.0,0.0,0.0,0.0,0.0, 13:18:58.988
62766.222656, 91842.601563, 187500.015625, 103494.609375, 127912.570313, 119239.890625, 112883.148438, 120878.500000, 0.000, 0.000, 0.000,0.0,0.0,0.0,0.0,0.0, 13:18:58.989
62771.652344, 91852.632813, 187500.015625, 103443.890625, 127905.664063, 119201.734375, 112870.250000, 120854.937500, 0.000, 0.000, 0.000,0.0,0.0,0.0,0.0,0.0, 13:18:58.989
62846.597656, 91943.789063, 187500.015625, 103189.171875, 127955.554688, 119210.054688, 112835.226563, 120885.765625, 0.000, 0.000, 0.000,0.0,0.0,0.0,0.0,0.0, 13:18:58.990
62836.003906, 91925.367188, 187500.015625, 103230.140625, 127971.914063, 119244.359375, 112855.070313, 120907.554688, 0.000, 0.000, 0.000,0.0,0.0,0.0,0.0,0.0, 13:18:58.990
62755.960938, 91825.117188, 187500.015625, 103517.007813, 127926.359375, 119243.375000, 112899.171875, 120874.093750, 0.000, 0.000, 0.000,0.0,0.0,0.0,0.0,0.0, 13:18:58.990
62739.800781, 91811.437500, 187500.015625, 103538.328125, 127891.070313, 119196.929688, 112889.468750, 120839.765625, 0.000, 0.000, 0.000,0.0,0.0,0.0,0.0,0.0, 13:18:58.991
62811.125000, 91895.773438, 187500.015625, 103266.843750, 127931.968750, 119192.953125, 112845.101563, 120866.296875, 0.000, 0.000, 0.000,0.0,0.0,0.0,0.0,0.0, 13:18:58.991
62831.445313, 91914.039063, 187500.015625, 103234.320313, 127973.234375, 119240.960938, 112859.226563, 120910.617188, 0.000, 0.000, 0.000,0.0,0.0,0.0,0.0,0.0, 13:18:58.991
62751.000000, 91817.367188, 187500.015625, 103507.929688, 127923.562500, 119242.953125, 112893.335938, 120880.039063, 0.000, 0.000, 0.000,0.0,0.0,0.0,0.0,0.0, 13:18:58.992
62725.160156, 91781.531250, 187500.015625, 103595.570313, 127892.453125, 119199.210938, 112898.679688, 120837.687500, 0.000, 0.000, 0.000,0.0,0.0,0.0,0.0,0.0, 13:18:58.992
62783.835938, 91848.585938, 187500.015625, 103347.890625, 127922.250000, 119185.218750, 112859.851563, 120849.664063, 0.000, 0.000, 0.000,0.0,0.0,0.0,0.0,0.0, 13:18:58.992
62817.050781, 91883.343750, 187500.015625, 103230.992188, 127950.007813, 119223.265625, 112843.875000, 120885.429688, 0.000, 0.000, 0.000,0.0,0.0,0.0,0.0,0.0, 13:18:58.993
62750.820313, 91808.984375, 187500.015625, 103469.953125, 127925.710938, 119238.726563, 112887.617188, 120868.664063, 0.000, 0.000, 0.000,0.0,0.0,0.0,0.0,0.0, 13:18:58.993
62711.125000, 91766.671875, 187500.015625, 103617.742188, 127879.781250, 119199.476563, 112892.781250, 120820.828125, 0.000, 0.000, 0.000,0.0,0.0,0.0,0.0,0.0, 13:18:58.994
62753.437500, 91825.859375, 187500.015625, 103394.625000, 127903.585938, 119177.281250, 112849.257813, 120825.789063, 0.000, 0.000, 0.000,0.0,0.0,0.0,0.0,0.0, 13:18:58.994
62815.484375, 91898.632813, 187500.015625, 103220.929688, 127961.187500, 119213.203125, 112846.484375, 120885.804688, 0.000, 0.000, 0.000,0.0,0.0,0.0,0.0,0.0, 13:18:58.994
62766.691406, 91832.343750, 187500.015625, 103418.210938, 127932.640625, 119235.625000, 112877.109375, 120876.281250, 0.000, 0.000, 0.000,0.0,0.0,0.0,0.0,0.0, 13:18:58.995
62693.980469, 91744.453125, 187500.015625, 103609.851563, 127866.187500, 119195.906250, 112879.343750, 120820.312500, 0.000, 0.000, 0.000,0.0,0.0,0.0,0.0,0.0, 13:18:58.995
62739.488281, 91800.312500, 187500.015625, 103445.125000, 127893.812500, 119173.507813, 112853.531250, 120821.031250, 0.000, 0.000, 0.000,0.0,0.0,0.0,0.0,0.0, 13:18:58.996
62817.429688, 91885.179688, 187500.015625, 103224.640625, 127953.609375, 119206.367188, 112845.437500, 120870.671875, 0.000, 0.000, 0.000,0.0,0.0,0.0,0.0,0.0, 13:18:58.997
62778.203125, 91839.046875, 187500.015625, 103369.859375, 127936.460938, 119235.625000, 112871.187500, 120879.078125, 0.000, 0.000, 0.000,0.0,0.0,0.0,0.0,0.0, 13:18:58.998
62700.417969, 91743.265625, 187500.015625, 103611.039063, 127877.882813, 119203.992188, 112894.882813, 120825.390625, 0.000, 0.000, 0.000,0.0,0.0,0.0,0.0,0.0, 13:18:58.998
62735.554688, 91783.593750, 187500.015625, 103499.390625, 127883.312500, 119176.234375, 112872.859375, 120820.851563, 0.000, 0.000, 0.000,0.0,0.0,0.0,0.0,0.0, 13:18:58.999
62811.351563, 91875.882813, 187500.015625, 103241.742188, 127948.000000, 119196.953125, 112849.867188, 120863.117188, 0.000, 0.000, 0.000,0.0,0.0,0.0,0.0,0.0, 13:18:58.999
62781.710938, 91844.117188, 187500.015625, 103317.289063, 127943.523438, 119232.585938, 112859.117188, 120880.351563, 0.000, 0.000, 0.000,0.0,0.0,0.0,0.0,0.0, 13:18:58.999
62703.281250, 91751.492188, 187500.015625, 103588.640625, 127875.531250, 119216.335938, 112881.492188, 120836.210938, 0.000, 0.000, 0.000,0.0,0.0,0.0,0.0,0.0, 13:18:58.999
62716.308594, 91770.250000, 187500.015625, 103554.781250, 127875.242188, 119181.640625, 112876.015625, 120810.976563, 0.000, 0.000, 0.000,0.0,0.0,0.0,0.0,0.0, 13:18:59.000
62794.855469, 91856.414063, 187500.015625, 103280.835938, 127931.593750, 119192.375000, 112847.828125, 120853.351563, 0.000, 0.000, 0.000,0.0,0.0,0.0,0.0,0.0, 13:18:59.000
62783.097656, 91839.937500, 187500.015625, 103280.679688, 127934.140625, 119229.945313, 112852.078125, 120872.484375, 0.000, 0.000, 0.000,0.0,0.0,0.0,0.0,0.0, 13:18:59.000
62701.269531, 91748.210938, 187500.015625, 103554.375000, 127869.367188, 119224.648438, 112872.390625, 120833.328125, 0.000, 0.000, 0.000,0.0,0.0,0.0,0.0,0.0, 13:18:59.000
62696.929688, 91747.070313, 187500.015625, 103576.773438, 127853.289063, 119186.406250, 112871.414063, 120807.617188, 0.000, 0.000, 0.000,0.0,0.0,0.0,0.0,0.0, 13:18:59.001
62782.136719, 91845.953125, 187500.015625, 103312.773438, 127909.281250, 119190.203125, 112845.929688, 120839.429688, 0.000, 0.000, 0.000,0.0,0.0,0.0,0.0,0.0, 13:18:59.002
62812.558594, 91879.210938, 187500.015625, 103260.851563, 127961.382813, 119240.492188, 112868.328125, 120889.609375, 0.000, 0.000, 0.000,0.0,0.0,0.0,0.0,0.0, 13:18:59.003
62726.367188, 91773.890625, 187500.015625, 103510.054688, 127906.781250, 119236.937500, 112891.171875, 120857.085938, 0.000, 0.000, 0.000,0.0,0.0,0.0,0.0,0.0, 13:18:59.436
62681.820313, 91729.031250, 187500.015625, 103607.125000, 127859.375000, 119189.445313, 112886.296875, 120808.648438, 0.000, 0.000, 0.000,0.0,0.0,0.0,0.0,0.0, 13:18:59.437
62751.605469, 91817.367188, 187500.015625, 103372.726563, 127895.515625, 119186.289063, 112852.726563, 120833.101563, 0.000, 0.000, 0.000,0.0,0.0,0.0,0.0,0.0, 13:18:59.437
62797.828125, 91868.257813, 187500.015625, 103234.453125, 127940.351563, 119222.546875, 112837.726563, 120866.429688, 0.000, 0.000, 0.000,0.0,0.0,0.0,0.0,0.0, 13:18:59.438
62741.343750, 91789.648438, 187500.015625, 103461.390625, 127908.929688, 119237.320313, 112879.929688, 120856.031250, 0.000, 0.000, 0.000,0.0,0.0,0.0,0.0,0.0, 13:18:59.438
62696.664063, 91734.195313, 187500.015625, 103627.757813, 127857.945313, 119205.000000, 112892.531250, 120815.109375, 0.000, 0.000, 0.000,0.0,0.0,0.0,0.0,0.0, 13:18:59.438
62755.582031, 91806.125000, 187500.015625, 103423.195313, 127886.554688, 119191.679688, 112857.531250, 120824.898438, 0.000, 0.000, 0.000,0.0,0.0,0.0,0.0,0.0, 13:18:59.439
62796.484375, 91855.117188, 187500.015625, 103237.046875, 127936.554688, 119207.171875, 112833.632813, 120854.250000, 0.000, 0.000, 0.000,0.0,0.0,0.0,0.0,0.0, 13:18:59.439
62753.281250, 91800.734375, 187500.015625, 103409.539063, 127917.937500, 119242.976563, 112872.820313, 120864.234375, 0.000, 0.000, 0.000,0.0,0.0,0.0,0.0,0.0, 13:18:59.439
62692.976563, 91734.398438, 187500.015625, 103638.640625, 127868.203125, 119229.429688, 112906.187500, 120831.000000, 0.000, 0.000, 0.000,0.0,0.0,0.0,0.0,0.0, 13:18:59.440
62730.882813, 91781.375000, 187500.015625, 103490.117188, 127871.171875, 119189.960938, 112864.703125, 120814.281250, 0.000, 0.000, 0.000,0.0,0.0,0.0,0.0,0.0, 13:18:59.440
62801.894531, 91861.953125, 187500.015625, 103248.109375, 127930.117188, 119216.468750, 112837.320313, 120865.195313, 0.000, 0.000, 0.000,0.0,0.0,0.0,0.0,0.0, 13:18:59.440
62759.425781, 91815.914063, 187500.015625, 103375.453125, 127933.109375, 119255.492188, 112874.671875, 120880.398438, 0.000, 0.000, 0.000,0.0,0.0,0.0,0.0,0.0, 13:18:59.440
62703.347656, 91738.507813, 187500.015625, 103630.484375, 127871.953125, 119232.828125, 112895.328125, 120836.343750, 0.000, 0.000, 0.000,0.0,0.0,0.0,0.0,0.0, 13:18:59.441
62717.359375, 91758.359375, 187500.015625, 103539.734375, 127864.468750, 119189.109375, 112866.585938, 120813.187500, 0.000, 0.000, 0.000,0.0,0.0,0.0,0.0,0.0, 13:18:59.441
62793.492188, 91852.390625, 187500.015625, 103274.195313, 127926.335938, 119209.250000, 112836.203125, 120854.492188, 0.000, 0.000, 0.000,0.0,0.0,0.0,0.0,0.0, 13:18:59.441
62778.894531, 91835.289063, 187500.015625, 103342.148438, 127942.789063, 119252.992188, 112868.101563, 120883.101563, 0.000, 0.000, 0.000,0.0,0.0,0.0,0.0,0.0, 13:18:59.442
62711.660156, 91749.859375, 187500.015625, 103618.015625, 127887.312500, 119244.695313, 112904.289063, 120848.343750, 0.000, 0.000, 0.000,0.0,0.0,0.0,0.0,0.0, 13:18:59.442
62711.953125, 91753.820313, 187500.015625, 103596.328125, 127863.125000, 119199.750000, 112881.421875, 120809.250000, 0.000, 0.000, 0.000,0.0,0.0,0.0,0.0,0.0, 13:18:59.442
62780.617188, 91841.750000, 187500.015625, 103311.679688, 127910.203125, 119194.609375, 112837.437500, 120836.562500, 0.000, 0.000, 0.000,0.0,0.0,0.0,0.0,0.0, 13:18:59.443
62794.230469, 91850.062500, 187500.015625, 103303.101563, 127940.843750, 119253.125000, 112858.179688, 120876.929688, 0.000, 0.000, 0.000,0.0,0.0,0.0,0.0,0.0, 13:18:59.443
62721.675781, 91765.929688, 187500.015625, 103581.960938, 127897.773438, 119249.929688, 112899.375000, 120849.242188, 0.000, 0.000, 0.000,0.0,0.0,0.0,0.0,0.0, 13:18:59.444
62696.125000, 91740.429688, 187500.015625, 103622.367188, 127857.781250, 119199.632813, 112880.929688, 120806.750000, 0.000, 0.000, 0.000,0.0,0.0,0.0,0.0,0.0, 13:18:59.444
62756.746094, 91814.976563, 187500.015625, 103343.484375, 127884.093750, 119193.468750, 112827.289063, 120822.304688, 0.000, 0.000, 0.000,0.0,0.0,0.0,0.0,0.0, 13:18:59.444
62784.125000, 91846.976563, 187500.015625, 103263.226563, 127926.156250, 119236.851563, 112835.070313, 120847.023438, 0.000, 0.000, 0.000,0.0,0.0,0.0,0.0,0.0, 13:18:59.445
62720.578125, 91765.460938, 187500.015625, 103510.859375, 127890.062500, 119238.820313, 112876.125000, 120837.726563, 0.000, 0.000, 0.000,0.0,0.0,0.0,0.0,0.0, 13:18:59.445
62703.703125, 91741.968750, 187500.015625, 103637.773438, 127868.156250, 119214.078125, 112895.617188, 120817.546875, 0.000, 0.000, 0.000,0.0,0.0,0.0,0.0,0.0, 13:18:59.445
62754.734375, 91808.671875, 187500.015625, 103409.539063, 127889.789063, 119195.453125, 112853.015625, 120823.218750, 0.000, 0.000, 0.000,0.0,0.0,0.0,0.0,0.0, 13:18:59.446
62797.222656, 91865.578125, 187500.015625, 103252.382813, 127928.882813, 119236.960938, 112833.929688, 120866.429688, 0.000, 0.000, 0.000,0.0,0.0,0.0,0.0,0.0, 13:18:59.446
62728.804688, 91778.984375, 187500.015625, 103468.500000, 127896.429688, 119241.726563, 112861.265625, 120845.640625, 0.000, 0.000, 0.000,0.0,0.0,0.0,0.0,0.0, 13:18:59.446
62673.664063, 91716.648438, 187500.015625, 103643.492188, 127839.609375, 119200.593750, 112874.789063, 120795.281250, 0.000, 0.000, 0.000,0.0,0.0,0.0,0.0,0.0, 13:18:59.447
62743.824219, 91791.007813, 187500.015625, 103464.726563, 127871.242188, 119193.398438, 112856.859375, 120813.054688, 0.000, 0.000, 0.000,0.0,0.0,0.0,0.0,0.0, 13:18:59.447
62789.667969, 91852.281250, 187500.015625, 103244.671875, 127924.593750, 119226.234375, 112836.765625, 120858.382813, 0.000, 0.000, 0.000,0.0,0.0,0.0,0.0,0.0, 13:18:59.447
62737.632813, 91790.585938, 187500.015625, 103403.101563, 127900.609375, 119247.046875, 112858.109375, 120855.007813, 0.000, 0.000, 0.000,0.0,0.0,0.0,0.0,0.0, 13:18:59.448
62678.425781, 91718.703125, 187500.015625, 103636.742188, 127847.750000, 119217.632813, 112884.375000, 120810.328125, 0.000, 0.000, 0.000,0.0,0.0,0.0,0.0,0.0, 13:18:59.448
62718.792969, 91764.750000, 187500.015625, 103499.484375, 127858.476563, 119186.585938, 112851.023438, 120797.406250, 0.000, 0.000, 0.000,0.0,0.0,0.0,0.0,0.0, 13:18:59.449
62793.492188, 91845.593750, 187500.015625, 103244.648438, 127910.242188, 119209.312500, 112820.023438, 120841.617188, 0.000, 0.000, 0.000,0.0,0.0,0.0,0.0,0.0, 13:18:59.449
62752.609375, 91804.648438, 187500.015625, 103361.484375, 127905.773438, 119238.546875, 112848.414063, 120849.507813, 0.000, 0.000, 0.000,0.0,0.0,0.0,0.0,0.0, 13:18:59.449
62685.218750, 91728.406250, 187500.015625, 103620.312500, 127860.843750, 119216.781250, 112885.781250, 120809.703125, 0.000, 0.000, 0.000,0.0,0.0,0.0,0.0,0.0, 13:18:59.450
62712.109375, 91754.375000, 187500.015625, 103547.875000, 127864.625000, 119193.039063, 112865.085938, 120802.320313, 0.000, 0.000, 0.000,0.0,0.0,0.0,0.0,0.0, 13:18:59.450
62786.449219, 91850.398438, 187500.015625, 103273.390625, 127919.500000, 119202.718750, 112829.703125, 120838.421875, 0.000, 0.000, 0.000,0.0,0.0,0.0,0.0,0.0, 13:18:59.450
62776.546875, 91836.500000, 187500.015625, 103320.804688, 127926.875000, 119248.359375, 112854.578125, 120869.156250, 0.000, 0.000, 0.000,0.0,0.0,0.0,0.0,0.0, 13:18:59.451
62708.421875, 91755.273438, 187500.015625, 103594.875000, 127871.132813, 119235.351563, 112881.695313, 120828.679688, 0.000, 0.000, 0.000,0.0,0.0,0.0,0.0,0.0, 13:18:59.451
62710.609375, 91753.726563, 187500.015625, 103594.007813, 127858.367188, 119198.320313, 112876.242188, 120803.281250, 0.000, 0.000, 0.000,0.0,0.0,0.0,0.0,0.0, 13:18:59.451
62776.257813, 91832.179688, 187500.015625, 103317.781250, 127903.492188, 119198.921875, 112835.046875, 120831.695313, 0.000, 0.000, 0.000,0.0,0.0,0.0,0.0,0.0, 13:18:59.452
62775.789063, 91829.726563, 187500.015625, 103285.843750, 127929.289063, 119236.742188, 112840.945313, 120863.500000, 0.000, 0.000, 0.000,0.0,0.0,0.0,0.0,0.0, 13:18:59.452
62718.187500, 91747.601563, 187500.015625, 103564.101563, 127894.039063, 119244.023438, 112891.210938, 120842.828125, 0.000, 0.000, 0.000,0.0,0.0,0.0,0.0,0.0, 13:18:59.452
62697.019531, 91724.093750, 187500.015625, 103627.937500, 127853.382813, 119192.617188, 112881.023438, 120797.226563, 0.000, 0.000, 0.000,0.0,0.0,0.0,0.0,0.0, 13:18:59.453
62783.457031, 91830.664063, 187500.015625, 103376.656250, 127909.062500, 119207.148438, 112854.203125, 120829.437500, 0.000, 0.000, 0.000,0.0,0.0,0.0,0.0,0.0, 13:18:59.453
62800.777344, 91849.390625, 187500.015625, 103271.804688, 127940.914063, 119247.468750, 112850.023438, 120872.773438, 0.000, 0.000, 0.000,0.0,0.0,0.0,0.0,0.0, 13:18:59.453
62722.835938, 91760.414063, 187500.015625, 103504.351563, 127904.429688, 119247.578125, 112885.562500, 120848.992188, 0.000, 0.000, 0.000,0.0,0.0,0.0,0.0,0.0, 13:18:59.454
62683.812500, 91712.335938, 187500.015625, 103642.687500, 127860.890625, 119207.976563, 112896.132813, 120808.875000, 0.000, 0.000, 0.000,0.0,0.0,0.0,0.0,0.0, 13:18:59.454
62754.957031, 91794.273438, 187500.015625, 103422.054688, 127903.429688, 119194.335938, 112863.140625, 120819.914063, 0.000, 0.000, 0.000,0.0,0.0,0.0,0.0,0.0, 13:18:59.454
62798.632813, 91854.625000, 187500.015625, 103250.859375, 127947.929688, 119232.070313, 112844.585938, 120865.960938, 0.000, 0.000, 0.000,0.0,0.0,0.0,0.0,0.0, 13:18:59.455
62743.332031, 91786.656250, 187500.015625, 103453.968750, 127914.312500, 119252.140625, 112876.125000, 120860.773438, 0.000, 0.000, 0.000,0.0,0.0,0.0,0.0,0.0, 13:18:59.455
62707.058594, 91738.976563, 187500.015625, 103646.132813, 127872.804688, 119230.125000, 112905.671875, 120829.437500, 0.000, 0.000, 0.000,0.0,0.0,0.0,0.0,0.0, 13:18:59.455
62749.996094, 91785.757813, 187500.015625, 103474.046875, 127888.453125, 119194.875000, 112868.976563, 120821.390625, 0.000, 0.000, 0.000,0.0,0.0,0.0,0.0,0.0, 13:18:59.456
62804.644531, 91860.703125, 187500.015625, 103259.156250, 127942.250000, 119227.578125, 112847.156250, 120865.351563, 0.000, 0.000, 0.000,0.0,0.0,0.0,0.0,0.0, 13:18:59.456
62757.460938, 91799.148438, 187500.015625, 103409.960938, 127928.796875, 119254.445313, 112872.773438, 120865.421875, 0.000, 0.000, 0.000,0.0,0.0,0.0,0.0,0.0, 13:18:59.456
62684.660156, 91715.171875, 187500.015625, 103649.414063, 127870.882813, 119226.007813, 112891.078125, 120814.953125, 0.000, 0.000, 0.000,0.0,0.0,0.0,0.0,0.0, 13:18:59.457
62715.906250, 91762.671875, 187500.015625, 103529.523438, 127877.500000, 119197.937500, 112872.218750, 120809.789063, 0.000, 0.000, 0.000,0.0,0.0,0.0,0.0,0.0, 13:18:59.457
62784.058594, 91841.437500, 187500.015625, 103271.445313, 127925.820313, 119218.210938, 112838.687500, 120854.671875, 0.000, 0.000, 0.000,0.0,0.0,0.0,0.0,0.0, 13:18:59.457
62760.253906, 91800.085938, 187500.015625, 103359.046875, 127926.492188, 119257.234375, 112861.242188, 120867.257813, 0.000, 0.000, 0.000,0.0,0.0,0.0,0.0,0.0, 13:18:59.458
62684.058594, 91710.703125, 187500.015625, 103617.117188, 127868.695313, 119230.640625, 112890.812500, 120813.859375, 0.000, 0.000, 0.000,0.0,0.0,0.0,0.0,0.0, 13:18:59.458
62692.664063, 91736.921875, 187500.015625, 103558.445313, 127861.609375, 119193.960938, 112870.984375, 120807.171875, 0.000, 0.000, 0.000,0.0,0.0,0.0,0.0,0.0, 13:18:59.458
62770.894531, 91832.851563, 187500.015625, 103300.375000, 127908.125000, 119195.679688, 112831.312500, 120836.406250, 0.000, 0.000, 0.000,0.0,0.0,0.0,0.0,0.0, 13:18:59.459
62772.906250, 91833.343750, 187500.015625, 103326.453125, 127935.726563, 119252.007813, 112855.656250, 120872.039063, 0.000, 0.000, 0.000,0.0,0.0,0.0,0.0,0.0, 13:18:59.459
62711.527344, 91748.523438, 187500.015625, 103602.992188, 127894.710938, 119253.015625, 112902.546875, 120847.671875, 0.000, 0.000, 0.000,0.0,0.0,0.0,0.0,0.0, 13:18:59.459
62696.843750, 91734.257813, 187500.015625, 103617.210938, 127858.429688, 119207.210938, 112886.718750, 120811.843750, 0.000, 0.000, 0.000,0.0,0.0,0.0,0.0,0.0, 13:18:59.459
62748.742188, 91805.023438, 187500.015625, 103338.390625, 127897.859375, 119198.500000, 112840.789063, 120826.617188, 0.000, 0.000, 0.000,0.0,0.0,0.0,0.0,0.0, 13:18:59.460
62774.246094, 91824.609375, 187500.015625, 103280.234375, 127932.460938, 119240.945313, 112841.523438, 120854.335938, 0.000, 0.000, 0.000,0.0,0.0,0.0,0.0,0.0, 13:18:59.460
62721.562500, 91756.679688, 187500.015625, 103549.773438, 127898.625000, 119252.367188, 112890.968750, 120846.867188, 0.000, 0.000, 0.000,0.0,0.0,0.0,0.0,0.0, 13:18:59.460
62682.648438, 91714.859375, 187500.015625, 103631.335938, 127868.046875, 119210.476563, 112903.351563, 120816.742188, 0.000, 0.000, 0.000,0.0,0.0,0.0,0.0,0.0, 13:18:59.461
62747.402344, 91793.445313, 187500.015625, 103375.648438, 127899.226563, 119196.976563, 112852.703125, 120825.031250, 0.000, 0.000, 0.000,0.0,0.0,0.0,0.0,0.0, 13:18:59.461
62783.140625, 91840.789063, 187500.015625, 103253.898438, 127936.593750, 119236.781250, 112838.914063, 120867.835938, 0.000, 0.000, 0.000,0.0,0.0,0.0,0.0,0.0, 13:18:59.461
62718.679688, 91755.273438, 187500.015625, 103496.398438, 127900.187500, 119254.351563, 112881.890625, 120858.828125, 0.000, 0.000, 0.000,0.0,0.0,0.0,0.0,0.0, 13:18:59.461
62679.832031, 91706.546875, 187500.015625, 103651.632813, 127859.351563, 119216.179688, 112895.882813, 120811.242188, 0.000, 0.000, 0.000,0.0,0.0,0.0,0.0,0.0, 13:18:59.461
62748.519531, 91798.679688, 187500.015625, 103443.984375, 127893.523438, 119200.421875, 112857.085938, 120820.562500, 0.000, 0.000, 0.000,0.0,0.0,0.0,0.0,0.0, 13:18:59.462
62803.996094, 91857.218750, 187500.015625, 103259.335938, 127941.671875, 119247.914063, 112841.187500, 120868.843750, 0.000, 0.000, 0.000,0.0,0.0,0.0,0.0,0.0, 13:18:59.462
62740.093750, 91782.789063, 187500.015625, 103443.000000, 127919.093750, 119263.453125, 112876.171875, 120865.757813, 0.000, 0.000, 0.000,0.0,0.0,0.0,0.0,0.0, 13:18:59.462
62671.941406, 91704.867188, 187500.015625, 103649.546875, 127860.625000, 119222.437500, 112897.117188, 120811.578125, 0.000, 0.000, 0.000,0.0,0.0,0.0,0.0,0.0, 13:18:59.463
62713.449219, 91751.921875, 187500.015625, 103484.234375, 127868.890625, 119180.750000, 112862.265625, 120795.351563, 0.000, 0.000, 0.000,0.0,0.0,0.0,0.0,0.0, 13:18:59.463
62788.707031, 91843.492188, 187500.015625, 103263.851563, 127921.015625, 119222.476563, 112830.750000, 120847.476563, 0.000, 0.000, 0.000,0.0,0.0,0.0,0.0,0.0, 13:18:59.463
62747.402344, 91802.679688, 187500.015625, 103402.828125, 127918.265625, 119263.960938, 112860.726563, 120853.554688, 0.000, 0.000, 0.000,0.0,0.0,0.0,0.0,0.0, 13:18:59.464
62699.679688, 91739.695313, 187500.015625, 103655.226563, 127886.328125, 119243.781250, 112906.546875, 120827.132813, 0.000, 0.000, 0.000,0.0,0.0,0.0,0.0,0.0, 13:18:59.464
62723.753906, 91772.523438, 187500.015625, 103553.281250, 127873.945313, 119204.218750, 112869.000000, 120813.234375, 0.000, 0.000, 0.000,0.0,0.0,0.0,0.0,0.0, 13:18:59.464
62796.867188, 91852.257813, 187500.015625, 103287.429688, 127917.554688, 119213.250000, 112829.343750, 120846.156250, 0.000, 0.000, 0.000,0.0,0.0,0.0,0.0,0.0, 13:18:59.465
62789.558594, 91834.734375, 187500.015625, 103376.164063, 127941.492188, 119267.742188, 112866.562500, 120876.421875, 0.000, 0.000, 0.000,0.0,0.0,0.0,0.0,0.0, 13:18:59.465
62699.300781, 91724.601563, 187500.015625, 103636.187500, 127877.570313, 119245.679688, 112893.429688, 120831.335938, 0.000, 0.000, 0.000,0.0,0.0,0.0,0.0,0.0, 13:18:59.465
62706.945313, 91738.085938, 187500.015625, 103590.476563, 127863.085938, 119209.562500, 112878.140625, 120812.203125, 0.000, 0.000, 0.000,0.0,0.0,0.0,0.0,0.0, 13:18:59.465
62766.960938, 91819.328125, 187500.015625, 103310.671875, 127903.585938, 119205.625000, 112828.382813, 120829.929688, 0.000, 0.000, 0.000,0.0,0.0,0.0,0.0,0.0, 13:18:59.466
62782.582031, 91828.945313, 187500.015625, 103319.195313, 127928.546875, 119251.000000, 112838.953125, 120859.546875, 0.000, 0.000, 0.000,0.0,0.0,0.0,0.0,0.0, 13:18:59.466
62718.859375, 91752.078125, 187500.015625, 103602.453125, 127889.101563, 119254.195313, 112881.984375, 120829.750000, 0.000, 0.000, 0.000,0.0,0.0,0.0,0.0,0.0, 13:18:59.466
62699.503906, 91734.843750, 187500.015625, 103644.054688, 127856.820313, 119213.695313, 112887.234375, 120804.421875, 0.000, 0.000, 0.000,0.0,0.0,0.0,0.0,0.0, 13:18:59.467
62772.054688, 91821.140625, 187500.015625, 103372.101563, 127903.093750, 119210.546875, 112852.343750, 120829.437500, 0.000, 0.000, 0.000,0.0,0.0,0.0,0.0,0.0, 13:18:59.467
62802.746094, 91850.554688, 187500.015625, 103303.210938, 127943.593750, 119251.156250, 112852.968750, 120870.070313, 0.000, 0.000, 0.000,0.0,0.0,0.0,0.0,0.0, 13:18:59.467
62729.765625, 91766.265625, 187500.015625, 103559.789063, 127897.992188, 119254.976563, 112883.773438, 120849.085938, 0.000, 0.000, 0.000,0.0,0.0,0.0,0.0,0.0, 13:18:59.467
62698.628906, 91731.648438, 187500.015625, 103666.312500, 127862.703125, 119221.671875, 112888.507813, 120806.750000, 0.000, 0.000, 0.000,0.0,0.0,0.0,0.0,0.0, 13:18:59.468
62757.863281, 91804.039063, 187500.015625, 103428.242188, 127896.031250, 119211.367188, 112859.718750, 120817.117188, 0.000, 0.000, 0.000,0.0,0.0,0.0,0.0,0.0, 13:18:59.468
62780.437500, 91831.445313, 187500.015625, 103275.828125, 127932.039063, 119228.937500, 112839.445313, 120848.859375, 0.000, 0.000, 0.000,0.0,0.0,0.0,0.0,0.0, 13:18:59.468
62728.203125, 91767.585938, 187500.015625, 103506.882813, 127905.015625, 119251.937500, 112878.898438, 120844.281250, 0.000, 0.000, 0.000,0.0,0.0,0.0,0.0,0.0, 13:18:59.468
62689.800781, 91714.929688, 187500.015625, 103676.976563, 127858.882813, 119225.515625, 112892.445313, 120807.687500, 0.000, 0.000, 0.000,0.0,0.0,0.0,0.0,0.0, 13:18:59.468
62739.308594, 91778.250000, 187500.015625, 103480.664063, 127889.679688, 119202.273438, 112867.500000, 120816.781250, 0.000, 0.000, 0.000,0.0,0.0,0.0,0.0,0.0, 13:18:59.469
62797.066406, 91842.375000, 187500.015625, 103276.117188, 127936.265625, 119229.968750, 112840.453125, 120855.367188, 0.000, 0.000, 0.000,0.0,0.0,0.0,0.0,0.0, 13:18:59.469
62762.175781, 91801.382813, 187500.015625, 103461.687500, 127929.781250, 119265.906250, 112880.531250, 120862.937500, 0.000, 0.000, 0.000,0.0,0.0,0.0,0.0,0.0, 13:18:59.469
62690.941406, 91708.664063, 187500.015625, 103686.789063, 127878.304688, 119239.085938, 112911.085938, 120814.390625, 0.000, 0.000, 0.000,0.0,0.0,0.0,0.0,0.0, 13:18:59.470
62748.675781, 91770.093750, 187500.015625, 103539.648438, 127882.687500, 119208.218750, 112873.984375, 120816.625000, 0.000, 0.000, 0.000,0.0,0.0,0.0,0.0,0.0, 13:18:59.470
62804.218750, 91851.335938, 187500.015625, 103291.898438, 127922.179688, 119224.984375, 112830.796875, 120849.085938, 0.000, 0.000, 0.000,0.0,0.0,0.0,0.0,0.0, 13:18:59.470
62753.214844, 91795.234375, 187500.015625, 103407.171875, 127911.023438, 119242.843750, 112850.062500, 120842.781250, 0.000, 0.000, 0.000,0.0,0.0,0.0,0.0,0.0, 13:18:59.470
62685.957031, 91715.281250, 187500.015625, 103675.164063, 127869.523438, 119233.140625, 112900.023438, 120812.601563, 0.000, 0.000, 0.000,0.0,0.0,0.0,0.0,0.0, 13:18:59.471
62724.066406, 91760.992188, 187500.015625, 103592.218750, 127870.148438, 119212.820313, 112875.765625, 120796.554688, 0.000, 0.000, 0.000,0.0,0.0,0.0,0.0,0.0, 13:18:59.471
62790.609375, 91837.773438, 187500.015625, 103315.234375, 127929.179688, 119224.070313, 112837.906250, 120836.921875, 0.000, 0.000, 0.000,0.0,0.0,0.0,0.0,0.0, 13:18:59.471
62757.527344, 91792.843750, 187500.015625, 103363.179688, 127930.585938, 119249.656250, 112855.609375, 120860.546875, 0.000, 0.000, 0.000,0.0,0.0,0.0,0.0,0.0, 13:18:59.472
62697.000000, 91718.500000, 187500.015625, 103627.492188, 127869.031250, 119235.421875, 112883.593750, 120823.445313, 0.000, 0.000, 0.000,0.0,0.0,0.0,0.0,0.0, 13:18:59.472
62713.628906, 91731.757813, 187500.015625, 103616.851563, 127860.289063, 119210.031250, 112881.539063, 120799.796875, 0.000, 0.000, 0.000,0.0,0.0,0.0,0.0,0.0, 13:18:59.472
62786.472656, 91822.125000, 187500.015625, 103342.484375, 127920.570313, 119214.632813, 112850.039063, 120834.328125, 0.000, 0.000, 0.000,0.0,0.0,0.0,0.0,0.0, 13:18:59.472
62787.500000, 91829.726563, 187500.015625, 103327.218750, 127945.046875, 119252.429688, 112846.914063, 120858.695313, 0.000, 0.000, 0.000,0.0,0.0,0.0,0.0,0.0, 13:18:59.473
62706.832031, 91727.289063, 187500.015625, 103595.617188, 127882.570313, 119252.273438, 112884.218750, 120823.734375, 0.000, 0.000, 0.000,0.0,0.0,0.0,0.0,0.0, 13:18:59.473
62706.363281, 91732.296875, 187500.015625, 103668.304688, 127847.390625, 119213.226563, 112884.976563, 120797.609375, 0.000, 0.000, 0.000,0.0,0.0,0.0,0.0,0.0, 13:18:59.473
62754.578125, 91796.156250, 187500.015625, 103403.570313, 127877.093750, 119194.515625, 112834.507813, 120809.320313, 0.000, 0.000, 0.000,0.0,0.0,0.0,0.0,0.0, 13:18:59.473
62778.828125, 91826.328125, 187500.015625, 103306.320313, 127918.898438, 119230.484375, 112835.914063, 120835.625000, 0.000, 0.000, 0.000,0.0,0.0,0.0,0.0,0.0, 13:18:59.722
62712.757813, 91746.109375, 187500.015625, 103560.656250, 127885.593750, 119243.062500, 112875.367188, 120825.968750, 0.000, 0.000, 0.000,0.0,0.0,0.0,0.0,0.0, 13:18:59.722
62680.570313, 91709.140625, 187500.015625, 103692.648438, 127841.203125, 119208.171875, 112881.445313, 120782.007813, 0.000, 0.000, 0.000,0.0,0.0,0.0,0.0,0.0, 13:18:59.722
62736.226563, 91779.164063, 187500.015625, 103450.531250, 127880.335938, 119191.921875, 112840.921875, 120785.312500, 0.000, 0.000, 0.000,0.0,0.0,0.0,0.0,0.0, 13:18:59.723
62763.113281, 91813.226563, 187500.015625, 103288.679688, 127924.929688, 119224.539063, 112832.023438, 120837.570313, 0.000, 0.000, 0.000,0.0,0.0,0.0,0.0,0.0, 13:18:59.723
62715.550781, 91751.359375, 187500.015625, 103501.984375, 127903.585938, 119258.000000, 112876.953125, 120841.593750, 0.000, 0.000, 0.000,0.0,0.0,0.0,0.0,0.0, 13:18:59.723
62664.363281, 91684.640625, 187500.015625, 103686.031250, 127852.820313, 119225.007813, 112897.875000, 120789.382813, 0.000, 0.000, 0.000,0.0,0.0,0.0,0.0,0.0, 13:18:59.724
62724.335938, 91759.296875, 187500.015625, 103510.500000, 127875.156250, 119199.882813, 112871.078125, 120805.406250, 0.000, 0.000, 0.000,0.0,0.0,0.0,0.0,0.0, 13:18:59.724
62794.273438, 91839.421875, 187500.015625, 103305.554688, 127931.726563, 119232.757813, 112848.164063, 120852.101563, 0.000, 0.000, 0.000,0.0,0.0,0.0,0.0,0.0, 13:18:59.724
62760.386719, 91796.289063, 187500.015625, 103472.835938, 127923.968750, 119264.632813, 112884.554688, 120860.617188, 0.000, 0.000, 0.000,0.0,0.0,0.0,0.0,0.0, 13:18:59.725
62692.437500, 91709.515625, 187500.015625, 103700.890625, 127869.875000, 119247.914063, 112908.625000, 120820.609375, 0.000, 0.000, 0.000,0.0,0.0,0.0,0.0,0.0, 13:18:59.725
62722.546875, 91751.492188, 187500.015625, 103571.968750, 127883.023438, 119218.765625, 112888.531250, 120813.546875, 0.000, 0.000, 0.000,0.0,0.0,0.0,0.0,0.0, 13:18:59.725
62789.019531, 91824.609375, 187500.015625, 103321.468750, 127926.093750, 119236.093750, 112838.460938, 120840.656250, 0.000, 0.000, 0.000,0.0,0.0,0.0,0.0,0.0, 13:18:59.726
62777.980469, 91817.093750, 187500.015625, 103439.664063, 127936.953125, 119276.343750, 112876.726563, 120859.031250, 0.000, 0.000, 0.000,0.0,0.0,0.0,0.0,0.0, 13:18:59.726
62691.878906, 91715.281250, 187500.015625, 103702.164063, 127869.609375, 119249.367188, 112909.523438, 120814.976563, 0.000, 0.000, 0.000,0.0,0.0,0.0,0.0,0.0, 13:18:59.726
62711.191406, 91738.906250, 187500.015625, 103624.335938, 127860.601563, 119211.054688, 112885.023438, 120793.226563, 0.000, 0.000, 0.000,0.0,0.0,0.0,0.0,0.0, 13:18:59.726
62780.617188, 91820.429688, 187500.015625, 103347.375000, 127913.710938, 119221.335938, 112843.156250, 120830.929688, 0.000, 0.000, 0.000,0.0,0.0,0.0,0.0,0.0, 13:18:59.727
62762.378906, 91804.515625, 187500.015625, 103389.960938, 127927.234375, 119264.968750, 112866.851563, 120853.398438, 0.000, 0.000, 0.000,0.0,0.0,0.0,0.0,0.0, 13:18:59.727
62682.851563, 91706.570313, 187500.015625, 103661.617188, 127874.593750, 119252.945313, 112906.304688, 120822.507813, 0.000, 0.000, 0.000,0.0,0.0,0.0,0.0,0.0, 13:18:59.727
62678.246094, 91703.078125, 187500.015625, 103659.539063, 127847.500000, 119211.015625, 112881.984375, 120774.335938, 0.000, 0.000, 0.000,0.0,0.0,0.0,0.0,0.0, 13:18:59.727
62761.664063, 91793.742188, 187500.015625, 103400.351563, 127901.171875, 119215.062500, 112844.875000, 120810.484375, 0.000, 0.000, 0.000,0.0,0.0,0.0,0.0,0.0, 13:18:59.727
62795.347656, 91839.671875, 187500.015625, 103377.375000, 127930.335938, 119264.140625, 112862.289063, 120864.664063, 0.000, 0.000, 0.000,0.0,0.0,0.0,0.0,0.0, 13:18:59.728
62719.039063, 91762.671875, 187500.015625, 103642.820313, 127890.437500, 119269.843750, 112900.515625, 120837.617188, 0.000, 0.000, 0.000,0.0,0.0,0.0,0.0,0.0, 13:18:59.728
62687.921875, 91722.906250, 187500.015625, 103706.523438, 127857.000000, 119232.742188, 112899.437500, 120794.429688, 0.000, 0.000, 0.000,0.0,0.0,0.0,0.0,0.0, 13:18:59.728
62739.535156, 91774.070313, 187500.015625, 103445.414063, 127879.000000, 119207.546875, 112841.796875, 120780.039063, 0.000, 0.000, 0.000,0.0,0.0,0.0,0.0,0.0, 13:18:59.728
62789.871094, 91828.453125, 187500.015625, 103345.007813, 127933.179688, 119259.875000, 112850.757813, 120844.593750, 0.000, 0.000, 0.000,0.0,0.0,0.0,0.0,0.0, 13:18:59.729
62735.218750, 91756.570313, 187500.015625, 103587.343750, 127899.000000, 119266.734375, 112901.632813, 120830.601563, 0.000, 0.000, 0.000,0.0,0.0,0.0,0.0,0.0, 13:18:59.729
62687.207031, 91705.429688, 187500.015625, 103732.187500, 127857.023438, 119242.281250, 112909.187500, 120795.796875, 0.000, 0.000, 0.000,0.0,0.0,0.0,0.0,0.0, 13:18:59.729
62739.800781, 91775.429688, 187500.015625, 103508.015625, 127877.812500, 119222.476563, 112864.367188, 120795.328125, 0.000, 0.000, 0.000,0.0,0.0,0.0,0.0,0.0, 13:18:59.729
62790.496094, 91818.031250, 187500.015625, 103322.835938, 127918.132813, 119244.968750, 112843.132813, 120828.875000, 0.000, 0.000, 0.000,0.0,0.0,0.0,0.0,0.0, 13:18:59.730
62752.230469, 91765.664063, 187500.015625, 103534.593750, 127909.257813, 119278.203125, 112888.734375, 120833.015625, 0.000, 0.000, 0.000,0.0,0.0,0.0,0.0,0.0, 13:18:59.730
62677.710938, 91685.023438, 187500.015625, 103720.179688, 127839.437500, 119247.312500, 112891.281250, 120781.554688, 0.000, 0.000, 0.000,0.0,0.0,0.0,0.0,0.0, 13:18:59.730
62731.152344, 91753.664063, 187500.015625, 103552.718750, 127859.726563, 119231.328125, 112867.453125, 120777.242188, 0.000, 0.000, 0.000,0.0,0.0,0.0,0.0,0.0, 13:18:59.730
62822.660156, 91861.734375, 187500.015625, 103342.414063, 127934.718750, 119265.351563, 112863.875000, 120834.062500, 0.000, 0.000, 0.000,0.0,0.0,0.0,0.0,0.0, 13:18:59.731
62784.750000, 91821.210938, 187500.015625, 103497.000000, 127928.507813, 119313.359375, 112902.210938, 120856.500000, 0.000, 0.000, 0.000,0.0,0.0,0.0,0.0,0.0, 13:18:59.731
62680.121094, 91668.210938, 187500.015625, 103712.468750, 127841.312500, 119270.000000, 112909.273438, 120785.781250, 0.000, 0.000, 0.000,0.0,0.0,0.0,0.0,0.0, 13:18:59.731
62687.097656, 91699.171875, 187500.015625, 103588.507813, 127838.382813, 119237.882813, 112870.335938, 120765.601563, 0.000, 0.000, 0.000,0.0,0.0,0.0,0.0,0.0, 13:18:59.732
62792.171875, 91821.343750, 187500.015625, 103350.710938, 127907.960938, 119267.539063, 112842.218750, 120803.398438, 0.000, 0.000, 0.000,0.0,0.0,0.0,0.0,0.0, 13:18:59.732
62736.984375, 91767.695313, 187500.015625, 103421.851563, 127906.109375, 119299.367188, 112867.250000, 120824.968750, 0.000, 0.000, 0.000,0.0,0.0,0.0,0.0,0.0, 13:18:59.732
62669.707031, 91684.750000, 187500.015625, 103685.625000, 127844.617188, 119296.867188, 112891.523438, 120790.898438, 0.000, 0.000, 0.000,0.0,0.0,0.0,0.0,0.0, 13:18:59.732
62672.054688, 91684.929688, 187500.015625, 103637.414063, 127824.992188, 119256.875000, 112864.835938, 120761.085938, 0.000, 0.000, 0.000,0.0,0.0,0.0,0.0,0.0, 13:18:59.733
62767.027344, 91802.656250, 187500.015625, 103376.679688, 127893.546875, 119295.796875, 112840.523438, 120810.484375, 0.000, 0.000, 0.000,0.0,0.0,0.0,0.0,0.0, 13:18:59.733
62760.679688, 91791.234375, 187500.015625, 103386.359375, 127911.343750, 119329.882813, 112858.179688, 120824.453125, 0.000, 0.000, 0.000,0.0,0.0,0.0,0.0,0.0, 13:18:59.733
62710.656250, 91722.976563, 187500.015625, 103662.601563, 127866.882813, 119338.484375, 112896.648438, 120807.125000, 0.000, 0.000, 0.000,0.0,0.0,0.0,0.0,0.0, 13:18:59.734
62692.996094, 91710.679688, 187500.015625, 103686.523438, 127830.492188, 119298.382813, 112884.843750, 120767.390625, 0.000, 0.000, 0.000,0.0,0.0,0.0,0.0,0.0, 13:18:59.734
62766.871094, 91790.500000, 187500.015625, 103420.265625, 127867.843750, 119297.828125, 112845.843750, 120796.960938, 0.000, 0.000, 0.000,0.0,0.0,0.0,0.0,0.0, 13:18:59.734
62768.187500, 91788.976563, 187500.015625, 103349.234375, 127901.234375, 119335.492188, 112839.421875, 120820.296875, 0.000, 0.000, 0.000,0.0,0.0,0.0,0.0,0.0, 13:18:59.734
62715.707031, 91710.523438, 187500.015625, 103609.179688, 127868.203125, 119354.757813, 112890.523438, 120801.093750, 0.000, 0.000, 0.000,0.0,0.0,0.0,0.0,0.0, 13:18:59.735
62675.050781, 91673.062500, 187500.015625, 103702.945313, 127821.820313, 119306.320313, 112891.304688, 120764.992188, 0.000, 0.000, 0.000,0.0,0.0,0.0,0.0,0.0, 13:18:59.735
62728.000000, 91757.882813, 187500.015625, 103457.125000, 127858.476563, 119290.046875, 112846.421875, 120774.804688, 0.000, 0.000, 0.000,0.0,0.0,0.0,0.0,0.0, 13:18:59.735
62791.367188, 91819.601563, 187500.015625, 103330.367188, 127913.460938, 119351.179688, 112849.953125, 120836.140625, 0.000, 0.000, 0.000,0.0,0.0,0.0,0.0,0.0, 13:18:59.735
62736.894531, 91745.726563, 187500.015625, 103575.476563, 127891.671875, 119369.531250, 112897.851563, 120823.000000, 0.000, 0.000, 0.000,0.0,0.0,0.0,0.0,0.0, 13:18:59.736
62690.941406, 91688.867188, 187500.015625, 103730.890625, 127844.507813, 119323.578125, 112909.539063, 120763.812500, 0.000, 0.000, 0.000,0.0,0.0,0.0,0.0,0.0, 13:18:59.736
62752.050781, 91767.812500, 187500.015625, 103522.148438, 127868.757813, 119307.859375, 112874.453125, 120778.851563, 0.000, 0.000, 0.000,0.0,0.0,0.0,0.0,0.0, 13:18:59.736
62765.039063, 91801.296875, 187500.015625, 103315.929688, 127895.625000, 119328.406250, 112834.375000, 120804.828125, 0.000, 0.000, 0.000,0.0,0.0,0.0,0.0,0.0, 13:18:59.736
62722.726563, 91747.023438, 187500.015625, 103505.875000, 127878.617188, 119360.789063, 112868.617188, 120816.453125, 0.000, 0.000, 0.000,0.0,0.0,0.0,0.0,0.0, 13:18:59.737
62673.820313, 91684.976563, 187500.015625, 103724.406250, 127835.632813, 119346.531250, 112898.234375, 120774.609375, 0.000, 0.000, 0.000,0.0,0.0,0.0,0.0,0.0, 13:18:59.737
62746.171875, 91761.281250, 187500.015625, 103580.304688, 127853.023438, 119334.929688, 112868.617188, 120775.101563, 0.000, 0.000, 0.000,0.0,0.0,0.0,0.0,0.0, 13:18:59.737
62837.324219, 91882.343750, 187500.015625, 103353.257813, 127918.898438, 119367.742188, 112852.320313, 120830.242188, 0.000, 0.000, 0.000,0.0,0.0,0.0,0.0,0.0, 13:18:59.738
62809.203125, 91845.726563, 187500.015625, 103492.015625, 127916.656250, 119419.843750, 112885.023438, 120846.828125, 0.000, 0.000, 0.000,0.0,0.0,0.0,0.0,0.0, 13:18:59.738
62727.328125, 91746.398438, 187500.015625, 103738.960938, 127873.476563, 119400.351563, 112925.054688, 120810.976563, 0.000, 0.000, 0.000,0.0,0.0,0.0,0.0,0.0, 13:18:59.738
62730.726563, 91749.507813, 187500.015625, 103627.648438, 127844.265625, 119346.304688, 112879.632813, 120782.945313, 0.000, 0.000, 0.000,0.0,0.0,0.0,0.0,0.0, 13:18:59.738
62835.871094, 91867.476563, 187500.015625, 103383.679688, 127941.265625, 119397.156250, 112884.578125, 120858.359375, 0.000, 0.000, 0.000,0.0,0.0,0.0,0.0,0.0, 13:18:59.738
62800.980469, 91824.781250, 187500.015625, 103430.125000, 127939.929688, 119436.343750, 112901.492188, 120873.625000, 0.000, 0.000, 0.000,0.0,0.0,0.0,0.0,0.0, 13:18:59.739
62705.292969, 91720.406250, 187500.015625, 103680.664063, 127878.125000, 119411.015625, 112926.531250, 120826.867188, 0.000, 0.000, 0.000,0.0,0.0,0.0,0.0,0.0, 13:18:59.739
62725.878906, 91739.914063, 187500.015625, 103654.515625, 127865.023438, 119361.640625, 112905.695313, 120797.695313, 0.000, 0.000, 0.000,0.0,0.0,0.0,0.0,0.0, 13:18:59.740
62773.777344, 91808.851563, 187500.015625, 103358.039063, 127882.640625, 119336.742188, 112841.015625, 120800.023438, 0.000, 0.000, 0.000,0.0,0.0,0.0,0.0,0.0, 13:18:59.740
62752.542969, 91796.687500, 187500.015625, 103328.023438, 127891.695313, 119369.687500, 112840.812500, 120818.414063, 0.000, 0.000, 0.000,0.0,0.0,0.0,0.0,0.0, 13:18:59.740
62689.890625, 91720.109375, 187500.015625, 103597.898438, 127849.562500, 119373.890625, 112882.921875, 120791.437500, 0.000, 0.000, 0.000,0.0,0.0,0.0,0.0,0.0, 13:18:59.740
62681.128906, 91702.523438, 187500.015625, 103634.507813, 127831.898438, 119334.039063, 112873.828125, 120764.414063, 0.000, 0.000, 0.000,0.4457614,0.7271727,0.15748878,0.1954256,0.15183924, 13:19:00.193
62739.734375, 91774.117188, 187500.015625, 103368.234375, 127875.976563, 119327.445313, 112845.039063, 120788.757813, 0.000, 0.000, 0.000,0.4457614,0.7271727,0.15748878,0.1954256,0.15183924, 13:19:00.193
62754.105469, 91791.390625, 187500.015625, 103284.140625, 127897.101563, 119364.304688, 112841.484375, 120818.976563, 0.000, 0.000, 0.000,0.4457614,0.7271727,0.15748878,0.1954256,0.15183924, 13:19:00.194
62690.359375, 91728.937500, 187500.015625, 103536.226563, 127857.273438, 119385.000000, 112873.867188, 120811.757813, 0.000, 0.000, 0.000,0.4457614,0.7271727,0.15748878,0.1954256,0.15183924, 13:19:00.194
62759.941406, 91807.015625, 187500.015625, 103235.726563, 127886.750000, 119350.601563, 112803.703125, 120811.820313, 0.000, 0.000, 0.000,0.4457614,0.7271727,0.15748878,0.1954256,0.15183924, 13:19:00.194
62679.160156, 91713.648438, 187500.015625, 103444.851563, 127863.664063, 119368.171875, 112838.773438, 120795.234375, 0.000, 0.000, 0.000,0.4457614,0.7271727,0.15748878,0.1954256,0.15183924, 13:19:00.195
62624.800781, 91658.156250, 187500.015625, 103608.312500, 127816.234375, 119340.851563, 112864.820313, 120753.820313, 0.000, 0.000, 0.000,0.4457614,0.7271727,0.15748878,0.1954256,0.15183924, 13:19:00.195
62699.660156, 91744.164063, 187500.015625, 103424.179688, 127836.171875, 119323.625000, 112839.023438, 120780.773438, 0.000, 0.000, 0.000,0.4457614,0.7271727,0.15748878,0.1954256,0.15183924, 13:19:00.195
62767.226563, 91821.742188, 187500.015625, 103228.445313, 127884.093750, 119350.976563, 112805.828125, 120811.578125, 0.000, 0.000, 0.000,0.4457614,0.7271727,0.15748878,0.1954256,0.15183924, 13:19:00.195
62705.582031, 91754.960938, 187500.015625, 103375.070313, 127851.726563, 119363.656250, 112813.632813, 120797.070313, 0.000, 0.000, 0.000,0.4457614,0.7271727,0.15748878,0.1954256,0.15183924, 13:19:00.195
62646.976563, 91687.546875, 187500.015625, 103595.500000, 127815.539063, 119353.750000, 112853.507813, 120771.210938, 0.000, 0.000, 0.000,0.4457614,0.7271727,0.15748878,0.1954256,0.15183924, 13:19:00.195
62683.429688, 91740.070313, 187500.015625, 103455.625000, 127819.382813, 119327.820313, 112833.593750, 120769.578125, 0.000, 0.000, 0.000,0.4457614,0.7271727,0.15748878,0.1954256,0.15183924, 13:19:00.195
62747.425781, 91817.546875, 187500.015625, 103196.125000, 127873.429688, 119349.796875, 112803.687500, 120817.140625, 0.000, 0.000, 0.000,0.4457614,0.7271727,0.15748878,0.1954256,0.15183924, 13:19:00.196
62707.414063, 91770.625000, 187500.015625, 103290.250000, 127871.734375, 119375.609375, 112825.765625, 120817.453125, 0.000, 0.000, 0.000,0.4457614,0.7271727,0.15748878,0.1954256,0.15183924, 13:19:00.196
62663.917969, 91715.929688, 187500.015625, 103542.507813, 127825.640625, 119360.523438, 112849.640625, 120780.328125, 0.000, 0.000, 0.000,0.4457614,0.7271727,0.15748878,0.1954256,0.15183924, 13:19:00.196
62692.328125, 91752.992188, 187500.015625, 103481.132813, 127836.773438, 119349.328125, 112841.976563, 120788.640625, 0.000, 0.000, 0.000,0.4457614,0.7271727,0.15748878,0.1954256,0.15183924, 13:19:00.196
62742.597656, 91808.515625, 187500.015625, 103181.593750, 127873.789063, 119339.554688, 112789.445313, 120806.679688, 0.000, 0.000, 0.000,0.4457614,0.7271727,0.15748878,0.1954256,0.15183924, 13:19:00.196
62714.566406, 91783.546875, 187500.015625, 103218.031250, 127879.062500, 119370.406250, 112806.656250, 120826.906250, 0.000, 0.000, 0.000,0.4457614,0.7271727,0.15748878,0.1954256,0.15183924, 13:19:00.196
62663.628906, 91728.406250, 187500.015625, 103488.460938, 127840.976563, 119375.273438, 112848.789063, 120805.500000, 0.000, 0.000, 0.000,0.4457614,0.7271727,0.15748878,0.1954256,0.15183924, 13:19:00.196
62640.960938, 91718.593750, 187500.015625, 103475.945313, 127808.609375, 119325.140625, 112818.664063, 120761.195313, 0.000, 0.000, 0.000,0.4457614,0.7271727,0.15748878,0.1954256,0.15183924, 13:19:00.197
62730.035156, 91805.046875, 187500.015625, 103212.218750, 127867.085938, 119340.945313, 112792.867188, 120804.070313, 0.000, 0.000, 0.000,0.4457614,0.7271727,0.15748878,0.1954256,0.15183924, 13:19:00.197
62756.453125, 91832.562500, 187500.015625, 103183.671875, 127910.984375, 119390.609375, 112816.695313, 120856.835938, 0.000, 0.000, 0.000,0.4457614,0.7271727,0.15748878,0.1954256,0.15183924, 13:19:00.197
62690.785156, 91765.976563, 187500.015625, 103452.851563, 127873.812500, 119390.250000, 112851.648438, 120844.078125, 0.000, 0.000, 0.000,0.4457614,0.7271727,0.15748878,0.1954256,0.15183924, 13:19:00.197
62636.000000, 91696.062500, 187500.015625, 103493.218750, 127826.359375, 119332.648438, 112836.140625, 120785.046875, 0.000, 0.000, 0.000,0.4457614,0.7271727,0.15748878,0.1954256,0.15183924, 13:19:00.197
62705.605469, 91782.250000, 187500.015625, 103214.296875, 127866.968750, 119322.148438, 112797.562500, 120802.835938, 0.000, 0.000, 0.000,0.4457614,0.7271727,0.15748878,0.1954256,0.15183924, 13:19:00.197
62743.824219, 91824.585938, 187500.015625, 103126.945313, 127915.609375, 119379.367188, 112803.687500, 120855.007813, 0.000, 0.000, 0.000,0.4457614,0.7271727,0.15748878,0.1954256,0.15183924, 13:19:00.197
62674.648438, 91746.578125, 187500.015625, 103363.093750, 127873.007813, 119378.898438, 112829.859375, 120831.757813, 0.000, 0.000, 0.000,0.4457614,0.7271727,0.15748878,0.1954256,0.15183924, 13:19:00.198
62647.398438, 91709.960938, 187500.015625, 103499.390625, 127844.351563, 119343.539063, 112858.468750, 120805.406250, 0.000, 0.000, 0.000,0.4457614,0.7271727,0.15748878,0.1954256,0.15183924, 13:19:00.198
62713.113281, 91782.320313, 187500.015625, 103282.984375, 127877.453125, 119336.921875, 112827.554688, 120827.242188, 0.000, 0.000, 0.000,0.4457614,0.7271727,0.15748878,0.1954256,0.15183924, 13:19:00.198
62770.089844, 91856.703125, 187500.015625, 103120.101563, 127926.335938, 119366.421875, 112806.054688, 120861.195313, 0.000, 0.000, 0.000,0.4457614,0.7271727,0.15748878,0.1954256,0.15183924, 13:19:00.198
62720.804688, 91785.312500, 187500.015625, 103333.515625, 127901.054688, 119382.429688, 112839.960938, 120849.421875, 0.000, 0.000, 0.000,0.4457614,0.7271727,0.15748878,0.1954256,0.15183924, 13:19:00.198
62682.089844, 91728.921875, 187500.015625, 103523.351563, 127859.148438, 119358.132813, 112866.671875, 120821.593750, 0.000, 0.000, 0.000,0.4457614,0.7271727,0.15748878,0.1954256,0.15183924, 13:19:00.199
62674.734375, 91749.570313, 187500.015625, 103315.367188, 127858.257813, 119313.812500, 112815.148438, 120802.437500, 0.000, 0.000, 0.000,0.4457614,0.7271727,0.15748878,0.1954256,0.15183924, 13:19:00.199
62729.183594, 91822.882813, 187500.015625, 103108.015625, 127908.453125, 119341.148438, 112795.078125, 120846.984375, 0.000, 0.000, 0.000,0.4457614,0.7271727,0.15748878,0.1954256,0.15183924, 13:19:00.199
62700.195313, 91781.062500, 187500.015625, 103275.093750, 127904.117188, 119382.609375, 112840.296875, 120872.242188, 0.000, 0.000, 0.000,0.4457614,0.7271727,0.15748878,0.1954256,0.15183924, 13:19:00.199
62645.703125, 91710.234375, 187500.015625, 103513.960938, 127852.484375, 119358.109375, 112867.632813, 120830.820313, 0.000, 0.000, 0.000,0.4457614,0.7271727,0.15748878,0.1954256,0.15183924, 13:19:00.199
62678.714844, 91748.742188, 187500.015625, 103412.687500, 127861.296875, 119319.976563, 112850.398438, 120811.062500, 0.000, 0.000, 0.000,0.4457614,0.7271727,0.15748878,0.1954256,0.15183924, 13:19:00.199
62739.085938, 91824.156250, 187500.015625, 103159.039063, 127911.875000, 119339.937500, 112819.796875, 120849.304688, 0.000, 0.000, 0.000,0.4457614,0.7271727,0.15748878,0.1954256,0.15183924, 13:19:00.200
62684.792969, 91762.960938, 187500.015625, 103238.101563, 127895.937500, 119362.625000, 112823.484375, 120853.953125, 0.000, 0.000, 0.000,0.4457614,0.7271727,0.15748878,0.1954256,0.15183924, 13:19:00.200
62637.074219, 91696.601563, 187500.015625, 103515.531250, 127849.625000, 119350.132813, 112860.476563, 120817.898438, 0.000, 0.000, 0.000,0.4457614,0.7271727,0.15748878,0.1954256,0.15183924, 13:19:00.200
62657.636719, 91712.671875, 187500.015625, 103483.742188, 127847.976563, 119320.085938, 112857.593750, 120802.414063, 0.000, 0.000, 0.000,0.4457614,0.7271727,0.15748878,0.1954256,0.15183924, 13:19:00.200
62721.941406, 91801.203125, 187500.015625, 103211.812500, 127886.304688, 119325.632813, 112806.593750, 120839.468750, 0.000, 0.000, 0.000,0.4457614,0.7271727,0.15748878,0.1954256,0.15183924, 13:19:00.200
62717.628906, 91800.312500, 187500.015625, 103239.929688, 127895.406250, 119362.468750, 112812.671875, 120863.234375, 0.000, 0.000, 0.000,0.4457614,0.7271727,0.15748878,0.1954256,0.15183924, 13:19:00.200
62645.542969, 91702.789063, 187500.015625, 103513.226563, 127849.601563, 119354.710938, 112856.750000, 120834.109375, 0.000, 0.000, 0.000,0.4457614,0.7271727,0.15748878,0.1954256,0.15183924, 13:19:00.200
62661.011719, 91719.914063, 187500.015625, 103546.687500, 127836.414063, 119318.125000, 112863.210938, 120804.289063, 0.000, 0.000, 0.000,0.4457614,0.7271727,0.15748878,0.1954256,0.15183924, 13:19:00.200
62730.726563, 91787.679688, 187500.015625, 103264.851563, 127877.031250, 119306.523438, 112810.414063, 120821.281250, 0.000, 0.000, 0.000,0.4457614,0.7271727,0.15748878,0.1954256,0.15183924, 13:19:00.201
62727.328125, 91798.585938, 187500.015625, 103218.921875, 127904.882813, 119343.468750, 112815.867188, 120852.726563, 0.000, 0.000, 0.000,0.4457614,0.7271727,0.15748878,0.1954256,0.15183924, 13:19:00.201
62648.832031, 91700.460938, 187500.015625, 103479.703125, 127863.953125, 119342.375000, 112846.171875, 120814.906250, 0.000, 0.000, 0.000,0.4457614,0.7271727,0.15748878,0.1954256,0.15183924, 13:19:00.201
62613.136719, 91662.085938, 187500.015625, 103556.476563, 127811.156250, 119290.515625, 112856.679688, 120779.500000, 0.000, 0.000, 0.000,0.4457614,0.7271727,0.15748878,0.1954256,0.15183924, 13:19:00.201
62700.238281, 91760.031250, 187500.015625, 103319.304688, 127860.937500, 119284.820313, 112833.210938, 120800.937500, 0.000, 0.000, 0.000,0.4457614,0.7271727,0.15748878,0.1954256,0.15183924, 13:19:00.201
62762.710938, 91810.859375, 187500.015625, 103219.257813, 127923.250000, 119333.343750, 112836.539063, 120852.906250, 0.000, 0.000, 0.000,0.4457614,0.7271727,0.15748878,0.1954256,0.15183924, 13:19:00.201
62698.875000, 91737.257813, 187500.015625, 103465.328125, 127888.828125, 119354.242188, 112867.093750, 120856.234375, 0.000, 0.000, 0.000,0.4457614,0.7271727,0.15748878,0.1954256,0.15183924, 13:19:00.201
62631.597656, 91677.421875, 187500.015625, 103602.140625, 127829.937500, 119312.398438, 112869.265625, 120803.421875, 0.000, 0.000, 0.000,0.4457614,0.7271727,0.15748878,0.1954256,0.15183924, 13:19:00.202
62694.808594, 91745.148438, 187500.015625, 103382.265625, 127851.664063, 119290.718750, 112832.984375, 120804.960938, 0.000, 0.000, 0.000,0.4457614,0.7271727,0.15748878,0.1954256,0.15183924, 13:19:00.202
62744.160156, 91809.539063, 187500.015625, 103209.890625, 127908.125000, 119333.031250, 112822.054688, 120851.382813, 0.000, 0.000, 0.000,0.4457614,0.7271727,0.15748878,0.1954256,0.15183924, 13:19:00.202
62694.449219, 91752.390625, 187500.015625, 103408.460938, 127878.101563, 119349.953125, 112854.312500, 120849.710938, 0.000, 0.000, 0.000,0.4457614,0.7271727,0.15748878,0.1954256,0.15183924, 13:19:00.202
62651.960938, 91694.921875, 187500.015625, 103618.460938, 127829.000000, 119320.984375, 112870.718750, 120801.921875, 0.000, 0.000, 0.000,0.4457614,0.7271727,0.15748878,0.1954256,0.15183924, 13:19:00.202
62692.035156, 91750.000000, 187500.015625, 103452.679688, 127859.328125, 119302.921875, 112851.453125, 120811.148438, 0.000, 0.000, 0.000,0.4457614,0.7271727,0.15748878,0.1954256,0.15183924, 13:19:00.202
62761.929688, 91828.562500, 187500.015625, 103228.445313, 127925.648438, 119337.437500, 112843.359375, 120867.523438, 0.000, 0.000, 0.000,0.4457614,0.7271727,0.15748878,0.1954256,0.15183924, 13:19:00.202
62707.792969, 91758.062500, 187500.015625, 103346.773438, 127913.375000, 119353.546875, 112865.171875, 120860.210938, 0.000, 0.000, 0.000,0.4457614,0.7271727,0.15748878,0.1954256,0.15183924, 13:19:00.202
62635.308594, 91669.734375, 187500.015625, 103585.046875, 127820.320313, 119317.007813, 112868.171875, 120804.671875, 0.000, 0.000, 0.000,0.4457614,0.7271727,0.15748878,0.1954256,0.15183924, 13:19:00.203
62695.656250, 91743.179688, 187500.015625, 103497.445313, 127831.656250, 119304.578125, 112847.117188, 120806.304688, 0.000, 0.000, 0.000,0.4457614,0.7271727,0.15748878,0.1954256,0.15183924, 13:19:00.203
62761.730469, 91816.648438, 187500.015625, 103237.875000, 127891.984375, 119326.101563, 112818.617188, 120837.257813, 0.000, 0.000, 0.000,0.4457614,0.7271727,0.15748878,0.1954256,0.15183924, 13:19:00.203
62743.781250, 91783.453125, 187500.015625, 103310.359375, 127904.703125, 119352.921875, 112843.851563, 120851.921875, 0.000, 0.000, 0.000,0.4457614,0.7271727,0.15748878,0.1954256,0.15183924, 13:19:00.203
62671.449219, 91716.625000, 187500.015625, 103582.921875, 127863.460938, 119334.773438, 112879.414063, 120828.046875, 0.000, 0.000, 0.000,0.4457614,0.7271727,0.15748878,0.1954256,0.15183924, 13:19:00.203
62669.640625, 91696.437500, 187500.015625, 103543.851563, 127824.031250, 119290.007813, 112845.546875, 120787.679688, 0.000, 0.000, 0.000,0.4457614,0.7271727,0.15748878,0.1954256,0.15183924, 13:19:00.203
62731.265625, 91793.226563, 187500.015625, 103265.460938, 127881.656250, 119304.914063, 112817.187500, 120829.007813, 0.000, 0.000, 0.000,0.4457614,0.7271727,0.15748878,0.1954256,0.15183924, 13:19:00.203
62741.546875, 91793.828125, 187500.015625, 103267.960938, 127900.500000, 119342.085938, 112832.093750, 120859.320313, 0.000, 0.000, 0.000,0.4457614,0.7271727,0.15748878,0.1954256,0.15183924, 13:19:00.203
62669.820313, 91702.718750, 187500.015625, 103544.226563, 127862.968750, 119327.734375, 112879.906250, 120824.656250, 0.000, 0.000, 0.000,0.4457614,0.7271727,0.15748878,0.1954256,0.15183924, 13:19:00.204
62664.699219, 91712.421875, 187500.015625, 103575.656250, 127835.429688, 119305.984375, 112869.218750, 120798.234375, 0.000, 0.000, 0.000,0.4457614,0.7271727,0.15748878,0.1954256,0.15183924, 13:19:00.204
62745.121094, 91804.843750, 187500.015625, 103317.851563, 127887.312500, 119314.750000, 112838.062500, 120837.593750, 0.000, 0.000, 0.000,0.4457614,0.7271727,0.15748878,0.1954256,0.15183924, 13:19:00.204
62746.484375, 91803.101563, 187500.015625, 103240.156250, 127906.085938, 119347.492188, 112830.015625, 120871.367188, 0.000, 0.000, 0.000,0.4457614,0.7271727,0.15748878,0.1954256,0.15183924, 13:19:00.204
62678.691406, 91719.109375, 187500.015625, 103497.265625, 127862.859375, 119347.156250, 112863.250000, 120844.921875, 0.000, 0.000, 0.000,0.4457614,0.7271727,0.15748878,0.1954256,0.15183924, 13:19:00.205
62644.335938, 91690.117188, 187500.015625, 103594.093750, 127829.328125, 119303.640625, 112862.828125, 120799.710938, 0.000, 0.000, 0.000,0.4457614,0.7271727,0.15748878,0.1954256,0.15183924, 13:19:00.205
62727.398438, 91783.523438, 187500.015625, 103357.632813, 127890.929688, 119308.335938, 112856.210938, 120834.796875, 0.000, 0.000, 0.000,0.4457614,0.7271727,0.15748878,0.1954256,0.15183924, 13:19:00.205
62796.933594, 91857.039063, 187500.015625, 103230.765625, 127957.250000, 119369.914063, 112859.742188, 120886.523438, 0.000, 0.000, 0.000,0.4457614,0.7271727,0.15748878,0.1954256,0.15183924, 13:19:00.205
62745.746094, 91769.484375, 187500.015625, 103465.281250, 127916.929688, 119375.679688, 112887.367188, 120870.718750, 0.000, 0.000, 0.000,0.4457614,0.7271727,0.15748878,0.1954256,0.15183924, 13:19:00.205
62650.304688, 91685.398438, 187500.015625, 103604.039063, 127831.882813, 119314.632813, 112877.289063, 120817.187500, 0.000, 0.000, 0.000,0.4457614,0.7271727,0.15748878,0.1954256,0.15183924, 13:19:00.205
62702.027344, 91751.851563, 187500.015625, 103395.945313, 127858.679688, 119294.632813, 112843.804688, 120819.132813, 0.000, 0.000, 0.000,0.4457614,0.7271727,0.15748878,0.1954256,0.15183924, 13:19:00.206
62777.933594, 91829.812500, 187500.015625, 103193.953125, 127920.015625, 119329.882813, 112830.015625, 120864.257813, 0.000, 0.000, 0.000,0.4457614,0.7271727,0.15748878,0.1954256,0.15183924, 13:19:00.206
62727.261719, 91763.898438, 187500.015625, 103387.632813, 127901.195313, 119355.515625, 112862.757813, 120858.109375, 0.000, 0.000, 0.000,0.4457614,0.7271727,0.15748878,0.1954256,0.15183924, 13:19:00.206
62678.246094, 91709.382813, 187500.015625, 103609.492188, 127862.968750, 119331.132813, 112895.773438, 120821.546875, 0.000, 0.000, 0.000,0.4457614,0.7271727,0.15748878,0.1954256,0.15183924, 13:19:00.206
62741.769531, 91773.156250, 187500.015625, 103468.140625, 127887.710938, 119313.562500, 112884.375000, 120831.648438, 0.000, 0.000, 0.000,0.4457614,0.7271727,0.15748878,0.1954256,0.15183924, 13:19:00.206
62773.507813, 91806.523438, 187500.015625, 103198.000000, 127914.085938, 119316.359375, 112829.078125, 120849.664063, 0.000, 0.000, 0.000,0.4457614,0.7271727,0.15748878,0.1954256,0.15183924, 13:19:00.206
62718.410156, 91768.593750, 187500.015625, 103320.218750, 127900.429688, 119349.125000, 112845.367188, 120849.484375, 0.000, 0.000, 0.000,0.4457614,0.7271727,0.15748878,0.1954256,0.15183924, 13:19:00.206
62665.972656, 91694.765625, 187500.015625, 103575.968750, 127856.445313, 119335.960938, 112873.710938, 120815.351563, 0.000, 0.000, 0.000,0.4457614,0.7271727,0.15748878,0.1954256,0.15183924, 13:19:00.207
62691.769531, 91732.359375, 187500.015625, 103495.320313, 127858.992188, 119307.546875, 112858.515625, 120802.929688, 0.000, 0.000, 0.000,0.4457614,0.7271727,0.15748878,0.1954256,0.15183924, 13:19:00.207
62763.406250, 91821.117188, 187500.015625, 103213.445313, 127905.039063, 119323.015625, 112819.890625, 120860.664063, 0.000, 0.000, 0.000,0.4457614,0.7271727,0.15748878,0.1954256,0.15183924, 13:19:00.207
62757.011719, 91804.132813, 187500.015625, 103274.156250, 127929.734375, 119372.546875, 112855.984375, 120893.812500, 0.000, 0.000, 0.000,0.4457614,0.7271727,0.15748878,0.1954256,0.15183924, 13:19:00.207
62691.097656, 91717.898438, 187500.015625, 103561.281250, 127885.101563, 119355.562500, 112903.257813, 120853.507813, 0.000, 0.000, 0.000,0.4457614,0.7271727,0.15748878,0.1954256,0.15183924, 13:19:00.207
62707.617188, 91740.789063, 187500.015625, 103541.007813, 127875.531250, 119320.695313, 112883.281250, 120828.851563, 0.000, 0.000, 0.000,0.4457614,0.7271727,0.15748878,0.1954256,0.15183924, 13:19:00.207
62777.531250, 91821.234375, 187500.015625, 103260.007813, 127919.765625, 119331.710938, 112846.156250, 120866.359375, 0.000, 0.000, 0.000,0.4457614,0.7271727,0.15748878,0.1954256,0.15183924, 13:19:00.208
62766.289063, 91804.648438, 187500.015625, 103242.148438, 127945.132813, 119364.546875, 112866.335938, 120892.804688, 0.000, 0.000, 0.000,0.4457614,0.7271727,0.15748878,0.1954256,0.15183924, 13:19:00.208
62682.515625, 91714.726563, 187500.015625, 103512.218750, 127874.187500, 119357.617188, 112889.695313, 120851.070313, 0.000, 0.000, 0.000,0.4457614,0.7271727,0.15748878,0.1954256,0.15183924, 13:19:00.208
62676.503906, 91709.742188, 187500.015625, 103569.843750, 127844.843750, 119321.695313, 112878.742188, 120813.992188, 0.000, 0.000, 0.000,0.4457614,0.7271727,0.15748878,0.1954256,0.15183924, 13:19:00.208
62756.453125, 91795.976563, 187500.015625, 103300.906250, 127902.289063, 119309.945313, 112851.695313, 120843.226563, 0.000, 0.000, 0.000,0.4457614,0.7271727,0.15748878,0.1954256,0.15183924, 13:19:00.208
62765.753906, 91815.890625, 187500.015625, 103196.460938, 127924.570313, 119339.890625, 112838.445313, 120873.734375, 0.000, 0.000, 0.000,0.4457614,0.7271727,0.15748878,0.1954256,0.15183924, 13:19:00.208
62695.949219, 91733.546875, 187500.015625, 103452.968750, 127882.710938, 119348.250000, 112868.234375, 120848.750000, 0.000, 0.000, 0.000,0.4457614,0.7271727,0.15748878,0.1954256,0.15183924, 13:19:00.208
62665.816406, 91696.398438, 187500.015625, 103588.617188, 127847.148438, 119317.429688, 112871.882813, 120806.343750, 0.000, 0.000, 0.000,0.4457614,0.7271727,0.15748878,0.1954256,0.15183924, 13:19:00.208
62734.640625, 91779.078125, 187500.015625, 103356.226563, 127893.617188, 119308.492188, 112852.078125, 120829.304688, 0.000, 0.000, 0.000,0.4457614,0.7271727,0.15748878,0.1954256,0.15183924, 13:19:00.209
62786.027344, 91835.851563, 187500.015625, 103202.406250, 127941.515625, 119351.070313, 112847.898438, 120874.187500, 0.000, 0.000, 0.000,0.4457614,0.7271727,0.15748878,0.1954256,0.15183924, 13:19:00.209
62741.480469, 91778.312500, 187500.015625, 103429.632813, 127920.054688, 119366.156250, 112888.148438, 120878.835938, 0.000, 0.000, 0.000,0.4457614,0.7271727,0.15748878,0.1954256,0.15183924, 13:19:00.209
62695.253906, 91715.421875, 187500.015625, 103617.453125, 127876.312500, 119334.593750, 112903.710938, 120836.320313, 0.000, 0.000, 0.000,0.4457614,0.7271727,0.15748878,0.1954256,0.15183924, 13:19:00.209
62728.066406, 91758.625000, 187500.015625, 103421.320313, 127884.023438, 119299.484375, 112861.640625, 120822.328125, 0.000, 0.000, 0.000,0.4457614,0.7271727,0.15748878,0.1954256,0.15183924, 13:19:00.209
62788.664063, 91826.906250, 187500.015625, 103203.476563, 127947.101563, 119332.648438, 112839.671875, 120871.523438, 0.000, 0.000, 0.000,0.4457614,0.7271727,0.15748878,0.1954256,0.15183924, 13:19:00.209
62749.750000, 91785.062500, 187500.015625, 103394.539063, 127934.875000, 119369.710938, 112880.929688, 120874.851563, 0.000, 0.000, 0.000,0.4457614,0.7271727,0.15748878,0.1954256,0.15183924, 13:19:00.209
62683.765625, 91699.343750, 187500.015625, 103615.085938, 127861.945313, 119337.992188, 112897.562500, 120824.968750, 0.000, 0.000, 0.000,0.4457614,0.7271727,0.15748878,0.1954256,0.15183924, 13:19:00.209
62723.707031, 91753.570313, 187500.015625, 103473.953125, 127880.765625, 119313.007813, 112881.156250, 120829.750000, 0.000, 0.000, 0.000,0.4457614,0.7271727,0.15748878,0.1954256,0.15183924, 13:19:00.210
62785.511719, 91824.781250, 187500.015625, 103207.632813, 127931.007813, 119325.234375, 112847.117188, 120867.500000, 0.000, 0.000, 0.000,0.4457614,0.7271727,0.15748878,0.1954256,0.15183924, 13:19:00.210
62757.148438, 91792.554688, 187500.015625, 103311.187500, 127934.429688, 119362.828125, 112874.648438, 120885.960938, 0.000, 0.000, 0.000,0.4457614,0.7271727,0.15748878,0.1954256,0.15183924, 13:19:00.210
62685.933594, 91713.695313, 187500.015625, 103581.867188, 127881.585938, 119345.015625, 112906.593750, 120846.648438, 0.000, 0.000, 0.000,0.4457614,0.7271727,0.15748878,0.1954256,0.15183924, 13:19:00.210
62713.562500, 91745.281250, 187500.015625, 103519.437500, 127877.585938, 119311.906250, 112889.203125, 120828.992188, 0.000, 0.000, 0.000,0.4457614,0.7271727,0.15748878,0.1954256,0.15183924, 13:19:00.210
62800.488281, 91841.906250, 187500.015625, 103251.710938, 127933.625000, 119326.414063, 112856.789063, 120866.539063, 0.000, 0.000, 0.000,0.4457614,0.7271727,0.15748878,0.1954256,0.15183924, 13:19:00.210
62770.355469, 91816.070313, 187500.015625, 103274.312500, 127944.289063, 119357.328125, 112866.265625, 120885.851563, 0.000, 0.000, 0.000,0.4457614,0.7271727,0.15748878,0.1954256,0.15183924, 13:19:00.210
62687.453125, 91716.671875, 187500.015625, 103546.617188, 127889.859375, 119347.875000, 112897.117188, 120847.359375, 0.000, 0.000, 0.000,0.4457614,0.7271727,0.15748878,0.1954256,0.15183924, 13:19:00.210
62696.796875, 91720.851563, 187500.015625, 103559.023438, 127882.906250, 119316.000000, 112899.375000, 120826.867188, 0.000, 0.000, 0.000,0.4457614,0.7271727,0.15748878,0.1954256,0.15183924, 13:19:00.211
62779.253906, 91815.289063, 187500.015625, 103278.218750, 127918.914063, 119317.031250, 112851.875000, 120845.484375, 0.000, 0.000, 0.000,0.4457614,0.7271727,0.15748878,0.1954256,0.15183924, 13:19:00.211
62797.761719, 91833.390625, 187500.015625, 103234.703125, 127952.734375, 119360.632813, 112859.250000, 120897.007813, 0.000, 0.000, 0.000,0.4457614,0.7271727,0.15748878,0.1954256,0.15183924, 13:19:00.211
62717.113281, 91738.484375, 187500.015625, 103507.773438, 127913.710938, 119360.500000, 112905.093750, 120870.609375, 0.000, 0.000, 0.000,0.4457614,0.7271727,0.15748878,0.1954256,0.15183924, 13:19:00.211
62696.351563, 91716.554688, 187500.015625, 103591.656250, 127889.281250, 119327.484375, 112918.218750, 120844.703125, 0.000, 0.000, 0.000,0.29282814,0.50954026,0.11135735,0.15528229,0.12102476, 13:19:00.233
62774.132813, 91806.750000, 187500.015625, 103327.351563, 127931.414063, 119322.234375, 112876.640625, 120866.515625, 0.000, 0.000, 0.000,0.29282814,0.50954026,0.11135735,0.15528229,0.12102476, 13:19:00.233
62811.617188, 91842.062500, 187500.015625, 103216.890625, 127970.507813, 119363.140625, 112873.109375, 120904.984375, 0.000, 0.000, 0.000,0.29282814,0.50954026,0.11135735,0.15528229,0.12102476, 13:19:00.233
62740.917969, 91764.390625, 187500.015625, 103470.156250, 127932.531250, 119374.093750, 112905.406250, 120883.351563, 0.000, 0.000, 0.000,0.29282814,0.50954026,0.11135735,0.15528229,0.12102476, 13:19:00.233
62689.199219, 91710.859375, 187500.015625, 103611.867188, 127883.218750, 119337.726563, 112907.125000, 120837.171875, 0.000, 0.000, 0.000,0.29282814,0.50954026,0.11135735,0.15528229,0.12102476, 13:19:00.233
62737.343750, 91774.492188, 187500.015625, 103390.046875, 127904.992188, 119310.906250, 112873.289063, 120846.421875, 0.000, 0.000, 0.000,0.29282814,0.50954026,0.11135735,0.15528229,0.12102476, 13:19:00.234
62803.953125, 91851.453125, 187500.015625, 103205.937500, 127957.539063, 119342.601563, 112866.562500, 120894.125000, 0.000, 0.000, 0.000,0.29282814,0.50954026,0.11135735,0.15528229,0.12102476, 13:19:00.234
62761.484375, 91799.328125, 187500.015625, 103417.335938, 127937.289063, 119372.210938, 112911.640625, 120896.382813, 0.000, 0.000, 0.000,0.027222473,0.09954504,0.038564738,0.079022214,0.06701543, 13:19:00.701
62697.042969, 91722.187500, 187500.015625, 103613.562500, 127869.875000, 119332.648438, 112906.570313, 120838.015625, 0.000, 0.000, 0.000,0.027222473,0.09954504,0.038564738,0.079022214,0.06701543, 13:19:00.701
62745.949219, 91777.015625, 187500.015625, 103428.132813, 127885.992188, 119307.976563, 112870.695313, 120831.132813, 0.000, 0.000, 0.000,0.027222473,0.09954504,0.038564738,0.079022214,0.06701543, 13:19:00.702
62811.953125, 91855.296875, 187500.015625, 103176.968750, 127943.992188, 119339.890625, 112843.156250, 120880.242188, 0.000, 0.000, 0.000,0.027222473,0.09954504,0.038564738,0.079022214,0.06701543, 13:19:00.702
62767.519531, 91801.648438, 187500.015625, 103344.445313, 127930.804688, 119353.375000, 112877.359375, 120882.429688, 0.000, 0.000, 0.000,0.027222473,0.09954504,0.038564738,0.079022214,0.06701543, 13:19:00.702
62718.835938, 91740.921875, 187500.015625, 103607.820313, 127889.789063, 119346.062500, 112916.671875, 120850.445313, 0.000, 0.000, 0.000,0.027222473,0.09954504,0.038564738,0.079022214,0.06701543, 13:19:00.703
62737.523438, 91763.382813, 187500.015625, 103481.398438, 127889.125000, 119310.320313, 112887.460938, 120840.921875, 0.000, 0.000, 0.000,0.027222473,0.09954504,0.038564738,0.079022214,0.06701543, 13:19:00.703
62801.203125, 91840.546875, 187500.015625, 103210.335938, 127933.218750, 119318.500000, 112846.289063, 120869.781250, 0.000, 0.000, 0.000,0.027222473,0.09954504,0.038564738,0.079022214,0.06701543, 13:19:00.703
62790.964844, 91828.718750, 187500.015625, 103309.023438, 127946.546875, 119361.125000, 112876.039063, 120886.500000, 0.000, 0.000, 0.000,0.027222473,0.09954504,0.038564738,0.079022214,0.06701543, 13:19:00.704
62719.843750, 91746.460938, 187500.015625, 103588.687500, 127900.898438, 119365.843750, 112914.750000, 120863.945313, 0.000, 0.000, 0.000,0.027222473,0.09954504,0.038564738,0.079022214,0.06701543, 13:19:00.704
62720.265625, 91751.156250, 187500.015625, 103536.476563, 127874.929688, 119314.500000, 112882.921875, 120833.054688, 0.000, 0.000, 0.000,0.027222473,0.09954504,0.038564738,0.079022214,0.06701543, 13:19:00.704
62804.199219, 91848.921875, 187500.015625, 103256.804688, 127930.226563, 119330.882813, 112855.046875, 120876.015625, 0.000, 0.000, 0.000,0.027222473,0.09954504,0.038564738,0.079022214,0.06701543, 13:19:00.705
62794.363281, 91836.656250, 187500.015625, 103258.257813, 127942.054688, 119362.648438, 112860.656250, 120895.617188, 0.000, 0.000, 0.000,0.027222473,0.09954504,0.038564738,0.079022214,0.06701543, 13:19:00.705
62719.527344, 91744.812500, 187500.015625, 103538.281250, 127896.992188, 119348.343750, 112899.687500, 120858.914063, 0.000, 0.000, 0.000,0.027222473,0.09954504,0.038564738,0.079022214,0.06701543, 13:19:00.705
62714.812500, 91745.054688, 187500.015625, 103561.976563, 127871.578125, 119311.773438, 112900.359375, 120828.093750, 0.000, 0.000, 0.000,0.02829683,0.09994154,0.039727207,0.079156324,0.071522556, 13:19:00.706
62790.226563, 91838.531250, 187500.015625, 103275.804688, 127920.640625, 119318.437500, 112859.585938, 120852.656250, 0.000, 0.000, 0.000,0.02829683,0.09994154,0.039727207,0.079156324,0.071522556, 13:19:00.706
62798.832031, 91839.914063, 187500.015625, 103222.859375, 127946.320313, 119343.226563, 112859.140625, 120882.234375, 0.000, 0.000, 0.000,0.02829683,0.09994154,0.039727207,0.079156324,0.071522556, 13:19:00.706
62719.707031, 91746.039063, 187500.015625, 103470.734375, 127899.156250, 119339.312500, 112890.367188, 120854.265625, 0.000, 0.000, 0.000,0.02829683,0.09994154,0.039727207,0.079156324,0.071522556, 13:19:00.707
62694.496094, 91718.460938, 187500.015625, 103567.359375, 127860.195313, 119307.195313, 112896.265625, 120819.085938, 0.000, 0.000, 0.000,0.02829683,0.09994154,0.039727207,0.079156324,0.071522556, 13:19:00.707
62765.664063, 91805.632813, 187500.015625, 103310.187500, 127899.648438, 119300.820313, 112861.125000, 120841.906250, 0.000, 0.000, 0.000,0.02829683,0.09994154,0.039727207,0.079156324,0.071522556, 13:19:00.707
62806.542969, 91849.218750, 187500.015625, 103172.187500, 127948.710938, 119344.765625, 112856.125000, 120889.632813, 0.000, 0.000, 0.000,0.02829683,0.09994154,0.039727207,0.079156324,0.071522556, 13:19:00.708
62739.914063, 91770.023438, 187500.015625, 103418.367188, 127912.570313, 119359.007813, 112892.039063, 120871.773438, 0.000, 0.000, 0.000,0.02829683,0.09994154,0.039727207,0.079156324,0.071522556, 13:19:00.708
62687.722656, 91714.859375, 187500.015625, 103576.664063, 127864.242188, 119323.937500, 112905.117188, 120830.484375, 0.000, 0.000, 0.000,0.02829683,0.09994154,0.039727207,0.079156324,0.071522556, 13:19:00.708
62742.507813, 91786.203125, 187500.015625, 103353.593750, 127889.031250, 119310.500000, 112866.046875, 120832.476563, 0.000, 0.000, 0.000,0.02829683,0.09994154,0.039727207,0.079156324,0.071522556, 13:19:00.709
62805.335938, 91856.414063, 187500.015625, 103151.554688, 127950.968750, 119349.015625, 112851.296875, 120883.796875, 0.000, 0.000, 0.000,0.02829683,0.09994154,0.039727207,0.079156324,0.071522556, 13:19:00.709
62755.492188, 91788.328125, 187500.015625, 103344.562500, 127931.609375, 119364.367188, 112892.687500, 120894.414063, 0.000, 0.000, 0.000,0.02829683,0.09994154,0.039727207,0.079156324,0.071522556, 13:19:00.709
62698.117188, 91717.164063, 187500.015625, 103567.070313, 127871.398438, 119336.632813, 112911.039063, 120851.226563, 0.000, 0.000, 0.000,0.02829683,0.09994154,0.039727207,0.079156324,0.071522556, 13:19:00.710
62735.667969, 91767.695313, 187500.015625, 103404.710938, 127885.992188, 119313.164063, 112877.914063, 120846.828125, 0.000, 0.000, 0.000,0.02829683,0.09994154,0.039727207,0.079156324,0.071522556, 13:19:00.710
62803.214844, 91845.640625, 187500.015625, 103157.921875, 127939.617188, 119338.351563, 112851.273438, 120886.234375, 0.000, 0.000, 0.000,0.02829683,0.09994154,0.039727207,0.079156324,0.071522556, 13:19:00.710
62791.210938, 91835.156250, 187500.015625, 103308.578125, 127949.898438, 119378.804688, 112892.960938, 120908.804688, 0.000, 0.000, 0.000,0.02829683,0.09994154,0.039727207,0.079156324,0.071522556, 13:19:00.711
62712.734375, 91731.507813, 187500.015625, 103567.679688, 127894.421875, 119354.937500, 112915.085938, 120860.078125, 0.000, 0.000, 0.000,0.02829683,0.09994154,0.039727207,0.079156324,0.071522556, 13:19:00.711
62718.121094, 91739.578125, 187500.015625, 103445.523438, 127874.750000, 119311.664063, 112878.812500, 120837.328125, 0.000, 0.000, 0.000,0.02829683,0.09994154,0.039727207,0.079156324,0.071522556, 13:19:00.711
62783.121094, 91824.515625, 187500.015625, 103165.968750, 127924.750000, 119319.125000, 112845.257813, 120870.695313, 0.000, 0.000, 0.000,0.02829683,0.09994154,0.039727207,0.079156324,0.071522556, 13:19:00.711
62778.960938, 91828.718750, 187500.015625, 103237.562500, 127942.382813, 119366.265625, 112870.273438, 120891.460938, 0.000, 0.000, 0.000,0.02829683,0.09994154,0.039727207,0.079156324,0.071522556, 13:19:00.711
62689.445313, 91709.453125, 187500.015625, 103492.414063, 127884.515625, 119342.062500, 112898.101563, 120854.156250, 0.000, 0.000, 0.000,0.02829683,0.09994154,0.039727207,0.079156324,0.071522556, 13:19:00.712
62695.812500, 91713.742188, 187500.015625, 103459.000000, 127871.289063, 119302.812500, 112883.367188, 120832.117188, 0.000, 0.000, 0.000,0.02829683,0.09994154,0.039727207,0.079156324,0.071522556, 13:19:00.712
62779.273438, 91818.593750, 187500.015625, 103185.976563, 127924.820313, 119317.562500, 112856.500000, 120869.156250, 0.000, 0.000, 0.000,0.02829683,0.09994154,0.039727207,0.079156324,0.071522556, 13:19:00.712
62787.746094, 91830.484375, 187500.015625, 103177.187500, 127951.234375, 119359.070313, 112876.398438, 120903.890625, 0.000, 0.000, 0.000,0.02829683,0.09994154,0.039727207,0.079156324,0.071522556, 13:19:00.712
62701.914063, 91731.687500, 187500.015625, 103456.968750, 127898.375000, 119353.039063, 112904.312500, 120866.539063, 0.000, 0.000, 0.000,0.02829683,0.09994154,0.039727207,0.079156324,0.071522556, 13:19:00.712
62693.601563, 91726.390625, 187500.015625, 103524.359375, 127870.773438, 119317.382813, 112903.421875, 120833.210938, 0.000, 0.000, 0.000,0.02829683,0.09994154,0.039727207,0.079156324,0.071522556, 13:19:00.712
62768.414063, 91807.773438, 187500.015625, 103235.242188, 127913.242188, 119315.195313, 112858.914063, 120857.601563, 0.000, 0.000, 0.000,0.02829683,0.09994154,0.039727207,0.079156324,0.071522556, 13:19:00.713
62799.726563, 91840.382813, 187500.015625, 103139.257813, 127951.710938, 119355.671875, 112859.765625, 120897.046875, 0.000, 0.000, 0.000,0.02829683,0.09994154,0.039727207,0.079156324,0.071522556, 13:19:00.713
62730.125000, 91758.890625, 187500.015625, 103414.656250, 127900.007813, 119361.304688, 112889.515625, 120871.343750, 0.000, 0.000, 0.000,0.02829683,0.09994154,0.039727207,0.079156324,0.071522556, 13:19:00.714
62694.988281, 91722.929688, 187500.015625, 103529.679688, 127852.242188, 119323.328125, 112887.125000, 120822.531250, 0.000, 0.000, 0.000,0.02829683,0.09994154,0.039727207,0.079156324,0.071522556, 13:19:00.715
62758.332031, 91797.312500, 187500.015625, 103279.359375, 127890.062500, 119310.117188, 112847.156250, 120824.718750, 0.000, 0.000, 0.000,0.02829683,0.09994154,0.039727207,0.079156324,0.071522556, 13:19:00.715
62793.914063, 91834.796875, 187500.015625, 103116.281250, 127927.453125, 119328.898438, 112838.953125, 120879.484375, 0.000, 0.000, 0.000,0.02829683,0.09994154,0.039727207,0.079156324,0.071522556, 13:19:00.715
62743.890625, 91771.273438, 187500.015625, 103337.140625, 127906.085938, 119352.093750, 112876.281250, 120866.000000, 0.000, 0.000, 0.000,0.02829683,0.09994154,0.039727207,0.079156324,0.071522556, 13:19:00.715
62700.796875, 91719.109375, 187500.015625, 103516.000000, 127863.015625, 119321.632813, 112895.039063, 120832.093750, 0.000, 0.000, 0.000,0.02829683,0.09994154,0.039727207,0.079156324,0.071522556, 13:19:00.715
62749.210938, 91779.921875, 187500.015625, 103326.679688, 127883.601563, 119301.468750, 112863.875000, 120839.765625, 0.000, 0.000, 0.000,0.02829683,0.09994154,0.039727207,0.079156324,0.071522556, 13:19:00.716
62797.289063, 91838.843750, 187500.015625, 103113.492188, 127939.414063, 119330.617188, 112848.296875, 120879.820313, 0.000, 0.000, 0.000,0.02829683,0.09994154,0.039727207,0.079156324,0.071522556, 13:19:00.716
62748.609375, 91786.226563, 187500.015625, 103301.085938, 127917.218750, 119361.554688, 112885.492188, 120876.304688, 0.000, 0.000, 0.000,0.02829683,0.09994154,0.039727207,0.079156324,0.071522556, 13:19:00.716
62693.152344, 91715.554688, 187500.015625, 103528.804688, 127863.664063, 119328.492188, 112907.640625, 120837.820313, 0.000, 0.000, 0.000,0.02829683,0.09994154,0.039727207,0.079156324,0.071522556, 13:19:00.716
62721.695313, 91753.484375, 187500.015625, 103376.390625, 127859.148438, 119295.210938, 112864.101563, 120818.687500, 0.000, 0.000, 0.000,0.02829683,0.09994154,0.039727207,0.079156324,0.071522556, 13:19:00.716
62788.371094, 91833.390625, 187500.015625, 103118.179688, 127911.070313, 119309.117188, 112831.578125, 120843.179688, 0.000, 0.000, 0.000,0.02829683,0.09994154,0.039727207,0.079156324,0.071522556, 13:19:00.717
62763.898438, 91795.257813, 187500.015625, 103237.984375, 127918.289063, 119357.414063, 112861.039063, 120872.351563, 0.000, 0.000, 0.000,0.02829683,0.09994154,0.039727207,0.079156324,0.071522556, 13:19:00.717
62697.648438, 91716.867188, 187500.015625, 103498.031250, 127865.320313, 119338.195313, 112892.328125, 120847.851563, 0.000, 0.000, 0.000,0.02829683,0.09994154,0.039727207,0.079156324,0.071522556, 13:19:00.717
62714.878906, 91734.929688, 187500.015625, 103410.875000, 127858.367188, 119302.968750, 112873.195313, 120827.734375, 0.000, 0.000, 0.000,0.02829683,0.09994154,0.039727207,0.079156324,0.071522556, 13:19:00.717
62787.812500, 91824.296875, 187500.015625, 103125.718750, 127915.093750, 119314.929688, 112843.671875, 120862.070313, 0.000, 0.000, 0.000,0.02829683,0.09994154,0.039727207,0.079156324,0.071522556, 13:19:00.718
62784.839844, 91824.742188, 187500.015625, 103177.125000, 127932.148438, 119358.828125, 112867.523438, 120887.101563, 0.000, 0.000, 0.000,0.02829683,0.09994154,0.039727207,0.079156324,0.071522556, 13:19:00.718
62714.097656, 91741.570313, 187500.015625, 103458.710938, 127879.039063, 119345.882813, 112897.960938, 120854.406250, 0.000, 0.000, 0.000,0.02829683,0.09994154,0.039727207,0.079156324,0.071522556, 13:19:00.718
62706.253906, 91731.625000, 187500.015625, 103435.976563, 127857.585938, 119306.789063, 112886.343750, 120826.687500, 0.000, 0.000, 0.000,0.02829683,0.09994154,0.039727207,0.079156324,0.071522556, 13:19:00.719
62781.042969, 91816.468750, 187500.015625, 103145.671875, 127913.085938, 119312.890625, 112855.656250, 120858.851563, 0.000, 0.000, 0.000,0.02829683,0.09994154,0.039727207,0.079156324,0.071522556, 13:19:00.719
62787.769531, 91832.343750, 187500.015625, 103115.500000, 127932.710938, 119353.750000, 112852.593750, 120885.250000, 0.000, 0.000, 0.000,0.02829683,0.09994154,0.039727207,0.079156324,0.071522556, 13:19:00.719
62705.535156, 91729.679688, 187500.015625, 103375.609375, 127877.656250, 119342.929688, 112880.664063, 120848.460938, 0.000, 0.000, 0.000,0.02829683,0.09994154,0.039727207,0.079156324,0.071522556, 13:19:00.720
62695.835938, 91715.148438, 187500.015625, 103440.093750, 127853.828125, 119308.781250, 112883.812500, 120818.593750, 0.000, 0.000, 0.000,0.02829683,0.09994154,0.039727207,0.079156324,0.071522556, 13:19:00.720
62774.179688, 91816.828125, 187500.015625, 103192.617188, 127898.554688, 119312.289063, 112854.601563, 120848.789063, 0.000, 0.000, 0.000,0.02829683,0.09994154,0.039727207,0.079156324,0.071522556, 13:19:00.721
62793.289063, 91819.484375, 187500.015625, 103080.070313, 127926.851563, 119350.242188, 112849.484375, 120887.664063, 0.000, 0.000, 0.000,0.02829683,0.09994154,0.039727207,0.079156324,0.071522556, 13:19:00.721
62725.562500, 91740.742188, 187500.015625, 103336.648438, 127889.007813, 119353.773438, 112882.429688, 120859.921875, 0.000, 0.000, 0.000,0.02829683,0.09994154,0.039727207,0.079156324,0.071522556, 13:19:00.721
62691.253906, 91710.945313, 187500.015625, 103469.398438, 127843.476563, 119318.054688, 112883.703125, 120815.289063, 0.000, 0.000, 0.000,0.02829683,0.09994154,0.039727207,0.079156324,0.071522556, 13:19:00.722
62752.988281, 91789.132813, 187500.015625, 103233.828125, 127877.140625, 119297.492188, 112847.898438, 120829.320313, 0.000, 0.000, 0.000,0.02829683,0.09994154,0.039727207,0.079156324,0.071522556, 13:19:00.722
62799.636719, 91839.601563, 187500.015625, 103056.398438, 127923.031250, 119341.234375, 112835.734375, 120876.125000, 0.000, 0.000, 0.000,0.02829683,0.09994154,0.039727207,0.079156324,0.071522556, 13:19:00.722
62732.851563, 91760.929688, 187500.015625, 103262.507813, 127893.929688, 119356.117188, 112867.273438, 120861.804688, 0.000, 0.000, 0.000,0.02829683,0.09994154,0.039727207,0.079156324,0.071522556, 13:19:00.723
62683.656250, 91707.437500, 187500.015625, 103466.085938, 127845.625000, 119320.562500, 112887.679688, 120816.625000, 0.000, 0.000, 0.000,0.02829683,0.09994154,0.039727207,0.079156324,0.071522556, 13:19:00.723
62741.589844, 91779.906250, 187500.015625, 103283.875000, 127868.492188, 119294.851563, 112860.835938, 120818.304688, 0.000, 0.000, 0.000,0.02829683,0.09994154,0.039727207,0.079156324,0.071522556, 13:19:00.723
62812.132813, 91858.515625, 187500.015625, 103048.179688, 127921.015625, 119323.484375, 112835.539063, 120861.484375, 0.000, 0.000, 0.000,0.02829683,0.09994154,0.039727207,0.079156324,0.071522556, 13:19:00.724
62769.328125, 91804.179688, 187500.015625, 103221.335938, 127912.343750, 119364.929688, 112872.039063, 120864.976563, 0.000, 0.000, 0.000,0.02829683,0.09994154,0.039727207,0.079156324,0.071522556, 13:19:00.724
62704.843750, 91728.960938, 187500.015625, 103460.992188, 127860.492188, 119332.429688, 112897.898438, 120829.414063, 0.000, 0.000, 0.000,0.02829683,0.09994154,0.039727207,0.079156324,0.071522556, 13:19:00.724
62737.140625, 91767.632813, 187500.015625, 103339.421875, 127859.234375, 119299.015625, 112870.289063, 120822.062500, 0.000, 0.000, 0.000,0.02829683,0.09994154,0.039727207,0.079156324,0.071522556, 13:19:00.725
62801.382813, 91846.218750, 187500.015625, 103064.429688, 127905.195313, 119318.054688, 112830.195313, 120857.062500, 0.000, 0.000, 0.000,0.02829683,0.09994154,0.039727207,0.079156324,0.071522556, 13:19:00.725
62769.933594, 91807.820313, 187500.015625, 103160.453125, 127911.453125, 119351.984375, 112857.867188, 120868.867188, 0.000, 0.000, 0.000,0.02829683,0.09994154,0.039727207,0.079156324,0.071522556, 13:19:00.725
62704.015625, 91731.195313, 187500.015625, 103426.859375, 127864.156250, 119341.304688, 112887.992188, 120834.914063, 0.000, 0.000, 0.000,0.02829683,0.09994154,0.039727207,0.079156324,0.071522556, 13:19:00.726
62720.804688, 91749.328125, 187500.015625, 103363.562500, 127857.585938, 119304.976563, 112870.429688, 120816.179688, 0.000, 0.000, 0.000,0.02829683,0.09994154,0.039727207,0.079156324,0.071522556, 13:19:00.726
62796.062500, 91834.398438, 187500.015625, 103082.289063, 127905.375000, 119310.593750, 112834.578125, 120847.320313, 0.000, 0.000, 0.000,0.02829683,0.09994154,0.039727207,0.079156324,0.071522556, 13:19:00.726
62784.593750, 91819.085938, 187500.015625, 103109.015625, 127917.953125, 119348.500000, 112850.242188, 120871.476563, 0.000, 0.000, 0.000,0.02829683,0.09994154,0.039727207,0.079156324,0.071522556, 13:19:00.727
62705.804688, 91729.835938, 187500.015625, 103389.351563, 127868.718750, 119337.773438, 112884.375000, 120834.914063, 0.000, 0.000, 0.000,0.02829683,0.09994154,0.039727207,0.079156324,0.071522556, 13:19:00.727
62712.398438, 91738.843750, 187500.015625, 103402.070313, 127844.914063, 119303.523438, 112869.625000, 120806.125000, 0.000, 0.000, 0.000,0.02829683,0.09994154,0.039727207,0.079156324,0.071522556, 13:19:00.727
62789.535156, 91828.984375, 187500.015625, 103117.671875, 127893.750000, 119307.750000, 112834.773438, 120843.562500, 0.000, 0.000, 0.000,0.02829683,0.09994154,0.039727207,0.079156324,0.071522556, 13:19:00.728
62800.039063, 91839.539063, 187500.015625, 103065.968750, 127930.671875, 119347.742188, 112842.976563, 120878.320313, 0.000, 0.000, 0.000,0.02829683,0.09994154,0.039727207,0.079156324,0.071522556, 13:19:00.728
