%OpenBCI Raw EEG Data
%
%Sample Rate = 250.0 Hz
%First Column = SampleIndex
%5 Columns before Timestamp are Frequency Power factors DELTA THETA ALPHA BETA GAMMA
%Last Column = Timestamp 
%Other Columns = EEG data in microvolts followed by Accel Data (in G) interleaved with Aux Data
0.000000, 0.000000, 0.000000, 0.000000, 0.000000, 0.000000, 0.000000, 0.000000, 0.000, 0.000, 0.000,0.0,0.0,0.0,0.0,0.0, 15:32:23.274
68692.359375, 59738.500000, 111613.742188, 98292.664063, 126224.632813, 100968.171875, 91579.875000, 123549.171875, 0.090, 0.216, 0.956,0.0,0.0,0.0,0.0,0.0, 15:32:23.760
68604.187500, 59654.703125, 111674.945313, 98490.093750, 126145.773438, 101052.593750, 91687.835938, 123488.937500, 0.000, 0.000, 0.000,0.0,0.0,0.0,0.0,0.0, 15:32:23.761
68524.593750, 59575.644531, 111773.226563, 98639.742188, 126062.000000, 101012.359375, 91782.789063, 123409.945313, 0.000, 0.000, 0.000,0.0,0.0,0.0,0.0,0.0, 15:32:23.761
68588.539063, 59638.339844, 111733.460938, 98469.445313, 126117.726563, 100918.257813, 91693.984375, 123451.250000, 0.000, 0.000, 0.000,0.0,0.0,0.0,0.0,0.0, 15:32:23.762
68686.062500, 59735.324219, 111620.179688, 98288.039063, 126219.734375, 100943.132813, 91582.265625, 123545.593750, 0.000, 0.000, 0.000,0.0,0.0,0.0,0.0,0.0, 15:32:23.762
68626.468750, 59679.355469, 111656.125000, 98451.320313, 126165.781250, 101041.617188, 91668.703125, 123508.875000, 0.000, 0.000, 0.000,0.0,0.0,0.0,0.0,0.0, 15:32:23.763
68529.750000, 59581.902344, 111775.726563, 98645.734375, 126055.500000, 101023.242188, 91776.437500, 123414.953125, 0.072, 0.220, 0.964,0.0,0.0,0.0,0.0,0.0, 15:32:23.764
68573.046875, 59626.292969, 111746.671875, 98513.992188, 126093.093750, 100931.289063, 91711.507813, 123444.523438, 0.000, 0.000, 0.000,0.0,0.0,0.0,0.0,0.0, 15:32:23.764
68676.093750, 59729.691406, 111628.140625, 98298.140625, 126204.671875, 100931.578125, 91581.218750, 123542.421875, 0.000, 0.000, 0.000,0.0,0.0,0.0,0.0,0.0, 15:32:23.765
68646.828125, 59699.316406, 111640.570313, 98405.382813, 126180.640625, 101033.500000, 91636.273438, 123528.382813, 0.000, 0.000, 0.000,0.0,0.0,0.0,0.0,0.0, 15:32:23.765
68538.804688, 59590.843750, 111757.062500, 98627.585938, 126072.195313, 101044.210938, 91767.812500, 123431.023438, 0.000, 0.000, 0.000,0.0,0.0,0.0,0.0,0.0, 15:32:23.766
68553.648438, 59607.117188, 111759.859375, 98553.039063, 126083.031250, 100947.539063, 91739.046875, 123428.046875, 0.000, 0.000, 0.000,0.0,0.0,0.0,0.0,0.0, 15:32:23.766
68662.078125, 59716.863281, 111643.359375, 98316.960938, 126196.695313, 100921.250000, 91605.250000, 123527.382813, 0.000, 0.000, 0.000,0.0,0.0,0.0,0.0,0.0, 15:32:23.767
68661.960938, 59716.171875, 111615.039063, 98361.242188, 126204.562500, 101022.414063, 91622.476563, 123542.218750, 0.000, 0.000, 0.000,0.0,0.0,0.0,0.0,0.0, 15:32:23.767
68557.445313, 59609.863281, 111728.859375, 98604.695313, 126098.593750, 101055.875000, 91759.429688, 123447.921875, 0.000, 0.000, 0.000,0.0,0.0,0.0,0.0,0.0, 15:32:23.767
68547.140625, 59600.566406, 111769.382813, 98595.710938, 126082.523438, 100963.250000, 91768.593750, 123425.054688, 0.000, 0.000, 0.000,0.0,0.0,0.0,0.0,0.0, 15:32:23.768
68647.390625, 59704.503906, 111656.367188, 98349.210938, 126184.062500, 100910.437500, 91624.289063, 123509.117188, 0.062, 0.214, 0.972,0.0,0.0,0.0,0.0,0.0, 15:32:23.769
68672.359375, 59729.132813, 111611.578125, 98334.570313, 126222.601563, 100999.257813, 91604.531250, 123547.789063, 0.000, 0.000, 0.000,0.0,0.0,0.0,0.0,0.0, 15:32:23.769
68563.929688, 59624.976563, 111709.296875, 98572.757813, 126121.320313, 101054.890625, 91736.453125, 123462.468750, 0.000, 0.000, 0.000,0.0,0.0,0.0,0.0,0.0, 15:32:23.770
68530.468750, 59585.769531, 111783.101563, 98623.718750, 126069.625000, 100977.109375, 91774.132813, 123410.992188, 0.000, 0.000, 0.000,0.0,0.0,0.0,0.0,0.0, 15:32:23.770
68637.890625, 59686.507813, 111694.101563, 98392.195313, 126169.539063, 100911.953125, 91651.250000, 123494.726563, 0.000, 0.000, 0.000,0.0,0.0,0.0,0.0,0.0, 15:32:23.770
68689.054688, 59741.718750, 111615.531250, 98306.726563, 126221.835938, 100980.593750, 91587.679688, 123553.148438, 0.000, 0.000, 0.000,0.0,0.0,0.0,0.0,0.0, 15:32:23.771
68594.281250, 59648.847656, 111691.773438, 98526.351563, 126128.835938, 101053.328125, 91702.367188, 123474.695313, 0.000, 0.000, 0.000,0.0,0.0,0.0,0.0,0.0, 15:32:23.771
68531.765625, 59585.187500, 111784.625000, 98638.625000, 126056.304688, 100995.703125, 91777.578125, 123407.484375, 0.000, 0.000, 0.000,0.0,0.0,0.0,0.0,0.0, 15:32:23.771
68616.968750, 59675.445313, 111694.078125, 98428.984375, 126141.437500, 100917.562500, 91668.617188, 123478.562500, 0.000, 0.000, 0.000,0.0,0.0,0.0,0.0,0.0, 15:32:23.772
68692.226563, 59750.054688, 111592.000000, 98290.382813, 126225.460938, 100969.445313, 91579.656250, 123563.750000, 0.000, 0.000, 0.000,0.0,0.0,0.0,0.0,0.0, 15:32:23.772
68616.570313, 59668.894531, 111660.304688, 98487.437500, 126150.601563, 101057.398438, 91683.765625, 123505.164063, 0.060, 0.212, 0.972,0.0,0.0,0.0,0.0,0.0, 15:32:23.773
68520.656250, 59570.750000, 111790.546875, 98655.453125, 126046.648438, 101013.453125, 91782.718750, 123411.460938, 0.000, 0.000, 0.000,0.0,0.0,0.0,0.0,0.0, 15:32:23.773
68583.843750, 59634.898438, 111735.070313, 98481.250000, 126105.343750, 100916.312500, 91689.062500, 123445.484375, 0.000, 0.000, 0.000,0.0,0.0,0.0,0.0,0.0, 15:32:23.773
68678.835938, 59730.273438, 111618.953125, 98290.875000, 126208.179688, 100938.953125, 91573.750000, 123538.890625, 0.000, 0.000, 0.000,0.0,0.0,0.0,0.0,0.0, 15:32:23.774
68628.656250, 59678.058594, 111649.554688, 98436.539063, 126163.453125, 101041.101563, 91654.890625, 123517.570313, 0.000, 0.000, 0.000,0.0,0.0,0.0,0.0,0.0, 15:32:23.774
68533.664063, 59586.777344, 111764.687500, 98637.867188, 126066.585938, 101034.109375, 91776.617188, 123425.125000, 0.000, 0.000, 0.000,0.0,0.0,0.0,0.0,0.0, 15:32:23.774
68568.289063, 59622.808594, 111752.351563, 98520.382813, 126097.179688, 100934.281250, 91721.429688, 123438.351563, 0.000, 0.000, 0.000,0.0,0.0,0.0,0.0,0.0, 15:32:23.775
68674.703125, 59727.078125, 111639.453125, 98299.484375, 126211.156250, 100922.460938, 91589.421875, 123534.085938, 0.000, 0.000, 0.000,0.0,0.0,0.0,0.0,0.0, 15:32:23.776
68653.695313, 59705.800781, 111639.289063, 98391.773438, 126197.921875, 101024.406250, 91634.882813, 123527.781250, 0.000, 0.000, 0.000,0.0,0.0,0.0,0.0,0.0, 15:32:23.776
68548.554688, 59598.265625, 111758.492188, 98621.812500, 126088.468750, 101044.343750, 91767.476563, 123434.015625, 0.064, 0.208, 0.972,0.0,0.0,0.0,0.0,0.0, 15:32:23.777
68555.257813, 59603.292969, 111776.445313, 98561.843750, 126097.875000, 100955.695313, 91754.445313, 123428.007813, 0.000, 0.000, 0.000,0.0,0.0,0.0,0.0,0.0, 15:32:23.777
68668.156250, 59716.101563, 111656.367188, 98319.507813, 126208.492188, 100923.507813, 91611.664063, 123526.734375, 0.000, 0.000, 0.000,0.0,0.0,0.0,0.0,0.0, 15:32:23.778
68673.296875, 59719.410156, 111624.070313, 98352.859375, 126216.695313, 101021.031250, 91617.671875, 123551.406250, 0.000, 0.000, 0.000,0.0,0.0,0.0,0.0,0.0, 15:32:23.778
68566.992188, 59616.949219, 111718.796875, 98588.890625, 126112.289063, 101060.953125, 91749.953125, 123463.656250, 0.000, 0.000, 0.000,0.0,0.0,0.0,0.0,0.0, 15:32:23.779
68540.054688, 59593.527344, 111773.898438, 98596.492188, 126076.617188, 100968.523438, 91763.343750, 123421.054688, 0.000, 0.000, 0.000,0.0,0.0,0.0,0.0,0.0, 15:32:23.779
68648.281250, 59699.250000, 111674.476563, 98358.312500, 126175.460938, 100912.359375, 91627.195313, 123510.390625, 0.000, 0.000, 0.000,0.0,0.0,0.0,0.0,0.0, 15:32:23.780
68695.539063, 59741.160156, 111615.039063, 98326.078125, 126223.937500, 101001.359375, 91602.992188, 123561.156250, 0.000, 0.000, 0.000,0.0,0.0,0.0,0.0,0.0, 15:32:23.780
68595.375000, 59642.363281, 111710.414063, 98559.742188, 126123.203125, 101064.664063, 91732.828125, 123477.085938, 0.000, 0.000, 0.000,0.0,0.0,0.0,0.0,0.0, 15:32:23.780
68540.703125, 59587.648438, 111793.968750, 98629.125000, 126056.835938, 100989.757813, 91778.875000, 123418.546875, 0.000, 0.000, 0.000,0.0,0.0,0.0,0.0,0.0, 15:32:23.781
68635.117188, 59686.687500, 111700.695313, 98399.015625, 126153.734375, 100923.578125, 91658.195313, 123502.703125, 0.064, 0.214, 0.966,0.0,0.0,0.0,0.0,0.0, 15:32:23.782
68693.343750, 59742.835938, 111615.351563, 98301.382813, 126218.109375, 100990.695313, 91591.789063, 123570.742188, 0.000, 0.000, 0.000,0.0,0.0,0.0,0.0,0.0, 15:32:23.782
68609.054688, 59652.914063, 111694.437500, 98518.015625, 126129.859375, 101064.906250, 91706.968750, 123498.304688, 0.000, 0.000, 0.000,0.0,0.0,0.0,0.0,0.0, 15:32:23.782
68528.125000, 59575.042969, 111800.429688, 98642.625000, 126044.210938, 101004.578125, 91785.109375, 123411.218750, 0.000, 0.000, 0.000,0.0,0.0,0.0,0.0,0.0, 15:32:23.790
68600.671875, 59655.843750, 111729.640625, 98438.953125, 126118.617188, 100913.406250, 91681.687500, 123466.273438, 0.000, 0.000, 0.000,0.0,0.0,0.0,0.0,0.0, 15:32:23.790
68688.382813, 59742.457031, 111621.343750, 98281.960938, 126210.257813, 100955.429688, 91585.625000, 123552.484375, 0.000, 0.000, 0.000,0.0,0.0,0.0,0.0,0.0, 15:32:23.791
68625.437500, 59680.027344, 111664.218750, 98461.867188, 126154.937500, 101051.671875, 91681.687500, 123505.070313, 0.000, 0.000, 0.000,0.0,0.0,0.0,0.0,0.0, 15:32:23.791
68546.250000, 59597.929688, 111770.875000, 98637.531250, 126067.273438, 101016.539063, 91786.023438, 123415.507813, 0.000, 0.000, 0.000,0.0,0.0,0.0,0.0,0.0, 15:32:23.791
68602.328125, 59651.886719, 111730.468750, 98486.812500, 126114.820313, 100923.687500, 91710.078125, 123452.031250, 0.000, 0.000, 0.000,0.0,0.0,0.0,0.0,0.0, 15:32:23.791
68698.953125, 59750.324219, 111621.570313, 98291.164063, 126221.054688, 100934.617188, 91593.335938, 123541.906250, 0.060, 0.218, 0.974,0.0,0.0,0.0,0.0,0.0, 15:32:23.792
68649.289063, 59704.414063, 111651.296875, 98431.515625, 126180.039063, 101033.164063, 91664.992188, 123514.773438, 0.000, 0.000, 0.000,0.0,0.0,0.0,0.0,0.0, 15:32:23.792
68553.046875, 59607.382813, 111761.867188, 98638.671875, 126078.320313, 101030.484375, 91790.250000, 123427.203125, 0.000, 0.000, 0.000,0.0,0.0,0.0,0.0,0.0, 15:32:23.792
68586.187500, 59638.386719, 111753.445313, 98542.335938, 126088.328125, 100944.695313, 91733.296875, 123440.656250, 0.000, 0.000, 0.000,0.0,0.0,0.0,0.0,0.0, 15:32:23.792
68686.218750, 59743.058594, 111645.015625, 98318.750000, 126196.203125, 100929.898438, 91594.945313, 123535.898438, 0.000, 0.000, 0.000,0.0,0.0,0.0,0.0,0.0, 15:32:23.793
68664.000000, 59725.667969, 111641.687500, 98394.812500, 126185.804688, 101031.578125, 91633.875000, 123541.796875, 0.000, 0.000, 0.000,0.0,0.0,0.0,0.0,0.0, 15:32:23.793
68557.515625, 59623.097656, 111747.140625, 98620.945313, 126072.867188, 101053.148438, 91761.257813, 123447.539063, 0.000, 0.000, 0.000,0.0,0.0,0.0,0.0,0.0, 15:32:23.794
68560.375000, 59620.773438, 111784.843750, 98583.195313, 126060.187500, 100960.320313, 91749.882813, 123429.304688, 0.000, 0.000, 0.000,0.0,0.0,0.0,0.0,0.0, 15:32:23.795
68677.718750, 59735.304688, 111669.203125, 98340.359375, 126169.984375, 100925.742188, 91610.859375, 123528.562500, 0.000, 0.000, 0.000,0.0,0.0,0.0,0.0,0.0, 15:32:23.795
68682.593750, 59740.421875, 111629.320313, 98354.265625, 126189.250000, 101018.796875, 91612.734375, 123558.226563, 0.000, 0.000, 0.000,0.0,0.0,0.0,0.0,0.0, 15:32:23.796
68574.632813, 59628.953125, 111726.781250, 98586.593750, 126075.140625, 101057.195313, 91737.726563, 123467.140625, 0.064, 0.224, 0.974,0.0,0.0,0.0,0.0,0.0, 15:32:23.796
68549.265625, 59606.109375, 111781.609375, 98607.625000, 126041.929688, 100971.656250, 91758.625000, 123425.812500, 0.000, 0.000, 0.000,0.0,0.0,0.0,0.0,0.0, 15:32:23.797
68655.750000, 59711.273438, 111684.156250, 98372.437500, 126149.976563, 100912.843750, 91633.296875, 123514.710938, 0.000, 0.000, 0.000,0.0,0.0,0.0,0.0,0.0, 15:32:23.797
68700.789063, 59753.496094, 111623.648438, 98327.421875, 126207.351563, 100989.984375, 91602.500000, 123561.734375, 0.000, 0.000, 0.000,0.0,0.0,0.0,0.0,0.0, 15:32:23.798
68591.421875, 59646.320313, 111724.406250, 98559.164063, 126104.828125, 101047.960938, 91725.390625, 123473.445313, 0.000, 0.000, 0.000,0.0,0.0,0.0,0.0,0.0, 15:32:23.798
68544.304688, 59603.851563, 111790.703125, 98629.859375, 126052.523438, 100981.156250, 91773.710938, 123411.820313, 0.000, 0.000, 0.000,0.0,0.0,0.0,0.0,0.0, 15:32:23.799
68641.351563, 59700.523438, 111697.609375, 98412.250000, 126151.539063, 100912.515625, 91662.109375, 123485.312500, 0.000, 0.000, 0.000,0.0,0.0,0.0,0.0,0.0, 15:32:23.800
68701.835938, 59762.281250, 111612.828125, 98302.992188, 126225.640625, 100968.500000, 91594.695313, 123556.906250, 0.000, 0.000, 0.000,0.0,0.0,0.0,0.0,0.0, 15:32:23.800
68618.062500, 59677.343750, 111681.468750, 98507.781250, 126143.007813, 101045.976563, 91703.750000, 123494.812500, 0.000, 0.000, 0.000,0.0,0.0,0.0,0.0,0.0, 15:32:23.803
68544.078125, 59602.445313, 111776.640625, 98643.031250, 126061.242188, 100998.812500, 91784.617188, 123415.843750, 0.076, 0.222, 0.970,5.646263E-6,7.479252E-6,9.19344E-6,2.8922295E-5,3.6733727E-5, 15:32:23.804
68617.375000, 59674.953125, 111724.789063, 98463.523438, 126123.000000, 100913.695313, 91690.453125, 123466.984375, 0.000, 0.000, 0.000,5.646263E-6,7.479252E-6,9.19344E-6,2.8922295E-5,3.6733727E-5, 15:32:23.804
68706.687500, 59760.875000, 111623.289063, 98300.109375, 126216.789063, 100949.664063, 91592.171875, 123556.531250, 0.000, 0.000, 0.000,5.646263E-6,7.479252E-6,9.19344E-6,2.8922295E-5,3.6733727E-5, 15:32:23.805
68642.320313, 59697.953125, 111662.156250, 98463.390625, 126161.085938, 101046.289063, 91678.382813, 123519.289063, 0.000, 0.000, 0.000,5.646263E-6,7.479252E-6,9.19344E-6,2.8922295E-5,3.6733727E-5, 15:32:23.805
68544.039063, 59600.050781, 111773.781250, 98647.500000, 126060.500000, 101025.078125, 91786.453125, 123429.992188, 0.000, 0.000, 0.000,5.646263E-6,7.479252E-6,9.19344E-6,2.8922295E-5,3.6733727E-5, 15:32:23.806
68589.273438, 59639.457031, 111754.445313, 98511.781250, 126097.828125, 100927.781250, 91718.835938, 123452.054688, 0.000, 0.000, 0.000,5.646263E-6,7.479252E-6,9.19344E-6,2.8922295E-5,3.6733727E-5, 15:32:23.806
68688.093750, 59742.566406, 111629.546875, 98299.750000, 126203.445313, 100934.554688, 91594.226563, 123550.515625, 0.000, 0.000, 0.000,5.646263E-6,7.479252E-6,9.19344E-6,2.8922295E-5,3.6733727E-5, 15:32:23.806
68648.664063, 59706.847656, 111643.429688, 98421.210938, 126169.914063, 101038.132813, 91658.171875, 123534.015625, 0.000, 0.000, 0.000,5.646263E-6,7.479252E-6,9.19344E-6,2.8922295E-5,3.6733727E-5, 15:32:23.807
68547.859375, 59605.527344, 111764.351563, 98642.421875, 126064.703125, 101039.960938, 91787.078125, 123441.906250, 0.000, 0.000, 0.000,5.646263E-6,7.479252E-6,9.19344E-6,2.8922295E-5,3.6733727E-5, 15:32:23.807
68570.273438, 59629.578125, 111767.593750, 98560.953125, 126080.914063, 100942.640625, 91751.429688, 123447.203125, 0.000, 0.000, 0.000,5.646263E-6,7.479252E-6,9.19344E-6,2.8922295E-5,3.6733727E-5, 15:32:23.808
68689.968750, 59752.113281, 111631.023438, 98326.593750, 126199.085938, 100929.835938, 91612.242188, 123549.710938, 0.084, 0.220, 0.972,5.646263E-6,7.479252E-6,9.19344E-6,2.8922295E-5,3.6733727E-5, 15:32:23.808
68687.398438, 59746.679688, 111609.476563, 98391.148438, 126198.257813, 101033.304688, 91639.195313, 123560.351563, 0.000, 0.000, 0.000,5.646263E-6,7.479252E-6,9.19344E-6,2.8922295E-5,3.6733727E-5, 15:32:23.811
68575.906250, 59631.300781, 111735.203125, 98631.781250, 126077.734375, 101048.789063, 91766.937500, 123454.804688, 0.000, 0.000, 0.000,5.646263E-6,7.479252E-6,9.19344E-6,2.8922295E-5,3.6733727E-5, 15:32:23.811
68568.687500, 59623.656250, 111761.000000, 98597.453125, 126071.320313, 100954.179688, 91766.781250, 123433.992188, 0.000, 0.000, 0.000,5.646263E-6,7.479252E-6,9.19344E-6,2.8922295E-5,3.6733727E-5, 15:32:23.812
68674.187500, 59735.480469, 111643.898438, 98355.000000, 126183.171875, 100911.148438, 91636.273438, 123525.546875, 0.000, 0.000, 0.000,5.646263E-6,7.479252E-6,9.19344E-6,2.8922295E-5,3.6733727E-5, 15:32:23.812
68697.750000, 59756.292969, 111594.859375, 98354.648438, 126206.281250, 101002.187500, 91618.703125, 123555.992188, 0.000, 0.000, 0.000,5.646263E-6,7.479252E-6,9.19344E-6,2.8922295E-5,3.6733727E-5, 15:32:23.813
68597.281250, 59651.929688, 111696.515625, 98593.992188, 126101.812500, 101050.445313, 91746.109375, 123466.453125, 0.000, 0.000, 0.000,5.646263E-6,7.479252E-6,9.19344E-6,2.8922295E-5,3.6733727E-5, 15:32:23.813
68559.304688, 59616.390625, 111755.570313, 98626.867188, 126061.265625, 100967.835938, 91770.601563, 123420.117188, 0.000, 0.000, 0.000,5.646263E-6,7.479252E-6,9.19344E-6,2.8922295E-5,3.6733727E-5, 15:32:23.814
68660.242188, 59722.273438, 111655.718750, 98395.195313, 126165.734375, 100907.328125, 91648.789063, 123504.468750, 0.000, 0.000, 0.000,5.646263E-6,7.479252E-6,9.19344E-6,2.8922295E-5,3.6733727E-5, 15:32:23.815
68701.906250, 59766.058594, 111589.132813, 98334.171875, 126218.328125, 100979.921875, 91605.132813, 123558.515625, 0.000, 0.000, 0.000,5.646263E-6,7.479252E-6,9.19344E-6,2.8922295E-5,3.6733727E-5, 15:32:23.815
68609.640625, 59674.796875, 111673.984375, 98557.015625, 126124.500000, 101045.054688, 91718.953125, 123482.562500, 0.088, 0.222, 0.966,5.646263E-6,7.479252E-6,9.19344E-6,2.8922295E-5,3.6733727E-5, 15:32:23.816
68547.367188, 59611.632813, 111758.250000, 98650.179688, 126055.164063, 100985.648438, 91776.570313, 123417.546875, 0.000, 0.000, 0.000,5.646263E-6,7.479252E-6,9.19344E-6,2.8922295E-5,3.6733727E-5, 15:32:23.817
68637.039063, 59697.351563, 111676.015625, 98434.062500, 126143.828125, 100913.453125, 91673.398438, 123487.773438, 0.000, 0.000, 0.000,5.646263E-6,7.479252E-6,9.19344E-6,2.8922295E-5,3.6733727E-5, 15:32:23.817
68706.625000, 59762.886719, 111607.710938, 98317.742188, 126221.460938, 100963.406250, 91605.851563, 123558.671875, 0.000, 0.000, 0.000,5.646263E-6,7.479252E-6,9.19344E-6,2.8922295E-5,3.6733727E-5, 15:32:23.817
68636.125000, 59691.136719, 111660.328125, 98511.289063, 126149.929688, 101048.765625, 91703.195313, 123506.148438, 0.000, 0.000, 0.000,5.646263E-6,7.479252E-6,9.19344E-6,2.8922295E-5,3.6733727E-5, 15:32:23.818
68548.570313, 59603.628906, 111761.937500, 98659.906250, 126057.773438, 101004.515625, 91790.835938, 123421.523438, 0.000, 0.000, 0.000,5.646263E-6,7.479252E-6,9.19344E-6,2.8922295E-5,3.6733727E-5, 15:32:23.818
68617.328125, 59673.164063, 111706.617188, 98480.554688, 126122.664063, 100918.968750, 91706.859375, 123470.718750, 0.000, 0.000, 0.000,5.646263E-6,7.479252E-6,9.19344E-6,2.8922295E-5,3.6733727E-5, 15:32:23.819
68709.570313, 59765.367188, 111599.437500, 98307.078125, 126221.484375, 100949.679688, 91602.898438, 123564.101563, 0.000, 0.000, 0.000,5.646263E-6,7.479252E-6,9.19344E-6,2.8922295E-5,3.6733727E-5, 15:32:23.819
68651.796875, 59707.140625, 111632.226563, 98461.085938, 126171.257813, 101041.859375, 91678.648438, 123528.117188, 0.000, 0.000, 0.000,5.646263E-6,7.479252E-6,9.19344E-6,2.8922295E-5,3.6733727E-5, 15:32:23.819
68553.710938, 59604.636719, 111744.125000, 98651.562500, 126069.398438, 101027.492188, 91788.148438, 123439.429688, 0.082, 0.222, 0.974,5.646263E-6,7.479252E-6,9.19344E-6,2.8922295E-5,3.6733727E-5, 15:32:23.820
68594.328125, 59648.511719, 111720.031250, 98526.757813, 126109.703125, 100939.335938, 91731.867188, 123465.531250, 0.000, 0.000, 0.000,5.646263E-6,7.479252E-6,9.19344E-6,2.8922295E-5,3.6733727E-5, 15:32:23.821
68692.500000, 59753.296875, 111607.328125, 98310.703125, 126201.898438, 100931.109375, 91605.539063, 123547.851563, 0.000, 0.000, 0.000,5.646263E-6,7.479252E-6,9.19344E-6,2.8922295E-5,3.6733727E-5, 15:32:23.821
68659.687500, 59721.625000, 111605.742188, 98403.257813, 126172.398438, 101024.335938, 91648.515625, 123534.312500, 0.000, 0.000, 0.000,5.646263E-6,7.479252E-6,9.19344E-6,2.8922295E-5,3.6733727E-5, 15:32:23.823
68543.609375, 59610.667969, 111710.234375, 98616.179688, 126062.429688, 101032.179688, 91765.617188, 123437.835938, 0.000, 0.000, 0.000,5.646263E-6,7.479252E-6,9.19344E-6,2.8922295E-5,3.6733727E-5, 15:32:23.823
68555.656250, 59623.121094, 111704.695313, 98536.546875, 126071.414063, 100941.164063, 91734.882813, 123434.507813, 0.000, 0.000, 0.000,5.646263E-6,7.479252E-6,9.19344E-6,2.8922295E-5,3.6733727E-5, 15:32:23.824
68661.960938, 59731.480469, 111591.367188, 98308.421875, 126183.281250, 100921.117188, 91612.398438, 123528.273438, 0.000, 0.000, 0.000,5.646263E-6,7.479252E-6,9.19344E-6,2.8922295E-5,3.6733727E-5, 15:32:23.824
68648.304688, 59723.144531, 111575.453125, 98357.890625, 126179.304688, 101006.968750, 91625.765625, 123531.406250, 0.000, 0.000, 0.000,5.646263E-6,7.479252E-6,9.19344E-6,2.8922295E-5,3.6733727E-5, 15:32:23.824
68539.476563, 59613.867188, 111665.531250, 98583.640625, 126075.656250, 101037.171875, 91741.320313, 123445.257813, 0.000, 0.000, 0.000,5.646263E-6,7.479252E-6,9.19344E-6,2.8922295E-5,3.6733727E-5, 15:32:23.825
68523.492188, 59599.628906, 111692.937500, 98573.578125, 126057.867188, 100955.273438, 91746.554688, 123422.867188, 0.000, 0.000, 0.000,5.646263E-6,7.479252E-6,9.19344E-6,2.8922295E-5,3.6733727E-5, 15:32:23.825
68622.335938, 59698.199219, 111600.515625, 98340.875000, 126160.531250, 100907.593750, 91624.867188, 123505.429688, 0.070, 0.212, 0.970,5.646263E-6,7.479252E-6,9.19344E-6,2.8922295E-5,3.6733727E-5, 15:32:23.826
68649.718750, 59726.363281, 111557.281250, 98323.914063, 126191.843750, 100990.273438, 91607.992188, 123543.765625, 0.000, 0.000, 0.000,5.646263E-6,7.479252E-6,9.19344E-6,2.8922295E-5,3.6733727E-5, 15:32:23.827
68550.984375, 59624.707031, 111644.367188, 98553.375000, 126094.656250, 101045.687500, 91727.171875, 123467.992188, 0.000, 0.000, 0.000,5.646263E-6,7.479252E-6,9.19344E-6,2.8922295E-5,3.6733727E-5, 15:32:23.828
68506.906250, 59583.468750, 111718.171875, 98612.226563, 126043.648438, 100971.007813, 91759.453125, 123416.804688, 0.000, 0.000, 0.000,5.646263E-6,7.479252E-6,9.19344E-6,2.8922295E-5,3.6733727E-5, 15:32:23.829
68608.273438, 59687.449219, 111623.648438, 98387.570313, 126142.984375, 100909.492188, 91643.625000, 123499.843750, 0.000, 0.000, 0.000,5.646263E-6,7.479252E-6,9.19344E-6,2.8922295E-5,3.6733727E-5, 15:32:23.830
68659.328125, 59738.187500, 111546.757813, 98309.140625, 126206.750000, 100981.757813, 91596.820313, 123565.335938, 0.000, 0.000, 0.000,5.646263E-6,7.479252E-6,9.19344E-6,2.8922295E-5,3.6733727E-5, 15:32:23.830
68571.195313, 59652.242188, 111618.257813, 98520.609375, 126120.671875, 101049.304688, 91704.531250, 123493.789063, 0.000, 0.000, 0.000,5.646263E-6,7.479252E-6,9.19344E-6,2.8922295E-5,3.6733727E-5, 15:32:23.830
68514.289063, 59600.277344, 111703.531250, 98630.218750, 126059.117188, 100999.687500, 91776.843750, 123432.406250, 0.000, 0.000, 0.000,5.646263E-6,7.479252E-6,9.19344E-6,2.8922295E-5,3.6733727E-5, 15:32:23.831
68576.359375, 59655.820313, 111640.234375, 98426.460938, 126125.234375, 100917.164063, 91678.937500, 123482.562500, 0.000, 0.000, 0.000,0.0,0.0,0.0,0.0,0.0, 15:32:24.240
68654.703125, 59734.566406, 111548.921875, 98285.375000, 126214.906250, 100962.468750, 91603.835938, 123563.281250, 0.076, 0.198, 0.976,0.0,0.0,0.0,0.0,0.0, 15:32:24.240
68577.632813, 59660.179688, 111598.031250, 98467.500000, 126137.843750, 101042.312500, 91689.843750, 123503.445313, 0.000, 0.000, 0.000,0.0,0.0,0.0,0.0,0.0, 15:32:24.240
68492.960938, 59574.480469, 111699.445313, 98629.570313, 126045.796875, 101006.726563, 91775.117188, 123419.312500, 0.000, 0.000, 0.000,0.0,0.0,0.0,0.0,0.0, 15:32:24.241
68553.695313, 59632.015625, 111662.937500, 98470.140625, 126099.039063, 100919.914063, 91702.031250, 123457.914063, 0.000, 0.000, 0.000,0.0,0.0,0.0,0.0,0.0, 15:32:24.241
68654.992188, 59735.125000, 111553.015625, 98293.734375, 126209.945313, 100952.500000, 91610.234375, 123562.765625, 0.000, 0.000, 0.000,0.0,0.0,0.0,0.0,0.0, 15:32:24.241
68593.031250, 59667.242188, 111578.812500, 98427.734375, 126153.687500, 101026.726563, 91668.523438, 123509.054688, 0.000, 0.000, 0.000,0.0,0.0,0.0,0.0,0.0, 15:32:24.242
68500.539063, 59574.839844, 111672.593750, 98616.539063, 126050.804688, 101014.007813, 91762.828125, 123421.835938, 0.000, 0.000, 0.000,0.0,0.0,0.0,0.0,0.0, 15:32:24.242
68537.757813, 59612.750000, 111669.625000, 98514.507813, 126070.945313, 100927.640625, 91710.992188, 123432.851563, 0.000, 0.000, 0.000,0.0,0.0,0.0,0.0,0.0, 15:32:24.243
68644.484375, 59723.480469, 111556.906250, 98299.664063, 126183.015625, 100923.484375, 91597.914063, 123530.468750, 0.000, 0.000, 0.000,0.0,0.0,0.0,0.0,0.0, 15:32:24.243
68627.382813, 59719.343750, 111567.367188, 98402.812500, 126175.210938, 101022.195313, 91648.992188, 123533.281250, 0.000, 0.000, 0.000,0.0,0.0,0.0,0.0,0.0, 15:32:24.244
68521.773438, 59601.101563, 111672.906250, 98619.312500, 126065.484375, 101028.851563, 91755.984375, 123441.460938, 0.090, 0.196, 0.976,0.0,0.0,0.0,0.0,0.0, 15:32:24.244
68532.546875, 59611.117188, 111679.679688, 98563.078125, 126076.218750, 100946.937500, 91739.804688, 123440.632813, 0.000, 0.000, 0.000,0.0,0.0,0.0,0.0,0.0, 15:32:24.245
68642.359375, 59723.121094, 111580.062500, 98341.859375, 126185.695313, 100926.726563, 91627.976563, 123538.289063, 0.000, 0.000, 0.000,0.0,0.0,0.0,0.0,0.0, 15:32:24.246
68642.226563, 59716.191406, 111548.835938, 98366.601563, 126200.179688, 101012.601563, 91636.203125, 123556.570313, 0.000, 0.000, 0.000,0.0,0.0,0.0,0.0,0.0, 15:32:24.246
68555.125000, 59626.964844, 111648.031250, 98598.484375, 126098.968750, 101051.023438, 91748.140625, 123469.398438, 0.000, 0.000, 0.000,0.0,0.0,0.0,0.0,0.0, 15:32:24.246
68508.343750, 59578.214844, 111685.937500, 98593.359375, 126050.398438, 100957.039063, 91743.289063, 123422.507813, 0.000, 0.000, 0.000,0.0,0.0,0.0,0.0,0.0, 15:32:24.247
68628.031250, 59697.058594, 111589.781250, 98369.507813, 126171.320313, 100924.648438, 91644.093750, 123516.250000, 0.000, 0.000, 0.000,0.0,0.0,0.0,0.0,0.0, 15:32:24.247
68672.359375, 59742.457031, 111540.031250, 98346.351563, 126225.195313, 101010.343750, 91633.765625, 123569.515625, 0.000, 0.000, 0.000,0.0,0.0,0.0,0.0,0.0, 15:32:24.248
68558.992188, 59630.785156, 111615.554688, 98557.351563, 126120.671875, 101053.906250, 91730.976563, 123490.523438, 0.000, 0.000, 0.000,0.0,0.0,0.0,0.0,0.0, 15:32:24.248
68504.406250, 59578.281250, 111675.992188, 98610.773438, 126060.414063, 100977.132813, 91757.843750, 123422.843750, 0.096, 0.206, 0.974,0.0,0.0,0.0,0.0,0.0, 15:32:24.249
68594.218750, 59670.683594, 111597.984375, 98396.781250, 126148.968750, 100917.609375, 91658.039063, 123498.679688, 0.000, 0.000, 0.000,0.0,0.0,0.0,0.0,0.0, 15:32:24.249
68651.992188, 59729.601563, 111540.585938, 98312.937500, 126204.960938, 100978.742188, 91609.109375, 123560.593750, 0.000, 0.000, 0.000,0.0,0.0,0.0,0.0,0.0, 15:32:24.249
68562.226563, 59633.781250, 111604.421875, 98508.429688, 126114.750000, 101038.820313, 91692.953125, 123486.500000, 0.000, 0.000, 0.000,0.0,0.0,0.0,0.0,0.0, 15:32:24.250
68499.687500, 59570.101563, 111677.781250, 98624.546875, 126041.617188, 100987.773438, 91753.546875, 123420.023438, 0.000, 0.000, 0.000,0.0,0.0,0.0,0.0,0.0, 15:32:24.250
68590.820313, 59655.753906, 111628.007813, 98454.867188, 126128.609375, 100924.093750, 91685.421875, 123481.468750, 0.000, 0.000, 0.000,0.0,0.0,0.0,0.0,0.0, 15:32:24.250
68677.898438, 59744.511719, 111531.062500, 98310.546875, 126220.992188, 100969.937500, 91610.562500, 123564.015625, 0.000, 0.000, 0.000,0.0,0.0,0.0,0.0,0.0, 15:32:24.251
68612.250000, 59686.910156, 111572.125000, 98483.367188, 126157.601563, 101053.890625, 91685.445313, 123511.687500, 0.000, 0.000, 0.000,0.0,0.0,0.0,0.0,0.0, 15:32:24.251
68519.898438, 59591.023438, 111680.484375, 98650.898438, 126059.812500, 101018.078125, 91766.914063, 123399.820313, 0.000, 0.000, 0.000,0.0,0.0,0.0,0.0,0.0, 15:32:24.251
68567.304688, 59637.761719, 111655.500000, 98506.953125, 126110.015625, 100928.000000, 91709.804688, 123456.328125, 0.000, 0.000, 0.000,0.0,0.0,0.0,0.0,0.0, 15:32:24.252
68666.054688, 59738.320313, 111553.929688, 98320.382813, 126207.156250, 100949.234375, 91610.875000, 123552.703125, 0.076, 0.202, 0.974,0.0,0.0,0.0,0.0,0.0, 15:32:24.252
68629.265625, 59700.769531, 111571.789063, 98446.710938, 126170.429688, 101039.289063, 91663.804688, 123527.648438, 0.000, 0.000, 0.000,0.0,0.0,0.0,0.0,0.0, 15:32:24.253
68522.664063, 59588.070313, 111668.843750, 98642.648438, 126061.640625, 101030.640625, 91758.179688, 123432.203125, 0.000, 0.000, 0.000,0.0,0.0,0.0,0.0,0.0, 15:32:24.253
68549.914063, 59614.179688, 111677.757813, 98555.898438, 126085.156250, 100949.281250, 91730.976563, 123445.750000, 0.000, 0.000, 0.000,0.0,0.0,0.0,0.0,0.0, 15:32:24.254
68651.726563, 59719.523438, 111591.882813, 98346.375000, 126193.070313, 100938.710938, 91633.187500, 123539.515625, 0.000, 0.000, 0.000,0.0,0.0,0.0,0.0,0.0, 15:32:24.254
68637.242188, 59707.898438, 111576.843750, 98407.773438, 126181.562500, 101023.820313, 91658.710938, 123538.625000, 0.000, 0.000, 0.000,0.0,0.0,0.0,0.0,0.0, 15:32:24.254
68551.812500, 59618.269531, 111659.835938, 98621.773438, 126081.914063, 101040.703125, 91759.562500, 123451.070313, 0.000, 0.000, 0.000,0.0,0.0,0.0,0.0,0.0, 15:32:24.255
68551.593750, 59614.492188, 111683.664063, 98586.921875, 126066.468750, 100953.039063, 91744.187500, 123432.140625, 0.000, 0.000, 0.000,0.0,0.0,0.0,0.0,0.0, 15:32:24.255
68668.710938, 59735.636719, 111606.210938, 98376.773438, 126182.945313, 100936.789063, 91654.640625, 123535.335938, 0.000, 0.000, 0.000,0.0,0.0,0.0,0.0,0.0, 15:32:24.258
68677.500000, 59738.433594, 111592.867188, 98390.859375, 126194.906250, 101010.968750, 91656.898438, 123545.242188, 0.000, 0.000, 0.000,0.0,0.0,0.0,0.0,0.0, 15:32:24.258
68595.242188, 59652.691406, 111665.531250, 98603.531250, 126100.085938, 101043.539063, 91752.429688, 123459.656250, 0.064, 0.208, 0.968,0.0,0.0,0.0,0.0,0.0, 15:32:24.259
68579.015625, 59636.957031, 111701.851563, 98626.531250, 126067.187500, 100970.960938, 91765.710938, 123414.726563, 0.000, 0.000, 0.000,0.0,0.0,0.0,0.0,0.0, 15:32:24.260
68690.890625, 59742.500000, 111624.070313, 98410.320313, 126168.421875, 100930.882813, 91670.179688, 123507.109375, 0.000, 0.000, 0.000,0.0,0.0,0.0,0.0,0.0, 15:32:24.260
68740.195313, 59791.675781, 111570.273438, 98361.351563, 126209.476563, 101006.992188, 91643.179688, 123554.359375, 0.000, 0.000, 0.000,0.0,0.0,0.0,0.0,0.0, 15:32:24.261
68644.640625, 59692.253906, 111632.679688, 98559.585938, 126114.281250, 101050.289063, 91731.984375, 123484.015625, 0.000, 0.000, 0.000,0.0,0.0,0.0,0.0,0.0, 15:32:24.261
68613.460938, 59660.582031, 111686.812500, 98630.625000, 126063.585938, 100986.671875, 91770.828125, 123426.328125, 0.000, 0.000, 0.000,0.0,0.0,0.0,0.0,0.0, 15:32:24.261
68707.562500, 59762.011719, 111648.929688, 98446.062500, 126141.593750, 100927.640625, 91697.851563, 123487.882813, 0.000, 0.000, 0.000,0.0,0.0,0.0,0.0,0.0, 15:32:24.262
68782.257813, 59839.128906, 111600.492188, 98348.882813, 126211.515625, 100980.570313, 91654.351563, 123553.601563, 0.000, 0.000, 0.000,0.0,0.0,0.0,0.0,0.0, 15:32:24.262
68708.007813, 59754.347656, 111648.546875, 98521.617188, 126128.250000, 101035.890625, 91720.515625, 123487.078125, 0.000, 0.000, 0.000,0.0,0.0,0.0,0.0,0.0, 15:32:24.262
68650.632813, 59695.136719, 111709.703125, 98639.453125, 126056.187500, 100995.726563, 91773.171875, 123421.523438, 0.074, 0.210, 0.960,0.0,0.0,0.0,0.0,0.0, 15:32:24.263
68722.984375, 59767.871094, 111669.515625, 98478.812500, 126126.109375, 100933.812500, 91714.320313, 123473.062500, 0.000, 0.000, 0.000,0.0,0.0,0.0,0.0,0.0, 15:32:24.263
68810.984375, 59861.968750, 111600.046875, 98337.390625, 126222.218750, 100977.335938, 91652.812500, 123543.046875, 0.000, 0.000, 0.000,0.0,0.0,0.0,0.0,0.0, 15:32:24.264
68744.773438, 59792.589844, 111614.593750, 98476.554688, 126171.812500, 101049.234375, 91712.085938, 123519.062500, 0.000, 0.000, 0.000,0.0,0.0,0.0,0.0,0.0, 15:32:24.264
68642.250000, 59687.382813, 111708.179688, 98643.203125, 126062.515625, 101010.773438, 91781.515625, 123428.539063, 0.000, 0.000, 0.000,0.0,0.0,0.0,0.0,0.0, 15:32:24.264
68677.898438, 59730.453125, 111692.218750, 98514.664063, 126096.914063, 100929.523438, 91729.367188, 123440.789063, 0.000, 0.000, 0.000,0.0,0.0,0.0,0.0,0.0, 15:32:24.265
68781.437500, 59834.878906, 111609.921875, 98333.007813, 126209.882813, 100952.414063, 91656.546875, 123541.796875, 0.000, 0.000, 0.000,0.0,0.0,0.0,0.0,0.0, 15:32:24.265
68752.890625, 59808.839844, 111620.828125, 98446.781250, 126193.007813, 101039.289063, 91707.546875, 123547.765625, 0.000, 0.000, 0.000,0.0,0.0,0.0,0.0,0.0, 15:32:24.265
68647.992188, 59711.765625, 111692.531250, 98638.023438, 126083.437500, 101028.453125, 91777.195313, 123450.515625, 0.000, 0.000, 0.000,0.0,0.0,0.0,0.0,0.0, 15:32:24.265
68664.734375, 59724.171875, 111708.406250, 98574.812500, 126095.593750, 100958.039063, 91756.296875, 123445.351563, 0.000, 0.000, 0.000,0.0,0.0,0.0,0.0,0.0, 15:32:24.266
68762.523438, 59819.816406, 111619.531250, 98364.390625, 126207.289063, 100952.656250, 91672.031250, 123538.445313, 0.094, 0.196, 0.964,0.0,0.0,0.0,0.0,0.0, 15:32:24.266
68734.945313, 59792.164063, 111604.023438, 98407.171875, 126198.703125, 101029.523438, 91687.765625, 123545.867188, 0.000, 0.000, 0.000,0.0,0.0,0.0,0.0,0.0, 15:32:24.268
68609.703125, 59672.496094, 111671.414063, 98603.218750, 126073.132813, 101021.921875, 91754.375000, 123444.703125, 0.000, 0.000, 0.000,0.0,0.0,0.0,0.0,0.0, 15:32:24.269
68577.742188, 59636.531250, 111687.796875, 98572.578125, 126048.164063, 100934.750000, 91740.187500, 123415.507813, 0.000, 0.000, 0.000,0.0,0.0,0.0,0.0,0.0, 15:32:24.269
68697.953125, 59760.382813, 111612.851563, 98367.992188, 126179.328125, 100926.414063, 91672.148438, 123521.859375, 0.000, 0.000, 0.000,0.0,0.0,0.0,0.0,0.0, 15:32:24.269
68721.015625, 59784.097656, 111595.351563, 98378.226563, 126208.585938, 101008.781250, 91680.617188, 123554.156250, 0.000, 0.000, 0.000,0.0,0.0,0.0,0.0,0.0, 15:32:24.270
68596.742188, 59663.218750, 111658.960938, 98575.523438, 126088.890625, 101023.804688, 91743.671875, 123452.679688, 0.000, 0.000, 0.000,0.0,0.0,0.0,0.0,0.0, 15:32:24.270
68568.265625, 59629.734375, 111699.125000, 98604.898438, 126048.859375, 100949.726563, 91756.210938, 123395.570313, 0.000, 0.000, 0.000,0.0,0.0,0.0,0.0,0.0, 15:32:24.270
68669.515625, 59731.078125, 111634.304688, 98401.632813, 126146.445313, 100910.234375, 91685.445313, 123494.187500, 0.000, 0.000, 0.000,0.0,0.0,0.0,0.0,0.0, 15:32:24.271
68720.906250, 59773.613281, 111586.679688, 98345.054688, 126206.148438, 100989.226563, 91665.710938, 123547.742188, 0.102, 0.188, 0.958,0.0,0.0,0.0,0.0,0.0, 15:32:24.271
68626.781250, 59686.398438, 111622.484375, 98537.882813, 126122.710938, 101039.312500, 91732.718750, 123476.820313, 0.000, 0.000, 0.000,0.0,0.0,0.0,0.0,0.0, 15:32:24.271
68559.007813, 59627.320313, 111674.765625, 98621.460938, 126055.945313, 100982.406250, 91763.007813, 123407.976563, 0.000, 0.000, 0.000,0.0,0.0,0.0,0.0,0.0, 15:32:24.272
68606.148438, 59659.574219, 111629.187500, 98428.671875, 126118.640625, 100910.835938, 91693.734375, 123469.601563, 0.000, 0.000, 0.000,0.0,0.0,0.0,0.0,0.0, 15:32:24.272
68673.273438, 59722.898438, 111585.203125, 98322.523438, 126199.304688, 100960.609375, 91658.843750, 123542.601563, 0.000, 0.000, 0.000,0.0,0.0,0.0,0.0,0.0, 15:32:24.272
68611.335938, 59667.621094, 111621.343750, 98489.132813, 126130.820313, 101039.515625, 91710.632813, 123499.554688, 0.000, 0.000, 0.000,0.0,0.0,0.0,0.0,0.0, 15:32:24.273
68530.601563, 59597.394531, 111681.625000, 98620.992188, 126043.179688, 100986.023438, 91753.617188, 123410.125000, 0.000, 0.000, 0.000,0.0,0.0,0.0,0.0,0.0, 15:32:24.273
68586.125000, 59656.914063, 111641.015625, 98466.937500, 126094.257813, 100913.562500, 91696.437500, 123436.343750, 0.000, 0.000, 0.000,0.0,0.0,0.0,0.0,0.0, 15:32:24.273
68667.687500, 59721.109375, 111565.421875, 98305.781250, 126194.953125, 100942.242188, 91641.906250, 123523.382813, 0.000, 0.000, 0.000,0.0,0.0,0.0,0.0,0.0, 15:32:24.274
68647.281250, 59692.031250, 111611.085938, 98456.968750, 126154.914063, 101031.312500, 91698.765625, 123493.695313, 0.000, 0.000, 0.000,0.0,0.0,0.0,0.0,0.0, 15:32:24.274
68526.687500, 59588.316406, 111655.382813, 98608.921875, 126053.421875, 100995.976563, 91741.367188, 123413.117188, 0.086, 0.186, 0.964,0.0,0.0,0.0,0.0,0.0, 15:32:24.274
68556.867188, 59629.578125, 111649.890625, 98510.437500, 126072.015625, 100922.679688, 91704.085938, 123426.015625, 0.000, 0.000, 0.000,0.0,0.0,0.0,0.0,0.0, 15:32:24.275
68663.078125, 59730.140625, 111581.156250, 98325.453125, 126166.093750, 100929.812500, 91626.460938, 123510.703125, 0.000, 0.000, 0.000,0.0,0.0,0.0,0.0,0.0, 15:32:24.275
68656.484375, 59720.105469, 111579.320313, 98414.992188, 126159.882813, 101007.796875, 91660.054688, 123504.000000, 0.000, 0.000, 0.000,0.0,0.0,0.0,0.0,0.0, 15:32:24.276
68532.320313, 59592.566406, 111637.210938, 98601.523438, 126054.554688, 100995.617188, 91717.945313, 123394.945313, 0.000, 0.000, 0.000,0.0,0.0,0.0,0.0,0.0, 15:32:24.276
68521.507813, 59574.257813, 111641.304688, 98532.718750, 126053.640625, 100918.476563, 91696.617188, 123375.726563, 0.000, 0.000, 0.000,0.0,0.0,0.0,0.0,0.0, 15:32:24.277
68626.445313, 59681.433594, 111569.265625, 98324.625000, 126178.875000, 100909.671875, 91642.281250, 123497.179688, 0.000, 0.000, 0.000,0.0,0.0,0.0,0.0,0.0, 15:32:24.277
68647.929688, 59700.433594, 111577.828125, 98378.156250, 126186.476563, 100995.210938, 91668.437500, 123513.414063, 0.000, 0.000, 0.000,0.0,0.0,0.0,0.0,0.0, 15:32:24.278
68557.718750, 59607.585938, 111653.820313, 98588.398438, 126090.679688, 101010.367188, 91739.359375, 123430.039063, 0.000, 0.000, 0.000,0.0,0.0,0.0,0.0,0.0, 15:32:24.279
68518.289063, 59569.320313, 111674.273438, 98569.242188, 126068.726563, 100934.375000, 91739.625000, 123396.062500, 0.078, 0.192, 0.964,0.0,0.0,0.0,0.0,0.0, 15:32:24.279
68628.679688, 59687.136719, 111607.375000, 98362.890625, 126172.914063, 100914.945313, 91676.187500, 123484.289063, 0.000, 0.000, 0.000,0.0,0.0,0.0,0.0,0.0, 15:32:24.280
68647.546875, 59691.984375, 111582.968750, 98343.265625, 126196.335938, 100976.054688, 91666.914063, 123520.515625, 0.000, 0.000, 0.000,0.0,0.0,0.0,0.0,0.0, 15:32:24.280
68530.109375, 59586.218750, 111639.070313, 98536.765625, 126102.750000, 101015.781250, 91728.562500, 123434.085938, 0.000, 0.000, 0.000,0.0,0.0,0.0,0.0,0.0, 15:32:24.280
68496.804688, 59557.539063, 111664.257813, 98574.296875, 126058.109375, 100948.453125, 91742.890625, 123388.460938, 0.000, 0.000, 0.000,0.0,0.0,0.0,0.0,0.0, 15:32:24.281
68621.304688, 59667.175781, 111618.843750, 98387.992188, 126161.781250, 100916.984375, 91698.835938, 123477.312500, 0.000, 0.000, 0.000,0.0,0.0,0.0,0.0,0.0, 15:32:24.281
68678.679688, 59720.058594, 111579.320313, 98325.609375, 126231.742188, 100987.882813, 91686.609375, 123535.898438, 0.000, 0.000, 0.000,0.0,0.0,0.0,0.0,0.0, 15:32:24.282
68574.609375, 59614.960938, 111621.140625, 98499.843750, 126130.781250, 101014.148438, 91731.312500, 123437.281250, 0.000, 0.000, 0.000,0.0,0.0,0.0,0.0,0.0, 15:32:24.282
68484.539063, 59530.113281, 111660.679688, 98580.625000, 126047.609375, 100938.593750, 91754.820313, 123366.742188, 0.000, 0.000, 0.000,0.0,0.0,0.0,0.0,0.0, 15:32:24.283
68553.851563, 59601.281250, 111627.109375, 98416.226563, 126125.304688, 100905.335938, 91713.320313, 123446.179688, 0.000, 0.000, 0.000,0.0,0.0,0.0,0.0,0.0, 15:32:24.283
68651.859375, 59700.523438, 111590.609375, 98312.804688, 126220.250000, 100964.929688, 91692.015625, 123526.085938, 0.088, 0.194, 0.970,0.0,0.0,0.0,0.0,0.0, 15:32:24.283
68573.140625, 59616.636719, 111600.375000, 98457.062500, 126150.718750, 101015.976563, 91726.148438, 123451.164063, 0.000, 0.000, 0.000,0.0,0.0,0.0,0.0,0.0, 15:32:24.284
68512.382813, 59551.347656, 111652.281250, 98592.757813, 126073.578125, 100969.062500, 91773.171875, 123389.265625, 0.000, 0.000, 0.000,0.0,0.0,0.0,0.0,0.0, 15:32:24.284
68558.382813, 59601.730469, 111635.585938, 98462.468750, 126122.593750, 100910.390625, 91741.546875, 123433.171875, 0.000, 0.000, 0.000,0.0,0.0,0.0,0.0,0.0, 15:32:24.286
68622.554688, 59663.867188, 111571.882813, 98299.523438, 126210.687500, 100931.242188, 91680.570313, 123498.148438, 0.000, 0.000, 0.000,0.0,0.0,0.0,0.0,0.0, 15:32:24.286
68565.492188, 59602.109375, 111581.046875, 98405.718750, 126145.773438, 100983.281250, 91705.851563, 123458.109375, 0.000, 0.000, 0.000,0.0,0.0,0.0,0.0,0.0, 15:32:24.286
68492.914063, 59530.582031, 111655.406250, 98584.937500, 126057.820313, 100976.125000, 91765.554688, 123379.257813, 0.000, 0.000, 0.000,0.0,0.0,0.0,0.0,0.0, 15:32:24.287
68534.179688, 59549.156250, 111659.164063, 98492.781250, 126091.218750, 100903.351563, 91750.937500, 123385.695313, 0.000, 0.000, 0.000,0.0,0.0,0.0,0.0,0.0, 15:32:24.287
68597.164063, 59634.832031, 111597.718750, 98293.515625, 126185.296875, 100904.843750, 91693.382813, 123475.953125, 0.000, 0.000, 0.000,0.0,0.0,0.0,0.0,0.0, 15:32:24.287
68610.507813, 59646.855469, 111577.156250, 98367.859375, 126177.984375, 100978.492188, 91712.890625, 123464.687500, 0.000, 0.000, 0.000,0.0,0.0,0.0,0.0,0.0, 15:32:24.288
68513.929688, 59559.148438, 111644.859375, 98571.078125, 126071.187500, 100977.335938, 91770.718750, 123377.734375, 0.100, 0.200, 0.964,0.0,0.0,0.0,0.0,0.0, 15:32:24.289
68515.335938, 59552.128906, 111663.187500, 98529.304688, 126077.265625, 100915.085938, 91768.484375, 123383.054688, 0.000, 0.000, 0.000,0.0,0.0,0.0,0.0,0.0, 15:32:24.290
68635.234375, 59668.359375, 111607.640625, 98338.148438, 126199.460938, 100919.687500, 91726.679688, 123482.875000, 0.000, 0.000, 0.000,0.0,0.0,0.0,0.0,0.0, 15:32:24.290
68633.734375, 59680.988281, 111591.507813, 98363.500000, 126189.812500, 100985.890625, 91723.421875, 123473.867188, 0.000, 0.000, 0.000,0.0,0.0,0.0,0.0,0.0, 15:32:24.291
68541.890625, 59591.312500, 111643.296875, 98560.437500, 126097.406250, 100986.429688, 91779.523438, 123403.617188, 0.000, 0.000, 0.000,0.0,0.0,0.0,0.0,0.0, 15:32:24.291
68533.398438, 59570.101563, 111682.585938, 98578.718750, 126101.562500, 100949.570313, 91810.476563, 123401.406250, 0.000, 0.000, 0.000,0.0,0.0,0.0,0.0,0.0, 15:32:24.291
68612.343750, 59651.171875, 111624.984375, 98370.875000, 126177.070313, 100915.906250, 91747.601563, 123464.148438, 0.000, 0.000, 0.000,0.0,0.0,0.0,0.0,0.0, 15:32:24.292
68661.515625, 59702.937500, 111596.710938, 98345.328125, 126204.382813, 100980.953125, 91727.289063, 123490.789063, 0.000, 0.000, 0.000,0.0,0.0,0.0,0.0,0.0, 15:32:24.292
68601.679688, 59623.945313, 111649.554688, 98549.218750, 126151.656250, 101044.054688, 91808.023438, 123457.640625, 0.000, 0.000, 0.000,0.0,0.0,0.0,0.0,0.0, 15:32:24.293
68517.234375, 59538.093750, 111680.304688, 98587.773438, 126085.468750, 100947.671875, 91811.265625, 123380.554688, 0.102, 0.202, 0.954,0.0,0.0,0.0,0.0,0.0, 15:32:24.293
68567.351563, 59611.832031, 111630.843750, 98392.242188, 126156.929688, 100902.187500, 91757.796875, 123453.125000, 0.000, 0.000, 0.000,0.0,0.0,0.0,0.0,0.0, 15:32:24.294
68648.687500, 59685.683594, 111602.125000, 98321.562500, 126231.492188, 100979.414063, 91745.437500, 123529.390625, 0.000, 0.000, 0.000,0.0,0.0,0.0,0.0,0.0, 15:32:24.294
68576.109375, 59617.554688, 111621.679688, 98488.507813, 126150.132813, 101013.500000, 91781.195313, 123459.320313, 0.000, 0.000, 0.000,0.0,0.0,0.0,0.0,0.0, 15:32:24.294
68455.476563, 59483.933594, 111651.117188, 98564.867188, 126046.578125, 100930.171875, 91785.109375, 123351.406250, 0.000, 0.000, 0.000,0.0,0.0,0.0,0.0,0.0, 15:32:24.721
68540.859375, 59572.582031, 111643.585938, 98419.171875, 126122.421875, 100893.085938, 91760.476563, 123415.554688, 0.000, 0.000, 0.000,0.0,0.0,0.0,0.0,0.0, 15:32:24.721
68621.085938, 59654.792969, 111598.835938, 98292.578125, 126198.031250, 100941.679688, 91724.585938, 123501.968750, 0.000, 0.000, 0.000,0.0,0.0,0.0,0.0,0.0, 15:32:24.722
68544.328125, 59579.488281, 111613.406250, 98421.500000, 126137.460938, 100990.031250, 91751.273438, 123446.734375, 0.000, 0.000, 0.000,0.0,0.0,0.0,0.0,0.0, 15:32:24.722
68465.335938, 59510.488281, 111655.789063, 98553.601563, 126041.351563, 100936.585938, 91771.585938, 123338.664063, 0.000, 0.000, 0.000,0.0,0.0,0.0,0.0,0.0, 15:32:24.723
68511.468750, 59554.210938, 111644.882813, 98434.796875, 126096.156250, 100877.039063, 91748.562500, 123369.687500, 0.000, 0.000, 0.000,0.0,0.0,0.0,0.0,0.0, 15:32:24.723
68609.437500, 59645.226563, 111580.507813, 98271.656250, 126205.703125, 100919.617188, 91717.992188, 123476.640625, 0.096, 0.216, 0.960,0.0,0.0,0.0,0.0,0.0, 15:32:24.723
68557.242188, 59587.714844, 111576.773438, 98367.164063, 126154.179688, 100975.429688, 91734.953125, 123439.093750, 0.000, 0.000, 0.000,0.0,0.0,0.0,0.0,0.0, 15:32:24.724
68466.539063, 59495.894531, 111636.562500, 98542.445313, 126064.171875, 100954.984375, 91784.640625, 123358.867188, 0.000, 0.000, 0.000,0.0,0.0,0.0,0.0,0.0, 15:32:24.725
68482.390625, 59518.511719, 111653.757813, 98471.859375, 126072.351563, 100884.859375, 91766.781250, 123362.718750, 0.000, 0.000, 0.000,0.0,0.0,0.0,0.0,0.0, 15:32:24.726
68599.421875, 59628.640625, 111605.070313, 98291.437500, 126190.343750, 100905.335938, 91728.960938, 123465.242188, 0.000, 0.000, 0.000,0.0,0.0,0.0,0.0,0.0, 15:32:24.727
68577.070313, 59605.527344, 111586.320313, 98336.429688, 126174.453125, 100965.304688, 91735.445313, 123453.757813, 0.000, 0.000, 0.000,0.0,0.0,0.0,0.0,0.0, 15:32:24.727
68479.531250, 59510.734375, 111634.734375, 98521.773438, 126062.585938, 100956.968750, 91769.015625, 123357.351563, 0.000, 0.000, 0.000,0.0,0.0,0.0,0.0,0.0, 15:32:24.727
68475.664063, 59502.777344, 111652.078125, 98493.140625, 126052.679688, 100897.046875, 91759.226563, 123354.218750, 0.000, 0.000, 0.000,0.0,0.0,0.0,0.0,0.0, 15:32:24.727
68570.140625, 59605.195313, 111592.687500, 98296.039063, 126169.710938, 100898.695313, 91721.609375, 123456.812500, 0.000, 0.000, 0.000,0.0,0.0,0.0,0.0,0.0, 15:32:24.728
68593.765625, 59628.664063, 111578.500000, 98311.437500, 126204.781250, 100975.250000, 91741.546875, 123488.937500, 0.110, 0.236, 0.958,0.0,0.0,0.0,0.0,0.0, 15:32:24.728
68512.343750, 59546.207031, 111634.351563, 98510.976563, 126108.984375, 100992.757813, 91789.179688, 123408.265625, 0.000, 0.000, 0.000,0.0,0.0,0.0,0.0,0.0, 15:32:24.729
68467.078125, 59501.214844, 111644.609375, 98517.632813, 126064.195313, 100922.703125, 91777.867188, 123364.953125, 0.000, 0.000, 0.000,0.0,0.0,0.0,0.0,0.0, 15:32:24.729
68559.796875, 59594.421875, 111589.226563, 98329.054688, 126166.093750, 100906.765625, 91736.007813, 123449.351563, 0.000, 0.000, 0.000,0.0,0.0,0.0,0.0,0.0, 15:32:24.730
68594.507813, 59628.640625, 111557.125000, 98285.468750, 126197.070313, 100963.992188, 91720.804688, 123484.976563, 0.000, 0.000, 0.000,0.0,0.0,0.0,0.0,0.0, 15:32:24.730
68523.070313, 59556.468750, 111598.765625, 98473.062500, 126115.937500, 100990.632813, 91769.460938, 123412.093750, 0.000, 0.000, 0.000,0.0,0.0,0.0,0.0,0.0, 15:32:24.730
68465.984375, 59498.531250, 111656.031250, 98548.437500, 126058.851563, 100930.843750, 91794.210938, 123360.414063, 0.000, 0.000, 0.000,0.0,0.0,0.0,0.0,0.0, 15:32:24.731
68543.632813, 59574.972656, 111619.937500, 98369.734375, 126139.226563, 100896.929688, 91760.296875, 123429.320313, 0.000, 0.000, 0.000,0.0,0.0,0.0,0.0,0.0, 15:32:24.731
68616.632813, 59651.148438, 111577.710938, 98280.351563, 126213.234375, 100956.765625, 91735.828125, 123493.023438, 0.000, 0.000, 0.000,0.0,0.0,0.0,0.0,0.0, 15:32:24.731
68532.437500, 59567.820313, 111610.187500, 98438.421875, 126126.710938, 100988.421875, 91759.921875, 123421.007813, 0.000, 0.000, 0.000,0.0,0.0,0.0,0.0,0.0, 15:32:24.732
68475.546875, 59506.734375, 111663.429688, 98553.460938, 126061.242188, 100939.554688, 91786.453125, 123349.593750, 0.116, 0.248, 0.966,0.0,0.0,0.0,0.0,0.0, 15:32:24.732
68520.320313, 59553.179688, 111640.523438, 98405.046875, 126117.906250, 100888.304688, 91752.429688, 123394.859375, 0.000, 0.000, 0.000,0.0,0.0,0.0,0.0,0.0, 15:32:24.733
68581.031250, 59620.078125, 111593.875000, 98264.679688, 126194.304688, 100929.882813, 91721.562500, 123479.968750, 0.000, 0.000, 0.000,0.0,0.0,0.0,0.0,0.0, 15:32:24.733
68544.039063, 59580.382813, 111604.937500, 98393.671875, 126147.031250, 100988.687500, 91745.953125, 123444.632813, 0.000, 0.000, 0.000,0.0,0.0,0.0,0.0,0.0, 15:32:24.733
68455.835938, 59490.058594, 111666.226563, 98544.031250, 126039.601563, 100950.015625, 91772.546875, 123354.000000, 0.000, 0.000, 0.000,0.0,0.0,0.0,0.0,0.0, 15:32:24.734
68504.273438, 59541.042969, 111654.085938, 98437.078125, 126091.351563, 100901.226563, 91757.726563, 123392.289063, 0.000, 0.000, 0.000,0.0,0.0,0.0,0.0,0.0, 15:32:24.734
68598.640625, 59638.585938, 111586.500000, 98269.750000, 126197.429688, 100935.867188, 91721.296875, 123488.265625, 0.000, 0.000, 0.000,0.0,0.0,0.0,0.0,0.0, 15:32:24.734
68560.664063, 59603.585938, 111578.203125, 98358.734375, 126158.023438, 100991.882813, 91734.039063, 123460.437500, 0.000, 0.000, 0.000,0.0,0.0,0.0,0.0,0.0, 15:32:24.735
68476.734375, 59517.597656, 111634.578125, 98541.257813, 126066.562500, 100975.765625, 91769.265625, 123374.539063, 0.000, 0.000, 0.000,0.0,0.0,0.0,0.0,0.0, 15:32:24.735
68484.000000, 59523.855469, 111648.281250, 98477.265625, 126079.343750, 100910.007813, 91758.000000, 123376.531250, 0.118, 0.244, 0.970,0.0,0.0,0.0,0.0,0.0, 15:32:24.735
68587.976563, 59627.121094, 111590.117188, 98288.906250, 126197.320313, 100927.265625, 91728.765625, 123487.210938, 0.000, 0.000, 0.000,0.0,0.0,0.0,0.0,0.0, 15:32:24.736
68588.671875, 59622.425781, 111575.257813, 98336.500000, 126197.093750, 100997.765625, 91743.601563, 123494.476563, 0.000, 0.000, 0.000,0.0,0.0,0.0,0.0,0.0, 15:32:24.736
68491.937500, 59529.355469, 111632.656250, 98530.710938, 126079.460938, 100988.460938, 91773.062500, 123395.304688, 0.000, 0.000, 0.000,0.0,0.0,0.0,0.0,0.0, 15:32:24.737
68490.484375, 59521.441406, 111651.632813, 98513.453125, 126064.929688, 100915.531250, 91761.437500, 123371.140625, 0.000, 0.000, 0.000,0.0,0.0,0.0,0.0,0.0, 15:32:24.737
68576.625000, 59606.109375, 111593.203125, 98316.359375, 126163.054688, 100901.203125, 91719.421875, 123444.117188, 0.000, 0.000, 0.000,0.0,0.0,0.0,0.0,0.0, 15:32:24.737
68609.351563, 59642.476563, 111564.460938, 98314.257813, 126197.070313, 100975.570313, 91720.984375, 123485.203125, 0.000, 0.000, 0.000,0.0,0.0,0.0,0.0,0.0, 15:32:24.738
68516.789063, 59550.968750, 111613.250000, 98503.039063, 126096.023438, 100986.921875, 91752.921875, 123401.539063, 0.000, 0.000, 0.000,0.0,0.0,0.0,0.0,0.0, 15:32:24.738
68487.125000, 59523.429688, 111628.343750, 98526.734375, 126057.281250, 100922.414063, 91747.695313, 123361.734375, 0.000, 0.000, 0.000,0.0,0.0,0.0,0.0,0.0, 15:32:24.739
68572.515625, 59605.820313, 111558.539063, 98331.515625, 126152.750000, 100901.898438, 91709.023438, 123440.742188, 0.000, 0.000, 0.000,0.0,0.0,0.0,0.0,0.0, 15:32:24.739
68626.468750, 59654.011719, 111557.531250, 98297.312500, 126213.835938, 100976.390625, 91723.781250, 123499.773438, 0.126, 0.230, 0.972,0.0,0.0,0.0,0.0,0.0, 15:32:24.739
68542.492188, 59573.253906, 111593.117188, 98470.945313, 126124.164063, 100996.710938, 91752.054688, 123424.117188, 0.000, 0.000, 0.000,0.0,0.0,0.0,0.0,0.0, 15:32:24.740
68477.609375, 59512.078125, 111623.781250, 98546.046875, 126062.406250, 100937.945313, 91761.328125, 123360.882813, 0.000, 0.000, 0.000,0.0,0.0,0.0,0.0,0.0, 15:32:24.740
68548.148438, 59585.570313, 111583.859375, 98382.828125, 126142.109375, 100909.046875, 91735.984375, 123433.054688, 0.000, 0.000, 0.000,0.0,0.0,0.0,0.0,0.0, 15:32:24.740
68622.359375, 59664.222656, 111534.281250, 98285.890625, 126225.820313, 100973.039063, 91725.210938, 123516.875000, 0.000, 0.000, 0.000,0.0,0.0,0.0,0.0,0.0, 15:32:24.741
68546.179688, 59592.855469, 111559.656250, 98438.468750, 126128.812500, 101002.765625, 91734.554688, 123446.828125, 0.000, 0.000, 0.000,0.0,0.0,0.0,0.0,0.0, 15:32:24.741
68468.062500, 59508.925781, 111602.187500, 98552.390625, 126043.875000, 100949.570313, 91750.156250, 123366.562500, 0.000, 0.000, 0.000,0.0,0.0,0.0,0.0,0.0, 15:32:24.741
68530.421875, 59571.578125, 111580.710938, 98423.351563, 126116.023438, 100916.578125, 91739.242188, 123431.085938, 0.000, 0.000, 0.000,0.0,0.0,0.0,0.0,0.0, 15:32:24.742
68626.265625, 59663.488281, 111531.601563, 98286.539063, 126216.093750, 100957.375000, 91719.195313, 123507.109375, 0.000, 0.000, 0.000,0.0,0.0,0.0,0.0,0.0, 15:32:24.742
68563.328125, 59603.203125, 111547.671875, 98405.984375, 126160.640625, 101004.781250, 91745.703125, 123469.398438, 0.000, 0.000, 0.000,0.0,0.0,0.0,0.0,0.0, 15:32:24.742
68481.296875, 59520.457031, 111612.671875, 98566.320313, 126066.226563, 100967.296875, 91776.843750, 123376.281250, 0.132, 0.206, 0.968,0.0,0.0,0.0,0.0,0.0, 15:32:24.743
68521.375000, 59557.851563, 111600.625000, 98464.171875, 126100.890625, 100913.250000, 91756.679688, 123405.250000, 0.000, 0.000, 0.000,0.0,0.0,0.0,0.0,0.0, 15:32:24.743
68610.890625, 59643.660156, 111535.671875, 98280.750000, 126199.937500, 100940.828125, 91718.460938, 123503.265625, 0.000, 0.000, 0.000,0.0,0.0,0.0,0.0,0.0, 15:32:24.743
68576.085938, 59614.492188, 111529.054688, 98350.781250, 126167.882813, 100995.976563, 91718.726563, 123472.750000, 0.000, 0.000, 0.000,0.0,0.0,0.0,0.0,0.0, 15:32:24.744
68489.226563, 59530.425781, 111584.601563, 98529.031250, 126063.968750, 100968.812500, 91745.171875, 123370.289063, 0.000, 0.000, 0.000,0.0,0.0,0.0,0.0,0.0, 15:32:24.744
68520.921875, 59556.644531, 111597.250000, 98489.937500, 126109.234375, 100933.789063, 91769.687500, 123417.164063, 0.000, 0.000, 0.000,0.0,0.0,0.0,0.0,0.0, 15:32:24.744
68613.351563, 59650.523438, 111545.328125, 98304.710938, 126213.390625, 100946.132813, 91739.937500, 123505.765625, 0.000, 0.000, 0.000,0.0,0.0,0.0,0.0,0.0, 15:32:24.744
68605.835938, 59642.429688, 111523.171875, 98329.570313, 126208.140625, 101006.609375, 91735.062500, 123506.328125, 0.000, 0.000, 0.000,0.0,0.0,0.0,0.0,0.0, 15:32:24.745
68491.132813, 59529.085938, 111569.421875, 98510.750000, 126096.312500, 100993.601563, 91761.101563, 123401.453125, 0.000, 0.000, 0.000,0.0,0.0,0.0,0.0,0.0, 15:32:24.745
68493.210938, 59535.746094, 111580.437500, 98505.117188, 126077.445313, 100926.281250, 91746.351563, 123372.039063, 0.120, 0.206, 0.962,0.0,0.0,0.0,0.0,0.0, 15:32:24.745
68615.429688, 59655.933594, 111532.250000, 98326.015625, 126187.195313, 100928.828125, 91722.234375, 123480.554688, 0.000, 0.000, 0.000,0.0,0.0,0.0,0.0,0.0, 15:32:24.746
68642.000000, 59683.289063, 111514.054688, 98315.421875, 126238.242188, 101002.523438, 91739.398438, 123524.140625, 0.000, 0.000, 0.000,0.0,0.0,0.0,0.0,0.0, 15:32:24.746
68526.804688, 59573.296875, 111562.289063, 98495.882813, 126120.695313, 100999.687500, 91761.593750, 123421.945313, 0.000, 0.000, 0.000,0.0,0.0,0.0,0.0,0.0, 15:32:24.747
68499.421875, 59545.046875, 111586.320313, 98532.320313, 126064.929688, 100933.703125, 91753.929688, 123374.250000, 0.000, 0.000, 0.000,0.0,0.0,0.0,0.0,0.0, 15:32:24.748
68608.296875, 59649.808594, 111553.148438, 98367.382813, 126176.218750, 100927.015625, 91736.164063, 123467.921875, 0.000, 0.000, 0.000,0.0,0.0,0.0,0.0,0.0, 15:32:24.748
68651.234375, 59693.750000, 111518.593750, 98297.093750, 126233.351563, 100985.710938, 91725.945313, 123522.710938, 0.000, 0.000, 0.000,0.0,0.0,0.0,0.0,0.0, 15:32:24.749
68561.179688, 59603.250000, 111547.781250, 98460.617188, 126152.882813, 101015.304688, 91758.312500, 123457.421875, 0.000, 0.000, 0.000,0.0,0.0,0.0,0.0,0.0, 15:32:24.750
68501.593750, 59542.742188, 111597.539063, 98555.226563, 126086.765625, 100964.546875, 91777.015625, 123395.039063, 0.000, 0.000, 0.000,0.0,0.0,0.0,0.0,0.0, 15:32:24.750
68580.382813, 59620.929688, 111565.953125, 98399.015625, 126164.929688, 100929.742188, 91754.914063, 123457.109375, 0.000, 0.000, 0.000,0.0,0.0,0.0,0.0,0.0, 15:32:24.751
68651.078125, 59690.933594, 111519.398438, 98291.882813, 126253.625000, 100985.312500, 91742.710938, 123534.601563, 0.114, 0.222, 0.958,0.0,0.0,0.0,0.0,0.0, 15:32:24.752
68577.765625, 59620.570313, 111546.156250, 98434.773438, 126169.023438, 101024.046875, 91760.523438, 123477.046875, 0.000, 0.000, 0.000,0.0,0.0,0.0,0.0,0.0, 15:32:24.752
68506.062500, 59550.789063, 111588.218750, 98561.664063, 126081.578125, 100981.578125, 91773.062500, 123401.046875, 0.000, 0.000, 0.000,0.0,0.0,0.0,0.0,0.0, 15:32:24.753
68551.210938, 59601.328125, 111552.007813, 98429.437500, 126142.039063, 100938.773438, 91748.054688, 123439.648438, 0.000, 0.000, 0.000,0.0,0.0,0.0,0.0,0.0, 15:32:24.753
68622.156250, 59674.484375, 111503.640625, 98285.085938, 126230.601563, 100976.328125, 91725.226563, 123524.453125, 0.000, 0.000, 0.000,0.0,0.0,0.0,0.0,0.0, 15:32:24.754
68590.640625, 59642.453125, 111520.468750, 98402.945313, 126198.640625, 101031.421875, 91751.250000, 123499.484375, 0.000, 0.000, 0.000,0.0,0.0,0.0,0.0,0.0, 15:32:24.757
68513.812500, 59557.941406, 111578.406250, 98568.242188, 126115.109375, 101001.468750, 91789.562500, 123413.875000, 0.000, 0.000, 0.000,0.0,0.0,0.0,0.0,0.0, 15:32:24.757
68549.937500, 59591.605469, 111586.585938, 98484.890625, 126140.187500, 100942.601563, 91778.093750, 123428.382813, 0.000, 0.000, 0.000,0.0,0.0,0.0,0.0,0.0, 15:32:24.757
68645.578125, 59689.953125, 111533.906250, 98312.046875, 126242.359375, 100966.890625, 91745.835938, 123525.328125, 0.000, 0.000, 0.000,0.0,0.0,0.0,0.0,0.0, 15:32:24.758
68613.460938, 59659.441406, 111533.789063, 98381.695313, 126218.554688, 101028.359375, 91765.218750, 123522.484375, 0.114, 0.230, 0.950,0.0,0.0,0.0,0.0,0.0, 15:32:24.761
68524.609375, 59573.410156, 111591.437500, 98568.593750, 126122.554688, 101015.796875, 91800.062500, 123434.781250, 0.000, 0.000, 0.000,0.0,0.0,0.0,0.0,0.0, 15:32:24.762
68530.960938, 59577.542969, 111601.335938, 98529.656250, 126129.343750, 100954.687500, 91790.164063, 123430.867188, 0.000, 0.000, 0.000,0.0,0.0,0.0,0.0,0.0, 15:32:24.762
68633.109375, 59682.218750, 111545.460938, 98342.687500, 126230.179688, 100960.367188, 91748.476563, 123515.515625, 0.000, 0.000, 0.000,0.0,0.0,0.0,0.0,0.0, 15:32:24.762
68639.187500, 59686.085938, 111534.617188, 98364.906250, 126249.507813, 101032.164063, 91764.125000, 123544.617188, 0.000, 0.000, 0.000,0.0,0.0,0.0,0.0,0.0, 15:32:24.763
68534.734375, 59583.156250, 111585.914063, 98550.492188, 126142.984375, 101031.601563, 91794.835938, 123455.046875, 0.000, 0.000, 0.000,0.0,0.0,0.0,0.0,0.0, 15:32:24.763
68497.898438, 59547.929688, 111601.023438, 98544.164063, 126102.929688, 100960.390625, 91774.937500, 123417.585938, 0.000, 0.000, 0.000,0.0,0.0,0.0,0.0,0.0, 15:32:24.764
68597.992188, 59647.683594, 111542.953125, 98352.859375, 126215.539063, 100958.710938, 91745.882813, 123508.156250, 0.000, 0.000, 0.000,0.0,0.0,0.0,0.0,0.0, 15:32:24.764
68644.039063, 59688.855469, 111525.343750, 98332.851563, 126270.992188, 101035.937500, 91759.851563, 123561.085938, 0.000, 0.000, 0.000,0.0,0.0,0.0,0.0,0.0, 15:32:24.764
68549.984375, 59599.250000, 111568.546875, 98515.289063, 126170.945313, 101045.726563, 91790.992188, 123476.796875, 0.000, 0.000, 0.000,0.0,0.0,0.0,0.0,0.0, 15:32:24.765
68522.351563, 59570.726563, 111600.132813, 98575.523438, 126128.968750, 100992.421875, 91799.906250, 123437.546875, 0.128, 0.240, 0.952,0.0,0.0,0.0,0.0,0.0, 15:32:24.765
68589.562500, 59637.804688, 111547.250000, 98393.179688, 126209.367188, 100967.875000, 91758.843750, 123506.859375, 0.000, 0.000, 0.000,0.0,0.0,0.0,0.0,0.0, 15:32:24.765
68643.929688, 59692.945313, 111513.656250, 98319.640625, 126268.351563, 101024.539063, 91748.031250, 123565.179688, 0.000, 0.000, 0.000,0.0,0.0,0.0,0.0,0.0, 15:32:24.765
68572.289063, 59623.699219, 111552.968750, 98487.414063, 126186.031250, 101051.960938, 91776.195313, 123497.226563, 0.000, 0.000, 0.000,0.0,0.0,0.0,0.0,0.0, 15:32:24.765
68508.453125, 59558.164063, 111592.601563, 98580.843750, 126124.500000, 101003.640625, 91793.757813, 123436.812500, 0.000, 0.000, 0.000,0.0,0.0,0.0,0.0,0.0, 15:32:24.765
68586.054688, 59630.292969, 111564.640625, 98433.570313, 126202.593750, 100971.453125, 91778.023438, 123496.914063, 0.000, 0.000, 0.000,0.0,0.0,0.0,0.0,0.0, 15:32:24.766
68658.898438, 59706.402344, 111527.242188, 98318.257813, 126275.664063, 101010.750000, 91756.453125, 123565.648438, 0.000, 0.000, 0.000,0.0,0.0,0.0,0.0,0.0, 15:32:24.766
68607.492188, 59658.906250, 111539.312500, 98458.023438, 126225.031250, 101062.851563, 91777.867188, 123525.101563, 0.000, 0.000, 0.000,0.0,0.0,0.0,0.0,0.0, 15:32:24.766
68514.265625, 59567.597656, 111605.515625, 98605.406250, 126128.070313, 101025.234375, 91803.507813, 123439.273438, 0.000, 0.000, 0.000,0.0,0.0,0.0,0.0,0.0, 15:32:24.766
68560.398438, 59612.257813, 111572.953125, 98478.140625, 126172.304688, 100975.765625, 91772.210938, 123475.414063, 0.130, 0.244, 0.946,0.0,0.0,0.0,0.0,0.0, 15:32:24.767
68653.695313, 59703.140625, 111512.984375, 98325.234375, 126279.039063, 101014.812500, 91750.312500, 123569.804688, 0.000, 0.000, 0.000,0.0,0.0,0.0,0.0,0.0, 15:32:24.768
68612.742188, 59662.859375, 111543.023438, 98436.406250, 126240.570313, 101068.078125, 91777.421875, 123534.218750, 0.000, 0.000, 0.000,0.0,0.0,0.0,0.0,0.0, 15:32:24.772
68521.882813, 59574.011719, 111617.882813, 98608.046875, 126135.671875, 101035.960938, 91806.726563, 123441.703125, 0.000, 0.000, 0.000,0.0,0.0,0.0,0.0,0.0, 15:32:24.772
68549.757813, 59602.175781, 111605.656250, 98523.492188, 126156.570313, 100978.898438, 91786.226563, 123460.101563, 0.000, 0.000, 0.000,0.0,0.0,0.0,0.0,0.0, 15:32:24.773
68642.296875, 59697.796875, 111529.007813, 98332.585938, 126260.125000, 100995.726563, 91746.617188, 123553.867188, 0.000, 0.000, 0.000,0.0,0.0,0.0,0.0,0.0, 15:32:24.773
68625.593750, 59682.976563, 111528.000000, 98394.523438, 126244.367188, 101057.265625, 91755.179688, 123550.156250, 0.000, 0.000, 0.000,0.0,0.0,0.0,0.0,0.0, 15:32:24.773
68517.281250, 59576.695313, 111599.218750, 98581.765625, 126133.773438, 101035.156250, 91787.968750, 123445.460938, 0.000, 0.000, 0.000,0.0,0.0,0.0,0.0,0.0, 15:32:24.773
68523.453125, 59580.832031, 111614.351563, 98548.304688, 126140.054688, 100974.492188, 91782.117188, 123436.875000, 0.000, 0.000, 0.000,0.0,0.0,0.0,0.0,0.0, 15:32:24.774
68622.398438, 59680.207031, 111550.984375, 98352.726563, 126248.210938, 100982.429688, 91750.710938, 123536.296875, 0.000, 0.000, 0.000,0.0,0.0,0.0,0.0,0.0, 15:32:24.774
68643.390625, 59699.226563, 111534.507813, 98366.156250, 126266.765625, 101055.898438, 91761.437500, 123562.273438, 0.130, 0.244, 0.952,0.0,0.0,0.0,0.0,0.0, 15:32:24.774
68545.242188, 59600.812500, 111587.835938, 98554.898438, 126161.554688, 101055.140625, 91795.031250, 123469.132813, 0.000, 0.000, 0.000,0.0,0.0,0.0,0.0,0.0, 15:32:24.774
68515.742188, 59571.062500, 111615.867188, 98574.523438, 126125.679688, 100990.539063, 91794.523438, 123437.281250, 0.000, 0.000, 0.000,0.0,0.0,0.0,0.0,0.0, 15:32:24.775
68611.601563, 59665.343750, 111563.523438, 98389.109375, 126229.507813, 100980.664063, 91764.281250, 123521.054688, 0.000, 0.000, 0.000,0.0,0.0,0.0,0.0,0.0, 15:32:24.775
68634.406250, 59688.476563, 111532.500000, 98344.070313, 126257.468750, 101034.304688, 91752.765625, 123554.273438, 0.000, 0.000, 0.000,0.0,0.0,0.0,0.0,0.0, 15:32:24.775
68567.054688, 59624.238281, 111560.570313, 98522.906250, 126176.398438, 101059.273438, 91785.000000, 123488.890625, 0.000, 0.000, 0.000,0.0,0.0,0.0,0.0,0.0, 15:32:24.776
68512.500000, 59570.480469, 111601.179688, 98596.179688, 126117.835938, 101004.195313, 91800.312500, 123438.601563, 0.000, 0.000, 0.000,0.0,0.0,0.0,0.0,0.0, 15:32:24.776
68591.289063, 59652.000000, 111548.835938, 98419.132813, 126208.718750, 100980.726563, 91775.742188, 123521.523438, 0.000, 0.000, 0.000,0.0,0.0,0.0,0.0,0.0, 15:32:24.776
68665.609375, 59722.742188, 111500.648438, 98330.304688, 126286.726563, 101041.929688, 91764.546875, 123587.726563, 0.000, 0.000, 0.000,0.0,0.0,0.0,0.0,0.0, 15:32:24.776
68592.492188, 59646.164063, 111535.804688, 98490.765625, 126196.468750, 101065.664063, 91780.687500, 123502.304688, 0.000, 0.000, 0.000,0.0,0.0,0.0,0.0,0.0, 15:32:24.930
68513.929688, 59571.242188, 111586.968750, 98599.375000, 126115.531250, 101010.390625, 91793.445313, 123423.937500, 0.130, 0.244, 0.952,0.0,0.0,0.0,0.0,0.0, 15:32:24.931
68567.640625, 59627.968750, 111545.195313, 98441.570313, 126181.609375, 100963.500000, 91762.625000, 123474.539063, 0.000, 0.000, 0.000,0.0,0.0,0.0,0.0,0.0, 15:32:24.931
68658.656250, 59719.164063, 111477.242188, 98306.101563, 126283.773438, 101019.734375, 91747.000000, 123573.046875, 0.000, 0.000, 0.000,0.0,0.0,0.0,0.0,0.0, 15:32:24.931
68599.335938, 59662.054688, 111496.843750, 98437.929688, 126218.976563, 101070.406250, 91772.617188, 123524.406250, 0.000, 0.000, 0.000,0.0,0.0,0.0,0.0,0.0, 15:32:24.932
68514.484375, 59576.382813, 111558.445313, 98585.960938, 126123.710938, 101035.734375, 91794.968750, 123436.656250, 0.000, 0.000, 0.000,0.0,0.0,0.0,0.0,0.0, 15:32:24.932
68551.929688, 59614.089844, 111530.710938, 98470.203125, 126165.132813, 100984.664063, 91765.843750, 123468.062500, 0.000, 0.000, 0.000,0.0,0.0,0.0,0.0,0.0, 15:32:24.932
68646.429688, 59709.488281, 111454.554688, 98302.250000, 126269.562500, 101017.093750, 91731.351563, 123560.726563, 0.000, 0.000, 0.000,0.0,0.0,0.0,0.0,0.0, 15:32:24.933
68622.156250, 59685.414063, 111473.039063, 98407.750000, 126240.570313, 101078.812500, 91759.585938, 123539.070313, 0.000, 0.000, 0.000,0.0,0.0,0.0,0.0,0.0, 15:32:24.933
68526.023438, 59589.859375, 111540.031250, 98583.976563, 126132.367188, 101052.789063, 91791.593750, 123445.351563, 0.000, 0.000, 0.000,0.0,0.0,0.0,0.0,0.0, 15:32:24.933
68539.703125, 59603.742188, 111533.968750, 98515.625000, 126150.734375, 100992.531250, 91780.328125, 123453.421875, 0.128, 0.244, 0.946,0.0,0.0,0.0,0.0,0.0, 15:32:24.933
68648.062500, 59707.117188, 111474.625000, 98336.093750, 126262.226563, 101013.585938, 91749.257813, 123552.640625, 0.000, 0.000, 0.000,0.0,0.0,0.0,0.0,0.0, 15:32:24.933
68635.296875, 59694.937500, 111483.882813, 98389.070313, 126239.812500, 101071.992188, 91755.406250, 123544.656250, 0.000, 0.000, 0.000,0.0,0.0,0.0,0.0,0.0, 15:32:24.933
68538.984375, 59600.007813, 111548.968750, 98579.390625, 126141.773438, 101060.148438, 91791.703125, 123454.562500, 0.000, 0.000, 0.000,0.0,0.0,0.0,0.0,0.0, 15:32:24.934
68527.000000, 59590.574219, 111568.640625, 98560.726563, 126128.210938, 100994.296875, 91790.093750, 123437.437500, 0.000, 0.000, 0.000,0.0,0.0,0.0,0.0,0.0, 15:32:24.934
68618.671875, 59687.468750, 111507.437500, 98368.882813, 126224.742188, 100990.968750, 91749.234375, 123524.031250, 0.000, 0.000, 0.000,0.0,0.0,0.0,0.0,0.0, 15:32:24.934
68642.921875, 59706.445313, 111503.101563, 98372.617188, 126249.578125, 101054.218750, 91756.968750, 123547.968750, 0.000, 0.000, 0.000,0.0,0.0,0.0,0.0,0.0, 15:32:24.935
68552.734375, 59612.277344, 111561.171875, 98557.351563, 126145.085938, 101055.632813, 91786.343750, 123454.445313, 0.000, 0.000, 0.000,0.0,0.0,0.0,0.0,0.0, 15:32:24.935
68518.312500, 59579.308594, 111581.710938, 98577.914063, 126104.625000, 100990.789063, 91782.695313, 123411.781250, 0.000, 0.000, 0.000,0.0,0.0,0.0,0.0,0.0, 15:32:24.935
68614.289063, 59675.445313, 111512.132813, 98385.000000, 126206.234375, 100979.906250, 91747.203125, 123500.046875, 0.000, 0.000, 0.000,0.0,0.0,0.0,0.0,0.0, 15:32:24.936
68665.695313, 59726.472656, 111480.906250, 98340.046875, 126264.929688, 101048.968750, 91746.375000, 123558.406250, 0.134, 0.246, 0.944,0.0,0.0,0.0,0.0,0.0, 15:32:24.936
68585.789063, 59650.746094, 111527.687500, 98524.828125, 126175.281250, 101074.156250, 91778.312500, 123481.781250, 0.000, 0.000, 0.000,0.0,0.0,0.0,0.0,0.0, 15:32:24.937
68526.109375, 59595.539063, 111571.367188, 98604.093750, 126107.820313, 101012.156250, 91786.695313, 123415.468750, 0.000, 0.000, 0.000,0.0,0.0,0.0,0.0,0.0, 15:32:24.937
68597.187500, 59663.152344, 111538.734375, 98436.250000, 126181.312500, 100975.273438, 91755.203125, 123477.445313, 0.000, 0.000, 0.000,0.0,0.0,0.0,0.0,0.0, 15:32:24.937
68663.640625, 59729.023438, 111497.492188, 98336.671875, 126256.039063, 101034.554688, 91739.960938, 123553.976563, 0.000, 0.000, 0.000,0.0,0.0,0.0,0.0,0.0, 15:32:24.937
68597.437500, 59666.906250, 111520.671875, 98487.976563, 126189.203125, 101076.062500, 91765.281250, 123501.898438, 0.000, 0.000, 0.000,0.0,0.0,0.0,0.0,0.0, 15:32:24.938
68528.593750, 59596.968750, 111561.062500, 98609.570313, 126114.281250, 101031.398438, 91786.140625, 123428.359375, 0.000, 0.000, 0.000,0.0,0.0,0.0,0.0,0.0, 15:32:24.938
68573.164063, 59640.910156, 111540.320313, 98472.953125, 126163.031250, 100979.054688, 91755.648438, 123461.710938, 0.000, 0.000, 0.000,0.0,0.0,0.0,0.0,0.0, 15:32:24.938
68649.359375, 59718.941406, 111488.593750, 98330.437500, 126250.898438, 101014.125000, 91728.093750, 123543.429688, 0.000, 0.000, 0.000,0.0,0.0,0.0,0.0,0.0, 15:32:24.938
68606.578125, 59677.726563, 111504.804688, 98453.062500, 126205.453125, 101068.367188, 91754.421875, 123512.453125, 0.132, 0.248, 0.948,0.0,0.0,0.0,0.0,0.0, 15:32:24.939
68519.781250, 59593.480469, 111557.796875, 98606.531250, 126118.375000, 101034.195313, 91786.585938, 123426.437500, 0.000, 0.000, 0.000,0.0,0.0,0.0,0.0,0.0, 15:32:24.939
68548.015625, 59621.980469, 111547.742188, 98503.710938, 126145.015625, 100975.031250, 91764.460938, 123444.007813, 0.000, 0.000, 0.000,0.0,0.0,0.0,0.0,0.0, 15:32:24.939
68635.546875, 59707.230469, 111494.453125, 98329.656250, 126233.710938, 100993.937500, 91722.484375, 123528.812500, 0.000, 0.000, 0.000,0.0,0.0,0.0,0.0,0.0, 15:32:24.940
68618.687500, 59689.882813, 111498.703125, 98414.726563, 126221.460938, 101061.531250, 91742.148438, 123522.148438, 0.000, 0.000, 0.000,0.0,0.0,0.0,0.0,0.0, 15:32:24.940
68526.734375, 59599.160156, 111550.687500, 98592.109375, 126123.226563, 101040.453125, 91773.687500, 123429.187500, 0.000, 0.000, 0.000,0.0,0.0,0.0,0.0,0.0, 15:32:24.940
68540.148438, 59613.285156, 111544.656250, 98538.351563, 126139.179688, 100983.703125, 91762.984375, 123435.851563, 0.000, 0.000, 0.000,0.0,0.0,0.0,0.0,0.0, 15:32:24.940
68636.531250, 59706.960938, 111496.953125, 98356.296875, 126238.554688, 100986.515625, 91729.679688, 123526.687500, 0.000, 0.000, 0.000,0.0,0.0,0.0,0.0,0.0, 15:32:24.941
68645.109375, 59716.214844, 111479.921875, 98391.054688, 126249.601563, 101059.632813, 91743.085938, 123545.617188, 0.000, 0.000, 0.000,0.0,0.0,0.0,0.0,0.0, 15:32:24.941
68547.992188, 59621.175781, 111535.398438, 98582.609375, 126140.078125, 101055.179688, 91774.335938, 123453.867188, 0.000, 0.000, 0.000,0.0,0.0,0.0,0.0,0.0, 15:32:24.941
68531.382813, 59607.652344, 111544.859375, 98572.421875, 126120.296875, 100992.109375, 91763.695313, 123434.531250, 0.120, 0.234, 0.946,0.0,0.0,0.0,0.0,0.0, 15:32:24.941
68622.515625, 59694.175781, 111497.781250, 98385.578125, 126225.796875, 100984.257813, 91732.562500, 123520.945313, 0.000, 0.000, 0.000,0.0,0.0,0.0,0.0,0.0, 15:32:24.942
68650.609375, 59720.617188, 111479.570313, 98371.296875, 126261.109375, 101052.140625, 91734.820313, 123557.421875, 0.000, 0.000, 0.000,0.0,0.0,0.0,0.0,0.0, 15:32:24.942
68560.664063, 59630.875000, 111529.656250, 98560.039063, 126168.257813, 101066.539063, 91771.742188, 123474.695313, 0.000, 0.000, 0.000,0.0,0.0,0.0,0.0,0.0, 15:32:24.942
68511.468750, 59579.734375, 111561.929688, 98601.546875, 126113.296875, 100998.164063, 91770.875000, 123421.765625, 0.000, 0.000, 0.000,0.0,0.0,0.0,0.0,0.0, 15:32:24.943
68599.984375, 59667.621094, 111511.062500, 98415.914063, 126203.445313, 100969.445313, 91731.984375, 123496.984375, 0.000, 0.000, 0.000,0.0,0.0,0.0,0.0,0.0, 15:32:24.943
68655.773438, 59720.527344, 111465.375000, 98347.312500, 126275.664063, 101035.132813, 91729.367188, 123563.835938, 0.000, 0.000, 0.000,0.0,0.0,0.0,0.0,0.0, 15:32:24.943
68570.546875, 59632.351563, 111513.453125, 98524.851563, 126184.445313, 101060.523438, 91764.343750, 123487.390625, 0.000, 0.000, 0.000,0.0,0.0,0.0,0.0,0.0, 15:32:24.943
68512.164063, 59573.273438, 111553.953125, 98612.117188, 126117.453125, 101004.085938, 91774.156250, 123421.390625, 0.000, 0.000, 0.000,0.0,0.0,0.0,0.0,0.0, 15:32:24.944
68590.039063, 59651.910156, 111507.484375, 98452.500000, 126203.039063, 100976.328125, 91744.679688, 123491.234375, 0.110, 0.238, 0.960,0.0,0.0,0.0,0.0,0.0, 15:32:24.944
68661.273438, 59724.214844, 111465.773438, 98344.140625, 126283.593750, 101031.132813, 91731.937500, 123566.226563, 0.000, 0.000, 0.000,0.0,0.0,0.0,0.0,0.0, 15:32:24.944
68591.960938, 59655.128906, 111491.484375, 98486.164063, 126209.679688, 101065.132813, 91759.117188, 123505.656250, 0.000, 0.000, 0.000,0.49296567,0.994567,0.91440254,0.52975756,0.3478666, 15:32:25.397
68520.093750, 59579.847656, 111540.093750, 98617.187500, 126127.625000, 101021.726563, 91778.765625, 123430.148438, 0.000, 0.000, 0.000,0.49296567,0.994567,0.91440254,0.52975756,0.3478666, 15:32:25.398
68570.726563, 59626.269531, 111526.929688, 98490.187500, 126182.273438, 100973.195313, 91759.023438, 123468.710938, 0.000, 0.000, 0.000,0.49296567,0.994567,0.91440254,0.52975756,0.3478666, 15:32:25.399
68653.226563, 59711.253906, 111472.664063, 98330.062500, 126276.710938, 101009.984375, 91731.507813, 123562.695313, 0.000, 0.000, 0.000,0.49296567,0.994567,0.91440254,0.52975756,0.3478666, 15:32:25.399
68617.101563, 59675.667969, 111468.953125, 98437.281250, 126240.187500, 101074.226563, 91754.375000, 123541.929688, 0.000, 0.000, 0.000,0.49296567,0.994567,0.91440254,0.52975756,0.3478666, 15:32:25.400
68515.203125, 59575.531250, 111528.851563, 98601.429688, 126133.351563, 101041.437500, 91783.679688, 123441.328125, 0.000, 0.000, 0.000,0.49296567,0.994567,0.91440254,0.52975756,0.3478666, 15:32:25.400
68542.984375, 59604.433594, 111521.968750, 98514.820313, 126159.031250, 100982.476563, 91761.929688, 123456.304688, 0.000, 0.000, 0.000,0.49296567,0.994567,0.91440254,0.52975756,0.3478666, 15:32:25.400
68644.398438, 59705.261719, 111460.476563, 98339.132813, 126269.226563, 101003.687500, 91728.921875, 123553.312500, 0.000, 0.000, 0.000,0.49296567,0.994567,0.91440254,0.52975756,0.3478666, 15:32:25.401
68627.945313, 59687.113281, 111465.617188, 98415.625000, 126255.187500, 101068.726563, 91747.898438, 123545.710938, 0.096, 0.224, 0.964,0.49296567,0.994567,0.91440254,0.52975756,0.3478666, 15:32:25.401
68533.218750, 59593.929688, 111513.117188, 98594.078125, 126152.367188, 101056.750000, 91780.101563, 123453.304688, 0.000, 0.000, 0.000,0.49296567,0.994567,0.91440254,0.52975756,0.3478666, 15:32:25.402
68523.273438, 59589.570313, 111517.718750, 98551.273438, 126144.125000, 100991.257813, 91767.296875, 123442.492188, 0.000, 0.000, 0.000,0.49296567,0.994567,0.91440254,0.52975756,0.3478666, 15:32:25.402
68624.234375, 59693.460938, 111453.437500, 98359.359375, 126246.265625, 100998.007813, 91725.679688, 123541.304688, 0.000, 0.000, 0.000,0.49296567,0.994567,0.91440254,0.52975756,0.3478666, 15:32:25.402
68628.593750, 59700.121094, 111448.070313, 98385.085938, 126254.960938, 101070.023438, 91739.867188, 123557.664063, 0.000, 0.000, 0.000,0.49296567,0.994567,0.91440254,0.52975756,0.3478666, 15:32:25.403
68520.031250, 59593.011719, 111512.046875, 98576.375000, 126144.656250, 101061.421875, 91777.109375, 123454.359375, 0.000, 0.000, 0.000,0.49296567,0.994567,0.91440254,0.52975756,0.3478666, 15:32:25.403
68501.414063, 59573.500000, 111525.117188, 98575.546875, 126118.171875, 100987.859375, 91771.140625, 123421.476563, 0.000, 0.000, 0.000,0.49296567,0.994567,0.91440254,0.52975756,0.3478666, 15:32:25.404
68607.851563, 59679.089844, 111456.570313, 98384.171875, 126226.242188, 100984.710938, 91728.609375, 123520.968750, 0.000, 0.000, 0.000,0.49296567,0.994567,0.91440254,0.52975756,0.3478666, 15:32:25.404
68639.656250, 59712.882813, 111436.742188, 98360.320313, 126264.953125, 101052.906250, 91730.796875, 123561.734375, 0.000, 0.000, 0.000,0.49296567,0.994567,0.91440254,0.52975756,0.3478666, 15:32:25.405
68545.015625, 59618.046875, 111494.070313, 98547.359375, 126161.062500, 101063.656250, 91761.218750, 123471.859375, 0.000, 0.000, 0.000,0.49296567,0.994567,0.91440254,0.52975756,0.3478666, 15:32:25.405
68497.078125, 59568.156250, 111532.585938, 98599.937500, 126108.023438, 100994.562500, 91763.765625, 123418.414063, 0.090, 0.228, 0.972,0.49296567,0.994567,0.91440254,0.52975756,0.3478666, 15:32:25.405
68586.617188, 59659.082031, 111467.226563, 98411.351563, 126207.179688, 100973.687500, 91725.656250, 123505.031250, 0.000, 0.000, 0.000,0.49296567,0.994567,0.91440254,0.52975756,0.3478666, 15:32:25.406
68654.812500, 59725.066406, 111420.289063, 98332.000000, 126282.257813, 101043.429688, 91717.632813, 123575.367188, 0.000, 0.000, 0.000,0.49296567,0.994567,0.91440254,0.52975756,0.3478666, 15:32:25.406
68573.296875, 59643.863281, 111458.039063, 98498.453125, 126196.937500, 101075.679688, 91748.429688, 123498.617188, 0.000, 0.000, 0.000,0.49296567,0.994567,0.91440254,0.52975756,0.3478666, 15:32:25.407
68494.101563, 59567.417969, 111516.156250, 98601.562500, 126115.781250, 101016.515625, 91765.171875, 123419.445313, 0.000, 0.000, 0.000,0.49296567,0.994567,0.91440254,0.52975756,0.3478666, 15:32:25.407
68558.250000, 59630.964844, 111483.054688, 98445.281250, 126186.968750, 100973.710938, 91735.242188, 123480.398438, 0.000, 0.000, 0.000,0.49296567,0.994567,0.91440254,0.52975756,0.3478666, 15:32:25.407
68640.234375, 59709.464844, 111427.398438, 98319.867188, 126278.906250, 101027.515625, 91716.601563, 123570.250000, 0.000, 0.000, 0.000,0.49296567,0.994567,0.91440254,0.52975756,0.3478666, 15:32:25.408
68577.382813, 59646.878906, 111463.968750, 98461.710938, 126212.765625, 101071.546875, 91752.656250, 123514.375000, 0.000, 0.000, 0.000,0.49296567,0.994567,0.91440254,0.52975756,0.3478666, 15:32:25.408
68492.984375, 59564.445313, 111513.851563, 98597.046875, 126116.515625, 101024.000000, 91770.156250, 123427.359375, 0.000, 0.000, 0.000,0.49296567,0.994567,0.91440254,0.52975756,0.3478666, 15:32:25.408
68546.585938, 59618.917969, 111473.757813, 98468.101563, 126171.968750, 100971.031250, 91738.734375, 123468.882813, 0.090, 0.228, 0.976,0.49296567,0.994567,0.91440254,0.52975756,0.3478666, 15:32:25.409
68646.093750, 59720.261719, 111402.453125, 98306.609375, 126277.273438, 101011.929688, 91706.054688, 123564.664063, 0.000, 0.000, 0.000,0.49296567,0.994567,0.91440254,0.52975756,0.3478666, 15:32:25.410
68603.070313, 59677.792969, 111437.570313, 98420.648438, 126231.562500, 101068.125000, 91734.929688, 123528.117188, 0.000, 0.000, 0.000,0.49296567,0.994567,0.91440254,0.52975756,0.3478666, 15:32:25.410
68507.062500, 59583.378906, 111489.468750, 98584.039063, 126128.523438, 101036.609375, 91762.710938, 123432.742188, 0.000, 0.000, 0.000,0.49296567,0.994567,0.91440254,0.52975756,0.3478666, 15:32:25.410
68517.617188, 59597.257813, 111489.492188, 98506.640625, 126145.460938, 100971.367188, 91745.281250, 123443.742188, 0.000, 0.000, 0.000,0.49296567,0.994567,0.91440254,0.52975756,0.3478666, 15:32:25.411
68626.203125, 59702.667969, 111429.343750, 98326.906250, 126263.789063, 100992.460938, 91711.796875, 123548.617188, 0.000, 0.000, 0.000,0.49296567,0.994567,0.91440254,0.52975756,0.3478666, 15:32:25.411
68625.710938, 59699.292969, 111421.921875, 98386.031250, 126256.640625, 101059.992188, 91726.414063, 123545.531250, 0.000, 0.000, 0.000,0.49296567,0.994567,0.91440254,0.52975756,0.3478666, 15:32:25.411
68531.812500, 59601.730469, 111476.882813, 98568.351563, 126141.148438, 101042.015625, 91754.335938, 123442.960938, 0.000, 0.000, 0.000,0.49296567,0.994567,0.91440254,0.52975756,0.3478666, 15:32:25.411
68531.765625, 59597.058594, 111481.914063, 98534.914063, 126136.007813, 100977.109375, 91743.984375, 123432.320313, 0.000, 0.000, 0.000,0.49296567,0.994567,0.91440254,0.52975756,0.3478666, 15:32:25.412
68631.656250, 59695.917969, 111423.531250, 98346.843750, 126248.328125, 100983.968750, 91707.218750, 123531.515625, 0.000, 0.000, 0.000,0.49296567,0.994567,0.91440254,0.52975756,0.3478666, 15:32:25.412
68645.085938, 59709.933594, 111409.921875, 98357.304688, 126266.921875, 101052.992188, 91716.265625, 123556.054688, 0.096, 0.236, 0.976,0.49296567,0.994567,0.91440254,0.52975756,0.3478666, 15:32:25.412
68539.546875, 59602.535156, 111459.789063, 98540.500000, 126157.640625, 101055.226563, 91750.734375, 123459.429688, 0.000, 0.000, 0.000,0.49296567,0.994567,0.91440254,0.52975756,0.3478666, 15:32:25.413
68508.187500, 59573.074219, 111481.195313, 98554.781250, 126124.140625, 100991.101563, 91752.835938, 123422.570313, 0.000, 0.000, 0.000,0.49296567,0.994567,0.91440254,0.52975756,0.3478666, 15:32:25.413
68596.539063, 59664.761719, 111425.320313, 98363.406250, 126224.476563, 100974.585938, 91714.453125, 123511.781250, 0.000, 0.000, 0.000,0.49296567,0.994567,0.91440254,0.52975756,0.3478666, 15:32:25.413
68644.460938, 59713.109375, 111389.757813, 98322.367188, 126282.390625, 101050.359375, 91713.429688, 123571.968750, 0.000, 0.000, 0.000,0.49296567,0.994567,0.91440254,0.52975756,0.3478666, 15:32:25.413
68552.796875, 59625.378906, 111434.101563, 98506.617188, 126183.148438, 101073.843750, 91747.265625, 123486.585938, 0.000, 0.000, 0.000,0.49296567,0.994567,0.91440254,0.52975756,0.3478666, 15:32:25.414
68494.328125, 59567.082031, 111478.453125, 98578.585938, 126117.054688, 101006.835938, 91754.734375, 123421.320313, 0.000, 0.000, 0.000,0.49296567,0.994567,0.91440254,0.52975756,0.3478666, 15:32:25.414
68568.531250, 59639.882813, 111440.609375, 98405.093750, 126197.164063, 100969.148438, 91718.078125, 123487.390625, 0.000, 0.000, 0.000,0.49296567,0.994567,0.91440254,0.52975756,0.3478666, 15:32:25.414
68635.296875, 59712.816406, 111395.476563, 98312.492188, 126272.195313, 101028.828125, 91701.492188, 123561.937500, 0.000, 0.000, 0.000,0.49296567,0.994567,0.91440254,0.52975756,0.3478666, 15:32:25.414
68568.914063, 59646.746094, 111428.156250, 98477.179688, 126202.664063, 101071.031250, 91739.937500, 123501.921875, 0.094, 0.232, 0.968,0.49296567,0.994567,0.91440254,0.52975756,0.3478666, 15:32:25.415
68501.320313, 59577.367188, 111477.171875, 98591.328125, 126124.296875, 101019.062500, 91762.046875, 123425.906250, 0.000, 0.000, 0.000,0.49296567,0.994567,0.91440254,0.52975756,0.3478666, 15:32:25.415
68558.203125, 59636.195313, 111452.546875, 98447.945313, 126190.453125, 100970.226563, 91734.726563, 123475.164063, 0.000, 0.000, 0.000,0.49296567,0.994567,0.91440254,0.52975756,0.3478666, 15:32:25.415
68642.609375, 59719.433594, 111409.000000, 98316.046875, 126287.914063, 101017.164063, 91710.945313, 123564.398438, 0.000, 0.000, 0.000,0.49296567,0.994567,0.91440254,0.52975756,0.3478666, 15:32:25.416
68587.601563, 59666.078125, 111431.335938, 98448.234375, 126226.578125, 101070.140625, 91738.242188, 123524.320313, 0.000, 0.000, 0.000,0.49296567,0.994567,0.91440254,0.52975756,0.3478666, 15:32:25.416
68489.812500, 59569.496094, 111479.367188, 98591.398438, 126121.632813, 101033.812500, 91764.500000, 123430.867188, 0.000, 0.000, 0.000,0.49296567,0.994567,0.91440254,0.52975756,0.3478666, 15:32:25.416
68527.226563, 59602.132813, 111474.585938, 98483.953125, 126157.687500, 100976.703125, 91743.242188, 123459.632813, 0.000, 0.000, 0.000,0.49296567,0.994567,0.91440254,0.52975756,0.3478666, 15:32:25.417
68629.375000, 59702.402344, 111426.773438, 98322.593750, 126266.718750, 101008.914063, 91710.476563, 123561.375000, 0.000, 0.000, 0.000,0.49296567,0.994567,0.91440254,0.52975756,0.3478666, 15:32:25.417
68593.320313, 59667.464844, 111438.398438, 98415.265625, 126234.843750, 101074.515625, 91733.546875, 123538.554688, 0.000, 0.000, 0.000,0.49296567,0.994567,0.91440254,0.52975756,0.3478666, 15:32:25.417
68489.851563, 59563.394531, 111496.218750, 98583.773438, 126125.570313, 101043.515625, 91763.453125, 123434.796875, 0.000, 0.000, 0.000,0.49296567,0.994567,0.91440254,0.52975756,0.3478666, 15:32:25.417
68508.875000, 59585.480469, 111489.085938, 98513.789063, 126148.164063, 100978.335938, 91747.960938, 123445.039063, 0.084, 0.240, 0.976,0.49296567,0.994567,0.91440254,0.52975756,0.3478666, 15:32:25.418
68617.078125, 59694.308594, 111429.656250, 98330.484375, 126266.851563, 100997.765625, 91710.812500, 123551.500000, 0.000, 0.000, 0.000,0.49296567,0.994567,0.91440254,0.52975756,0.3478666, 15:32:25.418
68612.726563, 59686.687500, 111425.140625, 98377.828125, 126265.242188, 101072.125000, 91726.054688, 123558.515625, 0.000, 0.000, 0.000,0.49296567,0.994567,0.91440254,0.52975756,0.3478666, 15:32:25.418
68513.656250, 59586.261719, 111480.304688, 98567.390625, 126155.812500, 101066.250000, 91764.234375, 123461.312500, 0.000, 0.000, 0.000,0.49296567,0.994567,0.91440254,0.52975756,0.3478666, 15:32:25.419
68507.914063, 59579.398438, 111498.609375, 98555.679688, 126145.640625, 100996.242188, 91761.414063, 123444.500000, 0.000, 0.000, 0.000,0.49296567,0.994567,0.91440254,0.52975756,0.3478666, 15:32:25.419
68603.984375, 59678.953125, 111446.617188, 98366.070313, 126259.679688, 100990.851563, 91723.867188, 123542.648438, 0.000, 0.000, 0.000,0.49296567,0.994567,0.91440254,0.52975756,0.3478666, 15:32:25.419
68623.429688, 59700.410156, 111424.156250, 98360.476563, 126284.515625, 101064.773438, 91721.320313, 123575.882813, 0.000, 0.000, 0.000,0.49296567,0.994567,0.91440254,0.52975756,0.3478666, 15:32:25.419
68523.203125, 59596.007813, 111481.578125, 98549.867188, 126166.875000, 101070.359375, 91756.414063, 123477.445313, 0.000, 0.000, 0.000,0.49296567,0.994567,0.91440254,0.52975756,0.3478666, 15:32:25.420
68485.562500, 59557.046875, 111510.437500, 98574.296875, 126123.734375, 100997.781250, 91759.492188, 123432.632813, 0.000, 0.000, 0.000,0.49296567,0.994567,0.91440254,0.52975756,0.3478666, 15:32:25.420
68584.250000, 59651.105469, 111473.554688, 98393.023438, 126237.085938, 100975.406250, 91733.273438, 123520.273438, 0.000, 0.000, 0.000,0.49296567,0.994567,0.91440254,0.52975756,0.3478666, 15:32:25.420
68632.570313, 59701.195313, 111446.953125, 98338.421875, 126282.570313, 101040.070313, 91716.289063, 123569.468750, 0.064, 0.244, 0.966,0.49296567,0.994567,0.91440254,0.52975756,0.3478666, 15:32:25.420
68541.171875, 59616.726563, 111477.265625, 98508.132813, 126189.718750, 101069.492188, 91748.523438, 123494.296875, 0.000, 0.000, 0.000,0.49296567,0.994567,0.91440254,0.52975756,0.3478666, 15:32:25.421
68487.757813, 59563.375000, 111509.656250, 98586.476563, 126129.593750, 101014.750000, 91763.539063, 123437.484375, 0.000, 0.000, 0.000,0.49296567,0.994567,0.91440254,0.52975756,0.3478666, 15:32:25.421
68573.632813, 59642.765625, 111491.437500, 98427.671875, 126208.203125, 100974.000000, 91731.468750, 123497.875000, 0.000, 0.000, 0.000,0.49296567,0.994567,0.91440254,0.52975756,0.3478666, 15:32:25.421
68647.140625, 59716.058594, 111459.359375, 98328.648438, 126289.679688, 101028.632813, 91713.320313, 123573.960938, 0.000, 0.000, 0.000,0.49296567,0.994567,0.91440254,0.52975756,0.3478666, 15:32:25.421
68577.742188, 59648.710938, 111497.289063, 98490.031250, 126218.710938, 101072.773438, 91750.664063, 123513.078125, 0.000, 0.000, 0.000,0.49296567,0.994567,0.91440254,0.52975756,0.3478666, 15:32:25.422
68494.281250, 59565.117188, 111562.828125, 98617.500000, 126124.898438, 101017.007813, 91772.882813, 123424.492188, 0.000, 0.000, 0.000,0.49296567,0.994567,0.91440254,0.52975756,0.3478666, 15:32:25.422
68558.296875, 59629.601563, 111537.460938, 98477.359375, 126186.414063, 100961.640625, 91738.414063, 123474.875000, 0.000, 0.000, 0.000,0.49296567,0.994567,0.91440254,0.52975756,0.3478666, 15:32:25.422
68656.218750, 59723.500000, 111486.515625, 98341.835938, 126291.109375, 101006.164063, 91708.734375, 123568.953125, 0.000, 0.000, 0.000,0.49296567,0.994567,0.91440254,0.52975756,0.3478666, 15:32:25.423
68617.664063, 59684.230469, 111502.164063, 98466.937500, 126249.960938, 101068.078125, 91737.859375, 123534.578125, 0.076, 0.240, 0.968,0.49296567,0.994567,0.91440254,0.52975756,0.3478666, 15:32:25.423
68520.921875, 59589.769531, 111554.937500, 98623.406250, 126147.945313, 101038.289063, 91772.593750, 123443.429688, 0.000, 0.000, 0.000,0.49296567,0.994567,0.91440254,0.52975756,0.3478666, 15:32:25.423
68553.109375, 59620.683594, 111538.265625, 98520.984375, 126178.296875, 100979.789063, 91749.148438, 123468.375000, 0.000, 0.000, 0.000,0.49296567,0.994567,0.91440254,0.52975756,0.3478666, 15:32:25.424
68663.867188, 59728.261719, 111486.007813, 98354.398438, 126289.273438, 101008.734375, 91714.187500, 123569.757813, 0.000, 0.000, 0.000,0.49296567,0.994567,0.91440254,0.52975756,0.3478666, 15:32:25.424
68636.351563, 59698.914063, 111520.742188, 98449.687500, 126263.320313, 101071.609375, 91744.718750, 123547.523438, 0.000, 0.000, 0.000,0.49296567,0.994567,0.91440254,0.52975756,0.3478666, 15:32:25.424
68524.859375, 59592.027344, 111583.523438, 98620.367188, 126148.835938, 101043.648438, 91783.726563, 123443.625000, 0.000, 0.000, 0.000,0.49296567,0.994567,0.91440254,0.52975756,0.3478666, 15:32:25.424
68527.117188, 59599.605469, 111577.312500, 98555.968750, 126150.937500, 100974.359375, 91764.523438, 123438.195313, 0.000, 0.000, 0.000,0.49296567,0.994567,0.91440254,0.52975756,0.3478666, 15:32:25.425
68650.539063, 59724.441406, 111512.203125, 98372.906250, 126278.429688, 100994.054688, 91722.171875, 123557.601563, 0.000, 0.000, 0.000,0.49296567,0.994567,0.91440254,0.52975756,0.3478666, 15:32:25.425
68650.718750, 59723.078125, 111500.531250, 98414.703125, 126289.632813, 101073.445313, 91741.367188, 123574.679688, 0.000, 0.000, 0.000,0.49296567,0.994567,0.91440254,0.52975756,0.3478666, 15:32:25.425
68537.398438, 59611.003906, 111562.445313, 98605.117188, 126167.476563, 101063.585938, 91786.023438, 123467.273438, 0.000, 0.000, 0.000,0.49296567,0.994567,0.91440254,0.52975756,0.3478666, 15:32:25.426
68521.460938, 59595.089844, 111586.703125, 98597.320313, 126140.656250, 100990.406250, 91777.687500, 123439.117188, 0.078, 0.234, 0.960,0.49296567,0.994567,0.91440254,0.52975756,0.3478666, 15:32:25.426
68631.070313, 59703.160156, 111526.687500, 98404.203125, 126254.070313, 100983.320313, 91732.515625, 123536.726563, 0.000, 0.000, 0.000,0.49296567,0.994567,0.91440254,0.52975756,0.3478666, 15:32:25.426
68667.687500, 59734.789063, 111507.687500, 98395.437500, 126295.820313, 101061.890625, 91740.093750, 123579.304688, 0.000, 0.000, 0.000,0.49296567,0.994567,0.91440254,0.52975756,0.3478666, 15:32:25.426
68568.578125, 59632.933594, 111564.679688, 98585.539063, 126188.757813, 101077.023438, 91785.539063, 123487.929688, 0.000, 0.000, 0.000,0.49296567,0.994567,0.91440254,0.52975756,0.3478666, 15:32:25.427
68520.406250, 59584.292969, 111606.257813, 98627.765625, 126138.335938, 101003.976563, 91794.070313, 123436.070313, 0.000, 0.000, 0.000,0.49296567,0.994567,0.91440254,0.52975756,0.3478666, 15:32:25.427
68618.335938, 59681.300781, 111560.546875, 98443.695313, 126237.195313, 100979.390625, 91754.039063, 123522.304688, 0.000, 0.000, 0.000,0.49296567,0.994567,0.91440254,0.52975756,0.3478666, 15:32:25.427
68676.828125, 59743.574219, 111514.078125, 98371.562500, 126303.312500, 101047.070313, 91741.125000, 123589.742188, 0.000, 0.000, 0.000,0.49296567,0.994567,0.91440254,0.52975756,0.3478666, 15:32:25.427
68585.679688, 59650.769531, 111558.625000, 98547.500000, 126202.234375, 101071.921875, 91778.875000, 123503.132813, 0.000, 0.000, 0.000,0.49296567,0.994567,0.91440254,0.52975756,0.3478666, 15:32:25.428
68516.226563, 59584.519531, 111599.062500, 98635.093750, 126136.500000, 101013.695313, 91798.679688, 123432.070313, 0.000, 0.000, 0.000,0.3359371,0.6884249,0.6725452,0.39349297,0.26451203, 15:32:25.430
68589.390625, 59660.066406, 111578.164063, 98480.015625, 126210.195313, 100969.601563, 91763.828125, 123493.203125, 0.082, 0.238, 0.954,0.3359371,0.6884249,0.6725452,0.39349297,0.26451203, 15:32:25.431
68680.539063, 59749.765625, 111516.406250, 98357.304688, 126299.804688, 101025.054688, 91730.414063, 123582.320313, 0.000, 0.000, 0.000,0.3359371,0.6884249,0.6725452,0.39349297,0.26451203, 15:32:25.431
68614.867188, 59686.085938, 111540.703125, 98508.406250, 126228.234375, 101074.789063, 91765.601563, 123524.992188, 0.000, 0.000, 0.000,0.3359371,0.6884249,0.6725452,0.39349297,0.26451203, 15:32:25.432
68521.257813, 59596.031250, 111597.960938, 98639.718750, 126129.773438, 101024.585938, 91795.617188, 123435.070313, 0.000, 0.000, 0.000,0.3359371,0.6884249,0.6725452,0.39349297,0.26451203, 15:32:25.432
68577.273438, 59652.914063, 111571.320313, 98512.117188, 126188.242188, 100972.351563, 91768.882813, 123482.007813, 0.000, 0.000, 0.000,0.3359371,0.6884249,0.6725452,0.39349297,0.26451203, 15:32:25.433
68674.679688, 59746.812500, 111519.085938, 98364.007813, 126294.031250, 101012.046875, 91736.007813, 123577.921875, 0.000, 0.000, 0.000,0.3359371,0.6884249,0.6725452,0.39349297,0.26451203, 15:32:25.433
68629.218750, 59695.917969, 111539.382813, 98477.156250, 126244.796875, 101070.117188, 91768.546875, 123539.960938, 0.000, 0.000, 0.000,0.3359371,0.6884249,0.6725452,0.39349297,0.26451203, 15:32:25.434
68531.968750, 59597.929688, 111597.585938, 98637.593750, 126127.265625, 101035.312500, 91794.453125, 123433.906250, 0.000, 0.000, 0.000,0.3359371,0.6884249,0.6725452,0.39349297,0.26451203, 15:32:25.434
68564.109375, 59628.328125, 111583.929688, 98544.187500, 126158.765625, 100974.828125, 91769.375000, 123456.796875, 0.000, 0.000, 0.000,0.3359371,0.6884249,0.6725452,0.39349297,0.26451203, 15:32:25.435
68669.476563, 59731.593750, 111533.968750, 98371.898438, 126275.148438, 100995.640625, 91731.648438, 123561.085938, 0.000, 0.000, 0.000,0.3359371,0.6884249,0.6725452,0.39349297,0.26451203, 15:32:25.435
68649.382813, 59713.062500, 111532.296875, 98443.359375, 126259.546875, 101065.242188, 91755.515625, 123555.273438, 0.078, 0.234, 0.956,0.3359371,0.6884249,0.6725452,0.39349297,0.26451203, 15:32:25.435
68538.648438, 59608.054688, 111594.679688, 98626.398438, 126132.429688, 101043.492188, 91790.539063, 123445.375000, 0.000, 0.000, 0.000,0.3359371,0.6884249,0.6725452,0.39349297,0.26451203, 15:32:25.435
68548.929688, 59617.332031, 111600.265625, 98579.390625, 126138.960938, 100973.937500, 91780.414063, 123443.695313, 0.000, 0.000, 0.000,0.3359371,0.6884249,0.6725452,0.39349297,0.26451203, 15:32:25.436
68667.843750, 59728.976563, 111535.648438, 98388.578125, 126261.242188, 100983.789063, 91733.273438, 123539.898438, 0.000, 0.000, 0.000,0.3359371,0.6884249,0.6725452,0.39349297,0.26451203, 15:32:25.436
68674.570313, 59735.906250, 111523.398438, 98413.945313, 126271.906250, 101058.398438, 91742.601563, 123565.710938, 0.000, 0.000, 0.000,0.3359371,0.6884249,0.6725452,0.39349297,0.26451203, 15:32:25.436
68563.257813, 59630.718750, 111570.156250, 98598.414063, 126153.171875, 101056.859375, 91778.468750, 123465.648438, 0.000, 0.000, 0.000,0.3359371,0.6884249,0.6725452,0.39349297,0.26451203, 15:32:25.437
68538.312500, 59609.886719, 111594.140625, 98606.546875, 126119.851563, 100981.445313, 91775.007813, 123429.812500, 0.000, 0.000, 0.000,0.3359371,0.6884249,0.6725452,0.39349297,0.26451203, 15:32:25.438
68647.656250, 59715.253906, 111539.445313, 98418.437500, 126228.835938, 100973.531250, 91732.156250, 123528.500000, 0.000, 0.000, 0.000,0.3359371,0.6884249,0.6725452,0.39349297,0.26451203, 15:32:25.438
68685.992188, 59753.699219, 111510.726563, 98391.617188, 126276.664063, 101049.843750, 91728.851563, 123580.085938, 0.000, 0.000, 0.000,0.3359371,0.6884249,0.6725452,0.39349297,0.26451203, 15:32:25.438
68592.742188, 59662.054688, 111556.726563, 98582.585938, 126178.765625, 101075.679688, 91776.390625, 123496.781250, 0.072, 0.230, 0.962,0.3359371,0.6884249,0.6725452,0.39349297,0.26451203, 15:32:25.438
68537.375000, 59608.769531, 111602.367188, 98636.437500, 126116.226563, 101002.546875, 91784.929688, 123430.757813, 0.000, 0.000, 0.000,0.3359371,0.6884249,0.6725452,0.39349297,0.26451203, 15:32:25.439
68623.070313, 59696.457031, 111555.453125, 98454.109375, 126212.429688, 100969.687500, 91737.992188, 123510.234375, 0.000, 0.000, 0.000,0.3359371,0.6884249,0.6725452,0.39349297,0.26451203, 15:32:25.439
68686.375000, 59753.632813, 111517.367188, 98373.578125, 126287.843750, 101030.484375, 91726.054688, 123579.304688, 0.000, 0.000, 0.000,0.3359371,0.6884249,0.6725452,0.39349297,0.26451203, 15:32:25.439
68603.445313, 59669.074219, 111545.195313, 98535.070313, 126198.257813, 101065.062500, 91765.617188, 123505.562500, 0.000, 0.000, 0.000,0.3359371,0.6884249,0.6725452,0.39349297,0.26451203, 15:32:25.440
68529.976563, 59596.164063, 111596.195313, 98637.242188, 126114.171875, 101003.867188, 91786.226563, 123420.804688, 0.000, 0.000, 0.000,0.3359371,0.6884249,0.6725452,0.39349297,0.26451203, 15:32:25.441
68597.656250, 59667.175781, 111567.007813, 98476.773438, 126185.359375, 100954.757813, 91744.765625, 123477.312500, 0.000, 0.000, 0.000,0.3359371,0.6884249,0.6725452,0.39349297,0.26451203, 15:32:25.441
68693.593750, 59757.656250, 111512.539063, 98351.273438, 126282.523438, 101007.398438, 91718.679688, 123570.656250, 0.000, 0.000, 0.000,0.023895644,0.046025697,0.04749721,0.04837223,0.036849655, 15:32:25.877
68621.976563, 59685.996094, 111547.609375, 98498.367188, 126209.390625, 101057.617188, 91753.125000, 123514.328125, 0.000, 0.000, 0.000,0.023895644,0.046025697,0.04749721,0.04837223,0.036849655, 15:32:25.878
68531.695313, 59597.816406, 111604.132813, 98635.359375, 126110.257813, 101012.085938, 91778.468750, 123424.648438, 0.000, 0.000, 0.000,0.023895644,0.046025697,0.04749721,0.04837223,0.036849655, 15:32:25.879
68582.593750, 59648.757813, 111576.484375, 98508.984375, 126164.710938, 100958.203125, 91746.617188, 123467.945313, 0.066, 0.232, 0.958,0.023895644,0.046025697,0.04749721,0.04837223,0.036849655, 15:32:25.879
68688.765625, 59751.171875, 111521.367188, 98349.796875, 126276.445313, 100997.828125, 91711.148438, 123567.835938, 0.000, 0.000, 0.000,0.023895644,0.046025697,0.04749721,0.04837223,0.036849655, 15:32:25.880
68657.429688, 59720.910156, 111528.984375, 98458.359375, 126239.515625, 101066.117188, 91741.437500, 123541.414063, 0.000, 0.000, 0.000,0.023895644,0.046025697,0.04749721,0.04837223,0.036849655, 15:32:25.880
68555.390625, 59618.785156, 111588.601563, 98631.226563, 126128.539063, 101037.593750, 91781.828125, 123440.992188, 0.000, 0.000, 0.000,0.023895644,0.046025697,0.04749721,0.04837223,0.036849655, 15:32:25.880
68573.695313, 59639.035156, 111585.757813, 98554.070313, 126150.875000, 100966.312500, 91762.046875, 123452.078125, 0.000, 0.000, 0.000,0.023895644,0.046025697,0.04749721,0.04837223,0.036849655, 15:32:25.881
68686.726563, 59754.527344, 111515.062500, 98364.593750, 126272.531250, 100986.515625, 91717.070313, 123562.515625, 0.000, 0.000, 0.000,0.023895644,0.046025697,0.04749721,0.04837223,0.036849655, 15:32:25.881
68675.640625, 59744.558594, 111513.742188, 98426.062500, 126265.226563, 101063.226563, 91739.468750, 123561.804688, 0.000, 0.000, 0.000,0.023895644,0.046025697,0.04749721,0.04837223,0.036849655, 15:32:25.881
68565.585938, 59635.277344, 111586.921875, 98618.843750, 126145.617188, 101050.937500, 91787.617188, 123457.445313, 0.000, 0.000, 0.000,0.023895644,0.046025697,0.04749721,0.04837223,0.036849655, 15:32:25.882
68557.671875, 59626.718750, 111594.835938, 98581.289063, 126131.429688, 100976.148438, 91770.156250, 123440.343750, 0.000, 0.000, 0.000,0.023895644,0.046025697,0.04749721,0.04837223,0.036849655, 15:32:25.882
68671.375000, 59739.796875, 111520.492188, 98379.593750, 126251.476563, 100977.890625, 91721.367188, 123546.984375, 0.000, 0.000, 0.000,0.023895644,0.046025697,0.04749721,0.04837223,0.036849655, 15:32:25.882
68684.429688, 59749.316406, 111515.953125, 98398.234375, 126266.117188, 101053.460938, 91731.578125, 123569.421875, 0.066, 0.236, 0.960,0.023895644,0.046025697,0.04749721,0.04837223,0.036849655, 15:32:25.883
68576.289063, 59643.214844, 111576.148438, 98591.125000, 126154.742188, 101055.984375, 91777.554688, 123467.140625, 0.000, 0.000, 0.000,0.023895644,0.046025697,0.04749721,0.04837223,0.036849655, 15:32:25.883
68543.093750, 59612.457031, 111594.679688, 98604.781250, 126115.265625, 100982.023438, 91773.109375, 123424.453125, 0.000, 0.000, 0.000,0.023895644,0.046025697,0.04749721,0.04837223,0.036849655, 15:32:25.883
68642.585938, 59710.761719, 111536.523438, 98409.382813, 126218.554688, 100960.906250, 91719.484375, 123514.976563, 0.000, 0.000, 0.000,0.023895644,0.046025697,0.04749721,0.04837223,0.036849655, 15:32:25.884
68687.312500, 59757.765625, 111493.781250, 98365.421875, 126276.000000, 101041.031250, 91713.648438, 123574.250000, 0.000, 0.000, 0.000,0.023895644,0.046025697,0.04749721,0.04837223,0.036849655, 15:32:25.884
68590.390625, 59657.628906, 111547.562500, 98554.492188, 126175.640625, 101067.992188, 91762.468750, 123486.250000, 0.000, 0.000, 0.000,0.023895644,0.046025697,0.04749721,0.04837223,0.036849655, 15:32:25.885
68538.757813, 59601.683594, 111599.375000, 98627.695313, 126116.765625, 101004.781250, 91786.070313, 123424.164063, 0.000, 0.000, 0.000,0.023895644,0.046025697,0.04749721,0.04837223,0.036849655, 15:32:25.888
68627.921875, 59690.824219, 111551.875000, 98450.757813, 126211.554688, 100971.210938, 91745.656250, 123508.671875, 0.000, 0.000, 0.000,0.023895644,0.046025697,0.04749721,0.04837223,0.036849655, 15:32:25.888
68704.765625, 59768.539063, 111503.820313, 98359.406250, 126295.554688, 101035.914063, 91726.750000, 123592.421875, 0.000, 0.000, 0.000,0.023895644,0.046025697,0.04749721,0.04837223,0.036849655, 15:32:25.889
68623.250000, 59688.140625, 111540.921875, 98530.890625, 126220.367188, 101081.648438, 91779.679688, 123524.320313, 0.078, 0.236, 0.952,0.023895644,0.046025697,0.04749721,0.04837223,0.036849655, 15:32:25.890
68532.703125, 59604.902344, 111607.843750, 98650.117188, 126122.734375, 101017.742188, 91807.195313, 123430.664063, 0.000, 0.000, 0.000,0.023895644,0.046025697,0.04749721,0.04837223,0.036849655, 15:32:25.890
68613.773438, 59680.296875, 111561.015625, 98494.054688, 126194.125000, 100968.007813, 91764.835938, 123488.289063, 0.000, 0.000, 0.000,0.023895644,0.046025697,0.04749721,0.04837223,0.036849655, 15:32:25.891
68707.781250, 59770.531250, 111513.835938, 98366.578125, 126291.148438, 101019.039063, 91736.203125, 123580.132813, 0.000, 0.000, 0.000,0.023895644,0.046025697,0.04749721,0.04837223,0.036849655, 15:32:25.891
68639.101563, 59706.359375, 111537.968750, 98500.695313, 126227.695313, 101077.179688, 91769.507813, 123532.585938, 0.000, 0.000, 0.000,0.023895644,0.046025697,0.04749721,0.04837223,0.036849655, 15:32:25.892
68540.148438, 59605.281250, 111604.960938, 98649.398438, 126117.500000, 101032.609375, 91803.687500, 123432.632813, 0.000, 0.000, 0.000,0.023895644,0.046025697,0.04749721,0.04837223,0.036849655, 15:32:25.892
68592.851563, 59656.109375, 111583.500000, 98533.484375, 126173.203125, 100976.210938, 91779.765625, 123474.359375, 0.000, 0.000, 0.000,0.023895644,0.046025697,0.04749721,0.04837223,0.036849655, 15:32:25.892
68699.757813, 59763.710938, 111504.734375, 98361.773438, 126289.250000, 101011.929688, 91739.515625, 123581.429688, 0.000, 0.000, 0.000,0.023895644,0.046025697,0.04749721,0.04837223,0.036849655, 15:32:25.892
68667.843750, 59732.777344, 111507.906250, 98457.796875, 126256.437500, 101082.539063, 91765.929688, 123559.031250, 0.000, 0.000, 0.000,0.023895644,0.046025697,0.04749721,0.04837223,0.036849655, 15:32:25.892
68553.648438, 59623.835938, 111566.937500, 98630.625000, 126136.273438, 101052.281250, 91796.734375, 123446.179688, 0.000, 0.000, 0.000,0.023895644,0.046025697,0.04749721,0.04837223,0.036849655, 15:32:25.893
68574.343750, 59641.917969, 111564.773438, 98560.257813, 126155.742188, 100983.257813, 91779.101563, 123455.656250, 0.088, 0.242, 0.956,0.023895644,0.046025697,0.04749721,0.04837223,0.036849655, 15:32:25.893
68691.984375, 59759.933594, 111495.304688, 98371.632813, 126282.570313, 101001.023438, 91737.414063, 123568.578125, 0.000, 0.000, 0.000,0.023895644,0.046025697,0.04749721,0.04837223,0.036849655, 15:32:25.893
68689.296875, 59756.312500, 111489.289063, 98421.343750, 126277.828125, 101080.304688, 91752.812500, 123574.945313, 0.000, 0.000, 0.000,0.023895644,0.046025697,0.04749721,0.04837223,0.036849655, 15:32:25.894
68574.054688, 59639.949219, 111562.914063, 98614.773438, 126154.109375, 101065.265625, 91796.578125, 123462.203125, 0.000, 0.000, 0.000,0.023895644,0.046025697,0.04749721,0.04837223,0.036849655, 15:32:25.894
68558.250000, 59623.187500, 111590.656250, 98595.914063, 126132.898438, 100989.359375, 91786.898438, 123436.585938, 0.000, 0.000, 0.000,0.023895644,0.046025697,0.04749721,0.04837223,0.036849655, 15:32:25.895
68668.421875, 59734.921875, 111523.289063, 98395.703125, 126252.015625, 100982.875000, 91736.742188, 123540.125000, 0.000, 0.000, 0.000,0.023895644,0.046025697,0.04749721,0.04837223,0.036849655, 15:32:25.895
68699.804688, 59769.546875, 111502.210938, 98399.617188, 126293.718750, 101068.390625, 91752.546875, 123587.015625, 0.000, 0.000, 0.000,0.023895644,0.046025697,0.04749721,0.04837223,0.036849655, 15:32:25.895
68598.617188, 59665.429688, 111555.070313, 98594.234375, 126172.328125, 101081.828125, 91792.351563, 123489.468750, 0.000, 0.000, 0.000,0.023895644,0.046025697,0.04749721,0.04837223,0.036849655, 15:32:25.896
68554.273438, 59619.566406, 111598.992188, 98626.914063, 126124.453125, 101003.640625, 91797.625000, 123432.273438, 0.000, 0.000, 0.000,0.023895644,0.046025697,0.04749721,0.04837223,0.036849655, 15:32:25.896
68649.734375, 59717.398438, 111550.132813, 98429.656250, 126232.007813, 100976.687500, 91756.078125, 123522.820313, 0.090, 0.244, 0.962,0.023895644,0.046025697,0.04749721,0.04837223,0.036849655, 15:32:25.896
68705.703125, 59774.507813, 111497.828125, 98366.718750, 126297.835938, 101051.093750, 91745.125000, 123592.601563, 0.000, 0.000, 0.000,0.023895644,0.046025697,0.04749721,0.04837223,0.036849655, 15:32:25.896
68612.117188, 59680.585938, 111538.929688, 98549.281250, 126199.304688, 101080.890625, 91787.859375, 123506.460938, 0.000, 0.000, 0.000,0.023895644,0.046025697,0.04749721,0.04837223,0.036849655, 15:32:25.897
68552.890625, 59619.453125, 111575.187500, 98628.406250, 126133.414063, 101022.210938, 91800.781250, 123433.187500, 0.000, 0.000, 0.000,0.023895644,0.046025697,0.04749721,0.04837223,0.036849655, 15:32:25.897
68636.531250, 59701.707031, 111537.078125, 98462.539063, 126220.453125, 100980.593750, 91765.664063, 123507.781250, 0.000, 0.000, 0.000,0.023895644,0.046025697,0.04749721,0.04837223,0.036849655, 15:32:25.897
68723.406250, 59787.316406, 111486.007813, 98363.093750, 126313.414063, 101043.648438, 91749.414063, 123608.382813, 0.000, 0.000, 0.000,0.023895644,0.046025697,0.04749721,0.04837223,0.036849655, 15:32:25.898
68647.257813, 59710.804688, 111517.765625, 98525.656250, 126231.765625, 101089.828125, 91784.281250, 123537.171875, 0.000, 0.000, 0.000,0.023895644,0.046025697,0.04749721,0.04837223,0.036849655, 15:32:25.898
68544.210938, 59619.140625, 111577.179688, 98652.015625, 126124.187500, 101027.687500, 91801.203125, 123435.898438, 0.000, 0.000, 0.000,0.023895644,0.046025697,0.04749721,0.04837223,0.036849655, 15:32:25.901
68596.875000, 59680.855469, 111539.203125, 98501.539063, 126181.273438, 100966.828125, 91757.750000, 123486.656250, 0.000, 0.000, 0.000,0.023895644,0.046025697,0.04749721,0.04837223,0.036849655, 15:32:25.901
68697.523438, 59776.003906, 111468.187500, 98349.281250, 126286.593750, 101013.875000, 91719.125000, 123585.718750, 0.000, 0.000, 0.000,0.023895644,0.046025697,0.04749721,0.04837223,0.036849655, 15:32:25.901
68648.328125, 59724.687500, 111487.367188, 98475.859375, 126238.242188, 101077.578125, 91754.914063, 123544.968750, 0.080, 0.254, 0.962,0.023895644,0.046025697,0.04749721,0.04837223,0.036849655, 15:32:25.902
68544.125000, 59620.617188, 111561.843750, 98643.656250, 126128.500000, 101037.523438, 91796.351563, 123440.320313, 0.000, 0.000, 0.000,0.023895644,0.046025697,0.04749721,0.04837223,0.036849655, 15:32:25.902
68582.835938, 59661.519531, 111550.218750, 98540.789063, 126167.007813, 100970.093750, 91770.250000, 123465.820313, 0.000, 0.000, 0.000,0.023895644,0.046025697,0.04749721,0.04837223,0.036849655, 15:32:25.902
68682.195313, 59759.195313, 111485.203125, 98362.554688, 126278.210938, 100997.250000, 91724.937500, 123566.007813, 0.000, 0.000, 0.000,0.023895644,0.046025697,0.04749721,0.04837223,0.036849655, 15:32:25.902
68662.453125, 59735.593750, 111495.953125, 98448.992188, 126262.562500, 101073.445313, 91754.179688, 123557.601563, 0.000, 0.000, 0.000,0.023895644,0.046025697,0.04749721,0.04837223,0.036849655, 15:32:25.903
68556.757813, 59630.742188, 111550.039063, 98630.781250, 126148.750000, 101056.234375, 91797.289063, 123459.765625, 0.000, 0.000, 0.000,0.023895644,0.046025697,0.04749721,0.04837223,0.036849655, 15:32:25.903
68560.640625, 59634.921875, 111541.281250, 98566.140625, 126148.703125, 100983.257813, 91775.968750, 123457.937500, 0.000, 0.000, 0.000,0.023895644,0.046025697,0.04749721,0.04837223,0.036849655, 15:32:25.903
68673.382813, 59751.957031, 111473.710938, 98371.609375, 126262.742188, 100991.125000, 91728.250000, 123564.820313, 0.000, 0.000, 0.000,0.023895644,0.046025697,0.04749721,0.04837223,0.036849655, 15:32:25.903
68687.000000, 59760.894531, 111463.851563, 98409.992188, 126277.312500, 101072.593750, 91743.406250, 123583.328125, 0.000, 0.000, 0.000,0.023895644,0.046025697,0.04749721,0.04837223,0.036849655, 15:32:25.903
68572.531250, 59644.218750, 111529.101563, 98607.265625, 126159.164063, 101067.187500, 91785.492188, 123473.132813, 0.080, 0.254, 0.968,0.023895644,0.046025697,0.04749721,0.04837223,0.036849655, 15:32:25.904
68553.804688, 59622.515625, 111554.085938, 98600.070313, 126135.156250, 100989.226563, 91781.757813, 123433.500000, 0.000, 0.000, 0.000,0.023895644,0.046025697,0.04749721,0.04837223,0.036849655, 15:32:25.904
68662.742188, 59734.386719, 111482.046875, 98395.703125, 126249.015625, 100980.617188, 91725.789063, 123548.078125, 0.000, 0.000, 0.000,0.023895644,0.046025697,0.04749721,0.04837223,0.036849655, 15:32:25.904
68696.226563, 59770.304688, 111458.335938, 98380.953125, 126290.343750, 101059.992188, 91725.812500, 123589.968750, 0.000, 0.000, 0.000,0.023895644,0.046025697,0.04749721,0.04837223,0.036849655, 15:32:25.904
68592.468750, 59667.914063, 111519.148438, 98576.460938, 126184.820313, 101074.898438, 91779.523438, 123496.648438, 0.000, 0.000, 0.000,0.023895644,0.046025697,0.04749721,0.04837223,0.036849655, 15:32:25.905
68544.953125, 59620.324219, 111572.328125, 98629.796875, 126128.656250, 101002.367188, 91793.492188, 123437.679688, 0.000, 0.000, 0.000,0.023895644,0.046025697,0.04749721,0.04837223,0.036849655, 15:32:25.905
68636.703125, 59712.167969, 111516.070313, 98435.312500, 126227.382813, 100968.546875, 91743.828125, 123521.125000, 0.000, 0.000, 0.000,0.023895644,0.046025697,0.04749721,0.04837223,0.036849655, 15:32:25.905
68691.531250, 59762.347656, 111463.140625, 98356.750000, 126296.781250, 101038.421875, 91726.351563, 123587.953125, 0.000, 0.000, 0.000,0.023895644,0.046025697,0.04749721,0.04837223,0.036849655, 15:32:25.905
68618.195313, 59690.152344, 111491.593750, 98535.250000, 126211.492188, 101087.367188, 91770.718750, 123508.226563, 0.000, 0.000, 0.000,0.023895644,0.046025697,0.04749721,0.04837223,0.036849655, 15:32:25.906
68543.570313, 59617.824219, 111554.804688, 98637.039063, 126127.070313, 101020.539063, 91797.718750, 123433.523438, 0.000, 0.000, 0.000,0.023895644,0.046025697,0.04749721,0.04837223,0.036849655, 15:32:25.906
68624.656250, 59698.175781, 111518.484375, 98469.664063, 126209.523438, 100976.664063, 91761.640625, 123517.812500, 0.084, 0.254, 0.958,0.023895644,0.046025697,0.04749721,0.04837223,0.036849655, 15:32:25.906
68697.367188, 59770.664063, 111466.382813, 98347.429688, 126291.867188, 101030.953125, 91729.789063, 123593.500000, 0.000, 0.000, 0.000,0.023895644,0.046025697,0.04749721,0.04837223,0.036849655, 15:32:25.906
68619.429688, 59696.835938, 111483.437500, 98490.609375, 126218.953125, 101082.164063, 91762.867188, 123533.195313, 0.000, 0.000, 0.000,0.023895644,0.046025697,0.04749721,0.04837223,0.036849655, 15:32:25.907
68526.289063, 59602.625000, 111533.281250, 98619.265625, 126120.250000, 101031.289063, 91793.851563, 123441.437500, 0.000, 0.000, 0.000,0.023895644,0.046025697,0.04749721,0.04837223,0.036849655, 15:32:25.908
68594.148438, 59667.441406, 111501.296875, 98483.703125, 126182.546875, 100978.312500, 91758.531250, 123487.953125, 0.000, 0.000, 0.000,0.023895644,0.046025697,0.04749721,0.04837223,0.036849655, 15:32:25.909
68696.453125, 59773.101563, 111434.617188, 98328.851563, 126292.468750, 101018.437500, 91720.734375, 123593.500000, 0.000, 0.000, 0.000,0.023895644,0.046025697,0.04749721,0.04837223,0.036849655, 15:32:25.909
68653.109375, 59732.332031, 111456.835938, 98454.226563, 126250.562500, 101085.625000, 91757.078125, 123561.531250, 0.000, 0.000, 0.000,0.023895644,0.046025697,0.04749721,0.04837223,0.036849655, 15:32:25.909
68550.273438, 59628.527344, 111522.773438, 98623.492188, 126138.914063, 101050.375000, 91796.976563, 123456.546875, 0.000, 0.000, 0.000,0.023895644,0.046025697,0.04749721,0.04837223,0.036849655, 15:32:25.910
68576.335938, 59655.082031, 111495.992188, 98523.085938, 126171.703125, 100980.843750, 91770.804688, 123477.085938, 0.000, 0.000, 0.000,0.023895644,0.046025697,0.04749721,0.04837223,0.036849655, 15:32:25.910
68687.554688, 59764.339844, 111431.757813, 98341.617188, 126285.429688, 101003.750000, 91724.289063, 123584.554688, 0.000, 0.000, 0.000,0.023895644,0.046025697,0.04749721,0.04837223,0.036849655, 15:32:25.910
68670.593750, 59747.597656, 111442.593750, 98419.625000, 126268.171875, 101075.968750, 91746.242188, 123572.062500, 0.088, 0.254, 0.956,0.020998484,0.04096833,0.041140318,0.04316754,0.032168213, 15:32:25.911
68552.484375, 59633.042969, 111507.953125, 98608.000000, 126156.171875, 101061.507813, 91792.554688, 123458.265625, 0.000, 0.000, 0.000,0.020998484,0.04096833,0.041140318,0.04316754,0.032168213, 15:32:25.911
68557.984375, 59636.886719, 111513.789063, 98561.781250, 126161.351563, 100988.242188, 91783.367188, 123465.867188, 0.000, 0.000, 0.000,0.020998484,0.04096833,0.041140318,0.04316754,0.032168213, 15:32:25.911
68669.429688, 59744.937500, 111444.585938, 98363.343750, 126274.656250, 100978.828125, 91732.625000, 123564.148438, 0.000, 0.000, 0.000,0.020998484,0.04096833,0.041140318,0.04316754,0.032168213, 15:32:25.912
68678.390625, 59754.792969, 111426.125000, 98386.500000, 126284.046875, 101065.062500, 91738.304688, 123588.468750, 0.000, 0.000, 0.000,0.020998484,0.04096833,0.041140318,0.04316754,0.032168213, 15:32:25.912
68572.359375, 59645.648438, 111500.710938, 98588.648438, 126161.554688, 101070.804688, 91786.070313, 123482.187500, 0.000, 0.000, 0.000,0.020998484,0.04096833,0.041140318,0.04316754,0.032168213, 15:32:25.912
68539.429688, 59613.351563, 111516.804688, 98583.015625, 126125.054688, 100988.437500, 91774.898438, 123440.296875, 0.000, 0.000, 0.000,0.020998484,0.04096833,0.041140318,0.04316754,0.032168213, 15:32:25.912
68651.906250, 59726.316406, 111463.562500, 98394.562500, 126248.281250, 100982.921875, 91735.601563, 123547.679688, 0.000, 0.000, 0.000,0.020998484,0.04096833,0.041140318,0.04316754,0.032168213, 15:32:25.913
68681.406250, 59761.566406, 111434.257813, 98363.632813, 126293.585938, 101052.281250, 91732.695313, 123593.742188, 0.000, 0.000, 0.000,0.020998484,0.04096833,0.041140318,0.04316754,0.032168213, 15:32:25.914
68593.859375, 59668.406250, 111477.507813, 98552.437500, 126192.289063, 101073.828125, 91775.812500, 123503.484375, 0.098, 0.262, 0.954,0.020998484,0.04096833,0.041140318,0.04316754,0.032168213, 15:32:25.914
68543.632813, 59617.800781, 111530.414063, 98616.515625, 126128.406250, 101001.671875, 91786.921875, 123440.164063, 0.000, 0.000, 0.000,0.020998484,0.04096833,0.041140318,0.04316754,0.032168213, 15:32:25.914
68633.796875, 59709.375000, 111480.460938, 98431.242188, 126224.921875, 100968.414063, 91744.609375, 123523.312500, 0.000, 0.000, 0.000,0.020998484,0.04096833,0.041140318,0.04316754,0.032168213, 15:32:25.915
68705.304688, 59783.113281, 111425.765625, 98347.250000, 126308.273438, 101035.492188, 91729.140625, 123601.320313, 0.000, 0.000, 0.000,0.020998484,0.04096833,0.041140318,0.04316754,0.032168213, 15:32:25.915
68619.875000, 59697.683594, 111471.187500, 98529.656250, 126214.976563, 101073.867188, 91770.093750, 123524.921875, 0.000, 0.000, 0.000,0.020998484,0.04096833,0.041140318,0.04316754,0.032168213, 15:32:25.915
68546.984375, 59624.574219, 111535.421875, 98640.390625, 126131.804688, 101017.921875, 91794.226563, 123445.820313, 0.000, 0.000, 0.000,0.020998484,0.04096833,0.041140318,0.04316754,0.032168213, 15:32:25.915
68615.921875, 59688.453125, 111501.226563, 98477.046875, 126195.914063, 100960.414063, 91745.703125, 123493.671875, 0.000, 0.000, 0.000,0.020998484,0.04096833,0.041140318,0.04316754,0.032168213, 15:32:25.916
68710.710938, 59785.683594, 111447.937500, 98350.445313, 126302.148438, 101010.523438, 91718.500000, 123587.796875, 0.000, 0.000, 0.000,0.020998484,0.04096833,0.041140318,0.04316754,0.032168213, 15:32:25.916
68649.671875, 59722.203125, 111479.234375, 98499.351563, 126240.953125, 101068.125000, 91763.656250, 123540.609375, 0.000, 0.000, 0.000,0.020998484,0.04096833,0.041140318,0.04316754,0.032168213, 15:32:25.916
68550.164063, 59617.351563, 111552.632813, 98650.000000, 126125.726563, 101016.960938, 91795.726563, 123435.648438, 0.000, 0.000, 0.000,0.020998484,0.04096833,0.041140318,0.04316754,0.032168213, 15:32:25.916
68598.039063, 59663.980469, 111527.757813, 98521.703125, 126178.632813, 100961.460938, 91767.453125, 123481.468750, 0.104, 0.270, 0.960,0.020998484,0.04096833,0.041140318,0.04316754,0.032168213, 15:32:25.917
68704.250000, 59778.867188, 111441.476563, 98349.460938, 126302.195313, 101006.945313, 91729.078125, 123596.226563, 0.000, 0.000, 0.000,0.020998484,0.04096833,0.041140318,0.04316754,0.032168213, 15:32:25.917
68669.296875, 59748.089844, 111454.531250, 98462.984375, 126255.789063, 101075.140625, 91754.601563, 123564.617188, 0.000, 0.000, 0.000,0.020998484,0.04096833,0.041140318,0.04316754,0.032168213, 15:32:25.917
68557.625000, 59640.957031, 111537.148438, 98646.718750, 126135.898438, 101045.281250, 91798.585938, 123456.640625, 0.000, 0.000, 0.000,0.020998484,0.04096833,0.041140318,0.04316754,0.032168213, 15:32:25.917
68574.414063, 59661.652344, 111533.164063, 98561.960938, 126154.562500, 100973.710938, 91773.328125, 123466.875000, 0.000, 0.000, 0.000,0.020998484,0.04096833,0.041140318,0.04316754,0.032168213, 15:32:25.918
68683.039063, 59769.390625, 111457.882813, 98363.382813, 126277.625000, 100989.359375, 91728.070313, 123575.187500, 0.000, 0.000, 0.000,0.020998484,0.04096833,0.041140318,0.04316754,0.032168213, 15:32:25.918
68672.226563, 59762.683594, 111459.648438, 98425.859375, 126269.648438, 101062.132813, 91750.242188, 123571.101563, 0.000, 0.000, 0.000,0.020998484,0.04096833,0.041140318,0.04316754,0.032168213, 15:32:25.918
68570.546875, 59661.207031, 111525.320313, 98623.250000, 126157.625000, 101056.187500, 91797.156250, 123470.828125, 0.000, 0.000, 0.000,0.020998484,0.04096833,0.041140318,0.04316754,0.032168213, 15:32:25.919
68558.875000, 59649.742188, 111539.335938, 98592.132813, 126147.718750, 100982.093750, 91788.710938, 123452.703125, 0.000, 0.000, 0.000,0.020998484,0.04096833,0.041140318,0.04316754,0.032168213, 15:32:25.919
68662.585938, 59751.640625, 111477.265625, 98389.070313, 126256.554688, 100971.945313, 91735.179688, 123548.234375, 0.106, 0.264, 0.962,0.020998484,0.04096833,0.041140318,0.04316754,0.032168213, 15:32:25.919
68685.164063, 59772.945313, 111452.234375, 98394.546875, 126282.632813, 101049.554688, 91739.023438, 123578.523438, 0.000, 0.000, 0.000,0.020998484,0.04096833,0.041140318,0.04316754,0.032168213, 15:32:25.919
68575.195313, 59657.964844, 111522.546875, 98596.156250, 126164.351563, 101050.375000, 91784.101563, 123472.148438, 0.000, 0.000, 0.000,0.020998484,0.04096833,0.041140318,0.04316754,0.032168213, 15:32:25.920
68537.953125, 59617.019531, 111551.000000, 98609.367188, 126123.000000, 100974.273438, 91783.773438, 123429.882813, 0.000, 0.000, 0.000,0.020998484,0.04096833,0.041140318,0.04316754,0.032168213, 15:32:25.920
68655.437500, 59735.101563, 111478.179688, 98410.054688, 126244.812500, 100966.156250, 91737.125000, 123537.773438, 0.000, 0.000, 0.000,0.020998484,0.04096833,0.041140318,0.04316754,0.032168213, 15:32:25.920
68692.476563, 59773.859375, 111453.546875, 98370.289063, 126295.960938, 101036.382813, 91733.812500, 123589.539063, 0.000, 0.000, 0.000,0.020998484,0.04096833,0.041140318,0.04316754,0.032168213, 15:32:25.920
