%OpenBCI Raw EEG Data
%
%Sample Rate = 250.0 Hz
%First Column = SampleIndex
%5 Columns before Timestamp are Frequency Power factors DELTA THETA ALPHA BETA GAMMA
%Last Column = Timestamp 
%Other Columns = EEG data in microvolts followed by Accel Data (in G) interleaved with Aux Data
0.000000, 0.000000, 0.000000, 0.000000, 0.000000, 0.000000, 0.000000, 0.000000, 0, 1, 1, 0, 1,0.0,0.0,0.0,0.0,0.0, 12:04:00.583
64914.468750, 70097.882813, 101106.328125, 122899.656250, 133383.265625, 68589.546875, 99092.406250, 133156.171875, 0, 1, 1, 0, 1,0.0,0.0,0.0,0.0,0.0, 12:04:01.069
64983.222656, 70179.359375, 100805.179688, 122758.882813, 133457.031250, 68269.421875, 98986.437500, 133159.125000, 0, 1, 1, 0, 1,0.0,0.0,0.0,0.0,0.0, 12:04:01.070
64980.140625, 70171.554688, 100755.046875, 122778.750000, 133470.484375, 68249.531250, 99062.234375, 133220.796875, 0, 1, 1, 0, 1,0.0,0.0,0.0,0.0,0.0, 12:04:01.071
64916.839844, 70091.312500, 101029.906250, 122916.375000, 133407.640625, 68571.664063, 99182.781250, 133232.531250, 0, 1, 1, 0, 1,0.0,0.0,0.0,0.0,0.0, 12:04:01.071
64915.609375, 70094.617188, 101119.421875, 122918.203125, 133390.984375, 68621.328125, 99130.007813, 133172.453125, 0, 1, 1, 0, 1,0.0,0.0,0.0,0.0,0.0, 12:04:01.072
64994.265625, 70188.632813, 100829.250000, 122782.664063, 133460.265625, 68310.976563, 99008.296875, 133164.296875, 0, 1, 1, 0, 1,0.0,0.0,0.0,0.0,0.0, 12:04:01.073
64999.964844, 70194.468750, 100714.742188, 122771.468750, 133487.937500, 68213.742188, 99053.562500, 133229.671875, 0, 1, 1, 0, 1,0.0,0.0,0.0,0.0,0.0, 12:04:01.074
64923.500000, 70111.500000, 100980.976563, 122908.125000, 133416.015625, 68521.617188, 99180.859375, 133241.265625, 0, 1, 1, 0, 1,0.0,0.0,0.0,0.0,0.0, 12:04:01.075
64900.925781, 70088.164063, 101141.437500, 122937.695313, 133379.718750, 68646.789063, 99148.062500, 133180.765625, 0, 1, 1, 0, 1,0.0,0.0,0.0,0.0,0.0, 12:04:01.075
64971.312500, 70171.710938, 100890.898438, 122805.218750, 133443.078125, 68367.882813, 99014.265625, 133159.937500, 0, 1, 1, 0, 1,0.0,0.0,0.0,0.0,0.0, 12:04:01.076
65006.648438, 70208.367188, 100692.523438, 122755.281250, 133495.281250, 68185.492188, 99025.195313, 133214.687500, 0, 1, 1, 0, 1,0.0,0.0,0.0,0.0,0.0, 12:04:01.077
64943.550781, 70131.257813, 100922.656250, 122890.375000, 133444.296875, 68461.382813, 99170.257813, 133255.859375, 0, 1, 1, 0, 1,0.0,0.0,0.0,0.0,0.0, 12:04:01.077
64897.058594, 70080.585938, 101147.203125, 122953.609375, 133384.750000, 68661.671875, 99167.867188, 133196.234375, 0, 1, 1, 0, 1,0.0,0.0,0.0,0.0,0.0, 12:04:01.078
64947.058594, 70140.578125, 100956.882813, 122833.273438, 133419.843750, 68430.195313, 99026.273438, 133144.671875, 0, 1, 1, 0, 1,0.0,0.0,0.0,0.0,0.0, 12:04:01.078
64990.511719, 70194.664063, 100706.898438, 122749.117188, 133479.109375, 68189.875000, 99002.625000, 133190.937500, 0, 1, 1, 0, 1,0.0,0.0,0.0,0.0,0.0, 12:04:01.079
64951.304688, 70143.820313, 100855.937500, 122857.835938, 133454.234375, 68396.000000, 99145.226563, 133250.812500, 0, 1, 1, 0, 1,0.0,0.0,0.0,0.0,0.0, 12:04:01.079
64910.468750, 70091.406250, 101109.382813, 122955.242188, 133392.406250, 68652.914063, 99186.218750, 133219.359375, 0, 1, 1, 0, 1,0.0,0.0,0.0,0.0,0.0, 12:04:01.080
64951.304688, 70143.328125, 100994.093750, 122862.640625, 133426.312500, 68493.007813, 99068.585938, 133172.046875, 0, 1, 1, 0, 1,0.0,0.0,0.0,0.0,0.0, 12:04:01.081
64991.605469, 70194.664063, 100711.500000, 122743.593750, 133483.968750, 68201.179688, 99000.367188, 133190.796875, 0, 1, 1, 0, 1,0.0,0.0,0.0,0.0,0.0, 12:04:01.081
64941.785156, 70136.640625, 100812.531250, 122817.218750, 133441.187500, 68336.054688, 99107.296875, 133238.312500, 0, 1, 1, 0, 1,0.0,0.0,0.0,0.0,0.0, 12:04:01.082
64895.875000, 70080.625000, 101107.132813, 122942.437500, 133386.406250, 68643.750000, 99189.882813, 133223.125000, 0, 1, 1, 0, 1,0.0,0.0,0.0,0.0,0.0, 12:04:01.083
64914.136719, 70107.875000, 101061.445313, 122874.125000, 133398.734375, 68546.960938, 99085.281250, 133160.312500, 0, 1, 1, 0, 1,0.0,0.0,0.0,0.0,0.0, 12:04:01.083
64984.027344, 70191.718750, 100752.851563, 122746.585938, 133471.812500, 68227.156250, 98996.320313, 133169.000000, 0, 1, 1, 0, 1,0.0,0.0,0.0,0.0,0.0, 12:04:01.083
64962.660156, 70161.992188, 100765.125000, 122795.648438, 133456.515625, 68273.531250, 99078.734375, 133224.468750, 0, 1, 1, 0, 1,0.0,0.0,0.0,0.0,0.0, 12:04:01.084
64892.542969, 70074.351563, 101072.218750, 122930.656250, 133383.343750, 68603.804688, 99180.968750, 133214.171875, 0, 1, 1, 0, 1,0.0,0.0,0.0,0.0,0.0, 12:04:01.084
64908.390625, 70095.984375, 101115.648438, 122905.265625, 133381.031250, 68594.906250, 99105.460938, 133154.640625, 0, 1, 1, 0, 1,0.0,0.0,0.0,0.0,0.0, 12:04:01.085
64969.835938, 70175.445313, 100806.453125, 122760.335938, 133445.031250, 68265.937500, 98983.062500, 133151.390625, 0, 1, 1, 0, 1,0.0,0.0,0.0,0.0,0.0, 12:04:01.085
64981.906250, 70183.875000, 100724.179688, 122775.515625, 133471.687500, 68221.078125, 99056.710938, 133226.296875, 0, 1, 1, 0, 1,0.0,0.0,0.0,0.0,0.0, 12:04:01.086
64904.523438, 70098.578125, 101004.554688, 122916.039063, 133400.093750, 68546.023438, 99181.664063, 133235.140625, 0, 1, 1, 0, 1,0.0,0.0,0.0,0.0,0.0, 12:04:01.086
64868.695313, 70061.140625, 101118.531250, 122909.351563, 133347.343750, 68608.679688, 99108.656250, 133149.093750, 0, 1, 1, 0, 1,0.0,0.0,0.0,0.0,0.0, 12:04:01.086
64953.675781, 70153.945313, 100858.734375, 122772.804688, 133423.687500, 68315.890625, 98985.859375, 133139.906250, 0, 1, 1, 0, 1,0.0,0.0,0.0,0.0,0.0, 12:04:01.087
64991.695313, 70200.593750, 100712.578125, 122755.554688, 133472.968750, 68197.515625, 99029.710938, 133216.390625, 0, 1, 1, 0, 1,0.0,0.0,0.0,0.0,0.0, 12:04:01.088
64917.332031, 70112.460938, 100969.242188, 122889.437500, 133404.640625, 68498.195313, 99167.109375, 133234.859375, 0, 1, 1, 0, 1,0.0,0.0,0.0,0.0,0.0, 12:04:01.088
64893.257813, 70083.757813, 101132.703125, 122923.617188, 133363.421875, 68635.812500, 99142.703125, 133175.796875, 0, 1, 1, 0, 1,0.0,0.0,0.0,0.0,0.0, 12:04:01.089
64949.382813, 70150.703125, 100903.976563, 122793.234375, 133413.015625, 68368.976563, 99005.039063, 133143.328125, 0, 1, 1, 0, 1,0.0,0.0,0.0,0.0,0.0, 12:04:01.089
64989.011719, 70200.882813, 100690.718750, 122734.765625, 133468.656250, 68166.828125, 99000.523438, 133192.750000, 0, 1, 1, 0, 1,0.0,0.0,0.0,0.0,0.0, 12:04:01.090
64926.675781, 70132.062500, 100893.695313, 122859.687500, 133417.421875, 68419.671875, 99137.851563, 133234.718750, 0, 1, 1, 0, 1,0.0,0.0,0.0,0.0,0.0, 12:04:01.090
64874.082031, 70074.773438, 101135.718750, 122927.195313, 133350.140625, 68636.171875, 99145.179688, 133173.906250, 0, 1, 1, 0, 1,0.0,0.0,0.0,0.0,0.0, 12:04:01.091
64916.660156, 70128.414063, 100969.015625, 122811.812500, 133384.718750, 68420.296875, 99010.937500, 133126.453125, 0, 1, 1, 0, 1,0.0,0.0,0.0,0.0,0.0, 12:04:01.091
64972.675781, 70190.015625, 100700.546875, 122720.820313, 133453.703125, 68161.437500, 98975.640625, 133171.468750, 0, 1, 1, 0, 1,0.0,0.0,0.0,0.0,0.0, 12:04:01.091
64929.378906, 70135.390625, 100834.773438, 122826.875000, 133422.968750, 68348.281250, 99110.179688, 133221.437500, 0, 1, 1, 0, 1,0.0,0.0,0.0,0.0,0.0, 12:04:01.092
64866.234375, 70066.101563, 101102.101563, 122923.796875, 133351.234375, 68617.906250, 99153.250000, 133176.046875, 0, 1, 1, 0, 1,0.0,0.0,0.0,0.0,0.0, 12:04:01.092
64906.335938, 70113.125000, 100994.835938, 122836.781250, 133380.812500, 68470.140625, 99036.421875, 133124.843750, 0, 1, 1, 0, 1,0.0,0.0,0.0,0.0,0.0, 12:04:01.092
64969.074219, 70177.812500, 100714.406250, 122721.890625, 133448.781250, 68178.000000, 98969.250000, 133151.609375, 0, 1, 1, 0, 1,0.0,0.0,0.0,0.0,0.0, 12:04:01.092
64949.605469, 70149.960938, 100783.093750, 122797.437500, 133442.437500, 68293.515625, 99091.132813, 133225.093750, 0, 1, 1, 0, 1,0.0,0.0,0.0,0.0,0.0, 12:04:01.093
64881.902344, 70073.476563, 101080.734375, 122920.820313, 133367.718750, 68607.984375, 99174.218750, 133200.203125, 0, 1, 1, 0, 1,0.0,0.0,0.0,0.0,0.0, 12:04:01.093
64894.128906, 70094.757813, 101060.148438, 122867.109375, 133374.078125, 68536.304688, 99071.242188, 133136.500000, 0, 1, 1, 0, 1,0.0,0.0,0.0,0.0,0.0, 12:04:01.093
64961.902344, 70168.875000, 100763.742188, 122734.742188, 133447.484375, 68220.625000, 98972.265625, 133145.828125, 0, 1, 1, 0, 1,0.0,0.0,0.0,0.0,0.0, 12:04:01.093
64951.796875, 70151.375000, 100747.890625, 122774.242188, 133452.875000, 68241.414063, 99062.078125, 133208.187500, 0, 1, 1, 0, 1,0.0,0.0,0.0,0.0,0.0, 12:04:01.094
64874.996094, 70058.789063, 101045.703125, 122911.101563, 133372.109375, 68567.570313, 99164.898438, 133199.578125, 0, 1, 1, 0, 1,0.0,0.0,0.0,0.0,0.0, 12:04:01.104
64884.406250, 70066.390625, 101100.398438, 122889.593750, 133362.937500, 68576.625000, 99088.093750, 133134.515625, 0, 1, 1, 0, 1,0.0,0.0,0.0,0.0,0.0, 12:04:01.105
64966.953125, 70161.007813, 100803.234375, 122754.257813, 133444.968750, 68263.476563, 98980.273438, 133139.703125, 0, 1, 1, 0, 1,0.0,0.0,0.0,0.0,0.0, 12:04:01.105
64968.898438, 70170.039063, 100713.421875, 122757.695313, 133466.859375, 68201.632813, 99041.742188, 133208.281250, 0, 1, 1, 0, 1,0.0,0.0,0.0,0.0,0.0, 12:04:01.106
64898.062500, 70090.421875, 100990.429688, 122896.343750, 133394.796875, 68521.437500, 99167.398438, 133223.078125, 0, 1, 1, 0, 1,0.0,0.0,0.0,0.0,0.0, 12:04:01.106
64876.183594, 70067.664063, 101128.562500, 122906.226563, 133354.343750, 68612.093750, 99116.531250, 133148.359375, 0, 1, 1, 0, 1,0.0,0.0,0.0,0.0,0.0, 12:04:01.106
64942.433594, 70146.859375, 100863.718750, 122767.085938, 133417.468750, 68318.796875, 98985.726563, 133129.687500, 0, 1, 1, 0, 1,0.0,0.0,0.0,0.0,0.0, 12:04:01.107
64978.730469, 70182.820313, 100691.945313, 122737.757813, 133472.859375, 68171.187500, 99019.429688, 133202.125000, 0, 1, 1, 0, 1,0.0,0.0,0.0,0.0,0.0, 12:04:01.107
64912.839844, 70101.546875, 100946.890625, 122876.070313, 133403.406250, 68468.976563, 99152.828125, 133231.953125, 0, 1, 1, 0, 1,0.0,0.0,0.0,0.0,0.0, 12:04:01.108
64883.960938, 70072.226563, 101132.117188, 122922.164063, 133357.812500, 68631.500000, 99142.476563, 133176.218750, 0, 1, 1, 0, 1,0.0,0.0,0.0,0.0,0.0, 12:04:01.108
64936.777344, 70139.859375, 100926.859375, 122803.140625, 133409.109375, 68382.414063, 99012.460938, 133132.890625, 0, 1, 1, 0, 1,0.0,0.0,0.0,0.0,0.0, 12:04:01.108
64981.816406, 70190.976563, 100704.890625, 122735.460938, 133471.921875, 68164.882813, 99004.390625, 133186.015625, 0, 1, 1, 0, 1,0.0,0.0,0.0,0.0,0.0, 12:04:01.109
64933.582031, 70133.625000, 100881.914063, 122856.070313, 133431.703125, 68396.359375, 99149.023438, 133239.734375, 0, 1, 1, 0, 1,0.0,0.0,0.0,0.0,0.0, 12:04:01.109
64871.957031, 70066.773438, 101131.914063, 122934.789063, 133351.781250, 68628.992188, 99159.734375, 133180.031250, 0, 1, 1, 0, 1,0.0,0.0,0.0,0.0,0.0, 12:04:01.110
64917.757813, 70125.843750, 100977.085938, 122827.796875, 133389.109375, 68433.078125, 99026.625000, 133132.265625, 0, 1, 1, 0, 1,0.0,0.0,0.0,0.0,0.0, 12:04:01.113
64973.769531, 70184.898438, 100714.453125, 122737.804688, 133459.843750, 68170.898438, 98989.343750, 133173.906250, 0, 1, 1, 0, 1,0.0,0.0,0.0,0.0,0.0, 12:04:01.114
64926.964844, 70127.945313, 100844.742188, 122834.992188, 133427.218750, 68343.453125, 99114.742188, 133227.203125, 0, 1, 1, 0, 1,0.0,0.0,0.0,0.0,0.0, 12:04:01.114
64873.722656, 70069.718750, 101116.539063, 122941.203125, 133365.046875, 68626.718750, 99173.812500, 133195.687500, 0, 1, 1, 0, 1,0.0,0.0,0.0,0.0,0.0, 12:04:01.114
64908.277344, 70112.953125, 101031.156250, 122862.484375, 133391.234375, 68499.664063, 99063.039063, 133143.453125, 0, 1, 1, 0, 1,0.0,0.0,0.0,0.0,0.0, 12:04:01.114
64985.683594, 70194.492188, 100732.695313, 122744.421875, 133471.843750, 68195.750000, 98990.929688, 133172.000000, 0, 1, 1, 0, 1,0.0,0.0,0.0,0.0,0.0, 12:04:01.114
64957.609375, 70161.812500, 100795.007813, 122813.890625, 133447.000000, 68288.734375, 99097.328125, 133233.984375, 0, 1, 1, 0, 1,0.0,0.0,0.0,0.0,0.0, 12:04:01.115
64895.472656, 70085.546875, 101102.500000, 122943.171875, 133371.453125, 68611.406250, 99182.304688, 133213.312500, 0, 1, 1, 0, 1,0.0,0.0,0.0,0.0,0.0, 12:04:01.115
64920.640625, 70112.546875, 101100.156250, 122900.101563, 133383.937500, 68563.679688, 99094.000000, 133155.531250, 0, 1, 1, 0, 1,0.0,0.0,0.0,0.0,0.0, 12:04:01.115
64992.968750, 70197.882813, 100802.921875, 122770.882813, 133463.015625, 68248.859375, 98997.148438, 133165.078125, 0, 1, 1, 0, 1,0.0,0.0,0.0,0.0,0.0, 12:04:01.115
64988.253906, 70190.375000, 100764.234375, 122801.351563, 133474.843750, 68247.515625, 99079.179688, 133232.062500, 0, 1, 1, 0, 1,0.0,0.0,0.0,0.0,0.0, 12:04:01.115
64908.433594, 70102.109375, 101062.203125, 122940.671875, 133398.625000, 68576.023438, 99193.328125, 133232.890625, 0, 1, 1, 0, 1,0.0,0.0,0.0,0.0,0.0, 12:04:01.116
64916.347656, 70109.820313, 101143.718750, 122929.406250, 133383.890625, 68608.093750, 99127.390625, 133168.625000, 0, 1, 1, 0, 1,0.0,0.0,0.0,0.0,0.0, 12:04:01.116
65005.015625, 70211.523438, 100848.921875, 122795.312500, 133466.671875, 68294.992188, 99012.679688, 133165.031250, 0, 1, 1, 0, 1,0.0,0.0,0.0,0.0,0.0, 12:04:01.116
65016.125000, 70224.507813, 100737.453125, 122789.664063, 133496.765625, 68208.554688, 99065.632813, 133233.843750, 0, 1, 1, 0, 1,0.0,0.0,0.0,0.0,0.0, 12:04:01.116
64934.027344, 70130.070313, 101014.882813, 122927.460938, 133419.250000, 68526.515625, 99192.414063, 133247.546875, 0, 1, 1, 0, 1,0.0,0.0,0.0,0.0,0.0, 12:04:01.117
64921.308594, 70110.695313, 101162.851563, 122951.265625, 133391.234375, 68638.179688, 99157.429688, 133185.687500, 0, 1, 1, 0, 1,0.0,0.0,0.0,0.0,0.0, 12:04:01.117
64986.039063, 70178.710938, 100928.718750, 122826.742188, 133458.109375, 68364.726563, 99037.203125, 133168.359375, 0, 1, 1, 0, 1,0.0,0.0,0.0,0.0,0.0, 12:04:01.117
65015.187500, 70210.093750, 100760.273438, 122784.679688, 133496.546875, 68203.148438, 99050.210938, 133220.593750, 0, 1, 1, 0, 1,0.0,0.0,0.0,0.0,0.0, 12:04:01.117
64955.531250, 70145.445313, 100971.945313, 122906.492188, 133430.328125, 68470.117188, 99176.742188, 133248.718750, 0, 1, 1, 0, 1,0.0,0.0,0.0,0.0,0.0, 12:04:01.117
64916.816406, 70104.117188, 101170.718750, 122961.164063, 133375.671875, 68647.656250, 99168.921875, 133188.656250, 0, 1, 1, 0, 1,0.0,0.0,0.0,0.0,0.0, 12:04:01.118
64970.664063, 70171.445313, 100972.304688, 122845.164063, 133434.390625, 68411.085938, 99045.179688, 133158.031250, 0, 1, 1, 0, 1,0.0,0.0,0.0,0.0,0.0, 12:04:01.120
65002.558594, 70209.773438, 100748.296875, 122769.234375, 133492.031250, 68185.828125, 99030.898438, 133203.031250, 0, 1, 1, 0, 1,0.0,0.0,0.0,0.0,0.0, 12:04:01.120
64943.839844, 70142.789063, 100915.148438, 122876.164063, 133446.921875, 68404.359375, 99166.218750, 133253.609375, 0, 1, 1, 0, 1,0.0,0.0,0.0,0.0,0.0, 12:04:01.121
64896.746094, 70089.164063, 101154.468750, 122957.765625, 133380.703125, 68644.640625, 99190.312500, 133208.062500, 0, 1, 1, 0, 1,0.0,0.0,0.0,0.0,0.0, 12:04:01.121
64926.808594, 70129.109375, 101033.812500, 122858.125000, 133399.906250, 68473.851563, 99054.703125, 133150.281250, 0, 1, 1, 0, 1,0.0,0.0,0.0,0.0,0.0, 12:04:01.121
64985.503906, 70198.531250, 100749.390625, 122748.156250, 133473.703125, 68191.617188, 99001.375000, 133184.187500, 0, 1, 1, 0, 1,0.0,0.0,0.0,0.0,0.0, 12:04:01.121
64951.953125, 70153.828125, 100848.851563, 122841.203125, 133458.656250, 68342.851563, 99133.023438, 133250.390625, 0, 1, 1, 0, 1,0.0,0.0,0.0,0.0,0.0, 12:04:01.122
64882.550781, 70074.593750, 101142.132813, 122957.234375, 133382.953125, 68642.718750, 99196.500000, 133217.375000, 0, 1, 1, 0, 1,0.0,0.0,0.0,0.0,0.0, 12:04:01.122
64920.593750, 70121.398438, 101067.210938, 122886.289063, 133409.218750, 68533.218750, 99096.726563, 133170.109375, 0, 1, 1, 0, 1,0.0,0.0,0.0,0.0,0.0, 12:04:01.122
64989.125000, 70198.179688, 100765.546875, 122766.507813, 133483.734375, 68229.125000, 99020.210938, 133193.968750, 0, 1, 1, 0, 1,0.0,0.0,0.0,0.0,0.0, 12:04:01.122
64962.125000, 70165.187500, 100789.531250, 122822.250000, 133474.953125, 68292.218750, 99118.742188, 133253.265625, 0, 1, 1, 0, 1,0.0,0.0,0.0,0.0,0.0, 12:04:01.123
64881.703125, 70073.875000, 101092.171875, 122953.414063, 133389.500000, 68615.429688, 99207.523438, 133231.390625, 0, 1, 1, 0, 1,5.654982E-6,7.4908016E-6,9.207638E-6,2.8966699E-5,3.6782523E-5, 12:04:01.123
64882.550781, 70078.664063, 101122.906250, 122914.117188, 133373.343750, 68590.859375, 99113.375000, 133160.640625, 0, 1, 1, 0, 1,5.654982E-6,7.4908016E-6,9.207638E-6,2.8966699E-5,3.6782523E-5, 12:04:01.123
64946.925781, 70156.734375, 100820.062500, 122772.695313, 133444.796875, 68268.171875, 99004.007813, 133154.187500, 0, 1, 1, 0, 1,5.654982E-6,7.4908016E-6,9.207638E-6,2.8966699E-5,3.6782523E-5, 12:04:01.124
64950.835938, 70164.562500, 100741.429688, 122789.078125, 133472.593750, 68234.289063, 99086.265625, 133230.671875, 0, 1, 1, 0, 1,5.654982E-6,7.4908016E-6,9.207638E-6,2.8966699E-5,3.6782523E-5, 12:04:01.124
64884.898438, 70086.125000, 101039.406250, 122937.968750, 133408.906250, 68568.421875, 99215.007813, 133246.359375, 0, 1, 1, 0, 1,5.654982E-6,7.4908016E-6,9.207638E-6,2.8966699E-5,3.6782523E-5, 12:04:01.125
64878.753906, 70080.140625, 101140.726563, 122936.062500, 133395.359375, 68623.273438, 99164.132813, 133183.000000, 0, 1, 1, 0, 1,5.654982E-6,7.4908016E-6,9.207638E-6,2.8966699E-5,3.6782523E-5, 12:04:01.125
64945.316406, 70157.695313, 100867.671875, 122792.812500, 133457.812500, 68321.500000, 99040.328125, 133169.187500, 0, 1, 1, 0, 1,5.654982E-6,7.4908016E-6,9.207638E-6,2.8966699E-5,3.6782523E-5, 12:04:01.126
64965.097656, 70176.875000, 100730.679688, 122773.968750, 133495.437500, 68210.617188, 99081.125000, 133233.984375, 0, 1, 1, 0, 1,5.654982E-6,7.4908016E-6,9.207638E-6,2.8966699E-5,3.6782523E-5, 12:04:01.126
64884.945313, 70090.085938, 101001.046875, 122914.140625, 133423.968750, 68520.585938, 99210.429688, 133251.859375, 0, 1, 1, 0, 1,5.654982E-6,7.4908016E-6,9.207638E-6,2.8966699E-5,3.6782523E-5, 12:04:01.127
64860.023438, 70066.367188, 101160.234375, 122940.203125, 133385.343750, 68648.890625, 99185.304688, 133193.296875, 0, 1, 1, 0, 1,5.654982E-6,7.4908016E-6,9.207638E-6,2.8966699E-5,3.6782523E-5, 12:04:01.127
64922.851563, 70141.156250, 100919.328125, 122805.867188, 133439.343750, 68376.976563, 99055.304688, 133167.437500, 0, 1, 1, 0, 1,5.654982E-6,7.4908016E-6,9.207638E-6,2.8966699E-5,3.6782523E-5, 12:04:01.127
64957.496094, 70179.421875, 100721.250000, 122752.242188, 133489.000000, 68196.664063, 99060.515625, 133224.343750, 0, 1, 1, 0, 1,5.654982E-6,7.4908016E-6,9.207638E-6,2.8966699E-5,3.6782523E-5, 12:04:01.128
64907.699219, 70115.921875, 100922.703125, 122879.648438, 133442.390625, 68455.054688, 99195.492188, 133265.250000, 0, 1, 1, 0, 1,5.654982E-6,7.4908016E-6,9.207638E-6,2.8966699E-5,3.6782523E-5, 12:04:01.128
64869.992188, 70071.953125, 101146.203125, 122951.960938, 133385.390625, 68657.898438, 99204.992188, 133210.093750, 0, 1, 1, 0, 1,5.654982E-6,7.4908016E-6,9.207638E-6,2.8966699E-5,3.6782523E-5, 12:04:01.128
64911.675781, 70123.835938, 100978.492188, 122835.843750, 133420.156250, 68439.187500, 99069.453125, 133154.484375, 0, 1, 1, 0, 1,5.654982E-6,7.4908016E-6,9.207638E-6,2.8966699E-5,3.6782523E-5, 12:04:01.129
64967.621094, 70187.601563, 100723.078125, 122746.835938, 133493.515625, 68192.015625, 99041.445313, 133204.187500, 0, 1, 1, 0, 1,5.654982E-6,7.4908016E-6,9.207638E-6,2.8966699E-5,3.6782523E-5, 12:04:01.129
64915.722656, 70124.039063, 100879.546875, 122851.867188, 133451.359375, 68394.593750, 99173.234375, 133259.328125, 0, 1, 1, 0, 1,5.654982E-6,7.4908016E-6,9.207638E-6,2.8966699E-5,3.6782523E-5, 12:04:01.129
64855.707031, 70055.820313, 101149.976563, 122945.367188, 133377.031250, 68659.390625, 99208.523438, 133215.984375, 0, 1, 1, 0, 1,5.654982E-6,7.4908016E-6,9.207638E-6,2.8966699E-5,3.6782523E-5, 12:04:01.130
64893.750000, 70104.523438, 101037.500000, 122852.804688, 133407.921875, 68501.750000, 99083.960938, 133165.312500, 0, 1, 1, 0, 1,5.654982E-6,7.4908016E-6,9.207638E-6,2.8966699E-5,3.6782523E-5, 12:04:01.130
64966.171875, 70187.625000, 100736.781250, 122745.179688, 133495.343750, 68208.226563, 99031.390625, 133213.359375, 0, 1, 1, 0, 1,5.654982E-6,7.4908016E-6,9.207638E-6,2.8966699E-5,3.6782523E-5, 12:04:01.130
64929.804688, 70142.367188, 100827.953125, 122834.093750, 133476.250000, 68340.765625, 99159.015625, 133285.953125, 0, 1, 1, 0, 1,5.654982E-6,7.4908016E-6,9.207638E-6,2.8966699E-5,3.6782523E-5, 12:04:01.131
64867.218750, 70066.234375, 101125.367188, 122953.742188, 133395.609375, 68648.531250, 99231.015625, 133261.031250, 0, 1, 1, 0, 1,5.654982E-6,7.4908016E-6,9.207638E-6,2.8966699E-5,3.6782523E-5, 12:04:01.131
64889.257813, 70093.437500, 101089.359375, 122891.476563, 133406.296875, 68565.875000, 99130.187500, 133201.656250, 0, 1, 1, 0, 1,5.654982E-6,7.4908016E-6,9.207638E-6,2.8966699E-5,3.6782523E-5, 12:04:01.132
64946.164063, 70161.250000, 100793.109375, 122762.640625, 133473.390625, 68258.093750, 99037.578125, 133213.000000, 0, 1, 1, 0, 1,5.654982E-6,7.4908016E-6,9.207638E-6,2.8966699E-5,3.6782523E-5, 12:04:01.132
64924.820313, 70136.125000, 100802.031250, 122810.203125, 133469.406250, 68302.640625, 99129.242188, 133272.453125, 0, 1, 1, 0, 1,5.654982E-6,7.4908016E-6,9.207638E-6,2.8966699E-5,3.6782523E-5, 12:04:01.133
64863.640625, 70068.000000, 101088.640625, 122946.148438, 133400.640625, 68623.117188, 99229.539063, 133263.125000, 0, 1, 1, 0, 1,0.0,0.0,0.0,0.0,0.0, 12:04:01.549
64868.539063, 70078.101563, 101127.421875, 122918.695313, 133390.406250, 68612.968750, 99147.281250, 133191.265625, 0, 1, 1, 0, 1,0.0,0.0,0.0,0.0,0.0, 12:04:01.550
64934.742188, 70160.242188, 100831.109375, 122780.875000, 133466.625000, 68293.093750, 99034.382813, 133189.656250, 0, 1, 1, 0, 1,0.0,0.0,0.0,0.0,0.0, 12:04:01.550
64942.855469, 70172.609375, 100742.859375, 122793.234375, 133497.953125, 68240.632813, 99105.195313, 133264.765625, 0, 1, 1, 0, 1,0.0,0.0,0.0,0.0,0.0, 12:04:01.551
64857.496094, 70074.031250, 101040.546875, 122935.726563, 133415.531250, 68567.593750, 99225.515625, 133263.937500, 0, 1, 1, 0, 1,0.0,0.0,0.0,0.0,0.0, 12:04:01.551
64846.632813, 70061.828125, 101162.226563, 122938.859375, 133379.093750, 68640.218750, 99168.117188, 133189.406250, 0, 1, 1, 0, 1,0.0,0.0,0.0,0.0,0.0, 12:04:01.552
64915.050781, 70139.796875, 100893.179688, 122797.437500, 133441.453125, 68344.054688, 99037.132813, 133171.109375, 0, 1, 1, 0, 1,0.0,0.0,0.0,0.0,0.0, 12:04:01.552
64946.187500, 70173.429688, 100732.875000, 122766.546875, 133486.765625, 68209.273438, 99069.093750, 133235.328125, 0, 1, 1, 0, 1,0.0,0.0,0.0,0.0,0.0, 12:04:01.553
64878.863281, 70095.828125, 100976.859375, 122903.968750, 133421.843750, 68501.164063, 99201.820313, 133264.718750, 0, 1, 1, 0, 1,0.0,0.0,0.0,0.0,0.0, 12:04:01.553
64846.343750, 70058.656250, 101161.937500, 122943.953125, 133373.171875, 68649.648438, 99179.804688, 133197.500000, 0, 1, 1, 0, 1,0.0,0.0,0.0,0.0,0.0, 12:04:01.554
64903.226563, 70124.328125, 100937.726563, 122812.078125, 133424.390625, 68393.226563, 99045.515625, 133162.921875, 0, 1, 1, 0, 1,0.0,0.0,0.0,0.0,0.0, 12:04:01.554
64943.773438, 70168.335938, 100718.429688, 122747.773438, 133482.421875, 68191.351563, 99043.796875, 133218.500000, 0, 1, 1, 0, 1,0.0,0.0,0.0,0.0,0.0, 12:04:01.554
64887.781250, 70104.343750, 100910.031250, 122872.226563, 133439.421875, 68437.015625, 99185.437500, 133269.609375, 0, 1, 1, 0, 1,0.0,0.0,0.0,0.0,0.0, 12:04:01.555
64842.339844, 70052.445313, 101153.773438, 122950.125000, 133372.453125, 68655.953125, 99198.421875, 133212.796875, 0, 1, 1, 0, 1,0.0,0.0,0.0,0.0,0.0, 12:04:01.555
64888.093750, 70108.320313, 100990.343750, 122840.468750, 133409.750000, 68451.859375, 99071.171875, 133168.015625, 0, 1, 1, 0, 1,0.0,0.0,0.0,0.0,0.0, 12:04:01.555
64953.093750, 70177.789063, 100719.414063, 122745.671875, 133485.187500, 68192.015625, 99038.007813, 133212.656250, 0, 1, 1, 0, 1,0.0,0.0,0.0,0.0,0.0, 12:04:01.556
64915.140625, 70125.000000, 100848.765625, 122849.585938, 133456.062500, 68374.226563, 99173.210938, 133272.234375, 0, 1, 1, 0, 1,0.0,0.0,0.0,0.0,0.0, 12:04:01.556
64848.398438, 70049.625000, 101137.210938, 122956.070313, 133376.671875, 68655.148438, 99218.539063, 133230.453125, 0, 1, 1, 0, 1,0.0,0.0,0.0,0.0,0.0, 12:04:01.556
64880.988281, 70091.695313, 101048.679688, 122874.953125, 133400.500000, 68518.507813, 99101.570313, 133174.109375, 0, 1, 1, 0, 1,0.0,0.0,0.0,0.0,0.0, 12:04:01.557
64946.386719, 70169.570313, 100752.070313, 122761.070313, 133481.640625, 68221.703125, 99037.085938, 133207.203125, 0, 1, 1, 0, 1,0.0,0.0,0.0,0.0,0.0, 12:04:01.559
64920.347656, 70136.593750, 100809.960938, 122833.093750, 133472.031250, 68325.234375, 99152.757813, 133273.593750, 0, 1, 1, 0, 1,0.0,0.0,0.0,0.0,0.0, 12:04:01.560
64856.937500, 70061.585938, 101100.265625, 122954.125000, 133396.921875, 68633.171875, 99232.289063, 133247.375000, 0, 1, 1, 0, 1,0.0,0.0,0.0,0.0,0.0, 12:04:01.560
64868.582031, 70078.882813, 101096.601563, 122899.250000, 133389.781250, 68572.375000, 99133.312500, 133182.812500, 0, 1, 1, 0, 1,0.0,0.0,0.0,0.0,0.0, 12:04:01.560
64924.371094, 70147.460938, 100807.953125, 122764.179688, 133455.359375, 68261.710938, 99035.476563, 133189.843750, 0, 1, 1, 0, 1,0.0,0.0,0.0,0.0,0.0, 12:04:01.561
64915.363281, 70137.914063, 100775.968750, 122792.679688, 133466.000000, 68269.398438, 99119.476563, 133256.875000, 0, 1, 1, 0, 1,0.0,0.0,0.0,0.0,0.0, 12:04:01.561
64848.867188, 70062.968750, 101057.867188, 122930.234375, 133396.921875, 68587.421875, 99222.835938, 133256.984375, 0, 1, 1, 0, 1,0.0,0.0,0.0,0.0,0.0, 12:04:01.561
64852.378906, 70068.335938, 101117.523438, 122914.023438, 133387.296875, 68602.953125, 99150.656250, 133192.828125, 0, 1, 1, 0, 1,0.0,0.0,0.0,0.0,0.0, 12:04:01.564
64922.875000, 70151.039063, 100822.992188, 122777.367188, 133457.875000, 68294.257813, 99038.609375, 133189.250000, 0, 1, 1, 0, 1,0.0,0.0,0.0,0.0,0.0, 12:04:01.565
64920.816406, 70149.000000, 100739.554688, 122779.468750, 133473.687500, 68229.929688, 99093.484375, 133247.031250, 0, 1, 1, 0, 1,0.0,0.0,0.0,0.0,0.0, 12:04:01.566
64847.953125, 70065.812500, 101019.531250, 122922.031250, 133400.078125, 68545.804688, 99216.398438, 133259.515625, 0, 1, 1, 0, 1,0.0,0.0,0.0,0.0,0.0, 12:04:01.566
64829.734375, 70048.195313, 101159.406250, 122938.210938, 133369.531250, 68642.000000, 99175.554688, 133198.593750, 0, 1, 1, 0, 1,0.0,0.0,0.0,0.0,0.0, 12:04:01.567
64895.851563, 70127.906250, 100889.445313, 122794.937500, 133433.921875, 68349.484375, 99044.578125, 133176.531250, 0, 1, 1, 0, 1,0.0,0.0,0.0,0.0,0.0, 12:04:01.567
64921.332031, 70155.773438, 100715.304688, 122756.828125, 133475.468750, 68197.671875, 99064.382813, 133234.453125, 0, 1, 1, 0, 1,0.0,0.0,0.0,0.0,0.0, 12:04:01.568
64850.925781, 70074.929688, 100965.375000, 122893.085938, 133409.156250, 68488.242188, 99199.250000, 133258.656250, 0, 1, 1, 0, 1,0.0,0.0,0.0,0.0,0.0, 12:04:01.568
64829.332031, 70050.523438, 101146.937500, 122940.382813, 133372.500000, 68647.929688, 99189.078125, 133207.140625, 0, 1, 1, 0, 1,0.0,0.0,0.0,0.0,0.0, 12:04:01.568
64888.250000, 70118.000000, 100935.421875, 122820.171875, 133423.281250, 68403.062500, 99062.414063, 133174.953125, 0, 1, 1, 0, 1,0.0,0.0,0.0,0.0,0.0, 12:04:01.568
64933.804688, 70165.320313, 100713.625000, 122751.062500, 133477.031250, 68186.679688, 99047.281250, 133216.703125, 0, 1, 1, 0, 1,0.0,0.0,0.0,0.0,0.0, 12:04:01.569
64874.953125, 70094.039063, 100909.828125, 122872.031250, 133427.796875, 68420.812500, 99183.828125, 133262.578125, 0, 1, 1, 0, 1,0.0,0.0,0.0,0.0,0.0, 12:04:01.569
64820.300781, 70035.906250, 101167.812500, 122954.640625, 133363.281250, 68657.289063, 99208.414063, 133212.640625, 0, 1, 1, 0, 1,0.0,0.0,0.0,0.0,0.0, 12:04:01.569
64872.406250, 70097.882813, 101017.523438, 122849.320313, 133402.406250, 68467.500000, 99083.398438, 133166.562500, 0, 1, 1, 0, 1,0.0,0.0,0.0,0.0,0.0, 12:04:01.570
64935.703125, 70169.187500, 100733.226563, 122748.156250, 133479.187500, 68193.359375, 99041.359375, 133208.187500, 0, 1, 1, 0, 1,0.0,0.0,0.0,0.0,0.0, 12:04:01.570
64900.097656, 70124.546875, 100840.429688, 122846.593750, 133459.531250, 68352.820313, 99173.882813, 133276.765625, 0, 1, 1, 0, 1,0.0,0.0,0.0,0.0,0.0, 12:04:01.570
64822.894531, 70043.437500, 101144.593750, 122957.414063, 133373.921875, 68646.921875, 99229.359375, 133234.750000, 0, 1, 1, 0, 1,0.0,0.0,0.0,0.0,0.0, 12:04:01.571
64855.753906, 70080.515625, 101080.687500, 122878.531250, 133390.421875, 68529.773438, 99121.578125, 133176.312500, 0, 1, 1, 0, 1,0.0,0.0,0.0,0.0,0.0, 12:04:01.571
64932.484375, 70166.367188, 100770.867188, 122753.695313, 133470.359375, 68222.390625, 99044.085938, 133204.171875, 0, 1, 1, 0, 1,0.0,0.0,0.0,0.0,0.0, 12:04:01.571
64910.445313, 70139.703125, 100805.312500, 122821.804688, 133462.578125, 68299.460938, 99149.335938, 133271.625000, 0, 1, 1, 0, 1,0.0,0.0,0.0,0.0,0.0, 12:04:01.572
64840.082031, 70061.898438, 101108.093750, 122955.578125, 133386.531250, 68616.656250, 99239.687500, 133253.734375, 0, 1, 1, 0, 1,0.0,0.0,0.0,0.0,0.0, 12:04:01.572
64854.589844, 70086.890625, 101111.039063, 122911.726563, 133391.187500, 68571.507813, 99150.523438, 133192.453125, 0, 1, 1, 0, 1,0.0,0.0,0.0,0.0,0.0, 12:04:01.573
64928.394531, 70172.203125, 100801.492188, 122777.281250, 133474.640625, 68253.554688, 99053.296875, 133209.000000, 0, 1, 1, 0, 1,0.0,0.0,0.0,0.0,0.0, 12:04:01.574
64916.125000, 70150.101563, 100780.656250, 122804.187500, 133473.125000, 68251.226563, 99127.750000, 133265.765625, 0, 1, 1, 0, 1,0.0,0.0,0.0,0.0,0.0, 12:04:01.574
64849.539063, 70069.210938, 101083.859375, 122943.734375, 133395.703125, 68577.476563, 99237.312500, 133259.984375, 0, 1, 1, 0, 1,0.0,0.0,0.0,0.0,0.0, 12:04:01.575
64846.031250, 70069.250000, 101162.562500, 122934.789063, 133376.093750, 68612.007813, 99167.757813, 133196.203125, 0, 1, 1, 0, 1,0.0,0.0,0.0,0.0,0.0, 12:04:01.575
64916.972656, 70159.554688, 100860.882813, 122792.273438, 133455.578125, 68300.648438, 99051.015625, 133194.515625, 0, 1, 1, 0, 1,0.0,0.0,0.0,0.0,0.0, 12:04:01.576
64938.117188, 70178.304688, 100730.726563, 122783.093750, 133493.906250, 68205.812500, 99105.843750, 133261.937500, 0, 1, 1, 0, 1,0.0,0.0,0.0,0.0,0.0, 12:04:01.577
64867.285156, 70090.195313, 101010.593750, 122928.687500, 133416.031250, 68521.234375, 99231.664063, 133279.625000, 0, 1, 1, 0, 1,0.0,0.0,0.0,0.0,0.0, 12:04:01.578
64843.101563, 70063.148438, 101179.210938, 122955.648438, 133371.781250, 68641.289063, 99191.671875, 133211.500000, 0, 1, 1, 0, 1,0.0,0.0,0.0,0.0,0.0, 12:04:01.578
64913.398438, 70145.937500, 100920.875000, 122819.007813, 133434.656250, 68359.835938, 99059.062500, 133182.578125, 0, 1, 1, 0, 1,0.0,0.0,0.0,0.0,0.0, 12:04:01.579
64945.984375, 70183.046875, 100730.835938, 122770.234375, 133486.468750, 68188.664063, 99074.750000, 133238.968750, 0, 1, 1, 0, 1,0.0,0.0,0.0,0.0,0.0, 12:04:01.579
64886.464844, 70112.320313, 100958.757813, 122908.507813, 133432.906250, 68462.789063, 99216.617188, 133279.937500, 0, 1, 1, 0, 1,0.0,0.0,0.0,0.0,0.0, 12:04:01.579
64853.269531, 70075.890625, 101167.234375, 122970.375000, 133387.406250, 68649.046875, 99224.304688, 133227.078125, 0, 1, 1, 0, 1,0.0,0.0,0.0,0.0,0.0, 12:04:01.580
64894.464844, 70129.195313, 100980.015625, 122848.421875, 133425.984375, 68421.523438, 99096.945313, 133182.796875, 0, 1, 1, 0, 1,0.0,0.0,0.0,0.0,0.0, 12:04:01.581
64942.187500, 70181.570313, 100731.062500, 122762.750000, 133483.546875, 68184.421875, 99069.546875, 133227.359375, 0, 1, 1, 0, 1,0.0,0.0,0.0,0.0,0.0, 12:04:01.581
64896.835938, 70127.945313, 100887.835938, 122876.898438, 133445.250000, 68394.078125, 99201.757813, 133284.937500, 0, 1, 1, 0, 1,0.0,0.0,0.0,0.0,0.0, 12:04:01.582
64837.511719, 70061.945313, 101162.117188, 122970.265625, 133375.171875, 68647.523438, 99233.515625, 133230.781250, 0, 1, 1, 0, 1,0.0,0.0,0.0,0.0,0.0, 12:04:01.582
64880.429688, 70110.179688, 101042.484375, 122873.750000, 133406.203125, 68480.203125, 99111.007813, 133178.468750, 0, 1, 1, 0, 1,0.0,0.0,0.0,0.0,0.0, 12:04:01.583
64941.246094, 70179.312500, 100756.609375, 122760.515625, 133473.750000, 68197.312500, 99052.515625, 133211.359375, 0, 1, 1, 0, 1,0.0,0.0,0.0,0.0,0.0, 12:04:01.584
64905.953125, 70135.343750, 100841.414063, 122845.585938, 133457.593750, 68331.312500, 99178.914063, 133277.343750, 0, 1, 1, 0, 1,0.0,0.0,0.0,0.0,0.0, 12:04:01.585
64842.898438, 70060.492188, 101139.585938, 122965.054688, 133387.203125, 68630.828125, 99248.695313, 133246.031250, 0, 1, 1, 0, 1,0.0,0.0,0.0,0.0,0.0, 12:04:01.586
64875.734375, 70096.390625, 101087.187500, 122897.773438, 133403.796875, 68532.546875, 99143.039063, 133188.562500, 0, 1, 1, 0, 1,0.0,0.0,0.0,0.0,0.0, 12:04:01.586
64951.777344, 70181.773438, 100768.414063, 122767.960938, 133486.093750, 68217.765625, 99061.609375, 133214.921875, 0, 1, 1, 0, 1,0.0,0.0,0.0,0.0,0.0, 12:04:01.586
64927.703125, 70151.820313, 100790.312500, 122823.296875, 133480.859375, 68274.382813, 99165.210938, 133279.000000, 0, 1, 1, 0, 1,0.0,0.0,0.0,0.0,0.0, 12:04:01.586
64852.937500, 70063.351563, 101112.226563, 122963.578125, 133399.437500, 68601.882813, 99261.906250, 133261.203125, 0, 1, 1, 0, 1,0.0,0.0,0.0,0.0,0.0, 12:04:01.587
64863.664063, 70079.023438, 101138.109375, 122927.039063, 133396.140625, 68579.062500, 99173.101563, 133195.625000, 0, 1, 1, 0, 1,0.0,0.0,0.0,0.0,0.0, 12:04:01.587
64939.304688, 70168.335938, 100820.421875, 122786.109375, 133471.843750, 68261.625000, 99064.914063, 133207.140625, 0, 1, 1, 0, 1,0.0,0.0,0.0,0.0,0.0, 12:04:01.588
64936.800781, 70161.656250, 100760.054688, 122803.007813, 133482.000000, 68234.218750, 99135.617188, 133271.953125, 0, 1, 1, 0, 1,0.0,0.0,0.0,0.0,0.0, 12:04:01.589
64872.785156, 70080.921875, 101052.929688, 122944.109375, 133414.578125, 68557.695313, 99251.218750, 133270.171875, 0, 1, 1, 0, 1,0.0,0.0,0.0,0.0,0.0, 12:04:01.589
64861.339844, 70069.835938, 101164.304688, 122943.125000, 133385.484375, 68619.203125, 99193.484375, 133207.546875, 0, 1, 1, 0, 1,0.0,0.0,0.0,0.0,0.0, 12:04:01.589
64927.121094, 70152.984375, 100888.773438, 122804.796875, 133448.984375, 68321.414063, 99066.484375, 133193.171875, 0, 1, 1, 0, 1,0.0,0.0,0.0,0.0,0.0, 12:04:01.589
64954.546875, 70181.125000, 100741.007813, 122781.570313, 133493.046875, 68197.718750, 99105.929688, 133250.656250, 0, 1, 1, 0, 1,0.0,0.0,0.0,0.0,0.0, 12:04:01.589
64893.527344, 70104.882813, 100994.656250, 122923.210938, 133430.671875, 68497.679688, 99239.796875, 133279.578125, 0, 1, 1, 0, 1,0.0,0.0,0.0,0.0,0.0, 12:04:01.590
64868.402344, 70078.726563, 101171.593750, 122964.742188, 133389.968750, 68636.367188, 99219.476563, 133219.765625, 0, 1, 1, 0, 1,0.0,0.0,0.0,0.0,0.0, 12:04:01.590
64930.855469, 70152.648438, 100936.359375, 122834.742188, 133448.781250, 68372.351563, 99093.437500, 133192.203125, 0, 1, 1, 0, 1,0.0,0.0,0.0,0.0,0.0, 12:04:01.590
64961.140625, 70184.992188, 100740.335938, 122779.203125, 133492.125000, 68189.421875, 99090.664063, 133246.828125, 0, 1, 1, 0, 1,0.0,0.0,0.0,0.0,0.0, 12:04:01.590
64895.203125, 70106.734375, 100967.140625, 122905.867188, 133432.718750, 68453.937500, 99222.945313, 133281.796875, 0, 1, 1, 0, 1,0.0,0.0,0.0,0.0,0.0, 12:04:01.590
64860.914063, 70065.828125, 101187.078125, 122975.468750, 133385.125000, 68655.929688, 99235.820313, 133224.781250, 0, 1, 1, 0, 1,0.0,0.0,0.0,0.0,0.0, 12:04:01.590
64910.960938, 70121.039063, 101010.500000, 122859.195313, 133425.687500, 68443.656250, 99108.390625, 133184.140625, 0, 1, 1, 0, 1,0.0,0.0,0.0,0.0,0.0, 12:04:01.591
64960.582031, 70179.492188, 100750.460938, 122765.500000, 133487.421875, 68194.632813, 99065.718750, 133224.343750, 0, 1, 1, 0, 1,0.0,0.0,0.0,0.0,0.0, 12:04:01.591
64919.566406, 70132.460938, 100887.273438, 122875.000000, 133464.109375, 68384.914063, 99200.773438, 133282.578125, 0, 1, 1, 0, 1,0.0,0.0,0.0,0.0,0.0, 12:04:01.592
64860.378906, 70066.953125, 101165.195313, 122978.710938, 133394.515625, 68649.937500, 99248.468750, 133238.671875, 0, 1, 1, 0, 1,0.0,0.0,0.0,0.0,0.0, 12:04:01.592
64901.820313, 70112.835938, 101059.695313, 122887.070313, 133413.937500, 68497.609375, 99125.445313, 133181.031250, 0, 1, 1, 0, 1,0.0,0.0,0.0,0.0,0.0, 12:04:01.592
64966.414063, 70188.140625, 100754.593750, 122770.726563, 133491.343750, 68200.242188, 99056.312500, 133215.250000, 0, 1, 1, 0, 1,0.0,0.0,0.0,0.0,0.0, 12:04:01.593
64934.699219, 70145.515625, 100833.742188, 122848.421875, 133471.093750, 68317.921875, 99171.648438, 133279.468750, 0, 1, 1, 0, 1,0.0,0.0,0.0,0.0,0.0, 12:04:01.593
64881.949219, 70080.046875, 101121.343750, 122970.375000, 133402.515625, 68619.609375, 99249.968750, 133259.015625, 0, 1, 1, 0, 1,0.0,0.0,0.0,0.0,0.0, 12:04:01.593
64897.730469, 70103.359375, 101091.125000, 122911.414063, 133415.953125, 68546.226563, 99156.265625, 133205.656250, 0, 1, 1, 0, 1,0.0,0.0,0.0,0.0,0.0, 12:04:01.594
64957.164063, 70176.968750, 100792.531250, 122780.203125, 133482.093750, 68238.890625, 99059.867188, 133214.625000, 0, 1, 1, 0, 1,0.0,0.0,0.0,0.0,0.0, 12:04:01.594
64936.621094, 70153.828125, 100792.976563, 122824.929688, 133479.375000, 68270.742188, 99148.062500, 133276.781250, 0, 1, 1, 0, 1,0.0,0.0,0.0,0.0,0.0, 12:04:01.595
64866.257813, 70069.273438, 101098.164063, 122967.781250, 133407.718750, 68599.000000, 99255.218750, 133273.609375, 0, 1, 1, 0, 1,0.0,0.0,0.0,0.0,0.0, 12:04:01.595
64888.566406, 70088.585938, 101138.664063, 122940.867188, 133403.562500, 68597.320313, 99180.718750, 133214.359375, 0, 1, 1, 0, 1,0.0,0.0,0.0,0.0,0.0, 12:04:01.596
64969.457031, 70179.156250, 100833.500000, 122798.289063, 133473.015625, 68282.656250, 99062.679688, 133210.781250, 0, 1, 1, 0, 1,0.0,0.0,0.0,0.0,0.0, 12:04:01.596
64975.109375, 70183.265625, 100749.789063, 122804.656250, 133497.718750, 68224.945313, 99125.156250, 133273.546875, 0, 1, 1, 0, 1,0.0,0.0,0.0,0.0,0.0, 12:04:01.597
64907.207031, 70097.078125, 101044.273438, 122952.289063, 133431.171875, 68546.742188, 99257.093750, 133286.328125, 0, 1, 1, 0, 1,0.0,0.0,0.0,0.0,0.0, 12:04:01.602
64896.187500, 70084.695313, 101174.585938, 122961.101563, 133400.593750, 68626.226563, 99207.765625, 133219.203125, 0, 1, 1, 0, 1,0.0,0.0,0.0,0.0,0.0, 12:04:01.602
64959.441406, 70164.781250, 100904.156250, 122815.726563, 133465.609375, 68334.312500, 99081.929688, 133204.250000, 0, 1, 1, 0, 1,0.0,0.0,0.0,0.0,0.0, 12:04:01.603
65002.804688, 70206.875000, 100730.343750, 122781.210938, 133517.921875, 68191.859375, 99115.117188, 133274.218750, 0, 1, 1, 0, 1,0.0,0.0,0.0,0.0,0.0, 12:04:01.603
64924.082031, 70110.757813, 101005.984375, 122922.226563, 133441.562500, 68494.437500, 99246.953125, 133291.187500, 0, 1, 1, 0, 1,0.0,0.0,0.0,0.0,0.0, 12:04:01.603
64885.792969, 70067.617188, 101209.765625, 122960.226563, 133384.953125, 68652.171875, 99215.546875, 133215.875000, 0, 1, 1, 0, 1,0.0,0.0,0.0,0.0,0.0, 12:04:01.604
64957.074219, 70153.296875, 100959.921875, 122828.304688, 133450.281250, 68386.414063, 99086.015625, 133191.531250, 0, 1, 1, 0, 1,0.0,0.0,0.0,0.0,0.0, 12:04:01.604
64997.105469, 70197.062500, 100733.585938, 122764.671875, 133509.640625, 68178.898438, 99088.296875, 133247.906250, 0, 1, 1, 0, 1,0.0,0.0,0.0,0.0,0.0, 12:04:01.604
64944.621094, 70128.710938, 100931.734375, 122890.468750, 133457.656250, 68420.296875, 99224.640625, 133292.875000, 0, 1, 1, 0, 1,0.0,0.0,0.0,0.0,0.0, 12:04:01.605
64895.425781, 70076.382813, 101180.265625, 122972.093750, 133394.359375, 68644.640625, 99244.382813, 133241.921875, 0, 1, 1, 0, 1,0.0,0.0,0.0,0.0,0.0, 12:04:01.605
64936.152344, 70131.656250, 101023.757813, 122861.703125, 133434.453125, 68448.351563, 99119.187500, 133199.109375, 0, 1, 1, 0, 1,0.0,0.0,0.0,0.0,0.0, 12:04:01.606
64986.464844, 70189.304688, 100754.437500, 122760.914063, 133500.609375, 68186.046875, 99076.429688, 133236.125000, 0, 1, 1, 0, 1,0.0,0.0,0.0,0.0,0.0, 12:04:01.606
64949.027344, 70142.609375, 100881.171875, 122861.210938, 133477.890625, 68357.710938, 99210.000000, 133295.031250, 0, 1, 1, 0, 1,0.0,0.0,0.0,0.0,0.0, 12:04:01.606
64890.398438, 70070.835938, 101182.812500, 122973.078125, 133406.875000, 68642.898438, 99268.835938, 133253.140625, 0, 1, 1, 0, 1,0.0,0.0,0.0,0.0,0.0, 12:04:01.607
64917.824219, 70108.609375, 101104.578125, 122889.195313, 133415.203125, 68511.335938, 99148.554688, 133188.921875, 0, 1, 1, 0, 1,0.0,0.0,0.0,0.0,0.0, 12:04:01.607
64993.753906, 70199.718750, 100776.726563, 122763.062500, 133492.906250, 68197.609375, 99066.367188, 133218.984375, 0, 1, 1, 0, 1,0.0,0.0,0.0,0.0,0.0, 12:04:01.607
64966.101563, 70169.968750, 100812.914063, 122832.218750, 133488.656250, 68284.890625, 99181.054688, 133287.765625, 0, 1, 1, 0, 1,0.0,0.0,0.0,0.0,0.0, 12:04:01.608
64885.703125, 70078.640625, 101129.367188, 122963.062500, 133401.359375, 68608.273438, 99269.367188, 133261.406250, 0, 1, 1, 0, 1,0.0,0.0,0.0,0.0,0.0, 12:04:01.608
64904.679688, 70106.445313, 101116.828125, 122909.687500, 133404.750000, 68549.468750, 99168.804688, 133198.406250, 0, 1, 1, 0, 1,0.0,0.0,0.0,0.0,0.0, 12:04:01.608
64977.390625, 70192.343750, 100800.929688, 122773.703125, 133487.250000, 68232.539063, 99074.125000, 133213.843750, 0, 1, 1, 0, 1,0.0,0.0,0.0,0.0,0.0, 12:04:01.609
64969.386719, 70178.195313, 100770.914063, 122804.968750, 133492.843750, 68236.835938, 99155.507813, 133275.156250, 0, 1, 1, 0, 1,0.0,0.0,0.0,0.0,0.0, 12:04:02.031
64900.074219, 70094.664063, 101076.953125, 122952.921875, 133415.859375, 68563.859375, 99268.046875, 133270.593750, 0, 1, 1, 0, 1,0.0,0.0,0.0,0.0,0.0, 12:04:02.032
64897.816406, 70093.750000, 101156.859375, 122938.281250, 133391.765625, 68591.265625, 99194.937500, 133197.328125, 0, 1, 1, 0, 1,0.0,0.0,0.0,0.0,0.0, 12:04:02.032
64966.660156, 70177.773438, 100854.757813, 122792.703125, 133466.546875, 68279.570313, 99074.843750, 133189.234375, 0, 1, 1, 0, 1,0.0,0.0,0.0,0.0,0.0, 12:04:02.032
64986.867188, 70193.882813, 100735.757813, 122785.484375, 133503.187500, 68197.203125, 99127.906250, 133258.843750, 0, 1, 1, 0, 1,0.0,0.0,0.0,0.0,0.0, 12:04:02.033
64912.414063, 70104.273438, 101027.578125, 122932.265625, 133430.640625, 68518.960938, 99256.093750, 133272.468750, 0, 1, 1, 0, 1,0.0,0.0,0.0,0.0,0.0, 12:04:02.033
64899.671875, 70091.070313, 101164.726563, 122949.898438, 133403.984375, 68617.148438, 99216.617188, 133211.765625, 0, 1, 1, 0, 1,0.0,0.0,0.0,0.0,0.0, 12:04:02.033
64965.230469, 70173.609375, 100901.406250, 122814.335938, 133473.015625, 68332.367188, 99088.703125, 133190.828125, 0, 1, 1, 0, 1,0.0,0.0,0.0,0.0,0.0, 12:04:02.033
65000.257813, 70210.648438, 100725.203125, 122780.429688, 133529.515625, 68178.070313, 99116.195313, 133260.515625, 0, 1, 1, 0, 1,0.0,0.0,0.0,0.0,0.0, 12:04:02.034
64930.921875, 70128.929688, 100979.414063, 122925.648438, 133464.046875, 68465.203125, 99252.429688, 133291.203125, 0, 1, 1, 0, 1,0.0,0.0,0.0,0.0,0.0, 12:04:02.034
64888.789063, 70082.171875, 101202.640625, 122982.335938, 133405.203125, 68647.390625, 99242.101563, 133226.890625, 0, 1, 1, 0, 1,0.0,0.0,0.0,0.0,0.0, 12:04:02.035
64950.613281, 70155.015625, 100990.718750, 122856.335938, 133457.984375, 68409.117188, 99109.734375, 133196.156250, 0, 1, 1, 0, 1,0.0,0.0,0.0,0.0,0.0, 12:04:02.035
64994.847656, 70208.078125, 100756.007813, 122783.804688, 133519.500000, 68188.710938, 99098.265625, 133248.734375, 0, 1, 1, 0, 1,0.0,0.0,0.0,0.0,0.0, 12:04:02.035
64942.589844, 70147.054688, 100929.054688, 122901.953125, 133479.109375, 68412.296875, 99233.070313, 133300.437500, 0, 1, 1, 0, 1,0.0,0.0,0.0,0.0,0.0, 12:04:02.035
64893.058594, 70092.765625, 101183.414063, 122990.734375, 133419.171875, 68653.718750, 99263.625000, 133251.125000, 0, 1, 1, 0, 1,0.0,0.0,0.0,0.0,0.0, 12:04:02.036
64937.066406, 70146.679688, 101040.921875, 122887.070313, 133449.046875, 68472.554688, 99137.445313, 133201.109375, 0, 1, 1, 0, 1,0.0,0.0,0.0,0.0,0.0, 12:04:02.036
64989.191406, 70204.078125, 100765.484375, 122781.773438, 133511.500000, 68200.578125, 99084.164063, 133234.984375, 0, 1, 1, 0, 1,0.0,0.0,0.0,0.0,0.0, 12:04:02.036
64944.914063, 70153.273438, 100876.570313, 122870.593750, 133482.531250, 68352.367188, 99205.085938, 133291.140625, 0, 1, 1, 0, 1,0.0,0.0,0.0,0.0,0.0, 12:04:02.037
64888.722656, 70087.960938, 101165.242188, 122988.367188, 133413.890625, 68642.515625, 99268.250000, 133259.109375, 0, 1, 1, 0, 1,0.0,0.0,0.0,0.0,0.0, 12:04:02.037
64916.929688, 70126.335938, 101102.367188, 122915.750000, 133428.218750, 68532.953125, 99154.953125, 133200.515625, 0, 1, 1, 0, 1,0.0,0.0,0.0,0.0,0.0, 12:04:02.037
64982.933594, 70202.734375, 100798.179688, 122787.539063, 133503.968750, 68228.671875, 99076.632813, 133225.171875, 0, 1, 1, 0, 1,0.0,0.0,0.0,0.0,0.0, 12:04:02.037
64961.746094, 70171.507813, 100831.687500, 122844.265625, 133488.609375, 68295.843750, 99175.156250, 133282.593750, 0, 1, 1, 0, 1,0.0,0.0,0.0,0.0,0.0, 12:04:02.038
64894.488281, 70092.093750, 101141.328125, 122981.351563, 133412.734375, 68618.984375, 99269.367188, 133266.546875, 0, 1, 1, 0, 1,0.0,0.0,0.0,0.0,0.0, 12:04:02.038
64896.812500, 70103.789063, 101165.445313, 122942.320313, 133408.781250, 68589.726563, 99179.875000, 133198.781250, 0, 1, 1, 0, 1,0.0,0.0,0.0,0.0,0.0, 12:04:02.038
64962.929688, 70188.210938, 100848.695313, 122798.601563, 133482.000000, 68268.437500, 99070.882813, 133200.703125, 0, 1, 1, 0, 1,0.0,0.0,0.0,0.0,0.0, 12:04:02.039
64963.128906, 70187.289063, 100800.687500, 122821.179688, 133485.281250, 68250.531250, 99141.695313, 133262.437500, 0, 1, 1, 0, 1,0.0,0.0,0.0,0.0,0.0, 12:04:02.039
64898.332031, 70111.742188, 101098.929688, 122969.125000, 133414.625000, 68580.625000, 99262.437500, 133272.781250, 0, 1, 1, 0, 1,0.0,0.0,0.0,0.0,0.0, 12:04:02.039
64891.625000, 70108.609375, 101189.070313, 122962.437500, 133396.375000, 68626.781250, 99201.039063, 133202.328125, 0, 1, 1, 0, 1,0.0,0.0,0.0,0.0,0.0, 12:04:02.040
64964.070313, 70193.328125, 100891.656250, 122816.664063, 133469.093750, 68319.156250, 99076.250000, 133195.156250, 0, 1, 1, 0, 1,0.0,0.0,0.0,0.0,0.0, 12:04:02.040
64980.429688, 70211.656250, 100766.375000, 122802.445313, 133505.156250, 68218.078125, 99121.062500, 133261.250000, 0, 1, 1, 0, 1,0.0,0.0,0.0,0.0,0.0, 12:04:02.040
64914.179688, 70131.703125, 101034.039063, 122946.953125, 133441.109375, 68525.460938, 99256.937500, 133286.531250, 0, 1, 1, 0, 1,0.0,0.0,0.0,0.0,0.0, 12:04:02.040
64894.800781, 70110.000000, 101192.960938, 122977.976563, 133404.234375, 68647.703125, 99223.703125, 133222.062500, 0, 1, 1, 0, 1,0.0,0.0,0.0,0.0,0.0, 12:04:02.041
64956.335938, 70184.203125, 100942.351563, 122843.281250, 133467.203125, 68376.421875, 99104.257813, 133201.531250, 0, 1, 1, 0, 1,0.0,0.0,0.0,0.0,0.0, 12:04:02.041
64988.164063, 70219.078125, 100744.875000, 122786.375000, 133505.375000, 68197.273438, 99102.734375, 133251.593750, 0, 1, 1, 0, 1,0.0,0.0,0.0,0.0,0.0, 12:04:02.041
64937.046875, 70152.554688, 100963.632813, 122923.703125, 133454.687500, 68464.039063, 99240.335938, 133296.812500, 0, 1, 1, 0, 1,0.0,0.0,0.0,0.0,0.0, 12:04:02.042
64887.468750, 70098.171875, 101211.179688, 122997.757813, 133390.828125, 68671.914063, 99244.648438, 133229.781250, 0, 1, 1, 0, 1,0.0,0.0,0.0,0.0,0.0, 12:04:02.042
64948.085938, 70173.031250, 101009.515625, 122877.882813, 133440.953125, 68442.890625, 99114.757813, 133191.093750, 0, 1, 1, 0, 1,0.0,0.0,0.0,0.0,0.0, 12:04:02.042
64999.339844, 70232.773438, 100750.171875, 122796.968750, 133507.843750, 68198.234375, 99096.320313, 133244.531250, 0, 1, 1, 0, 1,0.0,0.0,0.0,0.0,0.0, 12:04:02.042
64941.226563, 70164.445313, 100925.859375, 122911.546875, 133465.953125, 68407.828125, 99231.570313, 133293.109375, 0, 1, 1, 0, 1,0.0,0.0,0.0,0.0,0.0, 12:04:02.042
64886.464844, 70097.195313, 101212.179688, 123009.515625, 133397.375000, 68671.242188, 99270.867188, 133243.078125, 0, 1, 1, 0, 1,0.0,0.0,0.0,0.0,0.0, 12:04:02.043
64928.058594, 70144.132813, 101092.531250, 122911.726563, 133433.734375, 68507.289063, 99152.828125, 133193.078125, 0, 1, 1, 0, 1,0.0,0.0,0.0,0.0,0.0, 12:04:02.043
64992.031250, 70219.031250, 100793.757813, 122798.890625, 133508.687500, 68216.875000, 99095.671875, 133228.890625, 0, 1, 1, 0, 1,0.0,0.0,0.0,0.0,0.0, 12:04:02.043
64965.320313, 70184.320313, 100873.328125, 122883.695313, 133494.562500, 68345.687500, 99214.429688, 133295.562500, 0, 1, 1, 0, 1,0.0,0.0,0.0,0.0,0.0, 12:04:02.043
64896.679688, 70104.726563, 101170.656250, 123004.414063, 133421.218750, 68651.367188, 99287.226563, 133270.625000, 0, 1, 1, 0, 1,0.0,0.0,0.0,0.0,0.0, 12:04:02.043
64915.453125, 70130.359375, 101134.085938, 122935.617188, 133428.687500, 68565.093750, 99181.703125, 133209.000000, 0, 1, 1, 0, 1,0.0,0.0,0.0,0.0,0.0, 12:04:02.043
64980.230469, 70207.093750, 100821.382813, 122795.539063, 133500.953125, 68249.906250, 99090.953125, 133221.843750, 0, 1, 1, 0, 1,0.0,0.0,0.0,0.0,0.0, 12:04:02.044
64972.449219, 70194.804688, 100812.507813, 122844.445313, 133516.515625, 68288.648438, 99196.187500, 133296.093750, 0, 1, 1, 0, 1,0.0,0.0,0.0,0.0,0.0, 12:04:02.044
64899.136719, 70108.234375, 101127.203125, 122988.593750, 133434.859375, 68620.414063, 99301.507813, 133285.218750, 0, 1, 1, 0, 1,0.0,0.0,0.0,0.0,0.0, 12:04:02.044
64904.253906, 70115.789063, 101172.976563, 122958.593750, 133425.828125, 68610.953125, 99220.125000, 133218.046875, 0, 1, 1, 0, 1,0.0,0.0,0.0,0.0,0.0, 12:04:02.044
64975.378906, 70197.710938, 100868.968750, 122816.953125, 133497.984375, 68295.640625, 99103.632813, 133220.500000, 0, 1, 1, 0, 1,0.0,0.0,0.0,0.0,0.0, 12:04:02.044
64983.539063, 70199.609375, 100793.781250, 122829.718750, 133516.687500, 68253.195313, 99167.351563, 133287.375000, 0, 1, 1, 0, 1,0.0,0.0,0.0,0.0,0.0, 12:04:02.044
64907.628906, 70112.187500, 101096.242188, 122979.742188, 133439.859375, 68582.390625, 99287.828125, 133291.890625, 0, 1, 1, 0, 1,0.0,0.0,0.0,0.0,0.0, 12:04:02.045
64894.199219, 70100.296875, 101217.750000, 122983.226563, 133407.750000, 68654.585938, 99228.062500, 133219.718750, 0, 1, 1, 0, 1,0.0,0.0,0.0,0.0,0.0, 12:04:02.045
64974.214844, 70194.265625, 100924.359375, 122843.039063, 133491.359375, 68350.937500, 99109.640625, 133216.375000, 0, 1, 1, 0, 1,0.0,0.0,0.0,0.0,0.0, 12:04:02.045
64997.351563, 70222.632813, 100762.687500, 122816.664063, 133531.937500, 68220.625000, 99142.812500, 133279.890625, 0, 1, 1, 0, 1,0.0,0.0,0.0,0.0,0.0, 12:04:02.045
64912.726563, 70127.320313, 101043.156250, 122960.320313, 133448.656250, 68530.242188, 99266.085938, 133293.140625, 0, 1, 1, 0, 1,0.0,0.0,0.0,0.0,0.0, 12:04:02.046
64876.851563, 70088.968750, 101235.984375, 122997.554688, 133397.312500, 68680.984375, 99239.148438, 133219.671875, 0, 1, 1, 0, 1,0.0,0.0,0.0,0.0,0.0, 12:04:02.046
64940.355469, 70163.734375, 100992.976563, 122860.539063, 133453.968750, 68412.875000, 99108.835938, 133186.843750, 0, 1, 1, 0, 1,0.0,0.0,0.0,0.0,0.0, 12:04:02.046
64989.281250, 70217.132813, 100764.140625, 122796.921875, 133514.203125, 68208.000000, 99110.937500, 133246.343750, 0, 1, 1, 0, 1,0.0,0.0,0.0,0.0,0.0, 12:04:02.046
64938.207031, 70155.328125, 100956.367188, 122924.781250, 133472.718750, 68458.382813, 99252.562500, 133296.328125, 0, 1, 1, 0, 1,0.0,0.0,0.0,0.0,0.0, 12:04:02.047
64886.710938, 70097.796875, 101208.273438, 123006.945313, 133412.000000, 68684.359375, 99271.492188, 133239.953125, 0, 1, 1, 0, 1,0.0,0.0,0.0,0.0,0.0, 12:04:02.047
64933.984375, 70154.031250, 101045.906250, 122896.460938, 133453.187500, 68479.929688, 99143.414063, 133189.812500, 0, 1, 1, 0, 1,0.0,0.0,0.0,0.0,0.0, 12:04:02.048
64989.281250, 70218.382813, 100777.773438, 122802.398438, 133516.390625, 68219.132813, 99098.039063, 133227.859375, 0, 1, 1, 0, 1,0.0,0.0,0.0,0.0,0.0, 12:04:02.048
64941.582031, 70162.570313, 100916.937500, 122903.164063, 133476.953125, 68400.562500, 99224.148438, 133282.593750, 0, 1, 1, 0, 1,0.0,0.0,0.0,0.0,0.0, 12:04:02.048
64888.207031, 70098.601563, 101191.750000, 123005.867188, 133410.062500, 68671.460938, 99272.273438, 133242.984375, 0, 1, 1, 0, 1,0.0,0.0,0.0,0.0,0.0, 12:04:02.048
64932.957031, 70153.046875, 101078.945313, 122920.953125, 133440.515625, 68525.906250, 99157.226563, 133194.843750, 0, 1, 1, 0, 1,0.0,0.0,0.0,0.0,0.0, 12:04:02.049
64987.089844, 70219.765625, 100795.031250, 122803.945313, 133508.703125, 68237.187500, 99095.875000, 133221.671875, 0, 1, 1, 0, 1,0.0,0.0,0.0,0.0,0.0, 12:04:02.049
64960.066406, 70183.804688, 100855.445313, 122872.898438, 133491.750000, 68340.234375, 99204.679688, 133283.062500, 0, 1, 1, 0, 1,0.0,0.0,0.0,0.0,0.0, 12:04:02.049
64903.226563, 70111.585938, 101162.406250, 123000.906250, 133410.312500, 68654.367188, 99278.578125, 133259.156250, 0, 1, 1, 0, 1,0.0,0.0,0.0,0.0,0.0, 12:04:02.049
64921.800781, 70133.109375, 101155.539063, 122942.078125, 133415.078125, 68592.671875, 99181.679688, 133192.750000, 0, 1, 1, 0, 1,0.0,0.0,0.0,0.0,0.0, 12:04:02.049
65002.089844, 70226.226563, 100830.929688, 122802.203125, 133504.593750, 68272.460938, 99088.875000, 133215.203125, 0, 1, 1, 0, 1,0.0,0.0,0.0,0.0,0.0, 12:04:02.049
65002.648438, 70223.437500, 100810.835938, 122846.859375, 133518.406250, 68291.328125, 99186.843750, 133291.515625, 0, 1, 1, 0, 1,0.0,0.0,0.0,0.0,0.0, 12:04:02.050
64937.605469, 70136.796875, 101126.015625, 122989.601563, 133436.015625, 68623.968750, 99295.031250, 133278.390625, 0, 1, 1, 0, 1,0.0,0.0,0.0,0.0,0.0, 12:04:02.050
64956.804688, 70157.898438, 101178.382813, 122966.664063, 133426.562500, 68631.859375, 99218.562500, 133213.953125, 0, 1, 1, 0, 1,0.0,0.0,0.0,0.0,0.0, 12:04:02.050
65037.671875, 70250.546875, 100880.906250, 122826.679688, 133498.062500, 68323.226563, 99101.843750, 133215.625000, 0, 1, 1, 0, 1,0.0,0.0,0.0,0.0,0.0, 12:04:02.050
65059.531250, 70271.937500, 100792.351563, 122830.679688, 133528.843750, 68262.492188, 99162.328125, 133283.312500, 0, 1, 1, 0, 1,0.0,0.0,0.0,0.0,0.0, 12:04:02.050
65011.812500, 70203.179688, 101085.132813, 122980.054688, 133452.421875, 68586.210938, 99287.984375, 133294.281250, 0, 1, 1, 0, 1,0.0,0.0,0.0,0.0,0.0, 12:04:02.050
65009.980469, 70195.359375, 101226.195313, 122994.671875, 133419.140625, 68679.796875, 99242.140625, 133222.187500, 0, 1, 1, 0, 1,0.0,0.0,0.0,0.0,0.0, 12:04:02.051
65090.156250, 70282.640625, 100966.804688, 122857.812500, 133485.781250, 68393.968750, 99118.562500, 133202.734375, 0, 1, 1, 0, 1,0.0,0.0,0.0,0.0,0.0, 12:04:02.051
65138.925781, 70333.023438, 100795.750000, 122827.523438, 133535.734375, 68245.750000, 99143.617188, 133267.750000, 0, 1, 1, 0, 1,0.0,0.0,0.0,0.0,0.0, 12:04:02.051
65084.968750, 70265.882813, 101038.351563, 122970.289063, 133475.093750, 68536.007813, 99281.546875, 133301.781250, 0, 1, 1, 0, 1,0.0,0.0,0.0,0.0,0.0, 12:04:02.051
65054.125000, 70227.750000, 101237.398438, 123017.539063, 133420.671875, 68704.992188, 99265.859375, 133237.656250, 0, 1, 1, 0, 1,0.0,0.0,0.0,0.0,0.0, 12:04:02.051
65124.843750, 70307.234375, 101026.507813, 122892.476563, 133475.468750, 68460.218750, 99138.523438, 133202.875000, 0, 1, 1, 0, 1,0.0,0.0,0.0,0.0,0.0, 12:04:02.052
65174.777344, 70364.585938, 100797.023438, 122819.882813, 133540.531250, 68243.093750, 99135.882813, 133261.984375, 0, 1, 1, 0, 1,0.0,0.0,0.0,0.0,0.0, 12:04:02.052
65136.757813, 70316.242188, 100975.703125, 122940.984375, 133501.171875, 68476.039063, 99277.210938, 133318.546875, 0, 1, 1, 0, 1,0.0,0.0,0.0,0.0,0.0, 12:04:02.052
65103.789063, 70273.859375, 101222.484375, 123030.703125, 133444.625000, 68710.085938, 99305.531250, 133272.250000, 0, 1, 1, 0, 1,0.0,0.0,0.0,0.0,0.0, 12:04:02.052
65141.296875, 70321.000000, 101086.679688, 122930.250000, 133472.828125, 68526.468750, 99182.085938, 133223.656250, 0, 1, 1, 0, 1,0.0,0.0,0.0,0.0,0.0, 12:04:02.052
65192.617188, 70382.000000, 100826.460938, 122829.562500, 133534.843750, 68261.484375, 99137.117188, 133256.515625, 0, 1, 1, 0, 1,0.0,0.0,0.0,0.0,0.0, 12:04:02.052
65165.593750, 70341.406250, 100936.093750, 122924.601563, 133515.234375, 68420.500000, 99265.750000, 133318.421875, 0, 1, 1, 0, 1,0.0,0.0,0.0,0.0,0.0, 12:04:02.053
65111.433594, 70271.468750, 101222.734375, 123036.851563, 133446.343750, 68707.132813, 99327.507813, 133284.312500, 0, 1, 1, 0, 1,0.0,0.0,0.0,0.0,0.0, 12:04:02.054
65135.820313, 70303.273438, 101158.781250, 122963.335938, 133456.859375, 68590.171875, 99212.414063, 133221.250000, 0, 1, 1, 0, 1,0.0,0.0,0.0,0.0,0.0, 12:04:02.054
65200.171875, 70379.851563, 100863.851563, 122837.937500, 133528.640625, 68285.335938, 99131.320313, 133238.968750, 0, 1, 1, 0, 1,0.0,0.0,0.0,0.0,0.0, 12:04:02.054
65186.984375, 70358.218750, 100890.320313, 122897.171875, 133528.687500, 68356.859375, 99235.546875, 133307.000000, 0, 1, 1, 0, 1,0.0,0.0,0.0,0.0,0.0, 12:04:02.055
65123.035156, 70281.125000, 101182.859375, 123031.125000, 133458.734375, 68670.304688, 99329.335938, 133291.343750, 0, 1, 1, 0, 1,0.0,0.0,0.0,0.0,0.0, 12:04:02.055
65124.554688, 70284.742188, 101201.695313, 122985.796875, 133446.171875, 68629.554688, 99232.312500, 133219.609375, 0, 1, 1, 0, 1,0.0,0.0,0.0,0.0,0.0, 12:04:02.055
65193.933594, 70366.460938, 100906.585938, 122848.539063, 133525.140625, 68315.507813, 99133.718750, 133229.000000, 0, 1, 1, 0, 1,0.0,0.0,0.0,0.0,0.0, 12:04:02.055
65188.234375, 70359.351563, 100856.859375, 122874.039063, 133539.843750, 68305.070313, 99213.109375, 133296.875000, 0, 1, 1, 0, 1,0.0,0.0,0.0,0.0,0.0, 12:04:02.055
65105.691406, 70268.898438, 101150.156250, 123012.953125, 133465.437500, 68633.507813, 99328.375000, 133294.531250, 0, 1, 1, 0, 1,0.0,0.0,0.0,0.0,0.0, 12:04:02.055
65091.117188, 70262.210938, 101236.453125, 123002.671875, 133443.703125, 68674.500000, 99258.882813, 133225.312500, 0, 1, 1, 0, 1,0.0,0.0,0.0,0.0,0.0, 12:04:02.055
65147.710938, 70331.257813, 100958.554688, 122862.218750, 133502.828125, 68370.453125, 99131.773438, 133209.015625, 0, 1, 1, 0, 1,0.0,0.0,0.0,0.0,0.0, 12:04:02.056
65169.570313, 70352.406250, 100830.187500, 122850.414063, 133543.484375, 68272.507813, 99184.187500, 133278.578125, 0, 1, 1, 0, 1,0.0,0.0,0.0,0.0,0.0, 12:04:02.056
65091.496094, 70263.289063, 101096.914063, 122989.664063, 133470.625000, 68585.406250, 99310.320313, 133293.484375, 0, 1, 1, 0, 1,0.0,0.0,0.0,0.0,0.0, 12:04:02.056
65058.683594, 70230.539063, 101246.578125, 123013.070313, 133430.046875, 68703.562500, 99273.679688, 133229.156250, 0, 1, 1, 0, 1,0.0,0.0,0.0,0.0,0.0, 12:04:02.056
65104.503906, 70289.015625, 101000.781250, 122874.710938, 133481.812500, 68425.195313, 99140.132813, 133199.312500, 0, 1, 1, 0, 1,0.0,0.0,0.0,0.0,0.0, 12:04:02.056
65134.589844, 70320.421875, 100808.062500, 122824.265625, 133537.781250, 68252.812500, 99158.820313, 133259.156250, 0, 1, 1, 0, 1,0.0,0.0,0.0,0.0,0.0, 12:04:02.057
65064.832031, 70251.218750, 101025.570313, 122953.117188, 133484.093750, 68525.460938, 99296.750000, 133296.093750, 0, 1, 1, 0, 1,0.0,0.0,0.0,0.0,0.0, 12:04:02.057
65014.875000, 70198.843750, 101242.156250, 123011.835938, 133421.921875, 68717.437500, 99290.890625, 133234.296875, 0, 1, 1, 0, 1,0.0,0.0,0.0,0.0,0.0, 12:04:02.057
65063.714844, 70263.648438, 101036.406250, 122889.125000, 133476.921875, 68479.015625, 99163.195313, 133199.375000, 0, 1, 1, 0, 1,0.0,0.0,0.0,0.0,0.0, 12:04:02.057
65101.933594, 70307.882813, 100796.687500, 122807.585938, 133538.031250, 68245.593750, 99138.429688, 133244.687500, 0, 1, 1, 0, 1,0.0,0.0,0.0,0.0,0.0, 12:04:02.058
65047.308594, 70244.468750, 100955.828125, 122917.781250, 133501.578125, 68456.843750, 99269.773438, 133291.312500, 0, 1, 1, 0, 1,0.0,0.0,0.0,0.0,0.0, 12:04:02.058
64990.488281, 70179.890625, 101207.039063, 123008.242188, 133440.781250, 68706.554688, 99304.750000, 133244.625000, 0, 1, 1, 0, 1,0.0,0.0,0.0,0.0,0.0, 12:04:02.058
65017.578125, 70218.539063, 101086.367188, 122912.882813, 133467.265625, 68540.367188, 99186.289063, 133194.593750, 0, 1, 1, 0, 1,0.0,0.0,0.0,0.0,0.0, 12:04:02.059
65063.601563, 70271.445313, 100820.914063, 122804.523438, 133524.062500, 68264.531250, 99125.648438, 133214.921875, 0, 1, 1, 0, 1,0.0,0.0,0.0,0.0,0.0, 12:04:02.059
65029.984375, 70227.656250, 100901.070313, 122885.593750, 133505.625000, 68400.382813, 99244.937500, 133280.453125, 0, 1, 1, 0, 1,0.0,0.0,0.0,0.0,0.0, 12:04:02.059
64959.976563, 70143.593750, 101189.898438, 123001.492188, 133428.265625, 68701.859375, 99310.671875, 133248.406250, 0, 1, 1, 0, 1,0.0,0.0,0.0,0.0,0.0, 12:04:02.060
64977.433594, 70169.609375, 101137.507813, 122927.929688, 133440.515625, 68603.398438, 99206.671875, 133187.515625, 0, 1, 1, 0, 1,0.0,0.0,0.0,0.0,0.0, 12:04:02.060
65048.917969, 70253.695313, 100831.242188, 122800.234375, 133524.109375, 68291.257813, 99133.359375, 133214.156250, 0, 1, 1, 0, 1,0.0,0.0,0.0,0.0,0.0, 12:04:02.060
65023.792969, 70221.625000, 100846.531250, 122853.945313, 133524.000000, 68347.875000, 99238.835938, 133281.031250, 0, 1, 1, 0, 1,0.0,0.0,0.0,0.0,0.0, 12:04:02.060
64946.949219, 70134.226563, 101138.867188, 122985.085938, 133437.609375, 68669.851563, 99328.398438, 133261.593750, 0, 1, 1, 0, 1,0.0,0.0,0.0,0.0,0.0, 12:04:02.061
64951.082031, 70139.234375, 101165.757813, 122948.984375, 133432.109375, 68648.734375, 99242.210938, 133195.656250, 0, 1, 1, 0, 1,0.0,0.0,0.0,0.0,0.0, 12:04:02.061
65023.031250, 70224.953125, 100862.492188, 122810.671875, 133516.109375, 68327.132813, 99141.960938, 133205.234375, 0, 1, 1, 0, 1,0.0,0.0,0.0,0.0,0.0, 12:04:02.510
65014.113281, 70216.976563, 100814.898438, 122827.390625, 133526.875000, 68300.601563, 99217.085938, 133271.062500, 0, 1, 1, 0, 1,0.0,0.0,0.0,0.0,0.0, 12:04:02.510
64947.394531, 70137.804688, 101090.343750, 122962.398438, 133458.109375, 68621.734375, 99326.921875, 133275.265625, 0, 1, 1, 0, 1,0.0,0.0,0.0,0.0,0.0, 12:04:02.510
64941.804688, 70132.328125, 101179.148438, 122962.890625, 133441.781250, 68677.367188, 99273.343750, 133209.906250, 0, 1, 1, 0, 1,0.0,0.0,0.0,0.0,0.0, 12:04:02.510
64995.832031, 70198.648438, 100932.742188, 122830.273438, 133498.453125, 68386.234375, 99148.625000, 133184.781250, 0, 1, 1, 0, 1,0.0,0.0,0.0,0.0,0.0, 12:04:02.510
65013.488281, 70217.171875, 100804.820313, 122809.625000, 133535.625000, 68271.101563, 99186.960938, 133243.890625, 0, 1, 1, 0, 1,0.0,0.0,0.0,0.0,0.0, 12:04:02.510
64938.945313, 70134.203125, 101049.062500, 122940.265625, 133467.765625, 68567.484375, 99309.914063, 133260.843750, 0, 1, 1, 0, 1,0.0,0.0,0.0,0.0,0.0, 12:04:02.511
64913.417969, 70109.593750, 101207.132813, 122972.054688, 133428.437500, 68700.273438, 99281.906250, 133198.781250, 0, 1, 1, 0, 1,0.0,0.0,0.0,0.0,0.0, 12:04:02.511
64975.578125, 70177.320313, 100983.773438, 122845.359375, 133487.156250, 68436.054688, 99161.320313, 133176.578125, 0, 1, 1, 0, 1,0.0,0.0,0.0,0.0,0.0, 12:04:02.511
65017.332031, 70219.992188, 100791.320313, 122791.296875, 133540.765625, 68246.242188, 99171.515625, 133232.187500, 0, 1, 1, 0, 1,0.0,0.0,0.0,0.0,0.0, 12:04:02.511
64953.273438, 70145.117188, 101002.750000, 122917.960938, 133485.640625, 68508.343750, 99308.507813, 133271.750000, 0, 1, 1, 0, 1,0.0,0.0,0.0,0.0,0.0, 12:04:02.511
64908.726563, 70097.507813, 101223.539063, 122985.125000, 133426.031250, 68712.992188, 99312.617188, 133209.515625, 0, 1, 1, 0, 1,0.0,0.0,0.0,0.0,0.0, 12:04:02.511
64962.078125, 70160.875000, 101042.375000, 122873.546875, 133468.765625, 68491.445313, 99185.617188, 133168.609375, 0, 1, 1, 0, 1,0.0,0.0,0.0,0.0,0.0, 12:04:02.512
65015.656250, 70221.984375, 100788.617188, 122788.656250, 133539.312500, 68240.968750, 99159.445313, 133224.812500, 0, 1, 1, 0, 1,0.0,0.0,0.0,0.0,0.0, 12:04:02.513
64962.035156, 70159.640625, 100936.898438, 122895.429688, 133502.765625, 68437.101563, 99292.390625, 133272.656250, 0, 1, 1, 0, 1,0.0,0.0,0.0,0.0,0.0, 12:04:02.513
64897.214844, 70086.710938, 101213.570313, 122994.203125, 133422.453125, 68707.359375, 99325.875000, 133216.109375, 0, 1, 1, 0, 1,0.0,0.0,0.0,0.0,0.0, 12:04:02.513
64936.441406, 70134.921875, 101100.492188, 122905.289063, 133453.750000, 68555.679688, 99206.914063, 133169.187500, 0, 1, 1, 0, 1,0.0,0.0,0.0,0.0,0.0, 12:04:02.513
64993.437500, 70202.515625, 100821.070313, 122792.500000, 133524.484375, 68271.367188, 99142.007813, 133201.218750, 0, 1, 1, 0, 1,0.0,0.0,0.0,0.0,0.0, 12:04:02.513
64963.421875, 70163.375000, 100893.132813, 122866.242188, 133509.000000, 68391.328125, 99258.062500, 133269.500000, 0, 1, 1, 0, 1,0.0,0.0,0.0,0.0,0.0, 12:04:02.513
64892.207031, 70082.929688, 101180.171875, 122979.875000, 133428.937500, 68697.390625, 99328.664063, 133228.750000, 0, 1, 1, 0, 1,0.0,0.0,0.0,0.0,0.0, 12:04:02.513
64913.910156, 70112.148438, 101132.296875, 122913.179688, 133445.093750, 68610.937500, 99228.265625, 133164.921875, 0, 1, 1, 0, 1,0.0,0.0,0.0,0.0,0.0, 12:04:02.514
64991.023438, 70194.445313, 100841.273438, 122790.171875, 133528.250000, 68302.882813, 99150.320313, 133193.687500, 0, 1, 1, 0, 1,0.0,0.0,0.0,0.0,0.0, 12:04:02.514
64967.488281, 70166.437500, 100847.398438, 122832.820313, 133518.625000, 68338.781250, 99229.023438, 133255.375000, 0, 1, 1, 0, 1,0.0,0.0,0.0,0.0,0.0, 12:04:02.514
64894.218750, 70085.859375, 101129.328125, 122959.492188, 133439.000000, 68659.929688, 99319.906250, 133241.578125, 0, 1, 1, 0, 1,0.0,0.0,0.0,0.0,0.0, 12:04:02.514
64900.769531, 70094.039063, 101169.625000, 122935.398438, 133431.234375, 68659.460938, 99245.671875, 133181.562500, 0, 1, 1, 0, 1,0.0,0.0,0.0,0.0,0.0, 12:04:02.514
64965.812500, 70168.070313, 100900.843750, 122809.015625, 133505.531250, 68355.859375, 99142.570313, 133181.921875, 0, 1, 1, 0, 1,0.0,0.0,0.0,0.0,0.0, 12:04:02.514
64975.757813, 70178.820313, 100825.585938, 122821.601563, 133530.359375, 68306.367188, 99205.687500, 133246.875000, 0, 1, 1, 0, 1,0.0,0.0,0.0,0.0,0.0, 12:04:02.514
64899.562500, 70097.015625, 101083.437500, 122955.023438, 133455.578125, 68625.398438, 99318.968750, 133256.312500, 0, 1, 1, 0, 1,0.0,0.0,0.0,0.0,0.0, 12:04:02.515
64885.906250, 70083.203125, 101197.835938, 122967.515625, 133430.609375, 68706.960938, 99274.132813, 133189.375000, 0, 1, 1, 0, 1,0.0,0.0,0.0,0.0,0.0, 12:04:02.515
64952.757813, 70162.882813, 100947.960938, 122838.523438, 133496.453125, 68414.085938, 99149.226563, 133166.187500, 0, 1, 1, 0, 1,0.0,0.0,0.0,0.0,0.0, 12:04:02.515
64981.882813, 70189.859375, 100797.804688, 122811.718750, 133544.062500, 68273.046875, 99182.328125, 133226.406250, 0, 1, 1, 0, 1,0.0,0.0,0.0,0.0,0.0, 12:04:02.515
64914.402344, 70104.117188, 101029.453125, 122946.976563, 133481.468750, 68564.687500, 99309.109375, 133258.125000, 0, 1, 1, 0, 1,0.0,0.0,0.0,0.0,0.0, 12:04:02.516
64876.183594, 70065.429688, 101232.367188, 122991.273438, 133413.953125, 68733.890625, 99278.421875, 133183.093750, 0, 1, 1, 0, 1,0.0,0.0,0.0,0.0,0.0, 12:04:02.516
64936.039063, 70147.859375, 101027.890625, 122867.804688, 133468.437500, 68477.898438, 99150.343750, 133145.468750, 0, 1, 1, 0, 1,0.0,0.0,0.0,0.0,0.0, 12:04:02.516
64981.703125, 70197.867188, 100812.781250, 122802.960938, 133527.781250, 68260.523438, 99147.460938, 133197.171875, 0, 1, 1, 0, 1,0.0,0.0,0.0,0.0,0.0, 12:04:02.516
64933.535156, 70135.906250, 100977.710938, 122917.914063, 133486.984375, 68490.257813, 99279.382813, 133244.093750, 0, 1, 1, 0, 1,0.0,0.0,0.0,0.0,0.0, 12:04:02.517
64888.542969, 70082.414063, 101205.273438, 122996.304688, 133431.343750, 68714.867188, 99301.445313, 133197.546875, 0, 1, 1, 0, 1,0.0,0.0,0.0,0.0,0.0, 12:04:02.517
64935.972656, 70139.234375, 101062.109375, 122900.953125, 133476.296875, 68517.437500, 99189.304688, 133157.734375, 0, 1, 1, 0, 1,0.0,0.0,0.0,0.0,0.0, 12:04:02.517
64990.308594, 70200.945313, 100820.421875, 122813.710938, 133537.859375, 68256.007813, 99150.773438, 133196.750000, 0, 1, 1, 0, 1,0.0,0.0,0.0,0.0,0.0, 12:04:02.517
64951.148438, 70149.851563, 100943.960938, 122912.687500, 133508.796875, 68430.578125, 99276.500000, 133251.625000, 0, 1, 1, 0, 1,0.0,0.0,0.0,0.0,0.0, 12:04:02.518
64889.191406, 70078.953125, 101200.960938, 123012.890625, 133437.515625, 68708.320313, 99327.750000, 133205.078125, 0, 1, 1, 0, 1,0.0,0.0,0.0,0.0,0.0, 12:04:02.518
64907.496094, 70107.875000, 101138.445313, 122931.703125, 133449.656250, 68584.468750, 99215.453125, 133143.640625, 0, 1, 1, 0, 1,0.0,0.0,0.0,0.0,0.0, 12:04:02.518
64977.906250, 70189.546875, 100852.453125, 122815.273438, 133537.031250, 68277.757813, 99147.507813, 133173.609375, 0, 1, 1, 0, 1,0.0,0.0,0.0,0.0,0.0, 12:04:02.518
64953.117188, 70158.320313, 100898.765625, 122876.500000, 133518.093750, 68368.437500, 99244.781250, 133228.546875, 0, 1, 1, 0, 1,0.0,0.0,0.0,0.0,0.0, 12:04:02.518
64891.625000, 70086.062500, 101173.203125, 122995.476563, 133447.203125, 68686.375000, 99325.132813, 133208.484375, 0, 1, 1, 0, 1,0.0,0.0,0.0,0.0,0.0, 12:04:02.518
64905.550781, 70104.523438, 101162.648438, 122948.109375, 133447.437500, 68634.851563, 99232.937500, 133143.656250, 0, 1, 1, 0, 1,0.0,0.0,0.0,0.0,0.0, 12:04:02.519
64974.910156, 70180.898438, 100888.304688, 122823.125000, 133519.640625, 68325.125000, 99143.304688, 133153.671875, 0, 1, 1, 0, 1,0.0,0.0,0.0,0.0,0.0, 12:04:02.519
64977.210938, 70176.804688, 100858.804688, 122858.304688, 133538.125000, 68330.953125, 99232.578125, 133225.796875, 0, 1, 1, 0, 1,0.0,0.0,0.0,0.0,0.0, 12:04:02.519
64894.308594, 70084.648438, 101138.710938, 122991.765625, 133453.484375, 68667.304688, 99334.617188, 133228.578125, 0, 1, 1, 0, 1,0.0,0.0,0.0,0.0,0.0, 12:04:02.519
64897.214844, 70090.773438, 101194.500000, 122973.546875, 133439.328125, 68688.804688, 99261.750000, 133157.546875, 0, 1, 1, 0, 1,0.0,0.0,0.0,0.0,0.0, 12:04:02.519
64965.164063, 70171.156250, 100926.484375, 122840.960938, 133509.953125, 68376.664063, 99148.062500, 133140.640625, 0, 1, 1, 0, 1,0.0,0.0,0.0,0.0,0.0, 12:04:02.519
64976.453125, 70183.515625, 100829.765625, 122839.570313, 133536.484375, 68296.890625, 99196.234375, 133199.609375, 0, 1, 1, 0, 1,0.0,0.0,0.0,0.0,0.0, 12:04:02.519
64910.714844, 70108.593750, 101069.578125, 122970.531250, 133469.906250, 68605.882813, 99313.242188, 133216.390625, 0, 1, 1, 0, 1,0.0,0.0,0.0,0.0,0.0, 12:04:02.520
64891.804688, 70084.320313, 101204.648438, 122992.187500, 133439.156250, 68717.906250, 99279.382813, 133157.656250, 0, 1, 1, 0, 1,0.0,0.0,0.0,0.0,0.0, 12:04:02.520
64946.386719, 70146.726563, 100991.125000, 122866.953125, 133490.484375, 68441.664063, 99155.601563, 133131.125000, 0, 1, 1, 0, 1,0.0,0.0,0.0,0.0,0.0, 12:04:02.520
64982.242188, 70190.265625, 100824.757813, 122826.609375, 133541.625000, 68274.203125, 99174.460938, 133193.890625, 0, 1, 1, 0, 1,0.0,0.0,0.0,0.0,0.0, 12:04:02.520
64918.718750, 70119.007813, 101039.539063, 122952.648438, 133482.734375, 68555.281250, 99303.390625, 133230.625000, 0, 1, 1, 0, 1,0.0,0.0,0.0,0.0,0.0, 12:04:02.520
64883.222656, 70076.203125, 101225.726563, 123001.179688, 133427.578125, 68731.078125, 99287.179688, 133163.593750, 0, 1, 1, 0, 1,0.0,0.0,0.0,0.0,0.0, 12:04:02.520
64940.667969, 70141.804688, 101038.171875, 122886.828125, 133480.500000, 68488.445313, 99167.242188, 133134.421875, 0, 1, 1, 0, 1,0.0,0.0,0.0,0.0,0.0, 12:04:02.520
64980.652344, 70189.460938, 100834.460938, 122816.773438, 133535.390625, 68262.226563, 99153.585938, 133181.640625, 0, 1, 1, 0, 1,0.0,0.0,0.0,0.0,0.0, 12:04:02.521
64928.328125, 70133.671875, 100983.320313, 122921.937500, 133493.234375, 68473.984375, 99279.070313, 133223.343750, 0, 1, 1, 0, 1,0.0,0.0,0.0,0.0,0.0, 12:04:02.521
64876.023438, 70074.617188, 101216.273438, 123003.414063, 133426.562500, 68717.171875, 99303.546875, 133172.156250, 0, 1, 1, 0, 1,0.0,0.0,0.0,0.0,0.0, 12:04:02.521
64924.640625, 70127.234375, 101088.375000, 122909.242188, 133461.921875, 68538.070313, 99189.437500, 133127.984375, 0, 1, 1, 0, 1,0.0,0.0,0.0,0.0,0.0, 12:04:02.521
64984.296875, 70196.273438, 100835.398438, 122812.195313, 133532.875000, 68261.757813, 99145.476563, 133166.390625, 0, 1, 1, 0, 1,0.0,0.0,0.0,0.0,0.0, 12:04:02.521
64946.902344, 70151.414063, 100936.023438, 122901.554688, 133507.125000, 68413.859375, 99264.164063, 133222.718750, 0, 1, 1, 0, 1,0.0,0.0,0.0,0.0,0.0, 12:04:02.521
64872.851563, 70069.187500, 101205.882813, 123009.625000, 133429.062500, 68713.171875, 99316.640625, 133178.953125, 0, 1, 1, 0, 1,0.0,0.0,0.0,0.0,0.0, 12:04:02.521
64899.269531, 70103.179688, 101153.734375, 122942.835938, 133441.703125, 68610.351563, 99211.031250, 133120.812500, 0, 1, 1, 0, 1,0.0,0.0,0.0,0.0,0.0, 12:04:02.522
64965.925781, 70180.875000, 100887.476563, 122828.843750, 133516.515625, 68308.875000, 99140.757813, 133138.984375, 0, 1, 1, 0, 1,0.0,0.0,0.0,0.0,0.0, 12:04:02.522
64955.417969, 70168.273438, 100897.875000, 122886.062500, 133522.140625, 68370.453125, 99244.804688, 133207.875000, 0, 1, 1, 0, 1,0.0,0.0,0.0,0.0,0.0, 12:04:02.522
64889.281250, 70090.843750, 101176.242188, 123012.796875, 133446.171875, 68698.734375, 99331.398438, 133192.906250, 0, 1, 1, 0, 1,0.0,0.0,0.0,0.0,0.0, 12:04:02.522
64906.089844, 70112.367188, 101185.156250, 122974.312500, 133448.312500, 68668.375000, 99244.179688, 133133.671875, 0, 1, 1, 0, 1,0.0,0.0,0.0,0.0,0.0, 12:04:02.522
64966.328125, 70188.320313, 100911.101563, 122848.851563, 133520.109375, 68348.210938, 99145.648438, 133141.562500, 0, 1, 1, 0, 1,0.0,0.0,0.0,0.0,0.0, 12:04:02.522
64962.527344, 70180.046875, 100869.375000, 122871.046875, 133530.187500, 68326.109375, 99215.414063, 133199.718750, 0, 1, 1, 0, 1,0.0,0.0,0.0,0.0,0.0, 12:04:02.523
64887.871094, 70096.390625, 101133.367188, 123001.625000, 133458.281250, 68654.859375, 99323.257813, 133203.265625, 0, 1, 1, 0, 1,0.0,0.0,0.0,0.0,0.0, 12:04:02.523
64866.527344, 70078.328125, 101229.906250, 122995.476563, 133426.296875, 68709.195313, 99257.523438, 133129.328125, 0, 1, 1, 0, 1,0.0,0.0,0.0,0.0,0.0, 12:04:02.523
64941.226563, 70163.015625, 100968.882813, 122861.968750, 133504.812500, 68397.742188, 99146.921875, 133117.734375, 0, 1, 1, 0, 1,0.0,0.0,0.0,0.0,0.8608041, 12:04:02.523
64958.996094, 70177.453125, 100848.921875, 122847.484375, 133538.296875, 68294.765625, 99189.234375, 133182.578125, 0, 1, 1, 0, 1,0.0,0.0,0.0,0.0,0.8608041, 12:04:02.523
64882.285156, 70096.164063, 101087.171875, 122973.726563, 133460.968750, 68611.070313, 99304.257813, 133200.796875, 0, 1, 1, 0, 1,0.0,0.0,0.0,0.0,0.8608041, 12:04:02.523
64856.132813, 70073.367188, 101235.898438, 122995.679688, 133416.640625, 68745.781250, 99270.929688, 133140.781250, 0, 1, 1, 0, 1,0.0,0.0,0.0,0.0,0.8608041, 12:04:02.524
64921.019531, 70150.476563, 101011.218750, 122869.031250, 133483.250000, 68468.195313, 99155.171875, 133114.062500, 0, 1, 1, 0, 1,0.0,0.0,0.0,0.0,0.8608041, 12:04:02.524
64962.191406, 70191.671875, 100832.109375, 122821.023438, 133534.296875, 68278.835938, 99167.601563, 133166.375000, 0, 1, 1, 0, 1,0.0,0.0,0.0,0.0,0.8608041, 12:04:02.524
64899.113281, 70117.578125, 101032.656250, 122945.968750, 133477.109375, 68543.546875, 99294.179688, 133205.640625, 0, 1, 1, 0, 1,0.0,0.0,0.0,0.0,0.8608041, 12:04:02.524
64854.656250, 70068.601563, 101240.945313, 123006.164063, 133418.984375, 68751.929688, 99293.148438, 133144.312500, 0, 1, 1, 0, 1,0.0,0.0,0.0,0.0,0.8608041, 12:04:02.525
64914.917969, 70138.203125, 101069.218750, 122901.796875, 133474.562500, 68526.156250, 99178.148438, 133109.390625, 0, 1, 1, 0, 1,0.0,0.0,0.0,0.0,0.8608041, 12:04:02.525
64967.398438, 70194.664063, 100846.976563, 122831.257813, 133545.203125, 68283.390625, 99163.867188, 133159.437500, 0, 1, 1, 0, 1,0.0,0.0,0.0,0.0,0.8608041, 12:04:02.525
64912.234375, 70128.796875, 100994.523438, 122936.203125, 133492.406250, 68489.007813, 99278.398438, 133202.890625, 0, 1, 1, 0, 1,0.0,0.0,0.0,0.0,0.8608041, 12:04:02.525
64860.222656, 70069.523438, 101240.140625, 123024.757813, 133418.609375, 68752.601563, 99300.281250, 133154.125000, 0, 1, 1, 0, 1,0.0,0.0,0.0,0.0,0.8608041, 12:04:02.525
64909.957031, 70130.296875, 101116.804688, 122935.867188, 133458.859375, 68585.320313, 99189.531250, 133109.781250, 0, 1, 1, 0, 1,0.0,0.0,0.0,0.0,0.8608041, 12:04:02.526
64961.074219, 70188.921875, 100872.281250, 122836.351563, 133525.781250, 68303.015625, 99139.304688, 133137.062500, 0, 1, 1, 0, 1,0.0,0.0,0.0,0.0,0.8608041, 12:04:02.526
64931.347656, 70154.007813, 100948.343750, 122914.515625, 133517.062500, 68436.656250, 99255.015625, 133204.015625, 0, 1, 1, 0, 1,0.0,0.0,0.0,0.0,0.8608041, 12:04:02.526
64867.687500, 70088.429688, 101209.585938, 123027.039063, 133451.750000, 68747.593750, 99323.304688, 133182.703125, 0, 1, 1, 0, 1,0.0,0.0,0.0,0.0,0.8608041, 12:04:02.526
64889.101563, 70115.164063, 101181.406250, 122971.468750, 133463.296875, 68669.117188, 99227.859375, 133128.171875, 0, 1, 1, 0, 1,0.0,0.0,0.0,0.0,0.8608041, 12:04:02.526
64961.519531, 70194.085938, 100909.789063, 122852.179688, 133537.750000, 68357.242188, 99144.781250, 133143.015625, 0, 1, 1, 0, 1,0.0,0.0,0.0,0.0,0.8608041, 12:04:02.526
64951.484375, 70177.390625, 100905.156250, 122898.406250, 133544.046875, 68402.304688, 99238.750000, 133212.718750, 0, 1, 1, 0, 1,0.0,0.0,0.0,0.0,0.8608041, 12:04:02.526
64877.097656, 70093.187500, 101185.046875, 123027.328125, 133467.531250, 68743.101563, 99335.867188, 133206.484375, 0, 1, 1, 0, 1,0.0,0.0,0.0,0.0,0.8608041, 12:04:02.527
64892.410156, 70108.726563, 101215.710938, 122997.039063, 133453.515625, 68735.921875, 99249.859375, 133145.015625, 0, 1, 1, 0, 1,0.0,0.0,0.0,0.0,0.8608041, 12:04:02.527
64959.687500, 70185.234375, 100957.398438, 122869.593750, 133524.375000, 68421.992188, 99149.320313, 133144.312500, 0, 1, 1, 0, 1,0.0,0.0,0.0,0.0,0.8608041, 12:04:02.527
64963.421875, 70194.109375, 100896.351563, 122880.656250, 133545.093750, 68379.367188, 99212.257813, 133207.734375, 0, 1, 1, 0, 1,0.0,0.0,0.0,0.0,0.8608041, 12:04:02.527
64891.382813, 70114.109375, 101147.046875, 123010.671875, 133477.265625, 68703.960938, 99327.640625, 133214.609375, 0, 1, 1, 0, 1,0.0,0.0,0.0,0.0,0.8608041, 12:04:02.527
64867.062500, 70090.757813, 101265.914063, 123017.937500, 133431.796875, 68785.007813, 99263.984375, 133134.296875, 0, 1, 1, 0, 1,0.0,0.0,0.0,0.0,0.8608041, 12:04:02.527
64951.082031, 70185.859375, 101004.375000, 122885.976563, 133513.484375, 68480.085938, 99149.296875, 133125.734375, 0, 1, 1, 0, 1,0.0,0.0,0.0,0.0,0.8608041, 12:04:02.528
64981.054688, 70215.273438, 100850.375000, 122864.000000, 133571.781250, 68346.851563, 99193.867188, 133202.281250, 0, 1, 1, 0, 1,0.0,0.0,0.0,0.0,0.8608041, 12:04:02.528
64898.667969, 70121.156250, 101094.906250, 122991.273438, 133495.515625, 68656.312500, 99312.257813, 133222.781250, 0, 1, 1, 0, 1,0.0,0.0,0.0,0.0,0.8608041, 12:04:02.528
64862.570313, 70083.132813, 101269.539063, 123022.968750, 133444.640625, 68811.812500, 99284.882813, 133149.937500, 0, 1, 1, 0, 1,0.0,0.0,0.0,0.0,0.8608041, 12:04:02.528
64925.468750, 70154.789063, 101058.984375, 122898.468750, 133501.375000, 68548.125000, 99162.484375, 133119.437500, 0, 1, 1, 0, 1,0.0,0.0,0.0,0.0,0.8608041, 12:04:02.528
64965.523438, 70202.492188, 100864.945313, 122842.367188, 133559.875000, 68345.710938, 99164.429688, 133177.406250, 0, 1, 1, 0, 1,0.0,0.0,0.0,0.0,0.8608041, 12:04:02.528
64909.976563, 70137.625000, 101047.070313, 122960.562500, 133509.015625, 68598.929688, 99294.578125, 133222.921875, 0, 1, 1, 0, 1,0.0,0.0,0.0,0.0,0.8608041, 12:04:02.529
64863.976563, 70083.000000, 101274.765625, 123031.953125, 133448.468750, 68833.468750, 99310.562500, 133174.953125, 0, 1, 1, 0, 1,0.0,0.0,0.0,0.0,0.8608041, 12:04:02.529
64915.765625, 70141.937500, 101127.984375, 122925.445313, 133485.703125, 68629.484375, 99184.234375, 133133.406250, 0, 1, 1, 0, 1,0.0,0.0,0.0,0.0,0.8608041, 12:04:02.529
64970.171875, 70201.843750, 100887.101563, 122834.921875, 133552.156250, 68366.359375, 99147.062500, 133175.437500, 0, 1, 1, 0, 1,0.0,0.0,0.0,0.0,0.8608041, 12:04:02.529
64927.769531, 70154.835938, 100994.835938, 122930.187500, 133529.359375, 68546.515625, 99277.039063, 133242.953125, 0, 1, 1, 0, 1,0.0,0.0,0.0,0.0,0.8608041, 12:04:02.529
64867.597656, 70083.023438, 101254.203125, 123029.492188, 133458.484375, 68830.117188, 99325.648438, 133198.593750, 0, 1, 1, 0, 1,0.0,0.0,0.0,0.0,0.8608041, 12:04:02.530
64909.039063, 70133.914063, 101167.281250, 122952.382813, 133486.312500, 68687.710938, 99218.429688, 133142.875000, 0, 1, 1, 0, 1,0.0,0.0,0.0,0.0,0.8608041, 12:04:02.530
64969.300781, 70210.312500, 100904.195313, 122847.171875, 133559.171875, 68385.429688, 99157.898438, 133172.093750, 0, 1, 1, 0, 1,0.0,0.0,0.0,0.0,0.8608041, 12:04:02.531
64927.523438, 70165.320313, 100957.664063, 122908.750000, 133536.250000, 68484.757813, 99255.960938, 133231.796875, 0, 1, 1, 0, 1,0.0,0.0,0.0,0.0,0.8608041, 12:04:02.531
64864.625000, 70094.976563, 101215.375000, 123023.054688, 133462.906250, 68798.242188, 99326.945313, 133220.140625, 0, 1, 1, 0, 1,0.0,0.0,0.0,0.0,0.8608041, 12:04:02.531
64894.308594, 70131.859375, 101204.539063, 122980.210938, 133478.046875, 68739.679688, 99239.710938, 133165.703125, 0, 1, 1, 0, 1,0.0,0.0,0.0,0.0,0.8608041, 12:04:02.532
64959.351563, 70208.367188, 100923.398438, 122853.140625, 133553.531250, 68413.812500, 99153.226563, 133169.156250, 0, 1, 1, 0, 1,0.0,0.0,0.0,0.0,0.8608041, 12:04:02.532
64953.765625, 70196.859375, 100896.843750, 122886.890625, 133556.031250, 68426.710938, 99236.914063, 133239.031250, 0, 1, 1, 0, 1,0.0,0.0,0.0,0.0,0.8608041, 12:04:02.532
64875.781250, 70108.500000, 101166.359375, 123014.921875, 133470.937500, 68758.750000, 99333.789063, 133231.546875, 0, 1, 1, 0, 1,0.0,0.0,0.0,0.0,0.8608041, 12:04:02.532
64869.187500, 70105.328125, 101228.679688, 122990.648438, 133450.171875, 68773.609375, 99261.007813, 133152.093750, 0, 1, 1, 0, 1,0.16055128,0.27754903,0.058007907,0.06153708,0.039916348, 12:04:02.991
64931.906250, 70184.945313, 100962.085938, 122851.757813, 133508.796875, 68449.265625, 99143.929688, 133134.828125, 0, 1, 1, 0, 1,0.16055128,0.27754903,0.058007907,0.06153708,0.039916348, 12:04:02.992
64935.527344, 70191.648438, 100872.968750, 122850.437500, 133532.765625, 68374.343750, 99193.375000, 133193.546875, 0, 1, 1, 0, 1,0.16055128,0.27754903,0.058007907,0.06153708,0.039916348, 12:04:02.993
64870.167969, 70115.539063, 101122.796875, 122984.593750, 133469.484375, 68698.640625, 99313.203125, 133216.390625, 0, 1, 1, 0, 1,0.16055128,0.27754903,0.058007907,0.06153708,0.039916348, 12:04:02.993
64862.613281, 70104.726563, 101244.640625, 122998.335938, 133444.687500, 68796.007813, 99272.765625, 133150.359375, 0, 1, 1, 0, 1,0.16055128,0.27754903,0.058007907,0.06153708,0.039916348, 12:04:02.993
64939.773438, 70190.351563, 100994.921875, 122868.164063, 133523.812500, 68497.343750, 99162.078125, 133139.375000, 0, 1, 1, 0, 1,0.16055128,0.27754903,0.058007907,0.06153708,0.039916348, 12:04:02.993
64971.625000, 70222.789063, 100846.593750, 122839.171875, 133562.156250, 68348.773438, 99190.468750, 133202.625000, 0, 1, 1, 0, 1,0.16055128,0.27754903,0.058007907,0.06153708,0.039916348, 12:04:02.994
64904.570313, 70142.992188, 101070.093750, 122966.710938, 133496.328125, 68639.234375, 99313.046875, 133228.953125, 0, 1, 1, 0, 1,0.16055128,0.27754903,0.058007907,0.06153708,0.039916348, 12:04:02.994
64861.628906, 70100.703125, 101255.765625, 123010.406250, 133437.000000, 68808.726563, 99290.179688, 133156.093750, 0, 1, 1, 0, 1,0.16055128,0.27754903,0.058007907,0.06153708,0.039916348, 12:04:02.995
64912.949219, 70164.937500, 101049.773438, 122887.718750, 133481.625000, 68549.242188, 99162.257813, 133121.750000, 0, 1, 1, 0, 1,0.16055128,0.27754903,0.058007907,0.06153708,0.039916348, 12:04:02.995
64960.179688, 70221.242188, 100842.101563, 122829.312500, 133550.640625, 68329.882813, 99164.695313, 133184.812500, 0, 1, 1, 0, 1,0.16055128,0.27754903,0.058007907,0.06153708,0.039916348, 12:04:02.996
64904.390625, 70150.992188, 101015.265625, 122943.328125, 133500.328125, 68564.289063, 99288.523438, 133224.687500, 0, 1, 1, 0, 1,0.16055128,0.27754903,0.058007907,0.06153708,0.039916348, 12:04:02.996
64846.855469, 70088.828125, 101249.148438, 123014.406250, 133432.828125, 68801.507813, 99303.968750, 133162.453125, 0, 1, 1, 0, 1,0.16055128,0.27754903,0.058007907,0.06153708,0.039916348, 12:04:02.996
64906.156250, 70155.773438, 101109.054688, 122916.843750, 133479.734375, 68604.656250, 99185.726563, 133124.687500, 0, 1, 1, 0, 1,0.16055128,0.27754903,0.058007907,0.06153708,0.039916348, 12:04:02.997
64968.898438, 70227.437500, 100854.015625, 122823.773438, 133562.156250, 68327.601563, 99152.781250, 133169.093750, 0, 1, 1, 0, 1,0.16055128,0.27754903,0.058007907,0.06153708,0.039916348, 12:04:02.997
64929.492188, 70179.578125, 100960.523438, 122910.492188, 133529.265625, 68492.781250, 99274.242188, 133224.140625, 0, 1, 1, 0, 1,0.16055128,0.27754903,0.058007907,0.06153708,0.039916348, 12:04:02.997
64863.082031, 70102.804688, 101218.867188, 123011.437500, 133455.531250, 68786.148438, 99326.546875, 133187.562500, 0, 1, 1, 0, 1,0.16055128,0.27754903,0.058007907,0.06153708,0.039916348, 12:04:02.998
64888.742188, 70136.085938, 101161.171875, 122944.671875, 133474.593750, 68673.523438, 99225.359375, 133129.484375, 0, 1, 1, 0, 1,0.16055128,0.27754903,0.058007907,0.06153708,0.039916348, 12:04:02.998
64959.128906, 70213.242188, 100901.492188, 122836.039063, 133546.937500, 68369.828125, 99154.812500, 133148.218750, 0, 1, 1, 0, 1,0.16055128,0.27754903,0.058007907,0.06153708,0.039916348, 12:04:02.998
64936.753906, 70178.796875, 100932.468750, 122891.335938, 133533.250000, 68442.695313, 99246.343750, 133206.421875, 0, 1, 1, 0, 1,0.16055128,0.27754903,0.058007907,0.06153708,0.039916348, 12:04:02.998
64870.058594, 70102.960938, 101206.125000, 123013.000000, 133457.656250, 68768.445313, 99327.750000, 133190.484375, 0, 1, 1, 0, 1,0.16055128,0.27754903,0.058007907,0.06153708,0.039916348, 12:04:02.999
64891.246094, 70132.976563, 101207.109375, 122973.031250, 133463.734375, 68728.570313, 99243.148438, 133133.328125, 0, 1, 1, 0, 1,0.16055128,0.27754903,0.058007907,0.06153708,0.039916348, 12:04:02.999
64962.035156, 70214.000000, 100933.257813, 122844.984375, 133538.843750, 68410.062500, 99153.093750, 133139.484375, 0, 1, 1, 0, 1,0.16055128,0.27754903,0.058007907,0.06153708,0.039916348, 12:04:02.999
64958.371094, 70205.218750, 100882.492188, 122864.312500, 133550.953125, 68397.695313, 99227.640625, 133204.328125, 0, 1, 1, 0, 1,0.16055128,0.27754903,0.058007907,0.06153708,0.039916348, 12:04:02.999
64882.015625, 70114.960938, 101163.968750, 122999.234375, 133472.187500, 68737.851563, 99329.898438, 133203.921875, 0, 1, 1, 0, 1,0.16055128,0.27754903,0.058007907,0.06153708,0.039916348, 12:04:02.999
64876.203125, 70109.750000, 101252.953125, 122984.257813, 133440.765625, 68779.507813, 99252.179688, 133125.171875, 0, 1, 1, 0, 1,0.16055128,0.27754903,0.058007907,0.06153708,0.039916348, 12:04:02.999
64960.960938, 70204.187500, 100967.835938, 122846.210938, 133521.765625, 68453.687500, 99139.906250, 133118.093750, 0, 1, 1, 0, 1,0.16055128,0.27754903,0.058007907,0.06153708,0.039916348, 12:04:03.000
64980.296875, 70221.648438, 100850.148438, 122838.945313, 133559.625000, 68353.265625, 99196.054688, 133187.578125, 0, 1, 1, 0, 1,0.16055128,0.27754903,0.058007907,0.06153708,0.039916348, 12:04:03.000
64915.632813, 70142.117188, 101096.289063, 122978.023438, 133496.140625, 68672.156250, 99325.960938, 133213.796875, 0, 1, 1, 0, 1,0.16055128,0.27754903,0.058007907,0.06153708,0.039916348, 12:04:03.000
64891.312500, 70117.664063, 101237.687500, 123001.578125, 133459.531250, 68792.875000, 99287.023438, 133149.812500, 0, 1, 1, 0, 1,0.16055128,0.27754903,0.058007907,0.06153708,0.039916348, 12:04:03.000
64963.800781, 70202.000000, 101008.695313, 122876.859375, 133530.171875, 68512.164063, 99169.968750, 133136.578125, 0, 1, 1, 0, 1,0.16055128,0.27754903,0.058007907,0.06153708,0.039916348, 12:04:03.001
64994.312500, 70236.085938, 100834.414063, 122838.187500, 133583.437500, 68337.234375, 99189.304688, 133201.656250, 0, 1, 1, 0, 1,0.16055128,0.27754903,0.058007907,0.06153708,0.039916348, 12:04:03.001
64919.433594, 70153.562500, 101049.796875, 122961.296875, 133506.359375, 68610.484375, 99304.976563, 133218.468750, 0, 1, 1, 0, 1,0.16055128,0.27754903,0.058007907,0.06153708,0.039916348, 12:04:03.001
64876.851563, 70108.929688, 101257.445313, 123018.453125, 133439.109375, 68804.546875, 99288.367188, 133149.843750, 0, 1, 1, 0, 1,0.16055128,0.27754903,0.058007907,0.06153708,0.039916348, 12:04:03.002
64931.906250, 70173.500000, 101083.078125, 122906.289063, 133488.765625, 68568.398438, 99165.546875, 133104.359375, 0, 1, 1, 0, 1,0.16055128,0.27754903,0.058007907,0.06153708,0.039916348, 12:04:03.002
64986.777344, 70236.484375, 100857.195313, 122832.757813, 133554.812500, 68327.914063, 99152.625000, 133159.218750, 0, 1, 1, 0, 1,0.16055128,0.27754903,0.058007907,0.06153708,0.039916348, 12:04:03.002
64952.246094, 70191.898438, 100989.382813, 122938.703125, 133521.046875, 68537.843750, 99282.062500, 133221.328125, 0, 1, 1, 0, 1,0.16055128,0.27754903,0.058007907,0.06153708,0.039916348, 12:04:03.003
64897.527344, 70122.359375, 101226.171875, 123021.250000, 133448.218750, 68794.351563, 99309.039063, 133170.218750, 0, 1, 1, 0, 1,0.16055128,0.27754903,0.058007907,0.06153708,0.039916348, 12:04:03.003
64935.996094, 70166.906250, 101114.703125, 122925.250000, 133473.171875, 68620.968750, 99187.070313, 133110.625000, 0, 1, 1, 0, 1,0.16055128,0.27754903,0.058007907,0.06153708,0.039916348, 12:04:03.003
65001.039063, 70237.585938, 100856.367188, 122826.187500, 133546.656250, 68333.546875, 99141.359375, 133148.718750, 0, 1, 1, 0, 1,0.16055128,0.27754903,0.058007907,0.06153708,0.039916348, 12:04:03.004
64965.722656, 70192.632813, 100941.210938, 122909.757813, 133530.250000, 68473.718750, 99263.851563, 133215.765625, 0, 1, 1, 0, 1,0.16055128,0.27754903,0.058007907,0.06153708,0.039916348, 12:04:03.004
64893.929688, 70117.843750, 101209.140625, 123016.148438, 133452.609375, 68774.437500, 99324.757813, 133182.390625, 0, 1, 1, 0, 1,0.16055128,0.27754903,0.058007907,0.06153708,0.039916348, 12:04:03.004
64910.445313, 70151.304688, 101169.242188, 122947.132813, 133457.828125, 68673.695313, 99214.804688, 133116.562500, 0, 1, 1, 0, 1,0.16055128,0.27754903,0.058007907,0.06153708,0.039916348, 12:04:03.004
64972.406250, 70221.625000, 100891.437500, 122824.421875, 133538.078125, 68356.328125, 99137.117188, 133136.281250, 0, 1, 1, 0, 1,0.16055128,0.27754903,0.058007907,0.06153708,0.039916348, 12:04:03.004
64962.437500, 70207.742188, 100893.398438, 122876.226563, 133543.718750, 68407.781250, 99242.460938, 133212.062500, 0, 1, 1, 0, 1,0.16055128,0.27754903,0.058007907,0.06153708,0.039916348, 12:04:03.005
64886.687500, 70117.578125, 101169.156250, 123001.664063, 133456.468750, 68734.023438, 99328.265625, 133195.781250, 0, 1, 1, 0, 1,0.16055128,0.27754903,0.058007907,0.06153708,0.039916348, 12:04:03.005
64891.695313, 70126.695313, 101197.656250, 122966.460938, 133445.875000, 68716.882813, 99242.320313, 133131.093750, 0, 1, 1, 0, 1,0.16055128,0.27754903,0.058007907,0.06153708,0.039916348, 12:04:03.005
64966.683594, 70213.781250, 100921.789063, 122838.273438, 133522.234375, 68396.757813, 99142.585938, 133135.953125, 0, 1, 1, 0, 1,0.16055128,0.27754903,0.058007907,0.06153708,0.039916348, 12:04:03.005
64971.800781, 70214.335938, 100865.460938, 122855.421875, 133540.140625, 68362.250000, 99211.968750, 133197.296875, 0, 1, 1, 0, 1,0.16055128,0.27754903,0.058007907,0.06153708,0.039916348, 12:04:03.006
64899.160156, 70130.164063, 101131.562500, 122986.914063, 133465.328125, 68691.289063, 99324.484375, 133201.484375, 0, 1, 1, 0, 1,0.16055128,0.27754903,0.058007907,0.06153708,0.039916348, 12:04:03.006
64889.281250, 70119.406250, 101231.226563, 122985.953125, 133440.625000, 68756.218750, 99265.570313, 133134.265625, 0, 1, 1, 0, 1,0.16055128,0.27754903,0.058007907,0.06153708,0.039916348, 12:04:03.006
64961.273438, 70202.179688, 100968.437500, 122854.906250, 133512.375000, 68448.351563, 99148.710938, 133129.468750, 0, 1, 1, 0, 1,0.16055128,0.27754903,0.058007907,0.06153708,0.039916348, 12:04:03.006
64988.453125, 70228.148438, 100839.039063, 122838.117188, 133554.187500, 68332.679688, 99192.750000, 133201.015625, 0, 1, 1, 0, 1,0.16055128,0.27754903,0.058007907,0.06153708,0.039916348, 12:04:03.006
64918.761719, 70149.070313, 101074.632813, 122972.562500, 133492.234375, 68641.398438, 99325.539063, 133227.187500, 0, 1, 1, 0, 1,0.16055128,0.27754903,0.058007907,0.06153708,0.039916348, 12:04:03.006
64882.394531, 70109.460938, 101244.656250, 123005.984375, 133442.921875, 68785.812500, 99298.671875, 133152.515625, 0, 1, 1, 0, 1,0.16055128,0.27754903,0.058007907,0.06153708,0.039916348, 12:04:03.007
64944.152344, 70182.890625, 101023.937500, 122877.976563, 133496.453125, 68513.171875, 99167.804688, 133116.812500, 0, 1, 1, 0, 1,0.16055128,0.27754903,0.058007907,0.06153708,0.039916348, 12:04:03.007
64985.191406, 70227.992188, 100828.515625, 122824.617188, 133549.125000, 68320.921875, 99172.984375, 133174.859375, 0, 1, 1, 0, 1,0.16055128,0.27754903,0.058007907,0.06153708,0.039916348, 12:04:03.007
64917.109375, 70148.195313, 101034.281250, 122944.890625, 133491.140625, 68588.132813, 99299.789063, 133212.687500, 0, 1, 1, 0, 1,0.16055128,0.27754903,0.058007907,0.06153708,0.039916348, 12:04:03.007
64887.402344, 70115.273438, 101242.359375, 123009.492188, 133444.625000, 68796.093750, 99307.570313, 133164.140625, 0, 1, 1, 0, 1,0.16055128,0.27754903,0.058007907,0.06153708,0.039916348, 12:04:03.007
64950.792969, 70186.617188, 101063.054688, 122902.156250, 133492.796875, 68570.500000, 99189.750000, 133135.765625, 0, 1, 1, 0, 1,0.16055128,0.27754903,0.058007907,0.06153708,0.039916348, 12:04:03.007
65001.640625, 70236.242188, 100836.289063, 122820.242188, 133546.765625, 68318.195313, 99156.359375, 133173.078125, 0, 1, 1, 0, 1,0.16055128,0.27754903,0.058007907,0.06153708,0.039916348, 12:04:03.007
64957.339844, 70182.796875, 100975.523438, 122926.453125, 133511.125000, 68518.710938, 99278.265625, 133226.109375, 0, 1, 1, 0, 1,0.16055128,0.27754903,0.058007907,0.06153708,0.039916348, 12:04:03.008
64905.460938, 70131.453125, 101218.664063, 123021.226563, 133448.812500, 68787.023438, 99318.250000, 133190.859375, 0, 1, 1, 0, 1,0.16055128,0.27754903,0.058007907,0.06153708,0.039916348, 12:04:03.008
64929.738281, 70173.750000, 101124.789063, 122936.914063, 133472.671875, 68636.773438, 99207.585938, 133138.625000, 0, 1, 1, 0, 1,0.16055128,0.27754903,0.058007907,0.06153708,0.039916348, 12:04:03.008
64984.945313, 70240.710938, 100864.078125, 122827.148438, 133541.250000, 68342.515625, 99148.242188, 133165.203125, 0, 1, 1, 0, 1,0.16055128,0.27754903,0.058007907,0.06153708,0.039916348, 12:04:03.008
64949.605469, 70197.234375, 100931.156250, 122900.750000, 133528.015625, 68460.578125, 99261.343750, 133229.609375, 0, 1, 1, 0, 1,0.16055128,0.27754903,0.058007907,0.06153708,0.039916348, 12:04:03.008
64888.093750, 70126.273438, 101200.085938, 123015.460938, 133461.390625, 68771.304688, 99337.429688, 133209.734375, 0, 1, 1, 0, 1,0.16055128,0.27754903,0.058007907,0.06153708,0.039916348, 12:04:03.008
64918.316406, 70164.445313, 101163.921875, 122958.078125, 133468.546875, 68688.921875, 99236.062500, 133150.859375, 0, 1, 1, 0, 1,0.16055128,0.27754903,0.058007907,0.06153708,0.039916348, 12:04:03.008
64981.191406, 70237.585938, 100894.031250, 122834.500000, 133534.921875, 68372.015625, 99149.250000, 133156.093750, 0, 1, 1, 0, 1,0.16055128,0.27754903,0.058007907,0.06153708,0.039916348, 12:04:03.009
64968.628906, 70221.335938, 100889.492188, 122870.867188, 133537.609375, 68396.539063, 99236.648438, 133212.234375, 0, 1, 1, 0, 1,0.16055128,0.27754903,0.058007907,0.06153708,0.039916348, 12:04:03.009
64895.070313, 70141.914063, 101162.875000, 122996.976563, 133460.046875, 68725.218750, 99328.757813, 133204.875000, 0, 1, 1, 0, 1,0.16055128,0.27754903,0.058007907,0.06153708,0.039916348, 12:04:03.009
64893.972656, 70143.593750, 101212.765625, 122968.898438, 133437.656250, 68728.015625, 99246.304688, 133132.218750, 0, 1, 1, 0, 1,0.16055128,0.27754903,0.058007907,0.06153708,0.039916348, 12:04:03.009
64974.796875, 70233.984375, 100926.257813, 122833.382813, 133516.328125, 68402.640625, 99141.429688, 133134.890625, 0, 1, 1, 0, 1,0.16055128,0.27754903,0.058007907,0.06153708,0.039916348, 12:04:03.009
64983.941406, 70240.171875, 100841.703125, 122842.546875, 133539.312500, 68343.898438, 99206.898438, 133207.421875, 0, 1, 1, 0, 1,0.16055128,0.27754903,0.058007907,0.06153708,0.039916348, 12:04:03.010
64911.093750, 70159.265625, 101101.695313, 122979.203125, 133461.703125, 68666.679688, 99316.687500, 133209.265625, 0, 1, 1, 0, 1,0.16055128,0.27754903,0.058007907,0.06153708,0.039916348, 12:04:03.010
64885.144531, 70137.804688, 101224.656250, 122988.367188, 133423.296875, 68751.171875, 99261.546875, 133139.656250, 0, 1, 1, 0, 1,0.16055128,0.27754903,0.058007907,0.06153708,0.039916348, 12:04:03.010
64949.136719, 70214.468750, 100985.781250, 122856.273438, 133488.500000, 68459.054688, 99142.187500, 133124.953125, 0, 1, 1, 0, 1,0.16055128,0.27754903,0.058007907,0.06153708,0.039916348, 12:04:03.010
64984.632813, 70249.898438, 100834.101563, 122824.242188, 133535.078125, 68316.921875, 99172.320313, 133183.000000, 0, 1, 1, 0, 1,0.16055128,0.27754903,0.058007907,0.06153708,0.039916348, 12:04:03.010
64920.414063, 70170.750000, 101060.304688, 122955.312500, 133478.781250, 68609.703125, 99308.484375, 133213.437500, 0, 1, 1, 0, 1,0.16055128,0.27754903,0.058007907,0.06153708,0.039916348, 12:04:03.011
64885.882813, 70135.101563, 101242.648438, 122997.531250, 133425.968750, 68773.945313, 99285.726563, 133154.484375, 0, 1, 1, 0, 1,0.16055128,0.27754903,0.058007907,0.06153708,0.039916348, 12:04:03.011
64947.058594, 70211.007813, 101028.226563, 122875.492188, 133482.843750, 68515.445313, 99161.406250, 133133.359375, 0, 1, 1, 0, 1,0.16055128,0.27754903,0.058007907,0.06153708,0.039916348, 12:04:03.011
64986.710938, 70252.914063, 100822.054688, 122816.507813, 133538.015625, 68302.484375, 99157.343750, 133179.000000, 0, 1, 1, 0, 1,0.16055128,0.27754903,0.058007907,0.06153708,0.039916348, 12:04:03.012
64932.238281, 70188.718750, 101000.312500, 122934.031250, 133495.437500, 68545.804688, 99293.125000, 133222.468750, 0, 1, 1, 0, 1,0.16055128,0.27754903,0.058007907,0.06153708,0.039916348, 12:04:03.012
64877.230469, 70127.703125, 101244.929688, 123013.000000, 133430.546875, 68784.273438, 99313.648438, 133170.921875, 0, 1, 1, 0, 1,0.16055128,0.27754903,0.058007907,0.06153708,0.039916348, 12:04:03.012
64929.824219, 70190.976563, 101088.015625, 122904.171875, 133469.093750, 68575.531250, 99182.937500, 133126.843750, 0, 1, 1, 0, 1,0.16055128,0.27754903,0.058007907,0.06153708,0.039916348, 12:04:03.012
64990.957031, 70261.992188, 100828.179688, 122813.664063, 133546.125000, 68303.507813, 99153.320313, 133177.296875, 0, 1, 1, 0, 1,0.16055128,0.27754903,0.058007907,0.06153708,0.039916348, 12:04:03.012
64952.648438, 70208.992188, 100944.812500, 122912.062500, 133518.906250, 68479.640625, 99287.023438, 133233.921875, 0, 1, 1, 0, 1,0.16055128,0.27754903,0.058007907,0.06153708,0.039916348, 12:04:03.012
64876.339844, 70126.296875, 101234.000000, 123015.882813, 133429.031250, 68773.585938, 99331.867188, 133185.843750, 0, 1, 1, 0, 1,0.16055128,0.27754903,0.058007907,0.06153708,0.039916348, 12:04:03.012
64910.023438, 70174.062500, 101148.632813, 122929.851563, 133448.421875, 68635.882813, 99206.914063, 133126.625000, 0, 1, 1, 0, 1,0.16055128,0.27754903,0.058007907,0.06153708,0.039916348, 12:04:03.013
64986.757813, 70256.898438, 100861.687500, 122816.867188, 133530.250000, 68326.617188, 99142.789063, 133158.656250, 0, 1, 1, 0, 1,0.16055128,0.27754903,0.058007907,0.06153708,0.039916348, 12:04:03.013
64963.914063, 70229.671875, 100910.679688, 122886.914063, 133516.671875, 68422.085938, 99251.445313, 133226.562500, 0, 1, 1, 0, 1,0.16055128,0.27754903,0.058007907,0.06153708,0.039916348, 12:04:03.013
64894.957031, 70154.500000, 101187.257813, 123012.953125, 133443.109375, 68742.945313, 99337.718750, 133212.687500, 0, 1, 1, 0, 1,0.16055128,0.27754903,0.058007907,0.06153708,0.039916348, 12:04:03.013
64902.578125, 70167.554688, 101191.664063, 122968.210938, 133438.500000, 68693.859375, 99241.007813, 133142.234375, 0, 1, 1, 0, 1,0.16055128,0.27754903,0.058007907,0.06153708,0.039916348, 12:04:03.013
64968.113281, 70243.507813, 100914.437500, 122836.398438, 133512.953125, 68373.250000, 99146.593750, 133148.828125, 0, 1, 1, 0, 1,0.16055128,0.27754903,0.058007907,0.06153708,0.039916348, 12:04:03.013
64970.148438, 70241.898438, 100881.328125, 122869.656250, 133528.515625, 68376.421875, 99237.296875, 133223.953125, 0, 1, 1, 0, 1,0.16055128,0.27754903,0.058007907,0.06153708,0.039916348, 12:04:03.014
64898.667969, 70161.789063, 101149.843750, 123004.796875, 133457.968750, 68705.390625, 99342.679688, 133228.703125, 0, 1, 1, 0, 1,0.16055128,0.27754903,0.058007907,0.06153708,0.039916348, 12:04:03.014
64883.738281, 70149.296875, 101224.070313, 122986.984375, 133423.125000, 68733.828125, 99262.328125, 133154.593750, 0, 1, 1, 0, 1,0.16055128,0.27754903,0.058007907,0.06153708,0.039916348, 12:04:03.014
64964.941406, 70240.000000, 100942.843750, 122851.773438, 133505.312500, 68412.984375, 99152.335938, 133151.437500, 0, 1, 1, 0, 1,0.16055128,0.27754903,0.058007907,0.06153708,0.039916348, 12:04:03.014
64982.574219, 70252.109375, 100848.046875, 122853.523438, 133538.765625, 68335.453125, 99211.546875, 133219.796875, 0, 1, 1, 0, 1,0.16055128,0.27754903,0.058007907,0.06153708,0.039916348, 12:04:03.014
64904.234375, 70164.625000, 101113.703125, 122986.265625, 133463.062500, 68656.554688, 99327.664063, 133227.859375, 0, 1, 1, 0, 1,0.16055128,0.27754903,0.058007907,0.06153708,0.039916348, 12:04:03.014
64880.652344, 70141.265625, 101250.070313, 122996.078125, 133421.625000, 68757.671875, 99281.195313, 133155.578125, 0, 1, 1, 0, 1,0.16055128,0.27754903,0.058007907,0.06153708,0.039916348, 12:04:03.014
64954.187500, 70221.515625, 101002.031250, 122863.492188, 133487.046875, 68465.132813, 99158.859375, 133136.531250, 0, 1, 1, 0, 1,0.16055128,0.27754903,0.058007907,0.06153708,0.039916348, 12:04:03.015
64994.535156, 70265.210938, 100828.046875, 122826.851563, 133542.218750, 68304.000000, 99184.367188, 133200.453125, 0, 1, 1, 0, 1,0.16055128,0.27754903,0.058007907,0.06153708,0.039916348, 12:04:03.015
64930.496094, 70189.351563, 101046.265625, 122956.609375, 133483.296875, 68590.507813, 99320.687500, 133243.421875, 0, 1, 1, 0, 1,0.16055128,0.27754903,0.058007907,0.06153708,0.039916348, 12:04:03.015
64894.175781, 70148.242188, 101238.984375, 123005.445313, 133428.828125, 68767.734375, 99312.062500, 133179.671875, 0, 1, 1, 0, 1,0.16055128,0.27754903,0.058007907,0.06153708,0.039916348, 12:04:03.015
64948.109375, 70212.882813, 101048.750000, 122886.445313, 133475.687500, 68523.875000, 99181.703125, 133138.140625, 0, 1, 1, 0, 1,0.16055128,0.27754903,0.058007907,0.06153708,0.039916348, 12:04:03.015
64994.109375, 70265.882813, 100822.031250, 122814.250000, 133536.515625, 68293.203125, 99164.296875, 133181.718750, 0, 1, 1, 0, 1,0.16055128,0.27754903,0.058007907,0.06153708,0.039916348, 12:04:03.015
64945.425781, 70208.328125, 100982.492188, 122925.156250, 133491.031250, 68517.750000, 99292.234375, 133229.734375, 0, 1, 1, 0, 1,0.16055128,0.27754903,0.058007907,0.06153708,0.039916348, 12:04:03.015
64898.554688, 70153.765625, 101222.757813, 123007.593750, 133427.546875, 68763.304688, 99318.992188, 133187.062500, 0, 1, 1, 0, 1,0.16055128,0.27754903,0.058007907,0.06153708,0.039916348, 12:04:03.016
64942.968750, 70208.773438, 101094.187500, 122911.210938, 133463.515625, 68579.484375, 99199.765625, 133137.531250, 0, 1, 1, 0, 1,0.16055128,0.27754903,0.058007907,0.06153708,0.039916348, 12:04:03.016
65004.726563, 70281.906250, 100827.757813, 122814.671875, 133535.109375, 68295.687500, 99157.859375, 133177.546875, 0, 1, 1, 0, 1,0.16055128,0.27754903,0.058007907,0.06153708,0.039916348, 12:04:03.016
64959.285156, 70229.648438, 100938.351563, 122907.343750, 133499.390625, 68452.460938, 99272.789063, 133234.625000, 0, 1, 1, 0, 1,0.16055128,0.27754903,0.058007907,0.06153708,0.039916348, 12:04:03.016
64890.710938, 70150.750000, 101217.546875, 123012.484375, 133420.218750, 68748.132813, 99322.476563, 133193.187500, 0, 1, 1, 0, 1,0.16055128,0.27754903,0.058007907,0.06153708,0.039916348, 12:04:03.017
64921.464844, 70189.773438, 101150.601563, 122936.757813, 133437.859375, 68629.109375, 99210.781250, 133131.640625, 0, 1, 1, 0, 1,0.16055128,0.27754903,0.058007907,0.06153708,0.039916348, 12:04:03.017
64993.773438, 70267.984375, 100857.679688, 122815.054688, 133517.375000, 68312.312500, 99136.375000, 133154.765625, 0, 1, 1, 0, 1,0.16055128,0.27754903,0.058007907,0.06153708,0.039916348, 12:04:03.017
64972.093750, 70239.906250, 100884.101563, 122872.203125, 133510.234375, 68382.210938, 99243.398438, 133223.515625, 0, 1, 1, 0, 1,0.16055128,0.27754903,0.058007907,0.06153708,0.039916348, 12:04:03.017
64888.093750, 70146.835938, 101187.882813, 122997.664063, 133422.406250, 68714.109375, 99325.984375, 133198.250000, 0, 1, 1, 0, 1,0.16055128,0.27754903,0.058007907,0.06153708,0.039916348, 12:04:03.017
64902.847656, 70164.265625, 101197.476563, 122952.671875, 133422.234375, 68675.773438, 99234.945313, 133134.937500, 0, 1, 1, 0, 1,0.16055128,0.27754903,0.058007907,0.06153708,0.039916348, 12:04:03.018
64982.195313, 70254.304688, 100904.625000, 122819.546875, 133501.375000, 68352.796875, 99136.218750, 133143.687500, 0, 1, 1, 0, 1,0.16055128,0.27754903,0.058007907,0.06153708,0.039916348, 12:04:03.018
64983.468750, 70255.796875, 100849.953125, 122841.648438, 133517.921875, 68330.242188, 99210.718750, 133210.312500, 0, 1, 1, 0, 1,0.16055128,0.27754903,0.058007907,0.06153708,0.039916348, 12:04:03.018
64908.054688, 70172.359375, 101128.187500, 122977.820313, 133443.078125, 68661.648438, 99322.875000, 133213.328125, 0, 1, 1, 0, 1,0.16055128,0.27754903,0.058007907,0.06153708,0.039916348, 12:04:03.018
64906.199219, 70168.984375, 101212.140625, 122973.234375, 133422.937500, 68709.617188, 99261.679688, 133148.109375, 0, 1, 1, 0, 1,0.04003516,0.042492237,0.018666359,0.022892935,0.016177673, 12:04:03.469
64979.738281, 70253.140625, 100937.812500, 122837.921875, 133492.078125, 68398.617188, 99142.632813, 133136.781250, 0, 1, 1, 0, 1,0.04003516,0.042492237,0.018666359,0.022892935,0.016177673, 12:04:03.469
65001.910156, 70274.218750, 100814.234375, 122826.046875, 133529.359375, 68295.437500, 99191.093750, 133208.875000, 0, 1, 1, 0, 1,0.04003516,0.042492237,0.018666359,0.022892935,0.016177673, 12:04:03.470
64928.664063, 70188.343750, 101072.078125, 122966.421875, 133458.187500, 68611.382813, 99319.773438, 133230.234375, 0, 1, 1, 0, 1,0.04003516,0.042492237,0.018666359,0.022892935,0.016177673, 12:04:03.470
64893.726563, 70150.859375, 101235.945313, 122993.757813, 133406.781250, 68742.429688, 99282.062500, 133161.109375, 0, 1, 1, 0, 1,0.04003516,0.042492237,0.018666359,0.022892935,0.016177673, 12:04:03.471
64958.324219, 70230.562500, 100995.882813, 122862.304688, 133467.937500, 68460.398438, 99155.507813, 133136.343750, 0, 1, 1, 0, 1,0.04003516,0.042492237,0.018666359,0.022892935,0.016177673, 12:04:03.471
64994.265625, 70272.226563, 100808.265625, 122817.445313, 133523.421875, 68276.664063, 99165.234375, 133194.203125, 0, 1, 1, 0, 1,0.04003516,0.042492237,0.018666359,0.022892935,0.016177673, 12:04:03.472
64928.375000, 70197.796875, 101015.601563, 122944.445313, 133467.328125, 68545.843750, 99296.484375, 133225.265625, 0, 1, 1, 0, 1,0.04003516,0.042492237,0.018666359,0.022892935,0.016177673, 12:04:03.472
64888.519531, 70155.820313, 101224.875000, 123003.187500, 133410.984375, 68746.898438, 99301.625000, 133172.062500, 0, 1, 1, 0, 1,0.04003516,0.042492237,0.018666359,0.022892935,0.016177673, 12:04:03.472
64939.996094, 70216.640625, 101053.148438, 122886.062500, 133454.375000, 68519.851563, 99172.023438, 133132.437500, 0, 1, 1, 0, 1,0.04003516,0.042492237,0.018666359,0.022892935,0.016177673, 12:04:03.473
64999.652344, 70283.132813, 100802.875000, 122799.968750, 133531.687500, 68267.390625, 99152.937500, 133179.062500, 0, 1, 1, 0, 1,0.04003516,0.042492237,0.018666359,0.022892935,0.016177673, 12:04:03.473
64951.082031, 70223.882813, 100947.000000, 122901.304688, 133489.531250, 68474.656250, 99281.859375, 133231.656250, 0, 1, 1, 0, 1,0.04003516,0.042492237,0.018666359,0.022892935,0.016177673, 12:04:03.473
64889.839844, 70159.640625, 101203.304688, 122990.242188, 133413.125000, 68735.453125, 99312.125000, 133181.593750, 0, 1, 1, 0, 1,0.04003516,0.042492237,0.018666359,0.022892935,0.016177673, 12:04:03.474
64918.894531, 70205.265625, 101091.281250, 122896.234375, 133438.531250, 68568.914063, 99192.882813, 133125.906250, 0, 1, 1, 0, 1,0.04003516,0.042492237,0.018666359,0.022892935,0.016177673, 12:04:03.474
64978.394531, 70274.421875, 100814.585938, 122786.843750, 133513.875000, 68274.671875, 99140.601563, 133162.125000, 0, 1, 1, 0, 1,0.04003516,0.042492237,0.018666359,0.022892935,0.016177673, 12:04:03.474
64941.582031, 70224.640625, 100896.867188, 122867.671875, 133491.203125, 68408.046875, 99254.750000, 133224.312500, 0, 1, 1, 0, 1,0.04003516,0.042492237,0.018666359,0.022892935,0.016177673, 12:04:03.475
64875.824219, 70151.554688, 101173.710938, 122984.523438, 133418.343750, 68711.312500, 99318.539063, 133194.640625, 0, 1, 1, 0, 1,0.04003516,0.042492237,0.018666359,0.022892935,0.016177673, 12:04:03.475
64906.089844, 70184.789063, 101126.796875, 122923.234375, 133431.890625, 68616.476563, 99218.007813, 133139.375000, 0, 1, 1, 0, 1,0.04003516,0.042492237,0.018666359,0.022892935,0.016177673, 12:04:03.475
64977.570313, 70263.468750, 100835.242188, 122803.429688, 133508.328125, 68300.828125, 99139.640625, 133159.187500, 0, 1, 1, 0, 1,0.04003516,0.042492237,0.018666359,0.022892935,0.016177673, 12:04:03.475
64950.726563, 70232.507813, 100852.343750, 122852.335938, 133500.656250, 68352.101563, 99230.742188, 133217.000000, 0, 1, 1, 0, 1,0.04003516,0.042492237,0.018666359,0.022892935,0.016177673, 12:04:03.476
64875.734375, 70149.250000, 101140.679688, 122981.398438, 133420.156250, 68683.601563, 99320.796875, 133203.562500, 0, 1, 1, 0, 1,0.04003516,0.042492237,0.018666359,0.022892935,0.016177673, 12:04:03.476
64886.531250, 70164.875000, 101168.773438, 122951.218750, 133415.796875, 68672.242188, 99242.726563, 133146.078125, 0, 1, 1, 0, 1,0.04003516,0.042492237,0.018666359,0.022892935,0.016177673, 12:04:03.476
64954.390625, 70244.554688, 100890.765625, 122816.531250, 133485.781250, 68356.367188, 99134.539063, 133149.343750, 0, 1, 1, 0, 1,0.04003516,0.042492237,0.018666359,0.022892935,0.016177673, 12:04:03.477
64958.054688, 70248.156250, 100823.593750, 122831.171875, 133509.453125, 68312.359375, 99201.914063, 133217.078125, 0, 1, 1, 0, 1,0.04003516,0.042492237,0.018666359,0.022892935,0.016177673, 12:04:03.477
64878.910156, 70155.328125, 101106.640625, 122969.304688, 133428.515625, 68642.070313, 99313.890625, 133217.078125, 0, 1, 1, 0, 1,0.04003516,0.042492237,0.018666359,0.022892935,0.016177673, 12:04:03.478
64877.523438, 70155.460938, 101206.390625, 122970.039063, 133407.406250, 68706.507813, 99259.890625, 133151.218750, 0, 1, 1, 0, 1,0.04003516,0.042492237,0.018666359,0.022892935,0.016177673, 12:04:03.478
64956.558594, 70246.257813, 100933.453125, 122833.109375, 133482.125000, 68398.546875, 99148.335938, 133143.750000, 0, 1, 1, 0, 1,0.04003516,0.042492237,0.018666359,0.022892935,0.016177673, 12:04:03.478
64972.988281, 70263.734375, 100802.695313, 122811.031250, 133519.187500, 68278.343750, 99190.375000, 133211.390625, 0, 1, 1, 0, 1,0.04003516,0.042492237,0.018666359,0.022892935,0.016177673, 12:04:03.479
64893.460938, 70174.796875, 101058.203125, 122945.632813, 133450.546875, 68585.070313, 99319.171875, 133231.812500, 0, 1, 1, 0, 1,0.04003516,0.042492237,0.018666359,0.022892935,0.016177673, 12:04:03.479
64866.617188, 70139.929688, 101231.648438, 122980.429688, 133404.750000, 68731.921875, 99293.421875, 133169.718750, 0, 1, 1, 0, 1,0.04003516,0.042492237,0.018666359,0.022892935,0.016177673, 12:04:03.479
64931.167969, 70212.593750, 101006.414063, 122853.140625, 133462.625000, 68461.984375, 99166.125000, 133137.625000, 0, 1, 1, 0, 1,0.04003516,0.042492237,0.018666359,0.022892935,0.016177673, 12:04:03.480
64966.125000, 70252.734375, 100815.015625, 122793.710938, 133512.437500, 68267.609375, 99168.359375, 133189.500000, 0, 1, 1, 0, 1,0.04003516,0.042492237,0.018666359,0.022892935,0.016177673, 12:04:03.480
64909.285156, 70188.070313, 100996.445313, 122908.617188, 133465.218750, 68519.921875, 99296.820313, 133232.062500, 0, 1, 1, 0, 1,0.04003516,0.042492237,0.018666359,0.022892935,0.016177673, 12:04:03.480
64879.378906, 70151.507813, 101202.750000, 122980.859375, 133421.468750, 68735.296875, 99315.617188, 133191.000000, 0, 1, 1, 0, 1,0.04003516,0.042492237,0.018666359,0.022892935,0.016177673, 12:04:03.480
64931.191406, 70211.968750, 101044.570313, 122880.429688, 133467.296875, 68526.132813, 99200.437500, 133153.921875, 0, 1, 1, 0, 1,0.04003516,0.042492237,0.018666359,0.022892935,0.016177673, 12:04:03.481
64980.808594, 70270.507813, 100797.804688, 122794.554688, 133532.468750, 68268.218750, 99168.140625, 133198.328125, 0, 1, 1, 0, 1,0.04003516,0.042492237,0.018666359,0.022892935,0.016177673, 12:04:03.481
64930.519531, 70214.070313, 100923.601563, 122890.203125, 133494.609375, 68453.023438, 99281.882813, 133250.875000, 0, 1, 1, 0, 1,0.04003516,0.042492237,0.018666359,0.022892935,0.016177673, 12:04:03.481
64871.890625, 70144.062500, 101192.265625, 122992.328125, 133418.250000, 68732.929688, 99320.734375, 133204.203125, 0, 1, 1, 0, 1,0.04003516,0.042492237,0.018666359,0.022892935,0.016177673, 12:04:03.482
64906.847656, 70182.734375, 101114.617188, 122908.015625, 133433.359375, 68594.750000, 99199.742188, 133145.218750, 0, 1, 1, 0, 1,0.04003516,0.042492237,0.018666359,0.022892935,0.016177673, 12:04:03.482
64970.730469, 70260.898438, 100833.093750, 122792.367188, 133507.328125, 68294.656250, 99135.054688, 133178.890625, 0, 1, 1, 0, 1,0.04003516,0.042492237,0.018666359,0.022892935,0.016177673, 12:04:03.482
64937.539063, 70221.960938, 100896.218750, 122862.460938, 133490.843750, 68402.820313, 99246.148438, 133238.156250, 0, 1, 1, 0, 1,0.04003516,0.042492237,0.018666359,0.022892935,0.016177673, 12:04:03.482
64872.246094, 70144.195313, 101175.640625, 122977.218750, 133416.234375, 68716.164063, 99320.351563, 133214.062500, 0, 1, 1, 0, 1,0.04003516,0.042492237,0.018666359,0.022892935,0.016177673, 12:04:03.483
64901.507813, 70176.226563, 101148.789063, 122925.960938, 133433.468750, 68648.328125, 99230.703125, 133164.375000, 0, 1, 1, 0, 1,0.04003516,0.042492237,0.018666359,0.022892935,0.016177673, 12:04:03.483
64966.730469, 70251.953125, 100873.484375, 122802.648438, 133507.390625, 68338.242188, 99143.328125, 133177.703125, 0, 1, 1, 0, 1,0.04003516,0.042492237,0.018666359,0.022892935,0.016177673, 12:04:03.483
64952.714844, 70241.117188, 100858.398438, 122842.257813, 133514.812500, 68357.890625, 99231.703125, 133238.031250, 0, 1, 1, 0, 1,0.04003516,0.042492237,0.018666359,0.022892935,0.016177673, 12:04:03.483
64875.398438, 70151.726563, 101144.007813, 122972.273438, 133430.906250, 68686.507813, 99329.312500, 133223.343750, 0, 1, 1, 0, 1,0.04003516,0.042492237,0.018666359,0.022892935,0.016177673, 12:04:03.483
64878.304688, 70155.414063, 101191.085938, 122948.023438, 133423.296875, 68693.007813, 99261.320313, 133159.953125, 0, 1, 1, 0, 1,0.04003516,0.042492237,0.018666359,0.022892935,0.016177673, 12:04:03.483
64950.679688, 70236.757813, 100913.562500, 122811.921875, 133495.546875, 68375.820313, 99153.070313, 133156.875000, 0, 1, 1, 0, 1,0.04003516,0.042492237,0.018666359,0.022892935,0.016177673, 12:04:03.484
64972.964844, 70257.945313, 100812.085938, 122815.257813, 133531.218750, 68307.304688, 99216.617188, 133228.859375, 0, 1, 1, 0, 1,0.04003516,0.042492237,0.018666359,0.022892935,0.016177673, 12:04:03.484
64892.566406, 70166.210938, 101088.796875, 122953.945313, 133447.484375, 68636.195313, 99335.242188, 133233.296875, 0, 1, 1, 0, 1,0.04003516,0.042492237,0.018666359,0.022892935,0.016177673, 12:04:03.484
64873.769531, 70149.000000, 101205.429688, 122965.476563, 133416.578125, 68723.476563, 99289.039063, 133165.031250, 0, 1, 1, 0, 1,0.04003516,0.042492237,0.018666359,0.022892935,0.016177673, 12:04:03.484
64929.402344, 70219.632813, 100958.335938, 122831.796875, 133472.453125, 68431.296875, 99162.328125, 133147.421875, 0, 1, 1, 0, 1,0.04003516,0.042492237,0.018666359,0.022892935,0.016177673, 12:04:03.484
64959.753906, 70252.179688, 100800.750000, 122797.820313, 133513.562500, 68285.406250, 99187.117188, 133208.765625, 0, 1, 1, 0, 1,0.04003516,0.042492237,0.018666359,0.022892935,0.016177673, 12:04:03.484
64904.457031, 70176.000000, 101022.148438, 122929.156250, 133462.859375, 68575.484375, 99321.179688, 133239.343750, 0, 1, 1, 0, 1,0.04003516,0.042492237,0.018666359,0.022892935,0.016177673, 12:04:03.484
64860.781250, 70131.992188, 101218.664063, 122975.921875, 133404.906250, 68747.015625, 99301.156250, 133168.203125, 0, 1, 1, 0, 1,0.04003516,0.042492237,0.018666359,0.022892935,0.016177673, 12:04:03.485
64914.695313, 70206.781250, 101013.765625, 122848.984375, 133454.015625, 68492.585938, 99170.039063, 133127.859375, 0, 1, 1, 0, 1,0.04003516,0.042492237,0.018666359,0.022892935,0.016177673, 12:04:03.485
64962.347656, 70258.367188, 100794.203125, 122783.109375, 133516.796875, 68274.476563, 99164.937500, 133185.906250, 0, 1, 1, 0, 1,0.04003516,0.042492237,0.018666359,0.022892935,0.016177673, 12:04:03.485
64911.453125, 70197.414063, 100961.195313, 122901.085938, 133479.265625, 68510.578125, 99301.242188, 133239.500000, 0, 1, 1, 0, 1,0.04003516,0.042492237,0.018666359,0.022892935,0.016177673, 12:04:03.485
64854.722656, 70134.382813, 101196.890625, 122979.695313, 133405.359375, 68748.664063, 99319.304688, 133187.796875, 0, 1, 1, 0, 1,0.04003516,0.042492237,0.018666359,0.022892935,0.016177673, 12:04:03.485
64905.933594, 70197.125000, 101042.625000, 122874.281250, 133444.781250, 68548.437500, 99191.562500, 133144.437500, 0, 1, 1, 0, 1,0.04003516,0.042492237,0.018666359,0.022892935,0.016177673, 12:04:03.486
64969.343750, 70270.867188, 100786.335938, 122785.835938, 133523.437500, 68278.007813, 99158.281250, 133191.140625, 0, 1, 1, 0, 1,0.04003516,0.042492237,0.018666359,0.022892935,0.016177673, 12:04:03.486
64922.003906, 70217.976563, 100913.789063, 122882.781250, 133489.843750, 68447.164063, 99280.093750, 133242.859375, 0, 1, 1, 0, 1,0.04003516,0.042492237,0.018666359,0.022892935,0.016177673, 12:04:03.486
64854.632813, 70142.406250, 101199.640625, 122989.125000, 133409.484375, 68738.273438, 99331.195313, 133199.421875, 0, 1, 1, 0, 1,0.04003516,0.042492237,0.018666359,0.022892935,0.016177673, 12:04:03.486
64889.882813, 70185.906250, 101125.789063, 122910.921875, 133427.640625, 68609.929688, 99220.328125, 133143.328125, 0, 1, 1, 0, 1,0.04003516,0.042492237,0.018666359,0.022892935,0.016177673, 12:04:03.486
64969.722656, 70277.210938, 100824.156250, 122796.390625, 133518.343750, 68298.281250, 99158.570313, 133182.218750, 0, 1, 1, 0, 1,0.04003516,0.042492237,0.018666359,0.022892935,0.016177673, 12:04:03.486
64938.320313, 70238.093750, 100876.617188, 122864.609375, 133502.375000, 68393.359375, 99269.726563, 133248.843750, 0, 1, 1, 0, 1,0.04003516,0.042492237,0.018666359,0.022892935,0.016177673, 12:04:03.486
64858.546875, 70151.148438, 101165.085938, 122984.101563, 133415.437500, 68716.101563, 99343.304688, 133224.812500, 0, 1, 1, 0, 1,0.04003516,0.042492237,0.018666359,0.022892935,0.016177673, 12:04:03.487
64879.558594, 70176.492188, 101162.359375, 122939.796875, 133418.000000, 68667.171875, 99247.734375, 133165.125000, 0, 1, 1, 0, 1,0.04003516,0.042492237,0.018666359,0.022892935,0.016177673, 12:04:03.487
64954.433594, 70260.382813, 100878.648438, 122812.796875, 133493.265625, 68350.382813, 99151.351563, 133175.203125, 0, 1, 1, 0, 1,0.04003516,0.042492237,0.018666359,0.022892935,0.016177673, 12:04:03.487
64952.648438, 70255.937500, 100834.570313, 122841.359375, 133506.656250, 68342.890625, 99232.062500, 133242.640625, 0, 1, 1, 0, 1,0.04003516,0.042492237,0.018666359,0.022892935,0.016177673, 12:04:03.487
64863.531250, 70158.187500, 101124.765625, 122974.601563, 133418.937500, 68677.476563, 99326.992188, 133225.687500, 0, 1, 1, 0, 1,0.04003516,0.042492237,0.018666359,0.022892935,0.016177673, 12:04:03.487
64859.843750, 70156.867188, 101195.101563, 122959.828125, 133399.984375, 68705.171875, 99257.296875, 133154.671875, 0, 1, 1, 0, 1,0.04003516,0.042492237,0.018666359,0.022892935,0.016177673, 12:04:03.487
64932.843750, 70238.476563, 100921.632813, 122825.312500, 133470.750000, 68392.695313, 99143.929688, 133149.265625, 0, 1, 1, 0, 1,0.04003516,0.042492237,0.018666359,0.022892935,0.016177673, 12:04:03.488
64954.031250, 70263.554688, 100809.851563, 122820.460938, 133512.796875, 68304.898438, 99199.046875, 133223.609375, 0, 1, 1, 0, 1,0.04003516,0.042492237,0.018666359,0.022892935,0.016177673, 12:04:03.488
