%OpenBCI Raw EEG Data
%
%Sample Rate = 250.0 Hz
%First Column = SampleIndex
%5 Columns before Timestamp are Frequency Power factors DELTA THETA ALPHA BETA GAMMA
%Last Column = Timestamp 
%Other Columns = EEG data in microvolts followed by Accel Data (in G) interleaved with Aux Data
0.000000, 0.000000, 0.000000, 0.000000, 0.000000, 0.000000, 0.000000, 0.000000, 0.000, 0.000, 0.000,0.0,0.0,0.0,0.0,0.0, 16:33:34.545
80677.703125, 117060.257813, 130642.609375, 132800.812500, 110237.523438, 78526.976563, 119266.468750, 133195.359375, 0.152, 0.220, 0.956,0.0,0.0,0.0,0.0,0.0, 16:33:34.562
80563.890625, 116949.281250, 130668.781250, 132764.375000, 110187.906250, 78757.867188, 119264.054688, 133139.250000, 0.000, 0.000, 0.000,0.0,0.0,0.0,0.0,0.0, 16:33:34.814
80625.468750, 117028.812500, 130630.023438, 132726.265625, 110149.328125, 78649.210938, 119232.289063, 133096.859375, 0.000, 0.000, 0.000,0.0,0.0,0.0,0.0,0.0, 16:33:34.815
80743.820313, 117152.398438, 130608.859375, 132757.671875, 110191.171875, 78399.679688, 119229.789063, 133147.015625, 0.000, 0.000, 0.000,0.0,0.0,0.0,0.0,0.0, 16:33:34.816
80708.187500, 117099.468750, 130645.695313, 132805.859375, 110227.515625, 78486.898438, 119267.335938, 133208.171875, 0.000, 0.000, 0.000,0.0,0.0,0.0,0.0,0.0, 16:33:34.818
80586.664063, 116965.554688, 130678.421875, 132779.609375, 110184.015625, 78744.054688, 119276.101563, 133170.921875, 0.000, 0.000, 0.000,0.0,0.0,0.0,0.0,0.0, 16:33:34.818
80599.289063, 116999.460938, 130645.179688, 132726.171875, 110136.718750, 78701.804688, 119240.382813, 133111.093750, 0.148, 0.232, 0.956,0.0,0.0,0.0,0.0,0.0, 16:33:34.819
80729.890625, 117140.210938, 130598.757813, 132746.609375, 110164.632813, 78430.476563, 119223.906250, 133144.734375, 0.000, 0.000, 0.000,0.0,0.0,0.0,0.0,0.0, 16:33:34.820
80731.210938, 117117.750000, 130630.671875, 132798.687500, 110213.476563, 78449.523438, 119257.593750, 133210.718750, 0.000, 0.000, 0.000,0.0,0.0,0.0,0.0,0.0, 16:33:34.820
80605.867188, 116988.359375, 130666.507813, 132789.468750, 110183.835938, 78712.851563, 119273.914063, 133189.093750, 0.000, 0.000, 0.000,0.0,0.0,0.0,0.0,0.0, 16:33:34.821
80573.859375, 116973.562500, 130652.023438, 132729.015625, 110125.718750, 78740.296875, 119238.570313, 133111.078125, 0.000, 0.000, 0.000,0.0,0.0,0.0,0.0,0.0, 16:33:34.821
80704.304688, 117122.445313, 130608.304688, 132739.078125, 110146.265625, 78477.039063, 119220.289063, 133127.078125, 0.000, 0.000, 0.000,0.0,0.0,0.0,0.0,0.0, 16:33:34.822
80732.796875, 117137.375000, 130632.062500, 132795.546875, 110207.015625, 78422.835938, 119256.296875, 133202.921875, 0.000, 0.000, 0.000,0.0,0.0,0.0,0.0,0.0, 16:33:34.822
80611.875000, 116999.132813, 130676.046875, 132792.421875, 110192.617188, 78671.406250, 119278.648438, 133189.843750, 0.000, 0.000, 0.000,0.0,0.0,0.0,0.0,0.0, 16:33:34.823
80580.539063, 116979.437500, 130659.171875, 132744.765625, 110139.000000, 78753.304688, 119255.937500, 133122.296875, 0.000, 0.000, 0.000,0.0,0.0,0.0,0.0,0.0, 16:33:34.824
80692.390625, 117110.375000, 130613.687500, 132740.390625, 110154.531250, 78514.656250, 119232.898438, 133121.328125, 0.000, 0.000, 0.000,0.0,0.0,0.0,0.0,0.0, 16:33:34.825
80747.773438, 117153.203125, 130631.437500, 132792.578125, 110211.953125, 78394.851563, 119257.367188, 133187.000000, 0.144, 0.234, 0.954,0.0,0.0,0.0,0.0,0.0, 16:33:34.825
80644.796875, 117031.070313, 130677.460938, 132804.578125, 110211.929688, 78617.429688, 119285.828125, 133191.406250, 0.000, 0.000, 0.000,0.0,0.0,0.0,0.0,0.0, 16:33:34.826
80569.921875, 116965.492188, 130670.218750, 132750.406250, 110151.445313, 78757.507813, 119262.914063, 133124.015625, 0.000, 0.000, 0.000,0.0,0.0,0.0,0.0,0.0, 16:33:34.826
80663.460938, 117077.453125, 130630.562500, 132727.968750, 110145.257813, 78561.281250, 119233.453125, 133104.984375, 0.000, 0.000, 0.000,0.0,0.0,0.0,0.0,0.0, 16:33:34.826
80754.812500, 117164.132813, 130627.234375, 132780.468750, 110202.523438, 78379.320313, 119248.695313, 133174.656250, 0.000, 0.000, 0.000,0.0,0.0,0.0,0.0,0.0, 16:33:34.827
80674.257813, 117061.375000, 130673.390625, 132812.296875, 110217.476563, 78566.734375, 119282.515625, 133207.515625, 0.000, 0.000, 0.000,0.0,0.0,0.0,0.0,0.0, 16:33:34.827
80581.703125, 116968.773438, 130686.484375, 132765.265625, 110160.882813, 78768.593750, 119272.210938, 133147.437500, 0.000, 0.000, 0.000,0.0,0.0,0.0,0.0,0.0, 16:33:34.828
80653.671875, 117064.328125, 130642.859375, 132732.718750, 110140.117188, 78619.914063, 119240.671875, 133114.375000, 0.000, 0.000, 0.000,0.0,0.0,0.0,0.0,0.0, 16:33:34.828
80757.117188, 117170.210938, 130627.140625, 132771.734375, 110185.359375, 78391.718750, 119243.554688, 133171.109375, 0.000, 0.000, 0.000,0.0,0.0,0.0,0.0,0.0, 16:33:34.828
80699.515625, 117091.843750, 130669.703125, 132809.078125, 110207.710938, 78523.507813, 119276.726563, 133214.312500, 0.000, 0.000, 0.000,0.0,0.0,0.0,0.0,0.0, 16:33:34.829
80595.156250, 116982.117188, 130687.601563, 132775.484375, 110157.640625, 78758.492188, 119275.632813, 133163.984375, 0.144, 0.234, 0.958,0.0,0.0,0.0,0.0,0.0, 16:33:34.829
80639.859375, 117052.820313, 130636.242188, 132737.484375, 110125.789063, 78663.851563, 119245.257813, 133121.859375, 0.000, 0.000, 0.000,0.0,0.0,0.0,0.0,0.0, 16:33:34.830
80754.796875, 117181.515625, 130613.460938, 132770.609375, 110164.968750, 78413.359375, 119239.757813, 133165.906250, 0.000, 0.000, 0.000,0.0,0.0,0.0,0.0,0.0, 16:33:34.830
80716.929688, 117120.882813, 130655.375000, 132812.203125, 110199.078125, 78484.546875, 119270.937500, 133214.718750, 0.000, 0.000, 0.000,0.0,0.0,0.0,0.0,0.0, 16:33:34.831
80595.984375, 116987.257813, 130685.054688, 132784.156250, 110155.539063, 78733.367188, 119272.054688, 133168.093750, 0.000, 0.000, 0.000,0.0,0.0,0.0,0.0,0.0, 16:33:34.831
80613.398438, 117017.617188, 130657.695313, 132731.343750, 110113.179688, 78704.890625, 119238.593750, 133107.500000, 0.000, 0.000, 0.000,0.0,0.0,0.0,0.0,0.0, 16:33:34.831
80734.320313, 117154.898438, 130614.914063, 132749.484375, 110145.304688, 78434.835938, 119224.335938, 133132.281250, 0.000, 0.000, 0.000,0.0,0.0,0.0,0.0,0.0, 16:33:34.832
80734.320313, 117131.453125, 130647.257813, 132797.312500, 110198.765625, 78435.843750, 119258.375000, 133193.609375, 0.000, 0.000, 0.000,0.0,0.0,0.0,0.0,0.0, 16:33:34.832
80621.820313, 117006.281250, 130681.906250, 132787.750000, 110172.906250, 78688.421875, 119272.656250, 133173.953125, 0.000, 0.000, 0.000,0.0,0.0,0.0,0.0,0.0, 16:33:34.833
80604.570313, 117006.484375, 130669.921875, 132745.468750, 110131.648438, 78731.335938, 119249.054688, 133112.484375, 0.138, 0.236, 0.952,0.0,0.0,0.0,0.0,0.0, 16:33:34.833
80725.757813, 117146.156250, 130626.070313, 132752.171875, 110145.953125, 78474.757813, 119227.820313, 133121.953125, 0.000, 0.000, 0.000,0.0,0.0,0.0,0.0,0.0, 16:33:34.834
80753.093750, 117167.078125, 130641.250000, 132799.890625, 110196.156250, 78401.554688, 119254.398438, 133191.375000, 0.000, 0.000, 0.000,0.0,0.0,0.0,0.0,0.0, 16:33:34.835
80636.109375, 117035.093750, 130677.812500, 132805.390625, 110183.570313, 78644.250000, 119278.671875, 133192.078125, 0.000, 0.000, 0.000,0.0,0.0,0.0,0.0,0.0, 16:33:34.835
80592.187500, 116999.843750, 130668.539063, 132761.328125, 110134.039063, 78752.007813, 119261.882813, 133132.484375, 0.000, 0.000, 0.000,0.0,0.0,0.0,0.0,0.0, 16:33:34.836
80699.632813, 117128.523438, 130623.234375, 132752.421875, 110136.250000, 78526.148438, 119239.671875, 133130.937500, 0.000, 0.000, 0.000,0.0,0.0,0.0,0.0,0.0, 16:33:34.837
80761.078125, 117187.484375, 130634.695313, 132805.906250, 110194.898438, 78391.164063, 119265.015625, 133203.703125, 0.000, 0.000, 0.000,0.0,0.0,0.0,0.0,0.0, 16:33:34.837
80652.312500, 117060.664063, 130678.554688, 132821.921875, 110197.937500, 78607.414063, 119293.421875, 133219.187500, 0.000, 0.000, 0.000,0.0,0.0,0.0,0.0,0.0, 16:33:34.838
80571.484375, 116975.656250, 130690.804688, 132769.531250, 110140.945313, 78776.773438, 119276.437500, 133150.328125, 0.000, 0.000, 0.000,0.0,0.0,0.0,0.0,0.0, 16:33:34.838
80671.000000, 117093.500000, 130637.804688, 132746.250000, 110121.812500, 78587.414063, 119241.117188, 133123.281250, 0.000, 0.000, 0.000,0.0,0.0,0.0,0.0,0.0, 16:33:34.839
80763.578125, 117185.250000, 130613.734375, 132792.093750, 110177.625000, 78385.195313, 119251.718750, 133192.125000, 0.148, 0.242, 0.956,0.0,0.0,0.0,0.0,0.0, 16:33:34.839
80679.000000, 117085.515625, 130658.835938, 132822.062500, 110195.234375, 78562.625000, 119290.789063, 133225.093750, 0.000, 0.000, 0.000,0.0,0.0,0.0,0.0,0.0, 16:33:34.840
80583.671875, 116993.023438, 130677.882813, 132785.250000, 110143.718750, 78773.890625, 119283.476563, 133165.656250, 0.000, 0.000, 0.000,0.0,0.0,0.0,0.0,0.0, 16:33:34.848
80645.359375, 117076.156250, 130636.460938, 132747.281250, 110118.992188, 78634.195313, 119245.367188, 133122.265625, 0.000, 0.000, 0.000,0.0,0.0,0.0,0.0,0.0, 16:33:34.848
80748.242188, 117180.937500, 130619.367188, 132777.656250, 110165.375000, 78394.851563, 119244.656250, 133171.671875, 0.000, 0.000, 0.000,0.0,0.0,0.0,0.0,0.0, 16:33:34.849
80689.257813, 117099.867188, 130662.078125, 132813.437500, 110195.101563, 78511.328125, 119280.015625, 133215.875000, 0.000, 0.000, 0.000,0.0,0.0,0.0,0.0,0.0, 16:33:34.849
80585.859375, 116993.429688, 130686.421875, 132786.203125, 110147.898438, 78750.218750, 119282.226563, 133167.015625, 0.000, 0.000, 0.000,0.0,0.0,0.0,0.0,0.0, 16:33:34.849
80619.921875, 117045.890625, 130651.843750, 132743.359375, 110119.617188, 78672.281250, 119252.898438, 133116.140625, 0.000, 0.000, 0.000,0.0,0.0,0.0,0.0,0.0, 16:33:34.849
80743.234375, 117176.468750, 130620.328125, 132766.937500, 110156.992188, 78409.875000, 119243.960938, 133152.578125, 0.000, 0.000, 0.000,0.0,0.0,0.0,0.0,0.0, 16:33:34.850
80719.945313, 117131.515625, 130652.445313, 132809.453125, 110198.367188, 78461.570313, 119278.671875, 133211.000000, 0.152, 0.246, 0.950,0.0,0.0,0.0,0.0,0.0, 16:33:34.850
80594.289063, 117000.156250, 130690.351563, 132789.343750, 110159.765625, 78717.234375, 119284.820313, 133173.609375, 0.000, 0.000, 0.000,0.0,0.0,0.0,0.0,0.0, 16:33:34.850
80596.367188, 117018.109375, 130672.968750, 132740.015625, 110117.250000, 78712.515625, 119251.109375, 133108.640625, 0.000, 0.000, 0.000,0.0,0.0,0.0,0.0,0.0, 16:33:34.851
80724.039063, 117154.429688, 130638.320313, 132748.078125, 110143.781250, 78446.664063, 119231.664063, 133125.531250, 0.000, 0.000, 0.000,0.0,0.0,0.0,0.0,0.0, 16:33:34.851
80738.882813, 117157.718750, 130659.710938, 132804.515625, 110193.132813, 78419.460938, 119264.789063, 133195.984375, 0.000, 0.000, 0.000,0.0,0.0,0.0,0.0,0.0, 16:33:34.851
80622.312500, 117033.078125, 130694.265625, 132803.015625, 110173.132813, 78673.062500, 119288.328125, 133188.125000, 0.000, 0.000, 0.000,0.0,0.0,0.0,0.0,0.0, 16:33:34.851
80587.914063, 117009.007813, 130680.382813, 132748.734375, 110118.570313, 78730.867188, 119258.601563, 133114.953125, 0.000, 0.000, 0.000,0.0,0.0,0.0,0.0,0.0, 16:33:34.854
80702.109375, 117138.093750, 130624.398438, 132743.609375, 110125.429688, 78474.312500, 119232.937500, 133118.296875, 0.000, 0.000, 0.000,0.0,0.0,0.0,0.0,0.0, 16:33:34.855
80742.945313, 117169.492188, 130639.257813, 132799.062500, 110184.257813, 78385.914063, 119264.523438, 133195.109375, 0.000, 0.000, 0.000,0.0,0.0,0.0,0.0,0.0, 16:33:34.855
80635.078125, 117042.875000, 130686.195313, 132808.828125, 110178.945313, 78629.390625, 119289.515625, 133196.875000, 0.000, 0.000, 0.000,0.0,0.0,0.0,0.0,0.0, 16:33:34.856
80564.867188, 116988.109375, 130683.578125, 132752.390625, 110121.187500, 78751.828125, 119264.812500, 133121.484375, 0.152, 0.242, 0.950,0.0,0.0,0.0,0.0,0.0, 16:33:34.857
80676.070313, 117118.687500, 130638.031250, 132739.000000, 110128.179688, 78532.156250, 119239.687500, 133115.500000, 0.000, 0.000, 0.000,0.005320126,0.008809393,0.009896104,0.02149815,0.016387444, 16:33:35.022
80756.289063, 117181.203125, 130638.453125, 132786.875000, 110179.609375, 78372.945313, 119258.421875, 133182.625000, 0.000, 0.000, 0.000,0.005320126,0.008809393,0.009896104,0.02149815,0.016387444, 16:33:35.023
80671.109375, 117069.179688, 130675.359375, 132806.437500, 110184.820313, 78576.523438, 119288.617188, 133204.171875, 0.000, 0.000, 0.000,0.005320126,0.008809393,0.009896104,0.02149815,0.016387444, 16:33:35.024
80580.945313, 116987.375000, 130684.679688, 132760.062500, 110134.531250, 78756.859375, 119273.531250, 133139.093750, 0.000, 0.000, 0.000,0.005320126,0.008809393,0.009896104,0.02149815,0.016387444, 16:33:35.024
80671.734375, 117105.906250, 130637.539063, 132744.015625, 110122.976563, 78581.914063, 119245.523438, 133116.453125, 0.000, 0.000, 0.000,0.005320126,0.008809393,0.009896104,0.02149815,0.016387444, 16:33:35.025
80763.312500, 117200.609375, 130628.531250, 132792.640625, 110179.835938, 78377.437500, 119260.390625, 133185.562500, 0.000, 0.000, 0.000,0.005320126,0.008809393,0.009896104,0.02149815,0.016387444, 16:33:35.026
80681.859375, 117098.414063, 130673.609375, 132820.125000, 110196.867188, 78541.281250, 119291.343750, 133218.609375, 0.000, 0.000, 0.000,0.005320126,0.008809393,0.009896104,0.02149815,0.016387444, 16:33:35.026
80574.367188, 116992.132813, 130691.625000, 132779.734375, 110144.250000, 78760.437500, 119283.078125, 133162.093750, 0.000, 0.000, 0.000,0.005320126,0.008809393,0.009896104,0.02149815,0.016387444, 16:33:35.027
80633.265625, 117074.140625, 130649.984375, 132744.218750, 110123.148438, 78641.812500, 119254.242188, 133122.015625, 0.152, 0.248, 0.962,0.005320126,0.008809393,0.009896104,0.02149815,0.016387444, 16:33:35.027
80758.617188, 117206.445313, 130619.859375, 132782.250000, 110170.265625, 78397.289063, 119255.312500, 133175.484375, 0.000, 0.000, 0.000,0.005320126,0.008809393,0.009896104,0.02149815,0.016387444, 16:33:35.028
80710.515625, 117133.531250, 130654.789063, 132816.625000, 110204.359375, 78493.335938, 119291.281250, 133225.937500, 0.000, 0.000, 0.000,0.005320126,0.008809393,0.009896104,0.02149815,0.016387444, 16:33:35.028
80596.007813, 117010.304688, 130693.375000, 132791.625000, 110164.390625, 78743.203125, 119296.265625, 133179.265625, 0.000, 0.000, 0.000,0.005320126,0.008809393,0.009896104,0.02149815,0.016387444, 16:33:35.029
80621.531250, 117059.789063, 130666.640625, 132750.171875, 110126.523438, 78686.320313, 119260.234375, 133121.593750, 0.000, 0.000, 0.000,0.005320126,0.008809393,0.009896104,0.02149815,0.016387444, 16:33:35.029
80745.515625, 117192.156250, 130631.476563, 132773.765625, 110163.828125, 78422.570313, 119247.804688, 133157.734375, 0.000, 0.000, 0.000,0.005320126,0.008809393,0.009896104,0.02149815,0.016387444, 16:33:35.030
80740.265625, 117167.773438, 130663.312500, 132825.843750, 110204.554688, 78456.539063, 119284.171875, 133222.703125, 0.000, 0.000, 0.000,0.005320126,0.008809393,0.009896104,0.02149815,0.016387444, 16:33:35.030
80621.218750, 117038.515625, 130703.007813, 132812.828125, 110168.812500, 78715.867188, 119297.000000, 133192.281250, 0.000, 0.000, 0.000,0.005320126,0.008809393,0.009896104,0.02149815,0.016387444, 16:33:35.031
80615.968750, 117055.429688, 130675.398438, 132765.062500, 110115.843750, 78721.187500, 119264.101563, 133128.078125, 0.000, 0.000, 0.000,0.005320126,0.008809393,0.009896104,0.02149815,0.016387444, 16:33:35.031
80727.500000, 117180.890625, 130641.046875, 132772.625000, 110144.296875, 78463.515625, 119248.718750, 133147.296875, 0.000, 0.000, 0.000,0.005320126,0.008809393,0.009896104,0.02149815,0.016387444, 16:33:35.032
80732.687500, 117164.640625, 130664.312500, 132815.296875, 110190.406250, 78426.296875, 119272.281250, 133207.109375, 0.152, 0.250, 0.962,0.005320126,0.008809393,0.009896104,0.02149815,0.016387444, 16:33:35.032
80615.789063, 117033.437500, 130698.937500, 132807.250000, 110166.781250, 78673.109375, 119286.156250, 133189.609375, 0.000, 0.000, 0.000,0.005320126,0.008809393,0.009896104,0.02149815,0.016387444, 16:33:35.033
80587.289063, 117020.632813, 130686.156250, 132758.984375, 110119.734375, 78746.312500, 119263.156250, 133122.515625, 0.000, 0.000, 0.000,0.005320126,0.008809393,0.009896104,0.02149815,0.016387444, 16:33:35.034
80699.335938, 117147.945313, 130641.960938, 132745.312500, 110124.937500, 78501.445313, 119234.507813, 133114.562500, 0.000, 0.000, 0.000,0.005320126,0.008809393,0.009896104,0.02149815,0.016387444, 16:33:35.035
80756.445313, 117194.640625, 130647.664063, 132800.562500, 110178.671875, 78391.453125, 119258.375000, 133189.765625, 0.000, 0.000, 0.000,0.005320126,0.008809393,0.009896104,0.02149815,0.016387444, 16:33:35.035
80647.953125, 117067.640625, 130699.671875, 132813.765625, 110173.960938, 78625.250000, 119283.054688, 133194.218750, 0.000, 0.000, 0.000,0.005320126,0.008809393,0.009896104,0.02149815,0.016387444, 16:33:35.036
80584.273438, 117013.929688, 130696.726563, 132764.812500, 110118.343750, 78757.640625, 119263.250000, 133125.437500, 0.000, 0.000, 0.000,0.005320126,0.008809393,0.009896104,0.02149815,0.016387444, 16:33:35.036
80679.851563, 117132.234375, 130640.265625, 132746.765625, 110118.968750, 78545.460938, 119236.093750, 133116.859375, 0.000, 0.000, 0.000,0.005320126,0.008809393,0.009896104,0.02149815,0.016387444, 16:33:35.037
80754.164063, 117202.640625, 130631.234375, 132792.984375, 110177.781250, 78373.281250, 119251.578125, 133189.250000, 0.000, 0.000, 0.000,0.005320126,0.008809393,0.009896104,0.02149815,0.016387444, 16:33:35.037
80662.656250, 117089.789063, 130674.710938, 132819.515625, 110192.734375, 78568.320313, 119284.531250, 133215.390625, 0.000, 0.000, 0.000,0.005320126,0.008809393,0.009896104,0.02149815,0.016387444, 16:33:35.038
80570.031250, 116991.976563, 130688.164063, 132769.687500, 110131.289063, 78758.757813, 119270.851563, 133144.625000, 0.154, 0.238, 0.954,0.005320126,0.008809393,0.009896104,0.02149815,0.016387444, 16:33:35.038
80660.265625, 117100.898438, 130634.250000, 132746.609375, 110110.750000, 78595.859375, 119242.281250, 133119.750000, 0.000, 0.000, 0.000,0.005320126,0.008809393,0.009896104,0.02149815,0.016387444, 16:33:35.039
80756.421875, 117197.054688, 130627.031250, 132789.937500, 110166.648438, 78382.875000, 119249.570313, 133181.140625, 0.000, 0.000, 0.000,0.005320126,0.008809393,0.009896104,0.02149815,0.016387444, 16:33:35.039
80682.929688, 117109.437500, 130663.578125, 132817.296875, 110178.945313, 78526.187500, 119277.171875, 133217.171875, 0.000, 0.000, 0.000,0.005320126,0.008809393,0.009896104,0.02149815,0.016387444, 16:33:35.039
80570.796875, 116991.304688, 130684.546875, 132772.531250, 110124.718750, 78754.398438, 119268.460938, 133155.015625, 0.000, 0.000, 0.000,0.005320126,0.008809393,0.009896104,0.02149815,0.016387444, 16:33:35.040
80622.960938, 117064.281250, 130647.640625, 132730.546875, 110093.648438, 78648.250000, 119232.781250, 133104.953125, 0.000, 0.000, 0.000,0.005320126,0.008809393,0.009896104,0.02149815,0.016387444, 16:33:35.040
80753.093750, 117203.828125, 130616.437500, 132761.000000, 110138.460938, 78392.414063, 119231.304688, 133156.281250, 0.000, 0.000, 0.000,0.005320126,0.008809393,0.009896104,0.02149815,0.016387444, 16:33:35.040
80719.609375, 117151.101563, 130652.710938, 132810.734375, 110183.234375, 78477.437500, 119269.890625, 133216.734375, 0.000, 0.000, 0.000,0.005320126,0.008809393,0.009896104,0.02149815,0.016387444, 16:33:35.041
80599.539063, 117022.242188, 130687.781250, 132789.828125, 110142.460938, 78731.156250, 119276.367188, 133175.484375, 0.000, 0.000, 0.000,0.005320126,0.008809393,0.009896104,0.02149815,0.016387444, 16:33:35.041
80611.539063, 117051.585938, 130660.156250, 132739.718750, 110097.601563, 78687.640625, 119239.265625, 133108.640625, 0.156, 0.238, 0.950,0.005320126,0.008809393,0.009896104,0.02149815,0.016387444, 16:33:35.042
80723.054688, 117180.710938, 130615.742188, 132752.906250, 110126.015625, 78415.664063, 119222.835938, 133133.890625, 0.000, 0.000, 0.000,0.005320126,0.008809393,0.009896104,0.02149815,0.016387444, 16:33:35.042
80715.882813, 117164.015625, 130639.257813, 132810.484375, 110181.179688, 78431.445313, 119262.687500, 133207.875000, 0.000, 0.000, 0.000,0.005320126,0.008809393,0.009896104,0.02149815,0.016387444, 16:33:35.042
80608.296875, 117025.281250, 130680.656250, 132801.187500, 110155.804688, 78694.367188, 119279.031250, 133187.046875, 0.000, 0.000, 0.000,0.005320126,0.008809393,0.009896104,0.02149815,0.016387444, 16:33:35.043
80590.218750, 117016.164063, 130666.484375, 132746.359375, 110106.414063, 78723.890625, 119245.031250, 133116.859375, 0.000, 0.000, 0.000,0.005320126,0.008809393,0.009896104,0.02149815,0.016387444, 16:33:35.043
80717.492188, 117168.492188, 130615.296875, 132758.421875, 110129.320313, 78462.578125, 119227.328125, 133136.578125, 0.000, 0.000, 0.000,0.005320126,0.008809393,0.009896104,0.02149815,0.016387444, 16:33:35.044
80746.390625, 117185.835938, 130631.812500, 132815.687500, 110189.781250, 78408.445313, 119265.375000, 133217.828125, 0.000, 0.000, 0.000,0.005320126,0.008809393,0.009896104,0.02149815,0.016387444, 16:33:35.044
80623.429688, 117045.820313, 130678.617188, 132814.687500, 110173.960938, 78660.593750, 119289.179688, 133207.828125, 0.000, 0.000, 0.000,0.005320126,0.008809393,0.009896104,0.02149815,0.016387444, 16:33:35.045
80575.445313, 117007.531250, 130675.046875, 132757.312500, 110120.718750, 78754.515625, 119262.578125, 133130.921875, 0.000, 0.000, 0.000,0.005320126,0.008809393,0.009896104,0.02149815,0.016387444, 16:33:35.045
80692.164063, 117143.164063, 130627.609375, 132747.140625, 110119.281250, 78515.710938, 119230.773438, 133122.062500, 0.000, 0.000, 0.000,0.005320126,0.008809393,0.009896104,0.02149815,0.016387444, 16:33:35.046
80756.781250, 117202.304688, 130631.617188, 132802.578125, 110176.148438, 78387.945313, 119252.031250, 133199.109375, 0.150, 0.240, 0.954,0.005320126,0.008809393,0.009896104,0.02149815,0.016387444, 16:33:35.046
80645.335938, 117066.382813, 130684.546875, 132805.953125, 110176.078125, 78613.539063, 119274.875000, 133202.265625, 0.000, 0.000, 0.000,0.005320126,0.008809393,0.009896104,0.02149815,0.016387444, 16:33:35.047
80571.867188, 116999.640625, 130687.742188, 132748.546875, 110109.250000, 78761.820313, 119252.164063, 133124.546875, 0.000, 0.000, 0.000,0.005320126,0.008809393,0.009896104,0.02149815,0.016387444, 16:33:35.047
80668.585938, 117118.601563, 130638.320313, 132727.312500, 110094.835938, 78558.937500, 119221.921875, 133103.062500, 0.000, 0.000, 0.000,0.005320126,0.008809393,0.009896104,0.02149815,0.016387444, 16:33:35.048
80760.492188, 117203.070313, 130628.664063, 132783.328125, 110158.265625, 78376.187500, 119239.734375, 133177.859375, 0.000, 0.000, 0.000,0.0,0.0,0.0,0.0,0.0, 16:33:35.486
80670.015625, 117092.851563, 130677.476563, 132809.390625, 110169.734375, 78563.515625, 119270.070313, 133200.750000, 0.000, 0.000, 0.000,0.0,0.0,0.0,0.0,0.0, 16:33:35.487
80571.195313, 117002.640625, 130686.531250, 132773.093750, 110112.515625, 78761.757813, 119262.062500, 133140.953125, 0.000, 0.000, 0.000,0.0,0.0,0.0,0.0,0.0, 16:33:35.487
80634.945313, 117088.914063, 130652.695313, 132741.437500, 110091.859375, 78618.390625, 119229.945313, 133102.984375, 0.000, 0.000, 0.000,0.0,0.0,0.0,0.0,0.0, 16:33:35.488
80746.726563, 117205.125000, 130627.320313, 132781.703125, 110138.578125, 78384.125000, 119233.898438, 133162.562500, 0.000, 0.000, 0.000,0.0,0.0,0.0,0.0,0.0, 16:33:35.488
80681.835938, 117118.937500, 130668.273438, 132815.781250, 110168.304688, 78515.867188, 119267.945313, 133208.968750, 0.158, 0.236, 0.956,0.0,0.0,0.0,0.0,0.0, 16:33:35.488
80568.312500, 117001.117188, 130689.507813, 132778.640625, 110120.601563, 78749.148438, 119261.390625, 133153.828125, 0.000, 0.000, 0.000,0.0,0.0,0.0,0.0,0.0, 16:33:35.489
80615.718750, 117067.750000, 130657.523438, 132738.625000, 110092.328125, 78663.921875, 119229.742188, 133106.328125, 0.000, 0.000, 0.000,0.0,0.0,0.0,0.0,0.0, 16:33:35.489
80738.945313, 117201.140625, 130622.960938, 132766.359375, 110131.937500, 78401.289063, 119221.382813, 133147.703125, 0.000, 0.000, 0.000,0.0,0.0,0.0,0.0,0.0, 16:33:35.489
80699.382813, 117136.570313, 130659.734375, 132804.656250, 110174.781250, 78467.492188, 119254.375000, 133201.343750, 0.000, 0.000, 0.000,0.0,0.0,0.0,0.0,0.0, 16:33:35.489
80582.234375, 117005.320313, 130694.000000, 132777.828125, 110128.179688, 78721.117188, 119256.968750, 133157.734375, 0.000, 0.000, 0.000,0.0,0.0,0.0,0.0,0.0, 16:33:35.489
80603.429688, 117047.945313, 130660.851563, 132737.859375, 110088.929688, 78697.937500, 119230.859375, 133105.343750, 0.000, 0.000, 0.000,0.0,0.0,0.0,0.0,0.0, 16:33:35.490
80725.203125, 117185.070313, 130613.757813, 132755.593750, 110114.390625, 78428.445313, 119215.570313, 133133.828125, 0.000, 0.000, 0.000,0.0,0.0,0.0,0.0,0.0, 16:33:35.490
80737.898438, 117184.156250, 130637.421875, 132815.718750, 110167.476563, 78426.187500, 119253.882813, 133209.937500, 0.000, 0.000, 0.000,0.0,0.0,0.0,0.0,0.0, 16:33:35.490
80612.632813, 117044.546875, 130678.531250, 132807.406250, 110136.453125, 78685.445313, 119268.523438, 133185.906250, 0.000, 0.000, 0.000,0.0,0.0,0.0,0.0,0.0, 16:33:35.490
80585.789063, 117024.718750, 130668.250000, 132750.828125, 110080.679688, 78732.921875, 119238.148438, 133112.234375, 0.158, 0.234, 0.954,0.0,0.0,0.0,0.0,0.0, 16:33:35.491
80704.390625, 117169.117188, 130627.523438, 132753.078125, 110095.234375, 78479.851563, 119214.523438, 133118.046875, 0.000, 0.000, 0.000,0.0,0.0,0.0,0.0,0.0, 16:33:35.491
80734.609375, 117194.664063, 130641.406250, 132809.906250, 110156.523438, 78405.046875, 119245.078125, 133194.984375, 0.000, 0.000, 0.000,0.0,0.0,0.0,0.0,0.0, 16:33:35.491
80614.625000, 117057.398438, 130690.781250, 132811.203125, 110140.656250, 78650.445313, 119266.445313, 133186.031250, 0.000, 0.000, 0.000,0.0,0.0,0.0,0.0,0.0, 16:33:35.491
80579.195313, 117025.015625, 130678.554688, 132763.171875, 110086.945313, 78755.343750, 119247.085938, 133120.031250, 0.000, 0.000, 0.000,0.0,0.0,0.0,0.0,0.0, 16:33:35.491
80682.039063, 117139.609375, 130635.304688, 132747.937500, 110091.929688, 78529.609375, 119219.710938, 133111.343750, 0.000, 0.000, 0.000,0.0,0.0,0.0,0.0,0.0, 16:33:35.492
80753.812500, 117204.382813, 130634.632813, 132805.390625, 110156.296875, 78387.875000, 119246.687500, 133194.109375, 0.000, 0.000, 0.000,0.0,0.0,0.0,0.0,0.0, 16:33:35.492
80649.851563, 117077.226563, 130681.796875, 132820.656250, 110163.671875, 78607.437500, 119280.484375, 133210.609375, 0.000, 0.000, 0.000,0.0,0.0,0.0,0.0,0.0, 16:33:35.492
80576.562500, 117001.703125, 130691.781250, 132774.859375, 110109.898438, 78775.296875, 119268.773438, 133143.171875, 0.000, 0.000, 0.000,0.0,0.0,0.0,0.0,0.0, 16:33:35.493
80667.914063, 117115.625000, 130647.460938, 132750.359375, 110097.023438, 78590.695313, 119241.234375, 133118.531250, 0.162, 0.234, 0.952,0.0,0.0,0.0,0.0,0.0, 16:33:35.493
80759.289063, 117215.960938, 130630.945313, 132799.718750, 110153.906250, 78388.726563, 119253.500000, 133184.859375, 0.000, 0.000, 0.000,0.0,0.0,0.0,0.0,0.0, 16:33:35.493
80676.851563, 117106.640625, 130674.820313, 132819.812500, 110172.171875, 78558.289063, 119282.250000, 133212.390625, 0.000, 0.000, 0.000,0.0,0.0,0.0,0.0,0.0, 16:33:35.494
80578.882813, 117009.750000, 130693.039063, 132777.984375, 110123.734375, 78770.648438, 119276.773438, 133155.687500, 0.000, 0.000, 0.000,0.0,0.0,0.0,0.0,0.0, 16:33:35.494
80627.585938, 117083.414063, 130662.101563, 132738.015625, 110097.468750, 78644.093750, 119239.867188, 133108.609375, 0.000, 0.000, 0.000,0.0,0.0,0.0,0.0,0.0, 16:33:35.495
80739.617188, 117201.992188, 130630.812500, 132774.156250, 110140.945313, 78398.585938, 119237.210938, 133162.218750, 0.000, 0.000, 0.000,0.0,0.0,0.0,0.0,0.0, 16:33:35.495
80688.539063, 117124.140625, 130666.976563, 132812.500000, 110169.890625, 78509.429688, 119267.789063, 133208.093750, 0.000, 0.000, 0.000,0.0,0.0,0.0,0.0,0.0, 16:33:35.496
80585.835938, 117021.500000, 130691.335938, 132792.171875, 110123.265625, 78752.546875, 119269.484375, 133164.375000, 0.000, 0.000, 0.000,0.0,0.0,0.0,0.0,0.0, 16:33:35.496
80624.351563, 117079.375000, 130661.210938, 132757.828125, 110095.726563, 78685.960938, 119239.109375, 133117.578125, 0.000, 0.000, 0.000,0.0,0.0,0.0,0.0,0.0, 16:33:35.496
80750.187500, 117206.929688, 130627.859375, 132782.812500, 110135.289063, 78424.601563, 119228.804688, 133154.750000, 0.000, 0.000, 0.000,0.0,0.0,0.0,0.0,0.0, 16:33:35.497
80725.335938, 117159.437500, 130661.007813, 132826.734375, 110177.421875, 78473.507813, 119263.828125, 133213.859375, 0.154, 0.236, 0.958,0.0,0.0,0.0,0.0,0.0, 16:33:35.497
80603.203125, 117028.054688, 130696.007813, 132809.968750, 110144.226563, 78732.718750, 119275.523438, 133184.578125, 0.000, 0.000, 0.000,0.0,0.0,0.0,0.0,0.0, 16:33:35.497
80596.679688, 117038.179688, 130674.281250, 132753.312500, 110097.289063, 78727.601563, 119241.164063, 133115.453125, 0.000, 0.000, 0.000,0.0,0.0,0.0,0.0,0.0, 16:33:35.498
80722.203125, 117183.843750, 130632.398438, 132764.937500, 110120.937500, 78463.851563, 119225.250000, 133139.328125, 0.000, 0.000, 0.000,0.0,0.0,0.0,0.0,0.0, 16:33:35.498
80735.078125, 117181.632813, 130655.351563, 132819.609375, 110176.843750, 78442.078125, 119260.296875, 133213.750000, 0.000, 0.000, 0.000,0.0,0.0,0.0,0.0,0.0, 16:33:35.498
80630.070313, 117064.171875, 130693.078125, 132819.921875, 110159.671875, 78695.593750, 119279.210938, 133198.953125, 0.000, 0.000, 0.000,0.0,0.0,0.0,0.0,0.0, 16:33:35.499
80604.921875, 117044.437500, 130688.273438, 132770.125000, 110117.093750, 78759.695313, 119254.890625, 133129.875000, 0.000, 0.000, 0.000,0.0,0.0,0.0,0.0,0.0, 16:33:35.499
80711.656250, 117166.703125, 130649.984375, 132760.062500, 110118.968750, 78511.460938, 119223.906250, 133122.812500, 0.000, 0.000, 0.000,0.0,0.0,0.0,0.0,0.0, 16:33:35.499
80753.585938, 117200.093750, 130653.789063, 132810.687500, 110169.710938, 78411.820313, 119246.750000, 133191.937500, 0.000, 0.000, 0.000,0.0,0.0,0.0,0.0,0.0, 16:33:35.500
80639.367188, 117066.609375, 130690.312500, 132814.953125, 110161.664063, 78647.757813, 119272.796875, 133194.906250, 0.000, 0.000, 0.000,0.0,0.0,0.0,0.0,0.0, 16:33:35.500
80568.132813, 117003.421875, 130682.460938, 132759.812500, 110104.507813, 78767.898438, 119249.953125, 133124.453125, 0.150, 0.240, 0.962,0.0,0.0,0.0,0.0,0.0, 16:33:35.500
80676.585938, 117129.148438, 130634.476563, 132745.031250, 110104.242188, 78548.789063, 119220.156250, 133112.562500, 0.000, 0.000, 0.000,0.0,0.0,0.0,0.0,0.0, 16:33:35.501
80748.648438, 117194.351563, 130636.617188, 132797.203125, 110163.273438, 78391.585938, 119238.640625, 133182.312500, 0.000, 0.000, 0.000,0.0,0.0,0.0,0.0,0.0, 16:33:35.501
80650.585938, 117077.898438, 130673.812500, 132810.484375, 110166.382813, 78591.835938, 119267.250000, 133198.468750, 0.000, 0.000, 0.000,0.0,0.0,0.0,0.0,0.0, 16:33:35.501
80573.031250, 117007.781250, 130679.312500, 132767.609375, 110114.656250, 78771.546875, 119257.703125, 133134.828125, 0.000, 0.000, 0.000,0.0,0.0,0.0,0.0,0.0, 16:33:35.501
80663.734375, 117119.312500, 130633.242188, 132747.000000, 110099.820313, 78599.031250, 119229.992188, 133108.484375, 0.000, 0.000, 0.000,0.0,0.0,0.0,0.0,0.0, 16:33:35.501
80757.789063, 117211.625000, 130621.039063, 132787.500000, 110149.929688, 78388.992188, 119235.312500, 133170.734375, 0.000, 0.000, 0.000,0.0,0.0,0.0,0.0,0.0, 16:33:35.501
80677.476563, 117119.359375, 130662.367188, 132817.218750, 110170.828125, 78541.367188, 119263.875000, 133201.937500, 0.000, 0.000, 0.000,0.0,0.0,0.0,0.0,0.0, 16:33:35.502
80576.000000, 117013.570313, 130681.906250, 132777.890625, 110124.671875, 78763.992188, 119258.867188, 133147.453125, 0.000, 0.000, 0.000,0.0,0.0,0.0,0.0,0.0, 16:33:35.502
80636.484375, 117094.437500, 130640.398438, 132743.625000, 110094.406250, 78645.703125, 119224.312500, 133102.734375, 0.158, 0.244, 0.956,0.0,0.0,0.0,0.0,0.0, 16:33:35.502
80752.492188, 117214.976563, 130618.960938, 132783.265625, 110145.835938, 78403.164063, 119224.757813, 133157.859375, 0.000, 0.000, 0.000,0.0,0.0,0.0,0.0,0.0, 16:33:35.503
80703.476563, 117145.195313, 130659.132813, 132825.843750, 110183.125000, 78502.429688, 119259.289063, 133210.562500, 0.000, 0.000, 0.000,0.0,0.0,0.0,0.0,0.0, 16:33:35.503
80584.429688, 117014.195313, 130692.656250, 132796.421875, 110140.851563, 78753.554688, 119259.468750, 133166.187500, 0.000, 0.000, 0.000,0.0,0.0,0.0,0.0,0.0, 16:33:35.503
80610.710938, 117061.218750, 130657.835938, 132751.093750, 110099.437500, 78697.828125, 119225.789063, 133110.875000, 0.000, 0.000, 0.000,0.0,0.0,0.0,0.0,0.0, 16:33:35.504
80734.382813, 117199.781250, 130624.953125, 132773.625000, 110134.062500, 78435.578125, 119217.070313, 133149.250000, 0.000, 0.000, 0.000,0.0,0.0,0.0,0.0,0.0, 16:33:35.504
80719.882813, 117169.828125, 130659.710938, 132823.375000, 110185.804688, 78467.156250, 119257.257813, 133214.765625, 0.000, 0.000, 0.000,0.0,0.0,0.0,0.0,0.0, 16:33:35.504
80598.937500, 117034.757813, 130700.078125, 132806.593750, 110158.937500, 78727.492188, 119271.585938, 133185.968750, 0.000, 0.000, 0.000,0.0,0.0,0.0,0.0,0.0, 16:33:35.505
80586.242188, 117035.164063, 130674.578125, 132743.984375, 110099.437500, 78733.320313, 119233.031250, 133111.453125, 0.000, 0.000, 0.000,0.0,0.0,0.0,0.0,0.0, 16:33:35.505
80717.195313, 117176.445313, 130633.718750, 132752.453125, 110122.882813, 78471.632813, 119217.804688, 133129.421875, 0.000, 0.000, 0.000,0.0,0.0,0.0,0.0,0.0, 16:33:35.506
80730.585938, 117175.328125, 130661.968750, 132803.843750, 110177.351563, 78433.585938, 119251.960938, 133198.015625, 0.154, 0.244, 0.950,0.0,0.0,0.0,0.0,0.0, 16:33:35.507
80606.515625, 117039.562500, 130706.335938, 132801.562500, 110155.789063, 78686.609375, 119268.476563, 133180.203125, 0.000, 0.000, 0.000,0.0,0.0,0.0,0.0,0.0, 16:33:35.507
80584.226563, 117033.328125, 130684.656250, 132759.703125, 110106.117188, 78758.359375, 119244.226563, 133120.953125, 0.000, 0.000, 0.000,0.0,0.0,0.0,0.0,0.0, 16:33:35.507
80704.906250, 117176.648438, 130639.234375, 132766.937500, 110120.937500, 78517.429688, 119222.906250, 133130.468750, 0.000, 0.000, 0.000,0.0,0.0,0.0,0.0,0.0, 16:33:35.508
80758.835938, 117216.414063, 130653.812500, 132825.171875, 110181.468750, 78410.562500, 119248.695313, 133205.125000, 0.000, 0.000, 0.000,0.0,0.0,0.0,0.0,0.0, 16:33:35.508
80651.437500, 117086.570313, 130705.937500, 132837.171875, 110181.335938, 78644.210938, 119275.921875, 133208.875000, 0.000, 0.000, 0.000,0.0,0.0,0.0,0.0,0.0, 16:33:35.508
80586.820313, 117028.078125, 130711.429688, 132786.093750, 110124.289063, 78783.367188, 119253.796875, 133134.406250, 0.000, 0.000, 0.000,0.0,0.0,0.0,0.0,0.0, 16:33:35.508
80682.710938, 117147.031250, 130662.031250, 132770.984375, 110117.453125, 78576.210938, 119222.617188, 133118.625000, 0.000, 0.000, 0.000,0.0,0.0,0.0,0.0,0.0, 16:33:35.509
80764.250000, 117226.539063, 130659.265625, 132822.750000, 110178.648438, 78405.359375, 119243.687500, 133190.781250, 0.000, 0.000, 0.000,0.0,0.0,0.0,0.0,0.0, 16:33:35.509
80672.453125, 117116.679688, 130702.625000, 132845.046875, 110191.882813, 78597.000000, 119276.773438, 133218.000000, 0.156, 0.248, 0.956,0.0,0.0,0.0,0.0,0.0, 16:33:35.510
80581.078125, 117026.914063, 130714.695313, 132799.171875, 110133.656250, 78787.101563, 119264.859375, 133155.031250, 0.000, 0.000, 0.000,0.0,0.0,0.0,0.0,0.0, 16:33:35.510
80651.906250, 117115.875000, 130683.781250, 132771.171875, 110124.742188, 78635.445313, 119236.289063, 133125.515625, 0.000, 0.000, 0.000,0.0,0.0,0.0,0.0,0.0, 16:33:35.510
80751.867188, 117220.296875, 130665.500000, 132814.312500, 110176.078125, 78416.734375, 119247.601563, 133187.937500, 0.000, 0.000, 0.000,0.0,0.0,0.0,0.0,0.0, 16:33:35.511
80678.414063, 117131.296875, 130701.617188, 132843.500000, 110196.890625, 78555.539063, 119277.171875, 133223.546875, 0.000, 0.000, 0.000,0.0,0.0,0.0,0.0,0.0, 16:33:35.511
80580.695313, 117026.914063, 130721.648438, 132800.000000, 110142.281250, 78778.226563, 119265.867188, 133159.281250, 0.000, 0.000, 0.000,0.0,0.0,0.0,0.0,0.0, 16:33:35.511
80616.968750, 117085.453125, 130687.203125, 132750.781250, 110109.539063, 78676.437500, 119227.773438, 133104.562500, 0.000, 0.000, 0.000,0.0,0.0,0.0,0.0,0.0, 16:33:35.512
80728.664063, 117203.625000, 130650.679688, 132775.953125, 110142.867188, 78416.960938, 119222.164063, 133149.781250, 0.000, 0.000, 0.000,0.0,0.0,0.0,0.0,0.0, 16:33:35.512
80700.078125, 117161.445313, 130672.828125, 132822.218750, 110179.390625, 78491.031250, 119262.890625, 133213.265625, 0.000, 0.000, 0.000,0.0,0.0,0.0,0.0,0.0, 16:33:35.512
80578.531250, 117034.265625, 130701.421875, 132801.250000, 110142.601563, 78742.781250, 119270.914063, 133174.953125, 0.000, 0.000, 0.000,0.0,0.0,0.0,0.0,0.0, 16:33:35.513
80593.234375, 117068.867188, 130673.679688, 132755.750000, 110109.765625, 78710.460938, 119241.570313, 133115.937500, 0.156, 0.240, 0.952,0.0,0.0,0.0,0.0,0.0, 16:33:35.513
80702.468750, 117193.343750, 130636.640625, 132772.156250, 110143.515625, 78448.164063, 119227.976563, 133143.078125, 0.000, 0.000, 0.000,0.0,0.0,0.0,0.0,0.0, 16:33:35.513
80690.062500, 117166.679688, 130656.023438, 132818.468750, 110184.015625, 78456.562500, 119256.765625, 133207.906250, 0.000, 0.000, 0.000,0.0,0.0,0.0,0.0,0.0, 16:33:35.514
80562.546875, 117027.023438, 130695.648438, 132802.078125, 110152.992188, 78718.664063, 119270.554688, 133175.015625, 0.000, 0.000, 0.000,0.0,0.0,0.0,0.0,0.0, 16:33:35.514
80552.015625, 117032.726563, 130670.687500, 132754.000000, 110106.500000, 78749.593750, 119246.148438, 133113.421875, 0.000, 0.000, 0.000,0.0,0.0,0.0,0.0,0.0, 16:33:35.514
80671.937500, 117164.398438, 130614.070313, 132755.203125, 110120.179688, 78485.820313, 119225.585938, 133126.109375, 0.000, 0.000, 0.000,0.0,0.0,0.0,0.0,0.0, 16:33:35.515
80694.687500, 117169.515625, 130623.140625, 132799.359375, 110171.945313, 78421.898438, 119252.718750, 133198.593750, 0.000, 0.000, 0.000,0.0,0.0,0.0,0.0,0.0, 16:33:35.515
80572.226563, 117029.484375, 130669.945313, 132790.390625, 110150.976563, 78670.851563, 119266.531250, 133182.234375, 0.000, 0.000, 0.000,0.0,0.0,0.0,0.0,0.0, 16:33:35.515
80529.289063, 116998.679688, 130653.765625, 132734.750000, 110091.164063, 78758.625000, 119235.156250, 133108.515625, 0.000, 0.000, 0.000,0.0,0.0,0.0,0.0,0.0, 16:33:35.516
80636.398438, 117132.476563, 130600.007813, 132729.109375, 110099.187500, 78521.992188, 119210.250000, 133109.015625, 0.164, 0.242, 0.948,0.0,0.0,0.0,0.0,0.0, 16:33:35.516
80693.726563, 117184.648438, 130604.296875, 132783.703125, 110159.718750, 78394.804688, 119232.781250, 133182.000000, 0.000, 0.000, 0.000,0.0,0.0,0.0,0.0,0.0, 16:33:35.516
80596.968750, 117064.531250, 130648.601563, 132804.703125, 110162.156250, 78617.835938, 119261.460938, 133195.109375, 0.000, 0.000, 0.000,0.0,0.0,0.0,0.0,0.0, 16:33:35.517
80524.976563, 116996.085938, 130654.523438, 132759.234375, 110106.570313, 78771.765625, 119246.085938, 133129.125000, 0.000, 0.000, 0.000,0.0,0.0,0.0,0.0,0.0, 16:33:35.517
80617.953125, 117109.617188, 130612.328125, 132736.750000, 110094.875000, 78578.515625, 119217.406250, 133109.265625, 0.000, 0.000, 0.000,0.0,0.0,0.0,0.0,0.0, 16:33:35.517
80699.875000, 117190.148438, 130612.726563, 132784.359375, 110151.984375, 78394.585938, 119231.039063, 133175.843750, 0.000, 0.000, 0.000,0.0,0.0,0.0,0.0,0.0, 16:33:35.517
80618.421875, 117090.859375, 130656.804688, 132810.906250, 110166.242188, 78574.093750, 119264.859375, 133205.546875, 0.000, 0.000, 0.000,0.0,0.0,0.0,0.0,0.0, 16:33:35.517
80524.570313, 116997.898438, 130674.015625, 132767.140625, 110112.265625, 78777.023438, 119255.781250, 133142.859375, 0.000, 0.000, 0.000,0.0,0.0,0.0,0.0,0.0, 16:33:35.518
80598.445313, 117091.710938, 130623.187500, 132735.984375, 110087.117188, 78626.039063, 119220.828125, 133105.437500, 0.000, 0.000, 0.000,0.0,0.0,0.0,0.0,0.0, 16:33:35.518
80713.445313, 117206.929688, 130604.679688, 132780.359375, 110143.000000, 78393.195313, 119228.226563, 133166.609375, 0.000, 0.000, 0.000,0.0,0.0,0.0,0.0,0.0, 16:33:35.518
80652.828125, 117122.445313, 130649.671875, 132821.531250, 110169.781250, 78518.945313, 119266.804688, 133210.765625, 0.152, 0.236, 0.954,0.0,0.0,0.0,0.0,0.0, 16:33:35.518
80534.671875, 116994.125000, 130677.164063, 132787.390625, 110121.140625, 78756.679688, 119265.570313, 133156.515625, 0.000, 0.000, 0.000,0.0,0.0,0.0,0.0,0.0, 16:33:35.519
80566.703125, 117047.656250, 130649.382813, 132743.156250, 110088.148438, 78674.984375, 119228.851563, 133098.484375, 0.000, 0.000, 0.000,0.0,0.0,0.0,0.0,0.0, 16:33:35.519
80680.250000, 117175.531250, 130617.156250, 132768.031250, 110121.968750, 78413.601563, 119219.929688, 133139.765625, 0.000, 0.000, 0.000,0.0,0.0,0.0,0.0,0.0, 16:33:35.519
80651.101563, 117137.218750, 130643.796875, 132817.328125, 110162.179688, 78472.750000, 119256.703125, 133204.437500, 0.000, 0.000, 0.000,0.0,0.0,0.0,0.0,0.0, 16:33:35.519
80534.945313, 117014.375000, 130677.523438, 132803.125000, 110133.414063, 78735.023438, 119269.062500, 133176.468750, 0.000, 0.000, 0.000,0.0,0.0,0.0,0.0,0.0, 16:33:35.519
80539.546875, 117030.648438, 130661.296875, 132753.015625, 110089.851563, 78720.023438, 119231.578125, 133110.828125, 0.000, 0.000, 0.000,0.0,0.0,0.0,0.0,0.0, 16:33:35.520
80661.046875, 117160.484375, 130617.015625, 132759.187500, 110114.343750, 78450.617188, 119209.468750, 133133.375000, 0.000, 0.000, 0.000,0.0,0.0,0.0,0.0,0.0, 16:33:35.520
80675.828125, 117158.250000, 130645.851563, 132818.125000, 110172.664063, 78449.789063, 119247.539063, 133210.609375, 0.000, 0.000, 0.000,0.0,0.0,0.0,0.0,0.0, 16:33:35.520
80554.609375, 117020.203125, 130685.523438, 132812.093750, 110152.320313, 78711.601563, 119263.562500, 133192.609375, 0.000, 0.000, 0.000,0.0,0.0,0.0,0.0,0.0, 16:33:35.520
80522.539063, 117005.726563, 130663.601563, 132757.406250, 110098.007813, 78755.273438, 119234.210938, 133122.296875, 0.152, 0.242, 0.962,0.0,0.0,0.0,0.0,0.0, 16:33:35.521
80635.882813, 117140.437500, 130615.812500, 132753.578125, 110113.812500, 78500.015625, 119212.015625, 133130.937500, 0.000, 0.000, 0.000,0.0,0.0,0.0,0.0,0.0, 16:33:35.521
80668.742188, 117160.015625, 130636.085938, 132807.562500, 110173.062500, 78424.867188, 119241.320313, 133200.328125, 0.000, 0.000, 0.000,0.0,0.0,0.0,0.0,0.0, 16:33:35.521
80554.656250, 117025.820313, 130681.796875, 132810.750000, 110159.585938, 78666.093750, 119264.414063, 133196.359375, 0.000, 0.000, 0.000,0.0,0.0,0.0,0.0,0.0, 16:33:35.521
80505.664063, 116988.515625, 130675.085938, 132760.625000, 110105.156250, 78774.406250, 119244.742188, 133128.843750, 0.000, 0.000, 0.000,0.0,0.0,0.0,0.0,0.0, 16:33:35.522
80622.429688, 117122.960938, 130623.414063, 132754.296875, 110113.765625, 78547.421875, 119220.218750, 133125.000000, 0.000, 0.000, 0.000,0.0,0.0,0.0,0.0,0.0, 16:33:35.522
80694.843750, 117188.093750, 130633.734375, 132811.359375, 110173.445313, 78406.343750, 119242.039063, 133197.437500, 0.000, 0.000, 0.000,0.0,0.0,0.0,0.0,0.0, 16:33:35.522
80599.828125, 117070.296875, 130680.539063, 132830.875000, 110177.531250, 78616.914063, 119269.929688, 133214.562500, 0.000, 0.000, 0.000,0.0,0.0,0.0,0.0,0.0, 16:33:35.522
80516.789063, 116986.921875, 130687.984375, 132781.515625, 110120.960938, 78783.304688, 119250.484375, 133146.468750, 0.000, 0.000, 0.000,0.0,0.0,0.0,0.0,0.0, 16:33:35.523
80609.257813, 117099.492188, 130636.757813, 132756.437500, 110106.570313, 78597.718750, 119218.812500, 133123.156250, 0.154, 0.240, 0.958,0.0,0.0,0.0,0.0,0.0, 16:33:35.968
80693.976563, 117181.226563, 130631.632813, 132799.578125, 110158.554688, 78400.906250, 119229.835938, 133183.515625, 0.000, 0.000, 0.000,0.0,0.0,0.0,0.0,0.0, 16:33:35.968
80611.789063, 117082.054688, 130677.164063, 132826.203125, 110174.445313, 78570.179688, 119258.265625, 133212.843750, 0.000, 0.000, 0.000,0.0,0.0,0.0,0.0,0.0, 16:33:35.969
80514.156250, 116986.765625, 130689.843750, 132787.234375, 110121.093750, 78780.304688, 119248.742188, 133155.687500, 0.000, 0.000, 0.000,0.0,0.0,0.0,0.0,0.0, 16:33:35.969
80582.148438, 117075.437500, 130646.859375, 132759.546875, 110104.328125, 78648.992188, 119221.609375, 133122.015625, 0.000, 0.000, 0.000,0.0,0.0,0.0,0.0,0.0, 16:33:35.969
80693.195313, 117186.281250, 130629.218750, 132791.734375, 110149.546875, 78409.937500, 119219.640625, 133171.281250, 0.000, 0.000, 0.000,0.0,0.0,0.0,0.0,0.0, 16:33:35.970
80652.554688, 117123.453125, 130665.546875, 132831.609375, 110177.867188, 78516.890625, 119255.406250, 133221.687500, 0.000, 0.000, 0.000,0.0,0.0,0.0,0.0,0.0, 16:33:35.970
80545.804688, 117009.234375, 130693.257813, 132808.625000, 110138.421875, 78759.921875, 119262.781250, 133178.390625, 0.000, 0.000, 0.000,0.0,0.0,0.0,0.0,0.0, 16:33:35.970
80572.382813, 117054.695313, 130661.164063, 132759.718750, 110098.539063, 78690.921875, 119226.414063, 133117.328125, 0.000, 0.000, 0.000,0.0,0.0,0.0,0.0,0.0, 16:33:35.970
80694.578125, 117185.273438, 130625.960938, 132781.968750, 110135.242188, 78428.445313, 119217.765625, 133153.890625, 0.000, 0.000, 0.000,0.0,0.0,0.0,0.0,0.0, 16:33:35.971
80675.914063, 117148.687500, 130659.445313, 132831.703125, 110180.460938, 78475.359375, 119255.070313, 133218.562500, 0.164, 0.238, 0.948,0.0,0.0,0.0,0.0,0.0, 16:33:35.971
80543.414063, 117002.593750, 130705.664063, 132805.250000, 110144.296875, 78737.617188, 119259.203125, 133177.640625, 0.000, 0.000, 0.000,0.0,0.0,0.0,0.0,0.0, 16:33:35.971
80540.398438, 117019.539063, 130676.898438, 132749.890625, 110090.070313, 78732.945313, 119221.984375, 133107.968750, 0.000, 0.000, 0.000,0.0,0.0,0.0,0.0,0.0, 16:33:35.971
80673.273438, 117168.195313, 130628.148438, 132767.250000, 110120.695313, 78467.273438, 119210.835938, 133140.593750, 0.000, 0.000, 0.000,0.0,0.0,0.0,0.0,0.0, 16:33:35.971
80679.695313, 117160.929688, 130660.601563, 132821.281250, 110179.835938, 78445.859375, 119247.265625, 133210.843750, 0.000, 0.000, 0.000,0.0,0.0,0.0,0.0,0.0, 16:33:35.971
80551.367188, 117019.070313, 130710.226563, 132812.875000, 110154.351563, 78702.750000, 119264.906250, 133189.609375, 0.000, 0.000, 0.000,0.0,0.0,0.0,0.0,0.0, 16:33:35.972
80537.734375, 117009.390625, 130692.570313, 132762.109375, 110099.171875, 78762.335938, 119238.328125, 133119.437500, 0.000, 0.000, 0.000,0.0,0.0,0.0,0.0,0.0, 16:33:35.972
80664.851563, 117154.562500, 130638.296875, 132764.468750, 110114.500000, 78511.257813, 119216.398438, 133130.562500, 0.000, 0.000, 0.000,0.0,0.0,0.0,0.0,0.0, 16:33:35.972
80712.976563, 117191.312500, 130640.710938, 132817.406250, 110172.171875, 78408.843750, 119242.906250, 133208.843750, 0.000, 0.000, 0.000,0.0,0.0,0.0,0.0,0.0, 16:33:35.972
80600.945313, 117062.585938, 130682.953125, 132825.750000, 110167.273438, 78644.007813, 119264.453125, 133210.375000, 0.160, 0.240, 0.950,0.0,0.0,0.0,0.0,0.0, 16:33:35.973
80535.546875, 117005.250000, 130678.867188, 132770.031250, 110112.601563, 78770.046875, 119238.257813, 133133.484375, 0.000, 0.000, 0.000,0.0,0.0,0.0,0.0,0.0, 16:33:35.973
80639.234375, 117127.742188, 130635.500000, 132752.500000, 110113.359375, 78558.289063, 119212.375000, 133120.546875, 0.000, 0.000, 0.000,0.0,0.0,0.0,0.0,0.0, 16:33:35.973
80713.289063, 117200.695313, 130631.523438, 132801.296875, 110169.820313, 78398.671875, 119233.078125, 133193.390625, 0.000, 0.000, 0.000,0.0,0.0,0.0,0.0,0.0, 16:33:35.974
80611.273438, 117079.039063, 130675.023438, 132820.781250, 110181.265625, 78602.835938, 119264.859375, 133214.203125, 0.000, 0.000, 0.000,0.0,0.0,0.0,0.0,0.0, 16:33:35.974
80529.351563, 116996.085938, 130686.867188, 132774.921875, 110125.945313, 78786.187500, 119253.187500, 133147.343750, 0.000, 0.000, 0.000,0.0,0.0,0.0,0.0,0.0, 16:33:35.974
80607.921875, 117095.015625, 130646.187500, 132744.718750, 110110.078125, 78618.656250, 119222.460938, 133116.843750, 0.000, 0.000, 0.000,0.0,0.0,0.0,0.0,0.0, 16:33:35.974
80712.414063, 117202.281250, 130624.640625, 132788.046875, 110157.195313, 78403.296875, 119224.937500, 133179.218750, 0.000, 0.000, 0.000,0.0,0.0,0.0,0.0,0.0, 16:33:35.975
80641.406250, 117113.437500, 130659.171875, 132824.140625, 110179.117188, 78554.757813, 119258.757813, 133220.609375, 0.000, 0.000, 0.000,0.0,0.0,0.0,0.0,0.0, 16:33:35.976
80527.789063, 117001.875000, 130678.710938, 132789.734375, 110129.476563, 78777.242188, 119255.539063, 133163.109375, 0.000, 0.000, 0.000,0.0,0.0,0.0,0.0,0.0, 16:33:35.976
80577.476563, 117070.070313, 130638.992188, 132750.578125, 110095.859375, 78666.093750, 119223.281250, 133119.406250, 0.154, 0.240, 0.944,0.0,0.0,0.0,0.0,0.0, 16:33:35.976
80696.453125, 117190.617188, 130608.992188, 132786.281250, 110140.382813, 78419.257813, 119223.734375, 133172.343750, 0.000, 0.000, 0.000,0.0,0.0,0.0,0.0,0.0, 16:33:35.977
80667.468750, 117137.976563, 130637.046875, 132828.562500, 110178.179688, 78510.703125, 119260.343750, 133227.281250, 0.000, 0.000, 0.000,0.0,0.0,0.0,0.0,0.0, 16:33:35.977
80542.609375, 117004.046875, 130676.828125, 132796.734375, 110140.203125, 78763.562500, 119263.898438, 133177.203125, 0.000, 0.000, 0.000,0.0,0.0,0.0,0.0,0.0, 16:33:35.977
80550.718750, 117034.039063, 130649.320313, 132744.062500, 110097.421875, 78710.835938, 119225.968750, 133111.390625, 0.000, 0.000, 0.000,0.0,0.0,0.0,0.0,0.0, 16:33:35.977
80681.656250, 117173.539063, 130612.007813, 132768.781250, 110134.437500, 78445.523438, 119215.015625, 133148.312500, 0.000, 0.000, 0.000,0.0,0.0,0.0,0.0,0.0, 16:33:35.978
80686.039063, 117154.585938, 130640.601563, 132822.078125, 110181.492188, 78471.476563, 119248.093750, 133216.921875, 0.000, 0.000, 0.000,0.0,0.0,0.0,0.0,0.0, 16:33:35.978
80559.750000, 117011.843750, 130688.164063, 132804.500000, 110154.335938, 78733.031250, 119259.984375, 133185.953125, 0.000, 0.000, 0.000,0.0,0.0,0.0,0.0,0.0, 16:33:35.979
80557.117188, 117025.882813, 130663.109375, 132756.281250, 110104.625000, 78740.296875, 119226.656250, 133120.093750, 0.000, 0.000, 0.000,0.0,0.0,0.0,0.0,0.0, 16:33:35.979
80660.781250, 117142.562500, 130624.953125, 132757.046875, 110123.484375, 78479.453125, 119202.453125, 133130.765625, 0.000, 0.000, 0.000,0.0,0.0,0.0,0.0,0.0, 16:33:35.979
80684.898438, 117161.515625, 130637.070313, 132806.750000, 110168.835938, 78428.671875, 119230.835938, 133200.250000, 0.156, 0.246, 0.950,0.0,0.0,0.0,0.0,0.0, 16:33:35.979
80574.484375, 117039.117188, 130670.062500, 132813.593750, 110154.804688, 78675.945313, 119253.906250, 133200.796875, 0.000, 0.000, 0.000,0.0,0.0,0.0,0.0,0.0, 16:33:35.980
80533.820313, 117005.609375, 130664.898438, 132760.390625, 110107.218750, 78762.757813, 119233.078125, 133135.843750, 0.000, 0.000, 0.000,0.0,0.0,0.0,0.0,0.0, 16:33:35.980
80646.789063, 117133.867188, 130620.617188, 132748.890625, 110115.281250, 78523.929688, 119206.406250, 133132.265625, 0.000, 0.000, 0.000,0.0,0.0,0.0,0.0,0.0, 16:33:35.980
80700.031250, 117181.898438, 130624.304688, 132804.812500, 110171.406250, 78406.812500, 119229.093750, 133205.000000, 0.000, 0.000, 0.000,0.0,0.0,0.0,0.0,0.0, 16:33:35.980
80585.414063, 117050.226563, 130668.093750, 132817.281250, 110174.359375, 78635.000000, 119257.703125, 133212.796875, 0.000, 0.000, 0.000,0.0,0.0,0.0,0.0,0.0, 16:33:35.981
80509.859375, 116983.820313, 130672.515625, 132763.234375, 110118.343750, 78777.914063, 119237.429688, 133137.000000, 0.000, 0.000, 0.000,0.0,0.0,0.0,0.0,0.0, 16:33:35.981
80607.000000, 117093.406250, 130619.406250, 132736.140625, 110109.984375, 78568.523438, 119205.578125, 133118.312500, 0.000, 0.000, 0.000,0.0,0.0,0.0,0.0,0.0, 16:33:35.981
80697.617188, 117176.828125, 130618.000000, 132787.703125, 110169.820313, 78398.093750, 119224.578125, 133190.000000, 0.000, 0.000, 0.000,0.0,0.0,0.0,0.0,0.0, 16:33:35.982
80608.234375, 117066.273438, 130661.679688, 132809.546875, 110180.617188, 78588.015625, 119256.140625, 133213.390625, 0.162, 0.250, 0.948,0.0,0.0,0.0,0.0,0.0, 16:33:35.982
80524.257813, 116987.148438, 130671.492188, 132769.062500, 110123.937500, 78776.375000, 119247.960938, 133152.640625, 0.000, 0.000, 0.000,0.0,0.0,0.0,0.0,0.0, 16:33:35.982
80591.085938, 117077.960938, 130634.031250, 132739.984375, 110107.546875, 78619.687500, 119217.203125, 133115.609375, 0.000, 0.000, 0.000,0.0,0.0,0.0,0.0,0.0, 16:33:35.983
80684.789063, 117178.632813, 130622.179688, 132779.765625, 110153.390625, 78397.648438, 119221.046875, 133168.609375, 0.000, 0.000, 0.000,0.0,0.0,0.0,0.0,0.0, 16:33:35.983
80619.992188, 117093.210938, 130661.859375, 132810.937500, 110174.335938, 78534.640625, 119253.031250, 133207.812500, 0.000, 0.000, 0.000,0.0,0.0,0.0,0.0,0.0, 16:33:35.983
80525.148438, 116985.312500, 130680.992188, 132780.062500, 110128.289063, 78765.664063, 119254.976563, 133163.625000, 0.000, 0.000, 0.000,0.0,0.0,0.0,0.0,0.0, 16:33:35.983
80573.742188, 117052.351563, 130640.554688, 132741.796875, 110101.046875, 78667.812500, 119225.695313, 133121.781250, 0.000, 0.000, 0.000,0.0,0.0,0.0,0.0,0.0, 16:33:35.984
80692.859375, 117183.578125, 130606.781250, 132775.953125, 110147.132813, 78411.929688, 119225.765625, 133175.312500, 0.000, 0.000, 0.000,0.0,0.0,0.0,0.0,0.0, 16:33:35.984
80650.367188, 117121.546875, 130645.851563, 132818.218750, 110189.937500, 78493.359375, 119263.312500, 133234.031250, 0.000, 0.000, 0.000,0.0,0.0,0.0,0.0,0.0, 16:33:35.985
80534.382813, 116996.445313, 130680.070313, 132797.078125, 110153.328125, 78749.843750, 119272.367188, 133196.812500, 0.000, 0.000, 0.000,0.0,0.0,0.0,0.0,0.0, 16:33:35.985
80548.687500, 117026.710938, 130657.273438, 132744.718750, 110112.781250, 78718.906250, 119237.968750, 133135.406250, 0.164, 0.248, 0.948,0.0,0.0,0.0,0.0,0.0, 16:33:35.985
80660.382813, 117153.375000, 130621.937500, 132758.109375, 110142.554688, 78456.476563, 119218.476563, 133163.828125, 0.000, 0.000, 0.000,0.0,0.0,0.0,0.0,0.0, 16:33:35.986
80656.468750, 117129.750000, 130648.601563, 132808.265625, 110189.828125, 78464.968750, 119249.281250, 133229.796875, 0.000, 0.000, 0.000,0.0,0.0,0.0,0.0,0.0, 16:33:35.986
80546.789063, 116998.078125, 130683.578125, 132802.531250, 110157.351563, 78722.078125, 119261.234375, 133206.171875, 0.000, 0.000, 0.000,0.0,0.0,0.0,0.0,0.0, 16:33:35.986
80528.976563, 116998.953125, 130662.796875, 132755.093750, 110107.546875, 78751.609375, 119232.562500, 133137.734375, 0.000, 0.000, 0.000,0.0,0.0,0.0,0.0,0.0, 16:33:35.986
80653.296875, 117145.195313, 130622.046875, 132768.187500, 110131.554688, 78493.984375, 119215.976563, 133153.218750, 0.000, 0.000, 0.000,0.0,0.0,0.0,0.0,0.0, 16:33:35.987
80685.929688, 117164.843750, 130642.789063, 132826.125000, 110189.335938, 78431.664063, 119246.820313, 133225.093750, 0.000, 0.000, 0.000,0.0,0.0,0.0,0.0,0.0, 16:33:35.987
80571.375000, 117029.640625, 130682.242188, 132823.687500, 110167.742188, 78676.218750, 119265.351563, 133209.671875, 0.000, 0.000, 0.000,0.0,0.0,0.0,0.0,0.0, 16:33:35.987
80518.890625, 116985.140625, 130676.117188, 132764.968750, 110108.625000, 78774.023438, 119240.000000, 133133.000000, 0.000, 0.000, 0.000,0.0,0.0,0.0,0.0,0.0, 16:33:35.988
80630.851563, 117120.523438, 130623.703125, 132753.625000, 110108.195313, 78536.562500, 119209.718750, 133125.953125, 0.164, 0.248, 0.954,0.0,0.0,0.0,0.0,0.0, 16:33:35.988
80686.929688, 117167.078125, 130625.242188, 132801.906250, 110163.562500, 78400.460938, 119226.703125, 133193.500000, 0.000, 0.000, 0.000,0.0,0.0,0.0,0.0,0.0, 16:33:35.988
80582.257813, 117044.281250, 130666.171875, 132814.421875, 110163.476563, 78616.734375, 119253.390625, 133203.390625, 0.000, 0.000, 0.000,0.0,0.0,0.0,0.0,0.0, 16:33:35.988
80521.914063, 116988.890625, 130665.585938, 132774.937500, 110112.890625, 78773.000000, 119242.218750, 133143.656250, 0.000, 0.000, 0.000,0.0,0.0,0.0,0.0,0.0, 16:33:35.989
80606.781250, 117091.710938, 130624.257813, 132750.218750, 110105.898438, 78586.492188, 119213.000000, 133122.093750, 0.000, 0.000, 0.000,0.0,0.0,0.0,0.0,0.0, 16:33:35.989
80688.429688, 117169.562500, 130620.882813, 132793.515625, 110161.906250, 78397.757813, 119224.398438, 133182.890625, 0.000, 0.000, 0.000,0.0,0.0,0.0,0.0,0.0, 16:33:35.989
80600.523438, 117058.562500, 130664.648438, 132817.093750, 110175.164063, 78575.140625, 119254.328125, 133208.859375, 0.000, 0.000, 0.000,0.0,0.0,0.0,0.0,0.0, 16:33:35.990
80513.257813, 116974.453125, 130669.765625, 132773.765625, 110118.968750, 78776.351563, 119245.031250, 133150.390625, 0.000, 0.000, 0.000,0.0,0.0,0.0,0.0,0.0, 16:33:35.990
80585.281250, 117062.164063, 130620.929688, 132743.296875, 110101.250000, 78633.906250, 119214.273438, 133118.765625, 0.000, 0.000, 0.000,0.0,0.0,0.0,0.0,0.0, 16:33:35.990
80679.203125, 117159.750000, 130617.085938, 132777.890625, 110149.460938, 78410.343750, 119216.312500, 133169.312500, 0.000, 0.000, 0.000,0.0,0.0,0.0,0.0,0.0, 16:33:35.991
80621.351563, 117077.828125, 130654.773438, 132812.656250, 110165.484375, 78530.054688, 119248.898438, 133208.875000, 0.162, 0.244, 0.952,0.0,0.0,0.0,0.0,0.0, 16:33:35.991
80516.031250, 116967.546875, 130673.773438, 132781.062500, 110115.257813, 78764.101563, 119248.164063, 133161.656250, 0.000, 0.000, 0.000,0.0,0.0,0.0,0.0,0.0, 16:33:35.992
80560.492188, 117036.054688, 130630.203125, 132744.140625, 110085.421875, 78679.679688, 119212.351563, 133113.328125, 0.000, 0.000, 0.000,0.0,0.0,0.0,0.0,0.0, 16:33:35.992
80683.289063, 117167.773438, 130602.781250, 132775.031250, 110133.609375, 78425.453125, 119207.437500, 133158.593750, 0.000, 0.000, 0.000,0.0,0.0,0.0,0.0,0.0, 16:33:35.992
80651.101563, 117114.195313, 130632.757813, 132817.500000, 110171.679688, 78484.367188, 119240.765625, 133217.000000, 0.000, 0.000, 0.000,0.0,0.0,0.0,0.0,0.0, 16:33:35.992
80529.960938, 116980.328125, 130666.687500, 132794.765625, 110129.414063, 78740.656250, 119243.492188, 133178.187500, 0.000, 0.000, 0.000,0.0,0.0,0.0,0.0,0.0, 16:33:35.993
80531.117188, 116998.812500, 130648.109375, 132744.234375, 110079.992188, 78726.484375, 119204.757813, 133109.375000, 0.000, 0.000, 0.000,0.0,0.0,0.0,0.0,0.0, 16:33:35.993
80663.375000, 117151.765625, 130601.281250, 132762.078125, 110105.359375, 78456.851563, 119190.742188, 133134.156250, 0.000, 0.000, 0.000,0.0,0.0,0.0,0.0,0.0, 16:33:35.993
80678.593750, 117152.171875, 130615.859375, 132822.546875, 110165.195313, 78445.140625, 119232.093750, 133219.156250, 0.000, 0.000, 0.000,0.0,0.0,0.0,0.0,0.0, 16:33:35.994
80560.554688, 117012.789063, 130659.710938, 132814.671875, 110148.367188, 78703.148438, 119254.039063, 133199.984375, 0.160, 0.250, 0.948,0.0,0.0,0.0,0.0,0.0, 16:33:35.994
80527.500000, 116993.093750, 130657.968750, 132758.734375, 110103.195313, 78758.109375, 119227.375000, 133126.359375, 0.000, 0.000, 0.000,0.0,0.0,0.0,0.0,0.0, 16:33:35.994
80640.710938, 117123.117188, 130612.414063, 132750.781250, 110110.437500, 78500.148438, 119200.593750, 133125.171875, 0.000, 0.000, 0.000,0.0,0.0,0.0,0.0,0.0, 16:33:35.995
80682.664063, 117155.523438, 130625.531250, 132805.250000, 110170.312500, 78416.664063, 119229.187500, 133200.796875, 0.000, 0.000, 0.000,0.0,0.0,0.0,0.0,0.0, 16:33:35.996
80578.437500, 117029.664063, 130667.015625, 132814.078125, 110160.437500, 78656.765625, 119252.921875, 133202.218750, 0.000, 0.000, 0.000,0.0,0.0,0.0,0.0,0.0, 16:33:35.996
80521.421875, 116979.953125, 130653.695313, 132760.593750, 110101.937500, 78766.132813, 119227.195313, 133132.656250, 0.000, 0.000, 0.000,0.0,0.0,0.0,0.0,0.0, 16:33:35.997
80626.335938, 117108.046875, 130602.601563, 132748.437500, 110102.765625, 78542.906250, 119200.867188, 133126.781250, 0.000, 0.000, 0.000,0.0,0.0,0.0,0.0,0.0, 16:33:35.999
80693.664063, 117168.890625, 130608.054688, 132802.453125, 110164.125000, 78399.414063, 119226.773438, 133200.484375, 0.000, 0.000, 0.000,0.0,0.0,0.0,0.0,0.0, 16:33:35.999
80585.437500, 117041.710938, 130658.546875, 132815.828125, 110165.218750, 78612.359375, 119252.343750, 133209.531250, 0.000, 0.000, 0.000,0.0,0.0,0.0,0.0,0.0, 16:33:35.999
80515.609375, 116976.890625, 130658.593750, 132768.078125, 110107.218750, 78775.343750, 119235.109375, 133146.296875, 0.000, 0.000, 0.000,0.0,0.0,0.0,0.0,0.0, 16:33:36.000
80602.062500, 117087.734375, 130622.273438, 132748.171875, 110095.101563, 78595.390625, 119203.570313, 133119.140625, 0.158, 0.246, 0.950,0.0,0.0,0.0,0.0,0.0, 16:33:36.000
80696.429688, 117175.867188, 130618.273438, 132795.531250, 110148.476563, 78397.960938, 119217.539063, 133181.953125, 0.000, 0.000, 0.000,0.0,0.0,0.0,0.0,0.0, 16:33:36.000
80618.468750, 117075.460938, 130659.039063, 132821.687500, 110168.171875, 78563.296875, 119252.632813, 133212.812500, 0.000, 0.000, 0.000,0.0,0.0,0.0,0.0,0.0, 16:33:36.000
80508.414063, 116963.765625, 130681.460938, 132776.625000, 110116.554688, 78780.218750, 119244.492188, 133151.796875, 0.000, 0.000, 0.000,0.0,0.0,0.0,0.0,0.0, 16:33:36.000
80561.023438, 117038.867188, 130643.546875, 132733.687500, 110087.414063, 78650.960938, 119205.289063, 133101.062500, 0.000, 0.000, 0.000,0.0,0.0,0.0,0.0,0.0, 16:33:36.001
80675.335938, 117157.085938, 130614.359375, 132766.156250, 110130.976563, 78404.148438, 119203.390625, 133153.218750, 0.000, 0.000, 0.000,0.0,0.0,0.0,0.0,0.0, 16:33:36.001
80640.914063, 117104.335938, 130638.390625, 132814.484375, 110166.648438, 78507.640625, 119243.468750, 133217.218750, 0.000, 0.000, 0.000,0.0,0.0,0.0,0.0,0.0, 16:33:36.001
80529.710938, 116982.234375, 130670.507813, 132790.531250, 110130.906250, 78756.617188, 119247.023438, 133175.359375, 0.000, 0.000, 0.000,0.0,0.0,0.0,0.0,0.0, 16:33:36.001
80558.414063, 117029.687500, 130635.484375, 132743.921875, 110092.351563, 78690.070313, 119212.421875, 133116.906250, 0.000, 0.000, 0.000,0.0,0.0,0.0,0.0,0.0, 16:33:36.002
80684.765625, 117158.632813, 130598.468750, 132766.265625, 110127.625000, 78426.140625, 119201.156250, 133153.187500, 0.000, 0.000, 0.000,0.0,0.0,0.0,0.0,0.0, 16:33:36.002
80662.617188, 117120.164063, 130638.054688, 132814.843750, 110171.226563, 78472.210938, 119234.148438, 133214.515625, 0.158, 0.244, 0.956,0.0,0.0,0.0,0.0,0.0, 16:33:36.002
80537.531250, 116985.203125, 130677.929688, 132793.906250, 110133.679688, 78727.914063, 119241.656250, 133179.515625, 0.000, 0.000, 0.000,0.0,0.0,0.0,0.0,0.0, 16:33:36.003
80541.828125, 117008.429688, 130649.093750, 132745.484375, 110083.117188, 78722.507813, 119210.117188, 133111.187500, 0.000, 0.000, 0.000,0.0,0.0,0.0,0.0,0.0, 16:33:36.003
80668.539063, 117149.757813, 130609.085938, 132757.953125, 110108.265625, 78459.312500, 119191.570313, 133130.578125, 0.000, 0.000, 0.000,0.0,0.0,0.0,0.0,0.0, 16:33:36.003
80677.703125, 117138.000000, 130630.562500, 132807.890625, 110158.242188, 78427.125000, 119219.414063, 133197.843750, 0.000, 0.000, 0.000,0.0,0.0,0.0,0.0,0.0, 16:33:36.004
80553.765625, 116994.523438, 130675.242188, 132795.281250, 110135.687500, 78682.179688, 119235.664063, 133176.812500, 0.000, 0.000, 0.000,0.0,0.0,0.0,0.0,0.0, 16:33:36.004
80526.625000, 116982.632813, 130655.976563, 132744.390625, 110079.835938, 78742.820313, 119210.882813, 133107.250000, 0.000, 0.000, 0.000,0.0,0.0,0.0,0.0,0.0, 16:33:36.005
80648.242188, 117122.664063, 130608.656250, 132747.187500, 110092.929688, 78497.109375, 119188.593750, 133112.328125, 0.000, 0.000, 0.000,0.0,0.0,0.0,0.0,0.0, 16:33:36.005
80696.453125, 117165.000000, 130615.679688, 132801.515625, 110150.195313, 78396.531250, 119214.859375, 133191.046875, 0.000, 0.000, 0.000,0.0,0.0,0.0,0.0,0.0, 16:33:36.005
80591.695313, 117038.648438, 130661.117188, 132812.968750, 110148.609375, 78633.164063, 119243.710938, 133202.515625, 0.160, 0.242, 0.950,0.0,0.0,0.0,0.0,0.0, 16:33:36.005
80530.492188, 116978.054688, 130660.289063, 132759.718750, 110093.601563, 78759.742188, 119219.773438, 133129.156250, 0.000, 0.000, 0.000,0.0,0.0,0.0,0.0,0.0, 16:33:36.006
80630.046875, 117101.273438, 130612.054688, 132743.921875, 110091.414063, 78544.742188, 119189.085938, 133111.468750, 0.000, 0.000, 0.000,0.0,0.0,0.0,0.0,0.0, 16:33:36.006
80703.968750, 117175.257813, 130619.031250, 132795.859375, 110154.289063, 78391.656250, 119212.312500, 133184.562500, 0.000, 0.000, 0.000,0.0,0.0,0.0,0.0,0.0, 16:33:36.006
80604.234375, 117052.015625, 130662.750000, 132810.328125, 110157.484375, 78591.593750, 119237.812500, 133199.531250, 0.000, 0.000, 0.000,0.0,0.0,0.0,0.0,0.0, 16:33:36.006
80518.421875, 116967.859375, 130660.718750, 132761.640625, 110094.320313, 78764.726563, 119219.867188, 133131.390625, 0.000, 0.000, 0.000,0.0,0.0,0.0,0.0,0.0, 16:33:36.447
80606.468750, 117078.812500, 130617.820313, 132740.437500, 110085.828125, 78598.140625, 119193.156250, 133106.125000, 0.000, 0.000, 0.000,0.0,0.0,0.0,0.0,0.0, 16:33:36.447
80703.851563, 117176.851563, 130612.304688, 132785.187500, 110142.281250, 78386.265625, 119203.101563, 133165.906250, 0.000, 0.000, 0.000,0.0,0.0,0.0,0.0,0.0, 16:33:36.447
80625.218750, 117084.757813, 130656.757813, 132817.250000, 110160.703125, 78535.179688, 119233.992188, 133199.937500, 0.000, 0.000, 0.000,0.0,0.0,0.0,0.0,0.0, 16:33:36.447
80518.218750, 116972.015625, 130666.531250, 132774.468750, 110103.726563, 78753.664063, 119226.031250, 133143.390625, 0.000, 0.000, 0.000,0.0,0.0,0.0,0.0,0.0, 16:33:36.447
80576.781250, 117047.429688, 130622.765625, 132738.156250, 110077.375000, 78643.070313, 119194.718750, 133098.312500, 0.158, 0.246, 0.958,0.0,0.0,0.0,0.0,0.0, 16:33:36.447
80696.320313, 117176.421875, 130597.906250, 132776.156250, 110122.101563, 78395.656250, 119192.617188, 133145.562500, 0.000, 0.000, 0.000,0.0,0.0,0.0,0.0,0.0, 16:33:36.448
80646.585938, 117109.570313, 130635.796875, 132812.968750, 110157.078125, 78486.492188, 119222.367188, 133194.375000, 0.000, 0.000, 0.000,0.0,0.0,0.0,0.0,0.0, 16:33:36.448
80529.867188, 116980.171875, 130667.578125, 132789.500000, 110119.398438, 78738.132813, 119230.953125, 133155.015625, 0.000, 0.000, 0.000,0.0,0.0,0.0,0.0,0.0, 16:33:36.448
80548.531250, 117018.820313, 130641.742188, 132745.328125, 110081.218750, 78695.859375, 119198.046875, 133098.062500, 0.000, 0.000, 0.000,0.0,0.0,0.0,0.0,0.0, 16:33:36.448
80675.398438, 117152.570313, 130599.851563, 132758.703125, 110113.273438, 78428.398438, 119185.148438, 133130.046875, 0.000, 0.000, 0.000,0.0,0.0,0.0,0.0,0.0, 16:33:36.448
80673.414063, 117129.640625, 130624.906250, 132810.796875, 110160.164063, 78447.203125, 119222.546875, 133196.203125, 0.000, 0.000, 0.000,0.0,0.0,0.0,0.0,0.0, 16:33:36.451
80549.156250, 116989.562500, 130668.070313, 132794.859375, 110129.187500, 78706.437500, 119234.593750, 133162.687500, 0.000, 0.000, 0.000,0.0,0.0,0.0,0.0,0.0, 16:33:36.451
80535.140625, 116993.476563, 130643.234375, 132740.015625, 110077.507813, 78716.671875, 119200.929688, 133092.031250, 0.000, 0.000, 0.000,0.0,0.0,0.0,0.0,0.0, 16:33:36.451
80675.195313, 117151.007813, 130587.382813, 132757.281250, 110104.507813, 78446.570313, 119183.429688, 133118.515625, 0.154, 0.246, 0.958,0.0,0.0,0.0,0.0,0.0, 16:33:36.451
80696.992188, 117162.117188, 130621.085938, 132820.828125, 110172.664063, 78408.929688, 119223.437500, 133197.812500, 0.000, 0.000, 0.000,0.0,0.0,0.0,0.0,0.0, 16:33:36.451
80570.460938, 117024.343750, 130666.531250, 132820.812500, 110147.492188, 78659.718750, 119238.375000, 133179.093750, 0.000, 0.000, 0.000,0.0,0.0,0.0,0.0,0.0, 16:33:36.451
80539.500000, 116997.945313, 130648.445313, 132768.000000, 110096.484375, 78740.945313, 119215.796875, 133117.265625, 0.000, 0.000, 0.000,0.0,0.0,0.0,0.0,0.0, 16:33:36.452
80651.218750, 117128.523438, 130606.023438, 132756.265625, 110110.921875, 78506.296875, 119193.218750, 133114.890625, 0.000, 0.000, 0.000,0.0,0.0,0.0,0.0,0.0, 16:33:36.452
80699.117188, 117163.835938, 130607.851563, 132801.671875, 110163.898438, 78385.734375, 119212.890625, 133184.156250, 0.000, 0.000, 0.000,0.0,0.0,0.0,0.0,0.0, 16:33:36.452
80576.539063, 117018.218750, 130656.828125, 132801.187500, 110153.750000, 78612.578125, 119231.953125, 133181.718750, 0.000, 0.000, 0.000,0.0,0.0,0.0,0.0,0.0, 16:33:36.452
80519.164063, 116970.695313, 130652.445313, 132754.843750, 110095.460938, 78755.406250, 119214.570313, 133117.078125, 0.000, 0.000, 0.000,0.0,0.0,0.0,0.0,0.0, 16:33:36.452
80627.257813, 117097.882813, 130605.531250, 132742.140625, 110095.500000, 78553.437500, 119188.750000, 133104.125000, 0.000, 0.000, 0.000,0.0,0.0,0.0,0.0,0.0, 16:33:36.452
80716.523438, 117182.367188, 130598.531250, 132794.953125, 110151.203125, 78372.765625, 119202.031250, 133176.203125, 0.000, 0.000, 0.000,0.0,0.0,0.0,0.0,0.0, 16:33:36.453
80624.281250, 117069.312500, 130646.320313, 132822.484375, 110162.492188, 78564.570313, 119236.718750, 133203.890625, 0.152, 0.254, 0.950,0.0,0.0,0.0,0.0,0.0, 16:33:36.453
80522.578125, 116967.835938, 130674.750000, 132775.140625, 110109.250000, 78768.125000, 119229.226563, 133133.062500, 0.000, 0.000, 0.000,0.0,0.0,0.0,0.0,0.0, 16:33:36.453
80604.101563, 117074.523438, 130623.367188, 132745.796875, 110085.710938, 78608.554688, 119197.179688, 133100.859375, 0.000, 0.000, 0.000,0.0,0.0,0.0,0.0,0.0, 16:33:36.453
80705.484375, 117174.187500, 130605.593750, 132784.250000, 110135.531250, 78384.078125, 119201.226563, 133161.000000, 0.000, 0.000, 0.000,0.0,0.0,0.0,0.0,0.0, 16:33:36.453
80651.171875, 117100.023438, 130642.835938, 132818.578125, 110164.570313, 78516.179688, 119239.375000, 133207.343750, 0.000, 0.000, 0.000,0.0,0.0,0.0,0.0,0.0, 16:33:36.453
80551.390625, 117000.132813, 130673.414063, 132801.703125, 110124.585938, 78757.039063, 119244.453125, 133161.781250, 0.000, 0.000, 0.000,0.0,0.0,0.0,0.0,0.0, 16:33:36.453
80582.882813, 117047.250000, 130637.250000, 132752.750000, 110088.148438, 78660.679688, 119201.335938, 133102.562500, 0.000, 0.000, 0.000,0.0,0.0,0.0,0.0,0.0, 16:33:36.454
80715.562500, 117191.242188, 130610.734375, 132798.546875, 110132.984375, 78408.375000, 119202.632813, 133151.656250, 0.000, 0.000, 0.000,0.0,0.0,0.0,0.0,0.0, 16:33:36.454
80671.351563, 117115.578125, 130645.718750, 132826.468750, 110166.937500, 78483.523438, 119229.539063, 133203.671875, 0.000, 0.000, 0.000,0.0,0.0,0.0,0.0,0.0, 16:33:36.454
80545.382813, 116983.750000, 130672.320313, 132782.484375, 110118.367188, 78727.062500, 119225.515625, 133151.937500, 0.158, 0.252, 0.954,0.0,0.0,0.0,0.0,0.0, 16:33:36.454
80574.390625, 117035.539063, 130656.984375, 132750.937500, 110087.546875, 78696.960938, 119198.695313, 133094.781250, 0.000, 0.000, 0.000,0.0,0.0,0.0,0.0,0.0, 16:33:36.454
80698.312500, 117164.421875, 130624.398438, 132776.281250, 110118.640625, 78432.203125, 119184.281250, 133122.875000, 0.000, 0.000, 0.000,0.0,0.0,0.0,0.0,0.0, 16:33:36.454
80689.773438, 117131.671875, 130640.289063, 132811.843750, 110160.656250, 78433.382813, 119212.156250, 133184.296875, 0.000, 0.000, 0.000,0.0,0.0,0.0,0.0,0.0, 16:33:36.455
80568.562500, 117002.953125, 130676.296875, 132792.140625, 110132.765625, 78690.585938, 119225.140625, 133161.421875, 0.000, 0.000, 0.000,0.0,0.0,0.0,0.0,0.0, 16:33:36.455
80555.281250, 116998.882813, 130661.546875, 132749.265625, 110083.257813, 78732.992188, 119200.507813, 133099.421875, 0.000, 0.000, 0.000,0.0,0.0,0.0,0.0,0.0, 16:33:36.455
80682.015625, 117142.312500, 130617.781250, 132757.984375, 110099.148438, 78479.742188, 119180.593750, 133109.500000, 0.000, 0.000, 0.000,0.0,0.0,0.0,0.0,0.0, 16:33:36.455
80734.273438, 117189.835938, 130625.335938, 132821.328125, 110161.929688, 78408.328125, 119217.562500, 133194.265625, 0.000, 0.000, 0.000,0.0,0.0,0.0,0.0,0.0, 16:33:36.455
80627.007813, 117063.007813, 130677.835938, 132846.687500, 110163.164063, 78665.265625, 119243.937500, 133196.750000, 0.000, 0.000, 0.000,0.0,0.0,0.0,0.0,0.0, 16:33:36.456
80563.375000, 116999.195313, 130651.351563, 132755.765625, 110092.640625, 78746.687500, 119206.585938, 133108.562500, 0.000, 0.000, 0.000,0.0,0.0,0.0,0.0,0.0, 16:33:36.456
80686.578125, 117148.773438, 130614.781250, 132762.250000, 110108.984375, 78523.664063, 119195.117188, 133113.578125, 0.162, 0.246, 0.948,0.0,0.0,0.0,0.0,0.0, 16:33:36.456
80777.953125, 117240.062500, 130635.679688, 132836.015625, 110175.117188, 78396.218750, 119227.375000, 133190.546875, 0.000, 0.000, 0.000,0.0,0.0,0.0,0.0,0.0, 16:33:36.456
80670.843750, 117096.468750, 130677.953125, 132838.984375, 110176.750000, 78610.570313, 119254.195313, 133201.281250, 0.000, 0.000, 0.000,0.0,0.0,0.0,0.0,0.0, 16:33:36.457
80585.835938, 117003.375000, 130681.523438, 132770.859375, 110113.648438, 78769.492188, 119225.250000, 133119.234375, 0.000, 0.000, 0.000,0.0,0.0,0.0,0.0,0.0, 16:33:36.457
80689.953125, 117131.429688, 130635.343750, 132739.203125, 110101.757813, 78581.265625, 119194.203125, 133094.703125, 0.000, 0.000, 0.000,0.0,0.0,0.0,0.0,0.0, 16:33:36.457
80794.671875, 117227.164063, 130630.765625, 132795.421875, 110157.570313, 78389.710938, 119213.335938, 133164.453125, 0.000, 0.000, 0.000,0.0,0.0,0.0,0.0,0.0, 16:33:36.457
80733.671875, 117147.140625, 130665.273438, 132831.234375, 110173.710938, 78561.437500, 119249.992188, 133201.234375, 0.000, 0.000, 0.000,0.0,0.0,0.0,0.0,0.0, 16:33:36.458
80650.812500, 117064.304688, 130676.406250, 132796.046875, 110127.820313, 78767.703125, 119245.343750, 133145.062500, 0.000, 0.000, 0.000,0.0,0.0,0.0,0.0,0.0, 16:33:36.458
80722.023438, 117158.765625, 130641.179688, 132769.765625, 110109.984375, 78634.437500, 119212.375000, 133107.031250, 0.000, 0.000, 0.000,0.0,0.0,0.0,0.0,0.0, 16:33:36.458
80846.343750, 117278.078125, 130624.195313, 132808.046875, 110155.742188, 78402.296875, 119211.304688, 133161.500000, 0.000, 0.000, 0.000,0.0,0.0,0.0,0.0,0.0, 16:33:36.458
80795.671875, 117202.242188, 130660.000000, 132845.890625, 110185.867188, 78513.023438, 119247.000000, 133208.281250, 0.160, 0.252, 0.948,0.0,0.0,0.0,0.0,0.0, 16:33:36.459
80680.945313, 117088.398438, 130694.867188, 132814.171875, 110139.289063, 78751.492188, 119247.468750, 133154.906250, 0.000, 0.000, 0.000,0.0,0.0,0.0,0.0,0.0, 16:33:36.459
80726.828125, 117153.710938, 130668.046875, 132772.843750, 110101.250000, 78677.601563, 119216.218750, 133104.000000, 0.000, 0.000, 0.000,0.0,0.0,0.0,0.0,0.0, 16:33:36.459
80847.734375, 117276.851563, 130628.929688, 132799.375000, 110139.203125, 78417.937500, 119210.250000, 133147.390625, 0.000, 0.000, 0.000,0.0,0.0,0.0,0.0,0.0, 16:33:36.459
80817.851563, 117222.132813, 130668.000000, 132838.734375, 110183.656250, 78469.710938, 119240.562500, 133199.984375, 0.000, 0.000, 0.000,0.0,0.0,0.0,0.0,0.0, 16:33:36.459
80709.062500, 117108.093750, 130701.421875, 132828.875000, 110145.281250, 78721.523438, 119254.421875, 133163.218750, 0.000, 0.000, 0.000,0.0,0.0,0.0,0.0,0.0, 16:33:36.460
80714.382813, 117134.445313, 130677.390625, 132787.781250, 110108.023438, 78711.484375, 119228.382813, 133106.875000, 0.000, 0.000, 0.000,0.0,0.0,0.0,0.0,0.0, 16:33:36.460
80831.640625, 117263.882813, 130638.476563, 132790.968750, 110132.945313, 78448.968750, 119205.804688, 133127.484375, 0.000, 0.000, 0.000,0.0,0.0,0.0,0.0,0.0, 16:33:36.460
80852.875000, 117264.648438, 130658.992188, 132848.593750, 110186.250000, 78432.203125, 119239.625000, 133199.968750, 0.000, 0.000, 0.000,0.0,0.0,0.0,0.0,0.0, 16:33:36.460
80729.070313, 117126.062500, 130695.851563, 132838.609375, 110167.765625, 78687.281250, 119255.585938, 133182.531250, 0.160, 0.254, 0.950,0.0,0.0,0.0,0.0,0.0, 16:33:36.461
80701.171875, 117107.289063, 130683.000000, 132786.171875, 110117.296875, 78741.726563, 119229.609375, 133114.609375, 0.000, 0.000, 0.000,0.0,0.0,0.0,0.0,0.0, 16:33:36.461
80814.898438, 117237.781250, 130650.210938, 132786.250000, 110136.585938, 78495.007813, 119210.406250, 133121.468750, 0.000, 0.000, 0.000,0.0,0.0,0.0,0.0,0.0, 16:33:36.461
80855.664063, 117272.085938, 130660.445313, 132843.968750, 110194.859375, 78409.085938, 119238.195313, 133199.562500, 0.000, 0.000, 0.000,0.0,0.0,0.0,0.0,0.0, 16:33:36.461
80737.781250, 117134.734375, 130692.164063, 132850.296875, 110181.062500, 78646.710938, 119258.398438, 133196.906250, 0.000, 0.000, 0.000,0.0,0.0,0.0,0.0,0.0, 16:33:36.462
80676.320313, 117069.359375, 130694.828125, 132794.750000, 110128.273438, 78766.117188, 119232.828125, 133119.203125, 0.000, 0.000, 0.000,0.0,0.0,0.0,0.0,0.0, 16:33:36.462
80757.476563, 117177.140625, 130642.523438, 132766.312500, 110130.195313, 78537.187500, 119200.195313, 133101.593750, 0.000, 0.000, 0.000,0.0,0.0,0.0,0.0,0.0, 16:33:36.462
80832.265625, 117245.828125, 130636.976563, 132821.859375, 110178.468750, 78386.070313, 119217.296875, 133175.625000, 0.000, 0.000, 0.000,0.0,0.0,0.0,0.0,0.0, 16:33:36.462
80734.835938, 117123.250000, 130685.101563, 132847.562500, 110177.804688, 78594.367188, 119247.804688, 133194.750000, 0.000, 0.000, 0.000,0.0,0.0,0.0,0.0,0.0, 16:33:36.463
80634.226563, 117036.789063, 130689.460938, 132801.125000, 110131.648438, 78765.171875, 119235.687500, 133129.578125, 0.000, 0.000, 0.000,0.0,0.0,0.0,0.0,0.0, 16:33:36.463
80726.359375, 117142.117188, 130640.890625, 132771.125000, 110124.875000, 78586.093750, 119208.820313, 133107.546875, 0.148, 0.254, 0.954,0.0,0.0,0.0,0.0,0.0, 16:33:36.463
80830.296875, 117237.937500, 130624.398438, 132821.531250, 110182.007813, 78381.554688, 119218.789063, 133174.734375, 0.000, 0.000, 0.000,0.0,0.0,0.0,0.0,0.0, 16:33:36.464
80737.429688, 117126.445313, 130671.000000, 132850.984375, 110203.375000, 78545.546875, 119252.875000, 133211.312500, 0.000, 0.000, 0.000,0.0,0.0,0.0,0.0,0.0, 16:33:36.464
80629.710938, 117010.953125, 130693.640625, 132807.437500, 110169.484375, 78763.429688, 119248.875000, 133148.078125, 0.000, 0.000, 0.000,0.0,0.0,0.0,0.0,0.0, 16:33:36.464
80696.367188, 117087.796875, 130659.132813, 132768.015625, 110123.218750, 78637.656250, 119211.390625, 133099.421875, 0.000, 0.000, 0.000,0.0,0.0,0.0,0.0,0.0, 16:33:36.465
80793.351563, 117197.523438, 130637.382813, 132799.890625, 110168.484375, 78396.015625, 119211.773438, 133152.218750, 0.000, 0.000, 0.000,0.0,0.0,0.0,0.0,0.0, 16:33:36.465
80725.828125, 117103.578125, 130674.929688, 132823.921875, 110198.500000, 78497.890625, 119236.609375, 133189.296875, 0.000, 0.000, 0.000,0.0,0.0,0.0,0.0,0.0, 16:33:36.465
80611.476563, 116978.789063, 130696.859375, 132790.765625, 110176.351563, 78737.640625, 119239.554688, 133138.265625, 0.000, 0.000, 0.000,0.0,0.0,0.0,0.0,0.0, 16:33:36.465
80647.703125, 117022.843750, 130661.117188, 132745.578125, 110119.148438, 78676.773438, 119195.570313, 133077.953125, 0.000, 0.000, 0.000,0.0,0.0,0.0,0.0,0.0, 16:33:36.466
80773.835938, 117160.867188, 130625.867188, 132773.843750, 110165.687500, 78413.312500, 119191.765625, 133118.609375, 0.156, 0.254, 0.950,0.0,0.0,0.0,0.0,0.0, 16:33:36.466
80748.359375, 117116.632813, 130653.695313, 132818.640625, 110193.562500, 78449.054688, 119222.101563, 133177.546875, 0.000, 0.000, 0.000,0.0,0.0,0.0,0.0,0.0, 16:33:36.466
80642.031250, 116988.601563, 130696.656250, 132808.968750, 110169.976563, 78709.250000, 119240.156250, 133148.718750, 0.000, 0.000, 0.000,0.0,0.0,0.0,0.0,0.0, 16:33:36.467
80627.835938, 116999.734375, 130654.906250, 132760.437500, 110127.195313, 78712.828125, 119213.921875, 133092.390625, 0.000, 0.000, 0.000,0.0,0.0,0.0,0.0,0.0, 16:33:36.467
80760.914063, 117133.460938, 130614.718750, 132771.187500, 110149.234375, 78456.046875, 119198.320313, 133113.437500, 0.000, 0.000, 0.000,0.0,0.0,0.0,0.0,0.0, 16:33:36.467
80783.804688, 117130.671875, 130654.390625, 132828.515625, 110237.101563, 78427.460938, 119240.609375, 133187.718750, 0.000, 0.000, 0.000,0.0,0.0,0.0,0.0,0.0, 16:33:36.467
80629.578125, 116980.640625, 130678.531250, 132812.859375, 110204.132813, 78679.054688, 119255.109375, 133172.421875, 0.000, 0.000, 0.000,0.0,0.0,0.0,0.0,0.0, 16:33:36.467
80607.742188, 116954.250000, 130664.406250, 132752.687500, 110131.757813, 78748.164063, 119217.335938, 133094.531250, 0.000, 0.000, 0.000,0.0,0.0,0.0,0.0,0.0, 16:33:36.468
80749.718750, 117102.460938, 130631.929688, 132758.578125, 110149.703125, 78510.250000, 119194.117188, 133101.234375, 0.000, 0.000, 0.000,0.0,0.0,0.0,0.0,0.0, 16:33:36.468
80768.335938, 117135.789063, 130617.312500, 132807.718750, 110201.429688, 78401.265625, 119219.531250, 133175.734375, 0.000, 0.000, 0.000,0.0,0.0,0.0,0.0,0.0, 16:33:36.468
80677.125000, 117010.507813, 130652.242188, 132815.468750, 110178.898438, 78627.421875, 119241.476563, 133177.875000, 0.154, 0.256, 0.950,0.0,0.0,0.0,0.0,0.0, 16:33:36.468
80632.281250, 116959.117188, 130662.078125, 132771.343750, 110138.531250, 78762.937500, 119226.835938, 133110.000000, 0.000, 0.000, 0.000,0.0,0.0,0.0,0.0,0.0, 16:33:36.468
80712.570313, 117066.945313, 130628.398438, 132749.546875, 110168.656250, 78559.117188, 119207.796875, 133093.718750, 0.000, 0.000, 0.000,0.0,0.0,0.0,0.0,0.0, 16:33:36.468
80782.890625, 117137.820313, 130625.914063, 132798.187500, 110203.640625, 78393.195313, 119216.687500, 133159.343750, 0.000, 0.000, 0.000,0.0,0.0,0.0,0.0,0.0, 16:33:36.469
80704.750000, 117024.546875, 130668.781250, 132818.531250, 110206.789063, 78589.218750, 119245.945313, 133174.125000, 0.000, 0.000, 0.000,0.0,0.0,0.0,0.0,0.0, 16:33:36.469
80628.882813, 116953.289063, 130698.242188, 132787.937500, 110180.820313, 78782.007813, 119245.945313, 133119.812500, 0.000, 0.000, 0.000,0.0,0.0,0.0,0.0,0.0, 16:33:36.469
80696.585938, 117040.789063, 130642.187500, 132747.562500, 110156.031250, 78615.218750, 119207.679688, 133086.812500, 0.000, 0.000, 0.000,0.0,0.0,0.0,0.0,0.0, 16:33:36.469
80801.867188, 117128.234375, 130632.687500, 132783.640625, 110208.132813, 78398.046875, 119211.617188, 133143.453125, 0.000, 0.000, 0.000,0.0,0.0,0.0,0.0,0.0, 16:33:36.469
80714.601563, 117025.593750, 130634.812500, 132798.328125, 110217.765625, 78527.578125, 119235.398438, 133177.765625, 0.000, 0.000, 0.000,0.0,0.0,0.0,0.0,0.0, 16:33:36.469
80608.031250, 116927.289063, 130647.437500, 132771.390625, 110169.757813, 78757.843750, 119237.187500, 133137.687500, 0.152, 0.250, 0.950,0.0,0.0,0.0,0.0,0.0, 16:33:36.472
80644.242188, 116990.906250, 130624.531250, 132738.109375, 110156.500000, 78664.187500, 119214.570313, 133096.500000, 0.000, 0.000, 0.000,0.0,0.0,0.0,0.0,0.0, 16:33:36.472
80758.640625, 117114.554688, 130597.570313, 132767.328125, 110188.242188, 78415.523438, 119207.234375, 133136.953125, 0.000, 0.000, 0.000,0.0,0.0,0.0,0.0,0.0, 16:33:36.472
80743.078125, 117074.296875, 130628.664063, 132819.578125, 110232.140625, 78500.460938, 119250.421875, 133202.265625, 0.000, 0.000, 0.000,0.0,0.0,0.0,0.0,0.0, 16:33:36.472
80612.726563, 116934.843750, 130652.359375, 132791.531250, 110186.453125, 78748.210938, 119253.593750, 133164.828125, 0.000, 0.000, 0.000,0.0,0.0,0.0,0.0,0.0, 16:33:36.473
80638.117188, 116975.882813, 130632.664063, 132745.015625, 110144.117188, 78707.062500, 119219.195313, 133104.453125, 0.000, 0.000, 0.000,0.0,0.0,0.0,0.0,0.0, 16:33:36.473
80754.484375, 117104.945313, 130586.015625, 132755.906250, 110173.687500, 78435.664063, 119201.398438, 133131.500000, 0.000, 0.000, 0.000,0.0,0.0,0.0,0.0,0.0, 16:33:36.473
80770.085938, 117096.468750, 130613.132813, 132814.015625, 110232.226563, 78458.781250, 119244.476563, 133208.328125, 0.000, 0.000, 0.000,0.0,0.0,0.0,0.0,0.0, 16:33:36.474
80635.007813, 116953.171875, 130662.523438, 132799.578125, 110218.031250, 78722.507813, 119261.507813, 133178.031250, 0.000, 0.000, 0.000,0.0,0.0,0.0,0.0,0.0, 16:33:36.474
80623.078125, 116948.031250, 130632.062500, 132742.765625, 110163.382813, 78737.171875, 119226.570313, 133107.968750, 0.000, 0.000, 0.000,0.0,0.0,0.0,0.0,0.0, 16:33:36.474
80728.734375, 117075.437500, 130582.906250, 132743.906250, 110176.929688, 78475.070313, 119203.500000, 133123.453125, 0.150, 0.246, 0.952,0.0,0.0,0.0,0.0,0.0, 16:33:36.474
80773.632813, 117101.390625, 130618.695313, 132807.468750, 110233.257813, 78431.664063, 119237.078125, 133200.703125, 0.000, 0.000, 0.000,0.0,0.0,0.0,0.0,0.0, 16:33:36.475
80652.218750, 116962.828125, 130664.445313, 132803.734375, 110220.093750, 78682.476563, 119256.609375, 133182.953125, 0.000, 0.000, 0.000,0.0,0.0,0.0,0.0,0.0, 16:33:36.475
80620.726563, 116931.406250, 130643.750000, 132748.093750, 110163.117188, 78767.117188, 119231.242188, 133119.031250, 0.000, 0.000, 0.000,0.0,0.0,0.0,0.0,0.0, 16:33:36.475
80749.226563, 117074.273438, 130597.460938, 132749.687500, 110174.781250, 78530.640625, 119210.585938, 133122.343750, 0.000, 0.000, 0.000,0.0,0.0,0.0,0.0,0.0, 16:33:36.476
80761.632813, 117111.046875, 130588.093750, 132800.156250, 110233.234375, 78407.187500, 119235.976563, 133201.500000, 0.000, 0.000, 0.000,0.0,0.0,0.0,0.0,0.0, 16:33:36.476
80655.617188, 116982.968750, 130630.164063, 132807.718750, 110225.632813, 78631.601563, 119259.429688, 133205.593750, 0.000, 0.000, 0.000,0.0,0.0,0.0,0.0,0.0, 16:33:36.476
80589.859375, 116917.656250, 130638.742188, 132755.562500, 110165.953125, 78779.304688, 119237.390625, 133132.328125, 0.000, 0.000, 0.000,0.0,0.0,0.0,0.0,0.0, 16:33:36.476
80687.093750, 117035.765625, 130594.000000, 132735.734375, 110161.578125, 78580.210938, 119207.773438, 133114.046875, 0.000, 0.000, 0.000,0.0,0.0,0.0,0.0,0.0, 16:33:36.477
80776.320313, 117123.226563, 130599.984375, 132789.734375, 110229.992188, 78403.500000, 119233.679688, 133186.031250, 0.000, 0.000, 0.000,0.0,0.0,0.0,0.0,0.0, 16:33:36.477
80673.570313, 117005.250000, 130641.429688, 132808.890625, 110235.203125, 78587.859375, 119262.843750, 133208.859375, 0.158, 0.246, 0.948,0.039989933,0.092954636,0.055739652,0.08348404,0.052515354, 16:33:36.926
80586.062500, 116908.429688, 130638.609375, 132760.125000, 110169.132813, 78776.062500, 119240.312500, 133140.734375, 0.000, 0.000, 0.000,0.039989933,0.092954636,0.055739652,0.08348404,0.052515354, 16:33:36.926
80653.515625, 116996.890625, 130593.882813, 132728.828125, 110151.648438, 78627.195313, 119205.804688, 133105.453125, 0.000, 0.000, 0.000,0.039989933,0.092954636,0.055739652,0.08348404,0.052515354, 16:33:36.926
80761.703125, 117113.210938, 130585.593750, 132774.546875, 110197.804688, 78405.085938, 119212.843750, 133164.937500, 0.000, 0.000, 0.000,0.039989933,0.092954636,0.055739652,0.08348404,0.052515354, 16:33:36.926
80710.625000, 117040.570313, 130625.578125, 132814.984375, 110223.687500, 78530.507813, 119247.804688, 133206.015625, 0.000, 0.000, 0.000,0.039989933,0.092954636,0.055739652,0.08348404,0.052515354, 16:33:36.927
80588.476563, 116912.609375, 130646.007813, 132774.437500, 110173.039063, 78759.742188, 119242.328125, 133150.406250, 0.000, 0.000, 0.000,0.039989933,0.092954636,0.055739652,0.08348404,0.052515354, 16:33:36.927
80630.320313, 116978.609375, 130616.367188, 132729.531250, 110137.437500, 78671.273438, 119206.742188, 133098.890625, 0.000, 0.000, 0.000,0.039989933,0.092954636,0.055739652,0.08348404,0.052515354, 16:33:36.927
80753.609375, 117110.640625, 130596.546875, 132761.671875, 110178.562500, 78418.429688, 119200.687500, 133138.828125, 0.000, 0.000, 0.000,0.039989933,0.092954636,0.055739652,0.08348404,0.052515354, 16:33:36.927
80720.062500, 117051.367188, 130625.359375, 132802.578125, 110213.007813, 78481.171875, 119232.898438, 133195.093750, 0.000, 0.000, 0.000,0.039989933,0.092954636,0.055739652,0.08348404,0.052515354, 16:33:36.927
80607.000000, 116931.984375, 130663.843750, 132784.125000, 110177.335938, 78740.296875, 119246.617188, 133162.921875, 0.158, 0.250, 0.954,0.039989933,0.092954636,0.055739652,0.08348404,0.052515354, 16:33:36.928
80613.328125, 116956.953125, 130632.437500, 132733.734375, 110131.445313, 78709.695313, 119212.843750, 133099.062500, 0.000, 0.000, 0.000,0.039989933,0.092954636,0.055739652,0.08348404,0.052515354, 16:33:36.928
80733.203125, 117092.109375, 130585.500000, 132749.671875, 110161.929688, 78439.351563, 119195.765625, 133128.343750, 0.000, 0.000, 0.000,0.039989933,0.092954636,0.055739652,0.08348404,0.052515354, 16:33:36.928
80736.289063, 117073.539063, 130617.976563, 132802.234375, 110213.500000, 78440.335938, 119227.375000, 133195.343750, 0.000, 0.000, 0.000,0.039989933,0.092954636,0.055739652,0.08348404,0.052515354, 16:33:36.928
80619.546875, 116944.789063, 130657.609375, 132791.421875, 110185.398438, 78697.117188, 119242.843750, 133171.937500, 0.000, 0.000, 0.000,0.039989933,0.092954636,0.055739652,0.08348404,0.052515354, 16:33:36.928
80605.843750, 116941.843750, 130635.125000, 132743.000000, 110133.882813, 78734.218750, 119216.781250, 133110.171875, 0.000, 0.000, 0.000,0.039989933,0.092954636,0.055739652,0.08348404,0.052515354, 16:33:36.928
80728.398438, 117083.398438, 130585.304688, 132749.937500, 110158.132813, 78475.539063, 119202.226563, 133127.703125, 0.000, 0.000, 0.000,0.039989933,0.092954636,0.055739652,0.08348404,0.052515354, 16:33:36.929
80768.851563, 117116.054688, 130613.062500, 132812.203125, 110225.703125, 78413.382813, 119238.460938, 133207.140625, 0.000, 0.000, 0.000,0.039989933,0.092954636,0.055739652,0.08348404,0.052515354, 16:33:36.929
80632.820313, 116964.593750, 130667.890625, 132808.500000, 110206.929688, 78659.851563, 119251.937500, 133190.687500, 0.000, 0.000, 0.000,0.039989933,0.092954636,0.055739652,0.08348404,0.052515354, 16:33:36.929
80592.429688, 116926.304688, 130652.046875, 132752.343750, 110141.929688, 78755.789063, 119222.500000, 133115.187500, 0.000, 0.000, 0.000,0.039989933,0.092954636,0.055739652,0.08348404,0.052515354, 16:33:36.929
80704.773438, 117061.492188, 130598.015625, 132744.562500, 110144.945313, 78524.085938, 119197.242188, 133111.109375, 0.164, 0.252, 0.952,0.039989933,0.092954636,0.055739652,0.08348404,0.052515354, 16:33:36.929
80772.515625, 117123.625000, 130612.390625, 132804.062500, 110208.156250, 78392.796875, 119223.953125, 133188.187500, 0.000, 0.000, 0.000,0.039989933,0.092954636,0.055739652,0.08348404,0.052515354, 16:33:36.930
80664.289063, 116994.523438, 130661.054688, 132813.703125, 110207.484375, 78605.804688, 119248.992188, 133197.343750, 0.000, 0.000, 0.000,0.039989933,0.092954636,0.055739652,0.08348404,0.052515354, 16:33:36.930
80573.812500, 116913.117188, 130666.257813, 132758.890625, 110149.148438, 78763.992188, 119226.007813, 133123.156250, 0.000, 0.000, 0.000,0.039989933,0.092954636,0.055739652,0.08348404,0.052515354, 16:33:36.930
80662.882813, 117022.914063, 130621.507813, 132732.359375, 110133.187500, 78576.617188, 119191.835938, 133093.859375, 0.000, 0.000, 0.000,0.039989933,0.092954636,0.055739652,0.08348404,0.052515354, 16:33:36.930
80779.625000, 117138.312500, 130599.648438, 132788.062500, 110193.203125, 78375.765625, 119212.265625, 133173.187500, 0.000, 0.000, 0.000,0.039989933,0.092954636,0.055739652,0.08348404,0.052515354, 16:33:36.930
80700.523438, 117036.656250, 130642.656250, 132819.015625, 110218.101563, 78550.601563, 119250.265625, 133213.328125, 0.000, 0.000, 0.000,0.039989933,0.092954636,0.055739652,0.08348404,0.052515354, 16:33:36.931
80589.570313, 116921.414063, 130656.046875, 132771.500000, 110161.375000, 78757.914063, 119239.351563, 133147.234375, 0.000, 0.000, 0.000,0.039989933,0.092954636,0.055739652,0.08348404,0.052515354, 16:33:36.932
80651.710938, 117010.234375, 130613.687500, 132739.468750, 110138.687500, 78623.890625, 119209.156250, 133108.359375, 0.000, 0.000, 0.000,0.039989933,0.092954636,0.055739652,0.08348404,0.052515354, 16:33:36.933
80762.617188, 117129.687500, 130593.859375, 132779.109375, 110189.421875, 78390.757813, 119210.835938, 133166.859375, 0.160, 0.252, 0.950,0.039989933,0.092954636,0.055739652,0.08348404,0.052515354, 16:33:36.933
80708.703125, 117054.023438, 130631.054688, 132816.812500, 110218.570313, 78503.835938, 119244.023438, 133210.984375, 0.000, 0.000, 0.000,0.039989933,0.092954636,0.055739652,0.08348404,0.052515354, 16:33:36.933
80596.898438, 116937.234375, 130653.921875, 132789.765625, 110165.351563, 78743.226563, 119243.515625, 133162.609375, 0.000, 0.000, 0.000,0.039989933,0.092954636,0.055739652,0.08348404,0.052515354, 16:33:36.934
80632.554688, 116989.851563, 130623.992188, 132745.484375, 110128.851563, 78674.359375, 119209.851563, 133107.890625, 0.000, 0.000, 0.000,0.039989933,0.092954636,0.055739652,0.08348404,0.052515354, 16:33:36.934
80750.992188, 117118.710938, 130595.960938, 132769.609375, 110165.640625, 78416.289063, 119203.054688, 133145.453125, 0.000, 0.000, 0.000,0.039989933,0.092954636,0.055739652,0.08348404,0.052515354, 16:33:36.934
80722.828125, 117077.382813, 130625.359375, 132817.687500, 110205.476563, 78465.796875, 119238.257813, 133207.937500, 0.000, 0.000, 0.000,0.039989933,0.092954636,0.055739652,0.08348404,0.052515354, 16:33:36.935
80603.203125, 116945.125000, 130654.367188, 132796.265625, 110169.445313, 78718.367188, 119249.320313, 133176.406250, 0.000, 0.000, 0.000,0.039989933,0.092954636,0.055739652,0.08348404,0.052515354, 16:33:36.935
80603.335938, 116960.390625, 130632.242188, 132747.359375, 110126.773438, 78712.359375, 119220.554688, 133116.187500, 0.000, 0.000, 0.000,0.039989933,0.092954636,0.055739652,0.08348404,0.052515354, 16:33:36.935
80724.375000, 117099.335938, 130601.328125, 132760.500000, 110158.085938, 78453.656250, 119207.257813, 133137.953125, 0.000, 0.000, 0.000,0.033632904,0.07600039,0.04561344,0.071327455,0.0456693, 16:33:36.936
80738.296875, 117099.820313, 130622.492188, 132813.765625, 110208.554688, 78431.554688, 119240.273438, 133206.843750, 0.000, 0.000, 0.000,0.033632904,0.07600039,0.04561344,0.071327455,0.0456693, 16:33:36.936
80624.328125, 116967.726563, 130655.578125, 132807.328125, 110185.382813, 78681.468750, 119259.132813, 133191.781250, 0.162, 0.256, 0.948,0.033632904,0.07600039,0.04561344,0.071327455,0.0456693, 16:33:36.937
80599.468750, 116951.046875, 130644.132813, 132754.468750, 110136.812500, 78736.859375, 119231.578125, 133117.421875, 0.000, 0.000, 0.000,0.033632904,0.07600039,0.04561344,0.071327455,0.0456693, 16:33:36.937
80716.101563, 117087.531250, 130597.015625, 132753.109375, 110148.765625, 78486.070313, 119210.765625, 133124.187500, 0.000, 0.000, 0.000,0.033632904,0.07600039,0.04561344,0.071327455,0.0456693, 16:33:36.937
80761.273438, 117120.656250, 130609.640625, 132809.796875, 110208.539063, 78397.804688, 119243.218750, 133204.093750, 0.000, 0.000, 0.000,0.033632904,0.07600039,0.04561344,0.071327455,0.0456693, 16:33:36.938
80647.101563, 116991.281250, 130652.890625, 132815.218750, 110198.078125, 78636.023438, 119265.195313, 133205.484375, 0.000, 0.000, 0.000,0.033632904,0.07600039,0.04561344,0.071327455,0.0456693, 16:33:36.938
80597.078125, 116953.148438, 130643.750000, 132767.921875, 110141.992188, 78754.289063, 119244.273438, 133138.296875, 0.000, 0.000, 0.000,0.033632904,0.07600039,0.04561344,0.071327455,0.0456693, 16:33:36.939
80677.234375, 117057.554688, 130609.734375, 132746.718750, 110140.187500, 78540.000000, 119211.570313, 133115.156250, 0.000, 0.000, 0.000,0.033632904,0.07600039,0.04561344,0.071327455,0.0456693, 16:33:36.940
80749.515625, 117125.953125, 130612.773438, 132795.937500, 110190.007813, 78384.031250, 119226.656250, 133180.625000, 0.000, 0.000, 0.000,0.033632904,0.07600039,0.04561344,0.071327455,0.0456693, 16:33:36.940
80662.953125, 117019.492188, 130651.554688, 132819.062500, 110199.210938, 78586.742188, 119263.000000, 133207.109375, 0.000, 0.000, 0.000,0.033632904,0.07600039,0.04561344,0.071327455,0.0456693, 16:33:36.940
80583.359375, 116947.632813, 130651.687500, 132776.984375, 110146.289063, 78760.546875, 119252.632813, 133144.781250, 0.000, 0.000, 0.000,0.033632904,0.07600039,0.04561344,0.071327455,0.0456693, 16:33:36.940
80668.851563, 117053.265625, 130602.781250, 132754.421875, 110135.218750, 78587.296875, 119223.734375, 133122.718750, 0.162, 0.248, 0.948,0.033632904,0.07600039,0.04561344,0.071327455,0.0456693, 16:33:36.941
80771.062500, 117145.351563, 130602.359375, 132804.375000, 110197.023438, 78388.523438, 119237.609375, 133190.390625, 0.000, 0.000, 0.000,0.033632904,0.07600039,0.04561344,0.071327455,0.0456693, 16:33:36.941
80686.125000, 117040.210938, 130654.546875, 132831.406250, 110216.828125, 78551.937500, 119271.117188, 133223.500000, 0.000, 0.000, 0.000,0.033632904,0.07600039,0.04561344,0.071327455,0.0456693, 16:33:36.941
80580.312500, 116938.421875, 130672.898438, 132793.140625, 110164.187500, 78772.101563, 119266.062500, 133167.171875, 0.000, 0.000, 0.000,0.033632904,0.07600039,0.04561344,0.071327455,0.0456693, 16:33:36.941
80640.640625, 117025.187500, 130627.593750, 132753.171875, 110128.023438, 78648.703125, 119226.773438, 133120.593750, 0.000, 0.000, 0.000,0.033632904,0.07600039,0.04561344,0.071327455,0.0456693, 16:33:36.941
80755.820313, 117149.601563, 130606.335938, 132790.062500, 110172.281250, 78404.507813, 119225.164063, 133173.078125, 0.000, 0.000, 0.000,0.033632904,0.07600039,0.04561344,0.071327455,0.0456693, 16:33:36.942
80708.812500, 117093.742188, 130636.460938, 132836.687500, 110204.578125, 78497.851563, 119261.687500, 133222.218750, 0.000, 0.000, 0.000,0.033632904,0.07600039,0.04561344,0.071327455,0.0456693, 16:33:36.942
80591.757813, 116964.710938, 130663.289063, 132808.156250, 110164.750000, 78745.953125, 119264.679688, 133175.125000, 0.000, 0.000, 0.000,0.033632904,0.07600039,0.04561344,0.071327455,0.0456693, 16:33:36.942
80623.320313, 117014.062500, 130631.992188, 132758.937500, 110121.273438, 78688.375000, 119225.562500, 133111.390625, 0.000, 0.000, 0.000,0.033632904,0.07600039,0.04561344,0.071327455,0.0456693, 16:33:36.942
80747.062500, 117153.937500, 130590.304688, 132781.406250, 110154.507813, 78421.226563, 119212.398438, 133150.796875, 0.160, 0.246, 0.944,0.033632904,0.07600039,0.04561344,0.071327455,0.0456693, 16:33:36.942
80735.257813, 117129.101563, 130628.820313, 132836.015625, 110208.062500, 78458.843750, 119252.835938, 133222.343750, 0.000, 0.000, 0.000,0.033632904,0.07600039,0.04561344,0.071327455,0.0456693, 16:33:36.943
80604.234375, 116982.859375, 130670.390625, 132813.921875, 110166.156250, 78715.375000, 119253.281250, 133181.796875, 0.000, 0.000, 0.000,0.033632904,0.07600039,0.04561344,0.071327455,0.0456693, 16:33:36.943
80591.359375, 116980.578125, 130638.875000, 132754.109375, 110109.468750, 78715.218750, 119214.585938, 133109.578125, 0.000, 0.000, 0.000,0.033632904,0.07600039,0.04561344,0.071327455,0.0456693, 16:33:36.943
80711.031250, 117118.796875, 130603.562500, 132766.875000, 110134.726563, 78460.140625, 119198.515625, 133130.421875, 0.000, 0.000, 0.000,0.033632904,0.07600039,0.04561344,0.071327455,0.0456693, 16:33:36.944
80737.046875, 117133.437500, 130616.460938, 132822.531250, 110188.460938, 78416.375000, 119231.265625, 133204.593750, 0.000, 0.000, 0.000,0.033632904,0.07600039,0.04561344,0.071327455,0.0456693, 16:33:36.944
80607.718750, 116987.554688, 130654.812500, 132816.609375, 110172.304688, 78667.453125, 119253.390625, 133195.984375, 0.000, 0.000, 0.000,0.033632904,0.07600039,0.04561344,0.071327455,0.0456693, 16:33:36.944
80558.210938, 116954.742188, 130651.554688, 132758.500000, 110116.132813, 78747.960938, 119227.578125, 133122.265625, 0.000, 0.000, 0.000,0.033632904,0.07600039,0.04561344,0.071327455,0.0456693, 16:33:36.944
80679.023438, 117102.437500, 130598.601563, 132757.890625, 110127.062500, 78504.328125, 119209.960938, 133133.562500, 0.000, 0.000, 0.000,0.033632904,0.07600039,0.04561344,0.071327455,0.0456693, 16:33:36.945
80739.953125, 117144.820313, 130605.375000, 132813.484375, 110187.593750, 78395.945313, 119238.507813, 133212.968750, 0.000, 0.000, 0.000,0.033632904,0.07600039,0.04561344,0.071327455,0.0456693, 16:33:36.945
80631.703125, 117014.554688, 130650.125000, 132821.906250, 110183.414063, 78627.218750, 119266.671875, 133216.437500, 0.164, 0.258, 0.946,0.033632904,0.07600039,0.04561344,0.071327455,0.0456693, 16:33:36.945
80560.445313, 116951.273438, 130653.828125, 132767.375000, 110128.046875, 78764.414063, 119247.492188, 133144.203125, 0.000, 0.000, 0.000,0.033632904,0.07600039,0.04561344,0.071327455,0.0456693, 16:33:36.946
80652.781250, 117070.921875, 130607.539063, 132747.968750, 110121.765625, 78555.921875, 119214.632813, 133124.265625, 0.000, 0.000, 0.000,0.033632904,0.07600039,0.04561344,0.071327455,0.0456693, 16:33:36.946
80729.937500, 117144.617188, 130606.289063, 132797.390625, 110175.406250, 78387.609375, 119230.390625, 133193.218750, 0.000, 0.000, 0.000,0.033632904,0.07600039,0.04561344,0.071327455,0.0456693, 16:33:36.946
80645.226563, 117038.445313, 130654.859375, 132824.031250, 110184.531250, 78583.750000, 119262.890625, 133217.046875, 0.000, 0.000, 0.000,0.033632904,0.07600039,0.04561344,0.071327455,0.0456693, 16:33:36.947
80558.164063, 116955.476563, 130667.000000, 132784.062500, 110129.031250, 78773.781250, 119253.617188, 133157.890625, 0.000, 0.000, 0.000,0.033632904,0.07600039,0.04561344,0.071327455,0.0456693, 16:33:36.947
80634.742188, 117051.117188, 130619.390625, 132753.796875, 110108.085938, 78610.257813, 119220.648438, 133126.968750, 0.000, 0.000, 0.000,0.033632904,0.07600039,0.04561344,0.071327455,0.0456693, 16:33:36.947
80736.039063, 117154.250000, 130610.937500, 132798.390625, 110163.406250, 78393.421875, 119230.148438, 133188.546875, 0.000, 0.000, 0.000,0.033632904,0.07600039,0.04561344,0.071327455,0.0456693, 16:33:36.948
80658.632813, 117057.179688, 130646.945313, 132829.796875, 110183.054688, 78532.382813, 119261.304688, 133225.890625, 0.000, 0.000, 0.000,0.033632904,0.07600039,0.04561344,0.071327455,0.0456693, 16:33:36.948
80543.476563, 116942.781250, 130666.773438, 132791.687500, 110133.789063, 78760.257813, 119255.312500, 133170.265625, 0.160, 0.252, 0.948,0.033632904,0.07600039,0.04561344,0.071327455,0.0456693, 16:33:36.948
80584.984375, 117011.335938, 130631.773438, 132750.015625, 110105.515625, 78661.085938, 119219.375000, 133119.703125, 0.000, 0.000, 0.000,0.033632904,0.07600039,0.04561344,0.071327455,0.0456693, 16:33:36.948
80716.773438, 117145.960938, 130601.257813, 132787.750000, 110152.945313, 78412.109375, 119219.531250, 133170.234375, 0.000, 0.000, 0.000,0.033632904,0.07600039,0.04561344,0.071327455,0.0456693, 16:33:36.949
80670.328125, 117077.695313, 130642.500000, 132829.484375, 110194.945313, 78497.398438, 119252.718750, 133223.765625, 0.000, 0.000, 0.000,0.033632904,0.07600039,0.04561344,0.071327455,0.0456693, 16:33:36.949
80548.195313, 116950.000000, 130669.945313, 132801.406250, 110149.234375, 78745.664063, 119250.171875, 133175.484375, 0.000, 0.000, 0.000,0.033632904,0.07600039,0.04561344,0.071327455,0.0456693, 16:33:36.949
80567.304688, 116987.929688, 130635.953125, 132757.171875, 110110.453125, 78706.906250, 119217.695313, 133121.687500, 0.000, 0.000, 0.000,0.033632904,0.07600039,0.04561344,0.071327455,0.0456693, 16:33:36.949
80696.140625, 117130.828125, 130599.921875, 132782.250000, 110146.484375, 78445.789063, 119205.265625, 133154.921875, 0.000, 0.000, 0.000,0.033632904,0.07600039,0.04561344,0.071327455,0.0456693, 16:33:36.949
80696.210938, 117113.968750, 130631.703125, 132838.578125, 110196.640625, 78462.820313, 119242.953125, 133224.421875, 0.000, 0.000, 0.000,0.033632904,0.07600039,0.04561344,0.071327455,0.0456693, 16:33:36.950
80577.835938, 116980.843750, 130671.242188, 132822.687500, 110163.406250, 78719.843750, 119255.179688, 133196.921875, 0.000, 0.000, 0.000,0.033632904,0.07600039,0.04561344,0.071327455,0.0456693, 16:33:36.950
80563.710938, 116980.914063, 130644.179688, 132767.453125, 110107.171875, 78738.796875, 119223.351563, 133130.000000, 0.000, 0.000, 0.000,0.033632904,0.07600039,0.04561344,0.071327455,0.0456693, 16:33:36.950
80683.578125, 117117.148438, 130587.265625, 132771.843750, 110126.859375, 78474.398438, 119204.375000, 133151.109375, 0.156, 0.250, 0.954,0.033632904,0.07600039,0.04561344,0.071327455,0.0456693, 16:33:36.950
80701.570313, 117125.328125, 130611.453125, 132823.296875, 110184.507813, 78422.500000, 119232.757813, 133223.640625, 0.000, 0.000, 0.000,0.033632904,0.07600039,0.04561344,0.071327455,0.0456693, 16:33:36.951
80591.382813, 116998.882813, 130653.343750, 132824.500000, 110166.851563, 78669.976563, 119252.562500, 133212.218750, 0.000, 0.000, 0.000,0.033632904,0.07600039,0.04561344,0.071327455,0.0456693, 16:33:36.951
80553.648438, 116970.968750, 130640.445313, 132777.218750, 110113.789063, 78760.437500, 119229.968750, 133145.218750, 0.000, 0.000, 0.000,0.033632904,0.07600039,0.04561344,0.071327455,0.0456693, 16:33:36.951
80654.500000, 117093.859375, 130598.351563, 132767.593750, 110121.679688, 78529.703125, 119203.835938, 133142.046875, 0.000, 0.000, 0.000,0.033632904,0.07600039,0.04561344,0.071327455,0.0456693, 16:33:36.951
80717.132813, 117151.609375, 130597.726563, 132819.062500, 110178.585938, 78398.765625, 119227.914063, 133216.015625, 0.000, 0.000, 0.000,0.033632904,0.07600039,0.04561344,0.071327455,0.0456693, 16:33:36.951
80622.898438, 117024.320313, 130648.757813, 132834.156250, 110186.718750, 78624.695313, 119257.148438, 133229.125000, 0.000, 0.000, 0.000,0.033632904,0.07600039,0.04561344,0.071327455,0.0456693, 16:33:36.951
80544.460938, 116949.039063, 130656.875000, 132780.125000, 110128.093750, 78778.382813, 119234.437500, 133152.265625, 0.000, 0.000, 0.000,0.033632904,0.07600039,0.04561344,0.071327455,0.0456693, 16:33:36.952
80631.812500, 117059.679688, 130616.078125, 132757.312500, 110118.906250, 78586.070313, 119205.203125, 133132.218750, 0.000, 0.000, 0.000,0.033632904,0.07600039,0.04561344,0.071327455,0.0456693, 16:33:36.952
80714.429688, 117142.875000, 130600.210938, 132799.390625, 110167.742188, 78396.484375, 119214.898438, 133196.031250, 0.158, 0.250, 0.950,0.033632904,0.07600039,0.04561344,0.071327455,0.0456693, 16:33:36.952
80629.554688, 117044.281250, 130638.453125, 132827.859375, 110182.335938, 78575.031250, 119248.945313, 133228.000000, 0.000, 0.000, 0.000,0.033632904,0.07600039,0.04561344,0.071327455,0.0456693, 16:33:36.952
80525.531250, 116939.382813, 130661.117188, 132781.890625, 110125.789063, 78779.101563, 119234.523438, 133160.718750, 0.000, 0.000, 0.000,0.033632904,0.07600039,0.04561344,0.071327455,0.0456693, 16:33:36.952
80591.000000, 117020.343750, 130615.679688, 132740.171875, 110093.382813, 78631.023438, 119195.859375, 133116.125000, 0.000, 0.000, 0.000,0.033632904,0.07600039,0.04561344,0.071327455,0.0456693, 16:33:36.952
80712.507813, 117146.851563, 130590.554688, 132785.734375, 110145.414063, 78399.273438, 119203.460938, 133177.812500, 0.000, 0.000, 0.000,0.033632904,0.07600039,0.04561344,0.071327455,0.0456693, 16:33:36.952
80650.789063, 117066.835938, 130635.976563, 132825.953125, 110181.203125, 78531.398438, 119241.882813, 133228.156250, 0.000, 0.000, 0.000,0.033632904,0.07600039,0.04561344,0.071327455,0.0456693, 16:33:36.953
80532.640625, 116937.328125, 130659.890625, 132785.703125, 110132.898438, 78766.492188, 119238.796875, 133176.250000, 0.000, 0.000, 0.000,0.033632904,0.07600039,0.04561344,0.071327455,0.0456693, 16:33:36.954
80569.968750, 116996.625000, 130623.187500, 132743.359375, 110099.234375, 78677.265625, 119204.085938, 133123.906250, 0.000, 0.000, 0.000,0.033632904,0.07600039,0.04561344,0.071327455,0.0456693, 16:33:36.954
80699.156250, 117133.062500, 130590.976563, 132781.187500, 110138.867188, 78417.179688, 119202.093750, 133169.875000, 0.000, 0.000, 0.000,0.033632904,0.07600039,0.04561344,0.071327455,0.0456693, 16:33:36.955
80680.140625, 117092.492188, 130623.273438, 132831.515625, 110180.773438, 78481.937500, 119238.953125, 133233.515625, 0.000, 0.000, 0.000,0.033632904,0.07600039,0.04561344,0.071327455,0.0456693, 16:33:36.955
80569.476563, 116971.234375, 130658.343750, 132817.484375, 110149.523438, 78738.398438, 119249.125000, 133198.750000, 0.164, 0.250, 0.950,0.033632904,0.07600039,0.04561344,0.071327455,0.0456693, 16:33:36.956
80572.156250, 116990.390625, 130638.992188, 132768.828125, 110111.531250, 78720.492188, 119219.085938, 133135.234375, 0.000, 0.000, 0.000,0.033632904,0.07600039,0.04561344,0.071327455,0.0456693, 16:33:36.956
80689.437500, 117131.070313, 130595.828125, 132785.046875, 110134.570313, 78451.132813, 119205.023438, 133162.921875, 0.000, 0.000, 0.000,0.033632904,0.07600039,0.04561344,0.071327455,0.0456693, 16:33:36.956
80679.671875, 117106.351563, 130622.070313, 132828.078125, 110183.164063, 78446.039063, 119232.828125, 133223.718750, 0.000, 0.000, 0.000,0.033632904,0.07600039,0.04561344,0.071327455,0.0456693, 16:33:36.956
80557.203125, 116973.226563, 130660.093750, 132814.375000, 110154.843750, 78700.601563, 119244.117188, 133195.062500, 0.000, 0.000, 0.000,0.033632904,0.07600039,0.04561344,0.071327455,0.0456693, 16:33:36.956
80531.210938, 116959.882813, 130648.937500, 132760.781250, 110104.625000, 78750.203125, 119215.640625, 133125.578125, 0.000, 0.000, 0.000,0.033632904,0.07600039,0.04561344,0.071327455,0.0456693, 16:33:36.957
80647.843750, 117096.382813, 130604.773438, 132762.031250, 110119.351563, 78500.218750, 119194.296875, 133136.500000, 0.000, 0.000, 0.000,0.033632904,0.07600039,0.04561344,0.071327455,0.0456693, 16:33:36.957
80685.593750, 117125.125000, 130616.664063, 132817.218750, 110172.234375, 78420.195313, 119219.593750, 133214.687500, 0.000, 0.000, 0.000,0.033632904,0.07600039,0.04561344,0.071327455,0.0456693, 16:33:36.957
80581.210938, 116992.203125, 130654.656250, 132817.562500, 110157.640625, 78659.179688, 119243.289063, 133213.906250, 0.000, 0.000, 0.000,0.033632904,0.07600039,0.04561344,0.071327455,0.0456693, 16:33:36.957
80532.820313, 116949.710938, 130646.812500, 132767.484375, 110102.296875, 78769.085938, 119218.523438, 133143.765625, 0.000, 0.000, 0.000,0.033632904,0.07600039,0.04561344,0.071327455,0.0456693, 16:33:36.957
80626.742188, 117063.570313, 130601.234375, 132748.750000, 110103.304688, 78545.906250, 119186.828125, 133131.593750, 0.164, 0.250, 0.948,0.033632904,0.07600039,0.04561344,0.071327455,0.0456693, 16:33:36.958
80697.867188, 117138.156250, 130600.523438, 132805.703125, 110157.867188, 78402.140625, 119206.140625, 133202.734375, 0.000, 0.000, 0.000,0.033632904,0.07600039,0.04561344,0.071327455,0.0456693, 16:33:36.958
80597.171875, 117023.742188, 130639.234375, 132829.031250, 110161.664063, 78614.054688, 119237.257813, 133222.968750, 0.000, 0.000, 0.000,0.033632904,0.07600039,0.04561344,0.071327455,0.0456693, 16:33:36.958
80513.328125, 116943.718750, 130656.492188, 132782.343750, 110105.468750, 78784.218750, 119220.289063, 133150.859375, 0.000, 0.000, 0.000,0.033632904,0.07600039,0.04561344,0.071327455,0.0456693, 16:33:36.958
80593.835938, 117038.984375, 130609.421875, 132748.890625, 110088.437500, 78596.195313, 119184.187500, 133121.937500, 0.000, 0.000, 0.000,0.033632904,0.07600039,0.04561344,0.071327455,0.0456693, 16:33:36.958
80695.984375, 117141.039063, 130595.718750, 132797.937500, 110145.617188, 78394.648438, 119199.414063, 133192.859375, 0.000, 0.000, 0.000,0.037198678,0.056826424,0.015971819,0.03502148,0.019877508, 16:33:37.406
80624.796875, 117046.312500, 130646.765625, 132831.578125, 110171.562500, 78565.414063, 119234.484375, 133227.812500, 0.000, 0.000, 0.000,0.037198678,0.056826424,0.015971819,0.03502148,0.019877508, 16:33:37.406
80514.375000, 116932.210938, 130669.257813, 132780.796875, 110114.523438, 78778.203125, 119220.960938, 133156.531250, 0.000, 0.000, 0.000,0.037198678,0.056826424,0.015971819,0.03502148,0.019877508, 16:33:37.406
80587.265625, 117025.773438, 130623.257813, 132749.734375, 110088.617188, 78643.421875, 119188.101563, 133119.406250, 0.000, 0.000, 0.000,0.037198678,0.056826424,0.015971819,0.03502148,0.019877508, 16:33:37.406
80693.664063, 117134.554688, 130594.015625, 132783.437500, 110134.125000, 78398.250000, 119184.726563, 133172.046875, 0.156, 0.256, 0.946,0.037198678,0.056826424,0.015971819,0.03502148,0.019877508, 16:33:37.406
80637.046875, 117058.070313, 130630.562500, 132820.812500, 110166.625000, 78511.210938, 119219.039063, 133223.437500, 0.000, 0.000, 0.000,0.037198678,0.056826424,0.015971819,0.03502148,0.019877508, 16:33:37.407
80523.382813, 116942.000000, 130662.976563, 132794.593750, 110123.554688, 78757.890625, 119221.406250, 133173.515625, 0.000, 0.000, 0.000,0.037198678,0.056826424,0.015971819,0.03502148,0.019877508, 16:33:37.407
80554.078125, 116993.023438, 130625.062500, 132748.703125, 110085.710938, 78686.046875, 119187.765625, 133117.281250, 0.000, 0.000, 0.000,0.037198678,0.056826424,0.015971819,0.03502148,0.019877508, 16:33:37.407
80684.679688, 117135.476563, 130586.085938, 132775.656250, 110123.554688, 78421.492188, 119184.171875, 133159.171875, 0.000, 0.000, 0.000,0.037198678,0.056826424,0.015971819,0.03502148,0.019877508, 16:33:37.407
80661.453125, 117084.000000, 130624.351563, 132816.781250, 110169.664063, 78468.031250, 119221.164063, 133217.312500, 0.000, 0.000, 0.000,0.037198678,0.056826424,0.015971819,0.03502148,0.019877508, 16:33:37.407
80544.375000, 116958.585938, 130660.718750, 132799.515625, 110138.085938, 78719.843750, 119227.375000, 133180.265625, 0.000, 0.000, 0.000,0.037198678,0.056826424,0.015971819,0.03502148,0.019877508, 16:33:37.407
80546.523438, 116979.726563, 130637.562500, 132754.765625, 110098.851563, 78717.187500, 119198.539063, 133120.703125, 0.000, 0.000, 0.000,0.037198678,0.056826424,0.015971819,0.03502148,0.019877508, 16:33:37.408
80665.343750, 117115.445313, 130592.562500, 132764.281250, 110124.093750, 78451.984375, 119177.460938, 133139.328125, 0.000, 0.000, 0.000,0.037198678,0.056826424,0.015971819,0.03502148,0.019877508, 16:33:37.408
80674.039063, 117109.882813, 130621.179688, 132818.906250, 110177.468750, 78430.476563, 119208.218750, 133208.921875, 0.000, 0.000, 0.000,0.037198678,0.056826424,0.015971819,0.03502148,0.019877508, 16:33:37.408
80562.968750, 116983.125000, 130662.726563, 132819.734375, 110155.960938, 78684.843750, 119230.546875, 133200.078125, 0.160, 0.248, 0.954,0.037198678,0.056826424,0.015971819,0.03502148,0.019877508, 16:33:37.408
80541.421875, 116967.906250, 130647.195313, 132771.078125, 110106.859375, 78747.179688, 119210.210938, 133133.515625, 0.000, 0.000, 0.000,0.037198678,0.056826424,0.015971819,0.03502148,0.019877508, 16:33:37.408
80661.343750, 117110.734375, 130607.226563, 132776.000000, 110128.937500, 78504.265625, 119196.710938, 133145.218750, 0.000, 0.000, 0.000,0.037198678,0.056826424,0.015971819,0.03502148,0.019877508, 16:33:37.408
80691.445313, 117123.898438, 130620.976563, 132822.359375, 110184.664063, 78408.554688, 119220.046875, 133215.390625, 0.000, 0.000, 0.000,0.037198678,0.056826424,0.015971819,0.03502148,0.019877508, 16:33:37.408
80579.312500, 116997.765625, 130663.289063, 132828.812500, 110174.804688, 78642.734375, 119241.210938, 133214.171875, 0.000, 0.000, 0.000,0.037198678,0.056826424,0.015971819,0.03502148,0.019877508, 16:33:37.409
80524.125000, 116952.617188, 130659.757813, 132783.859375, 110120.242188, 78769.312500, 119218.390625, 133145.359375, 0.000, 0.000, 0.000,0.037198678,0.056826424,0.015971819,0.03502148,0.019877508, 16:33:37.409
80625.710938, 117072.664063, 130617.351563, 132765.640625, 110118.414063, 78556.453125, 119190.312500, 133129.109375, 0.000, 0.000, 0.000,0.037198678,0.056826424,0.015971819,0.03502148,0.019877508, 16:33:37.409
80705.593750, 117153.914063, 130620.210938, 132822.578125, 110181.984375, 78401.960938, 119216.218750, 133206.718750, 0.000, 0.000, 0.000,0.037198678,0.056826424,0.015971819,0.03502148,0.019877508, 16:33:37.409
80598.351563, 117020.742188, 130662.640625, 132835.781250, 110186.007813, 78602.656250, 119240.296875, 133221.468750, 0.000, 0.000, 0.000,0.037198678,0.056826424,0.015971819,0.03502148,0.019877508, 16:33:37.409
80517.664063, 116944.789063, 130668.898438, 132785.703125, 110126.507813, 78776.421875, 119222.945313, 133148.796875, 0.172, 0.238, 0.954,0.037198678,0.056826424,0.015971819,0.03502148,0.019877508, 16:33:37.409
80603.945313, 117052.015625, 130620.773438, 132763.562500, 110113.828125, 78602.570313, 119195.257813, 133124.968750, 0.000, 0.000, 0.000,0.037198678,0.056826424,0.015971819,0.03502148,0.019877508, 16:33:37.410
80706.109375, 117156.484375, 130612.656250, 132817.125000, 110171.875000, 78394.960938, 119207.796875, 133192.093750, 0.000, 0.000, 0.000,0.037198678,0.056826424,0.015971819,0.03502148,0.019877508, 16:33:37.410
80632.085938, 117063.929688, 130657.093750, 132848.500000, 110191.101563, 78548.632813, 119238.906250, 133228.578125, 0.000, 0.000, 0.000,0.037198678,0.056826424,0.015971819,0.03502148,0.019877508, 16:33:37.410
80528.031250, 116959.117188, 130683.914063, 132813.609375, 110140.718750, 78774.851563, 119233.718750, 133174.171875, 0.000, 0.000, 0.000,0.037198678,0.056826424,0.015971819,0.03502148,0.019877508, 16:33:37.410
80583.312500, 117029.929688, 130646.078125, 132769.218750, 110112.445313, 78661.796875, 119197.804688, 133126.375000, 0.000, 0.000, 0.000,0.037198678,0.056826424,0.015971819,0.03502148,0.019877508, 16:33:37.410
80690.375000, 117142.921875, 130616.414063, 132791.578125, 110150.265625, 78410.382813, 119192.593750, 133168.500000, 0.000, 0.000, 0.000,0.037198678,0.056826424,0.015971819,0.03502148,0.019877508, 16:33:37.410
80648.265625, 117087.281250, 130649.164063, 132839.546875, 110190.835938, 78503.367188, 119231.375000, 133226.578125, 0.000, 0.000, 0.000,0.037198678,0.056826424,0.015971819,0.03502148,0.019877508, 16:33:37.411
80535.882813, 116953.953125, 130682.843750, 132805.984375, 110151.226563, 78751.250000, 119232.179688, 133176.250000, 0.000, 0.000, 0.000,0.037198678,0.056826424,0.015971819,0.03502148,0.019877508, 16:33:37.411
80561.875000, 117003.289063, 130648.531250, 132763.546875, 110117.585938, 78698.656250, 119202.164063, 133125.015625, 0.000, 0.000, 0.000,0.037198678,0.056826424,0.015971819,0.03502148,0.019877508, 16:33:37.411
80686.484375, 117140.281250, 130609.148438, 132790.078125, 110150.398438, 78436.757813, 119191.992188, 133161.343750, 0.172, 0.240, 0.950,0.037198678,0.056826424,0.015971819,0.03502148,0.019877508, 16:33:37.411
80682.664063, 117116.187500, 130636.531250, 132844.093750, 110193.804688, 78461.906250, 119228.539063, 133227.843750, 0.000, 0.000, 0.000,0.037198678,0.056826424,0.015971819,0.03502148,0.019877508, 16:33:37.411
80558.140625, 116979.390625, 130683.851563, 132830.687500, 110165.867188, 78725.859375, 119241.789063, 133195.734375, 0.000, 0.000, 0.000,0.037198678,0.056826424,0.015971819,0.03502148,0.019877508, 16:33:37.411
80555.390625, 116994.679688, 130665.726563, 132786.171875, 110123.484375, 78742.062500, 119217.960938, 133133.828125, 0.000, 0.000, 0.000,0.037198678,0.056826424,0.015971819,0.03502148,0.019877508, 16:33:37.411
80680.164063, 117133.171875, 130625.398438, 132803.406250, 110148.812500, 78483.992188, 119202.562500, 133157.578125, 0.000, 0.000, 0.000,0.037198678,0.056826424,0.015971819,0.03502148,0.019877508, 16:33:37.412
80691.539063, 117133.125000, 130641.093750, 132841.046875, 110198.500000, 78435.265625, 119227.218750, 133220.078125, 0.000, 0.000, 0.000,0.037198678,0.056826424,0.015971819,0.03502148,0.019877508, 16:33:37.412
80581.750000, 117010.929688, 130674.484375, 132840.406250, 110183.476563, 78680.242188, 119245.812500, 133213.171875, 0.000, 0.000, 0.000,0.037198678,0.056826424,0.015971819,0.03502148,0.019877508, 16:33:37.412
80530.625000, 116959.273438, 130665.859375, 132782.984375, 110133.210938, 78762.109375, 119217.875000, 133142.703125, 0.000, 0.000, 0.000,0.037198678,0.056826424,0.015971819,0.03502148,0.019877508, 16:33:37.412
80635.414063, 117084.734375, 130632.734375, 132770.125000, 110142.281250, 78527.218750, 119192.281250, 133132.437500, 0.000, 0.000, 0.000,0.037198678,0.056826424,0.015971819,0.03502148,0.019877508, 16:33:37.412
80700.078125, 117138.312500, 130641.156250, 132827.500000, 110203.078125, 78414.585938, 119222.460938, 133212.562500, 0.164, 0.242, 0.950,0.037198678,0.056826424,0.015971819,0.03502148,0.019877508, 16:33:37.412
80598.734375, 117025.835938, 130691.429688, 132858.359375, 110206.320313, 78650.351563, 119255.406250, 133229.406250, 0.000, 0.000, 0.000,0.037198678,0.056826424,0.015971819,0.03502148,0.019877508, 16:33:37.413
80505.523438, 116934.578125, 130674.906250, 132784.265625, 110128.515625, 78778.406250, 119217.695313, 133141.921875, 0.000, 0.000, 0.000,0.037198678,0.056826424,0.015971819,0.03502148,0.019877508, 16:33:37.413
80606.085938, 117057.242188, 130618.179688, 132755.828125, 110118.164063, 78568.835938, 119184.906250, 133121.437500, 0.000, 0.000, 0.000,0.037198678,0.056826424,0.015971819,0.03502148,0.019877508, 16:33:37.413
80697.101563, 117155.414063, 130620.460938, 132822.390625, 110181.984375, 78401.335938, 119207.460938, 133197.843750, 0.000, 0.000, 0.000,0.037198678,0.056826424,0.015971819,0.03502148,0.019877508, 16:33:37.413
80607.406250, 117043.656250, 130662.640625, 132854.234375, 110191.031250, 78589.156250, 119237.257813, 133223.359375, 0.000, 0.000, 0.000,0.037198678,0.056826424,0.015971819,0.03502148,0.019877508, 16:33:37.413
80500.007813, 116928.046875, 130669.546875, 132788.828125, 110127.820313, 78779.320313, 119217.875000, 133154.234375, 0.000, 0.000, 0.000,0.037198678,0.056826424,0.015971819,0.03502148,0.019877508, 16:33:37.413
80581.906250, 117032.726563, 130633.578125, 132760.937500, 110110.140625, 78626.328125, 119186.023438, 133120.906250, 0.000, 0.000, 0.000,0.037198678,0.056826424,0.015971819,0.03502148,0.019877508, 16:33:37.414
