%OpenBCI Raw EEG Data
%
%Sample Rate = 250.0 Hz
%First Column = SampleIndex
%5 Columns before Timestamp are Frequency Power factors DELTA THETA ALPHA BETA GAMMA
%Last Column = Timestamp 
%Other Columns = EEG data in microvolts followed by Accel Data (in G) interleaved with Aux Data
33789.062500, 24714.904297, 69550.671875, 44591.550781, 64313.519531, 89347.203125, 27457.150391, 30687.021484, 0.062, 0.138, 0.474,0.0,0.0,0.0,0.0,0.0, 12:21:05.191
33376.605469, 24291.919922, 69846.179688, 45132.105469, 64436.164063, 88994.609375, 27924.726563, 31483.548828, 0.000, 0.000, 0.000,0.0,0.0,0.0,0.0,0.0, 12:21:05.193
33256.691406, 24173.767578, 70249.898438, 45449.746094, 64300.914063, 88839.734375, 28412.552734, 32360.228516, 0.000, 0.000, 0.000,0.0,0.0,0.0,0.0,0.0, 12:21:05.194
33646.460938, 24573.595703, 69995.601563, 44941.847656, 64164.324219, 89166.156250, 28011.183594, 31677.271484, 0.000, 0.000, 0.000,0.0,0.0,0.0,0.0,0.0, 12:21:05.195
33817.136719, 24743.468750, 69551.812500, 44556.121094, 64270.828125, 89364.375000, 27464.281250, 30701.080078, 0.000, 0.000, 0.000,0.0,0.0,0.0,0.0,0.0, 12:21:05.196
33432.375000, 24348.513672, 69750.023438, 45020.257813, 64431.449219, 89051.757813, 27808.832031, 31266.892578, 0.000, 0.000, 0.000,0.0,0.0,0.0,0.0,0.0, 12:21:05.197
33215.339844, 24120.257813, 70230.007813, 45471.582031, 64330.351563, 88808.281250, 28403.187500, 32321.761719, 0.086, 0.216, 0.714,0.0,0.0,0.0,0.0,0.0, 12:21:05.198
33562.730469, 24476.925781, 70099.781250, 45070.523438, 64163.027344, 89086.609375, 28148.199219, 31907.181641, 0.000, 0.000, 0.000,0.0,0.0,0.0,0.0,0.0, 12:21:05.198
33819.976563, 24753.884766, 69597.562500, 44555.652344, 64226.484375, 89367.390625, 27508.894531, 30789.728516, 0.000, 0.000, 0.000,0.0,0.0,0.0,0.0,0.0, 12:21:05.199
33519.324219, 24436.423828, 69653.890625, 44880.000000, 64408.628906, 89131.445313, 27683.238281, 31063.849609, 0.000, 0.000, 0.000,0.0,0.0,0.0,0.0,0.0, 12:21:05.200
33209.148438, 24116.837891, 70157.898438, 45433.406250, 64355.093750, 88811.726563, 28336.064453, 32210.851563, 0.000, 0.000, 0.000,0.0,0.0,0.0,0.0,0.0, 12:21:05.201
33477.480469, 24389.640625, 70165.070313, 45178.328125, 64166.515625, 89003.281250, 28252.783203, 32095.181641, 0.000, 0.000, 0.000,0.0,0.0,0.0,0.0,0.0, 12:21:05.202
33825.742188, 24747.425781, 69666.273438, 44592.757813, 64187.660156, 89340.296875, 27586.388672, 30936.199219, 0.000, 0.000, 0.000,0.0,0.0,0.0,0.0,0.0, 12:21:05.203
33610.941406, 24533.453125, 69593.960938, 44768.843750, 64390.144531, 89197.000000, 27587.416016, 30907.968750, 0.000, 0.000, 0.000,0.0,0.0,0.0,0.0,0.0, 12:21:05.203
33237.804688, 24147.125000, 70081.632813, 45372.722656, 64398.925781, 88843.015625, 28248.177734, 32059.978516, 0.000, 0.000, 0.000,0.0,0.0,0.0,0.0,0.0, 12:21:05.203
33423.613281, 24334.835938, 70203.632813, 45271.734375, 64214.191406, 88956.742188, 28326.386719, 32236.154297, 0.000, 0.000, 0.000,0.0,0.0,0.0,0.0,0.0, 12:21:05.204
33812.757813, 24733.724609, 69727.093750, 44656.773438, 64184.820313, 89321.281250, 27674.185547, 31101.468750, 0.098, 0.244, 0.842,0.0,0.0,0.0,0.0,0.0, 12:21:05.205
33682.847656, 24604.351563, 69532.164063, 44682.363281, 64367.476563, 89263.742188, 27505.093750, 30771.757813, 0.000, 0.000, 0.000,0.0,0.0,0.0,0.0,0.0, 12:21:05.206
33271.398438, 24176.740234, 69980.875000, 45309.644531, 64420.207031, 88882.648438, 28134.183594, 31859.839844, 0.000, 0.000, 0.000,0.0,0.0,0.0,0.0,0.0, 12:21:05.206
33349.742188, 24259.419922, 70226.632813, 45372.160156, 64239.000000, 88901.710938, 28381.976563, 32329.003906, 0.000, 0.000, 0.000,0.0,0.0,0.0,0.0,0.0, 12:21:05.207
33770.691406, 24694.966797, 69798.234375, 44757.824219, 64173.128906, 89283.906250, 27783.128906, 31301.292969, 0.000, 0.000, 0.000,0.0,0.0,0.0,0.0,0.0, 12:21:05.208
33737.902344, 24656.320313, 69505.671875, 44626.308594, 64342.152344, 89304.851563, 27462.447266, 30705.126953, 0.000, 0.000, 0.000,0.0,0.0,0.0,0.0,0.0, 12:21:05.208
33306.691406, 24208.927734, 69894.773438, 45228.218750, 64428.855469, 88918.968750, 28023.654297, 31660.037109, 0.000, 0.000, 0.000,0.0,0.0,0.0,0.0,0.0, 12:21:05.209
33277.699219, 24181.480469, 70237.757813, 45439.484375, 64260.750000, 88840.625000, 28417.492188, 32382.513672, 0.000, 0.000, 0.000,0.0,0.0,0.0,0.0,0.0, 12:21:05.210
33692.234375, 24607.080078, 69899.203125, 44869.738281, 64150.933594, 89202.882813, 27920.144531, 31533.146484, 0.000, 0.000, 0.000,0.0,0.0,0.0,0.0,0.0, 12:21:05.210
33799.792969, 24717.027344, 69477.312500, 44563.343750, 64292.308594, 89355.453125, 27436.585938, 30668.693359, 0.000, 0.000, 0.000,0.0,0.0,0.0,0.0,0.0, 12:21:05.211
33384.855469, 24294.244141, 69744.484375, 45093.390625, 64440.343750, 89010.031250, 27876.132813, 31403.595703, 0.106, 0.260, 0.904,0.0,0.0,0.0,0.0,0.0, 12:21:05.212
33227.476563, 24129.779297, 70192.093750, 45466.843750, 64313.097656, 88812.171875, 28414.117188, 32356.763672, 0.000, 0.000, 0.000,0.0,0.0,0.0,0.0,0.0, 12:21:05.213
33623.234375, 24541.343750, 69960.289063, 44986.011719, 64160.769531, 89142.531250, 28041.625000, 31740.392578, 0.000, 0.000, 0.000,0.0,0.0,0.0,0.0,0.0, 12:21:05.213
33824.445313, 24743.916016, 69490.656250, 44566.335938, 64266.558594, 89364.640625, 27463.095703, 30711.988281, 0.000, 0.000, 0.000,0.0,0.0,0.0,0.0,0.0, 12:21:05.214
33481.546875, 24386.691406, 69641.148438, 44994.664063, 64441.351563, 89082.406250, 27761.177734, 31193.646484, 0.000, 0.000, 0.000,0.0,0.0,0.0,0.0,0.0, 12:21:05.215
33218.871094, 24114.402344, 70139.234375, 45488.390625, 64355.519531, 88797.625000, 28384.210938, 32291.496094, 0.000, 0.000, 0.000,0.0,0.0,0.0,0.0,0.0, 12:21:05.215
33547.957031, 24455.623047, 70053.695313, 45129.175781, 64172.058594, 89054.664063, 28174.015625, 31965.363281, 0.000, 0.000, 0.000,0.0,0.0,0.0,0.0,0.0, 12:21:05.216
33855.156250, 24772.371094, 69532.515625, 44587.324219, 64229.410156, 89370.671875, 27510.414063, 30813.867188, 0.000, 0.000, 0.000,0.0,0.0,0.0,0.0,0.0, 12:21:05.217
33560.449219, 24470.957031, 69554.851563, 44882.234375, 64429.058594, 89148.234375, 27642.960938, 31003.611328, 0.000, 0.000, 0.000,0.0,0.0,0.0,0.0,0.0, 12:21:05.217
33216.949219, 24119.408203, 70081.703125, 45468.609375, 64389.988281, 88799.429688, 28323.771484, 32182.533203, 0.112, 0.266, 0.934,0.0,0.0,0.0,0.0,0.0, 12:21:05.218
33471.378906, 24379.359375, 70125.710938, 45249.117188, 64188.664063, 88979.992188, 28287.382813, 32156.492188, 0.000, 0.000, 0.000,0.0,0.0,0.0,0.0,0.0, 12:21:05.219
33833.453125, 24747.404297, 69620.429688, 44639.917969, 64193.738281, 89330.664063, 27614.550781, 30988.412109, 0.000, 0.000, 0.000,0.0,0.0,0.0,0.0,0.0, 12:21:05.219
33629.828125, 24542.707031, 69522.843750, 44776.109375, 64386.140625, 89202.906250, 27574.363281, 30878.957031, 0.000, 0.000, 0.000,0.0,0.0,0.0,0.0,0.0, 12:21:05.220
33243.324219, 24146.410156, 70000.210938, 45387.628906, 64400.312500, 88838.882813, 28228.666016, 32021.912109, 0.000, 0.000, 0.000,4.8652723E-6,6.444654E-6,7.9218435E-6,2.4930923E-5,3.1693708E-5, 12:21:05.220
33383.312500, 24286.755859, 70178.257813, 45339.773438, 64205.519531, 88908.125000, 28369.705078, 32302.740234, 0.000, 0.000, 0.000,4.8652723E-6,6.444654E-6,7.9218435E-6,2.4930923E-5,3.1693708E-5, 12:21:05.221
33790.070313, 24703.818359, 69717.796875, 44719.378906, 64161.375000, 89290.140625, 27730.892578, 31193.781250, 0.000, 0.000, 0.000,4.8652723E-6,6.444654E-6,7.9218435E-6,2.4930923E-5,3.1693708E-5, 12:21:05.222
33698.917969, 24615.214844, 69484.484375, 44687.394531, 64346.804688, 89265.132813, 27506.257813, 30770.349609, 0.000, 0.000, 0.000,4.8652723E-6,6.444654E-6,7.9218435E-6,2.4930923E-5,3.1693708E-5, 12:21:05.222
33284.449219, 24196.968750, 69897.750000, 45295.832031, 64414.281250, 88889.843750, 28105.439453, 31811.001953, 0.000, 0.000, 0.000,4.8652723E-6,6.444654E-6,7.9218435E-6,2.4930923E-5,3.1693708E-5, 12:21:05.223
33331.500000, 24241.001953, 70161.992188, 45394.648438, 64239.089844, 88873.015625, 28394.314453, 32352.091797, 0.000, 0.000, 0.000,4.8652723E-6,6.444654E-6,7.9218435E-6,2.4930923E-5,3.1693708E-5, 12:21:05.223
33750.238281, 24667.250000, 69760.554688, 44786.390625, 64157.484375, 89243.781250, 27825.931641, 31371.833984, 0.122, 0.274, 0.938,4.8652723E-6,6.444654E-6,7.9218435E-6,2.4930923E-5,3.1693708E-5, 12:21:05.224
33756.898438, 24676.726563, 69424.335938, 44595.707031, 64318.371094, 89307.148438, 27453.148438, 30689.546875, 0.000, 0.000, 0.000,4.8652723E-6,6.444654E-6,7.9218435E-6,2.4930923E-5,3.1693708E-5, 12:21:05.225
33328.664063, 24240.689453, 69776.265625, 45174.437500, 64430.464844, 88936.046875, 27980.292969, 31585.494141, 0.000, 0.000, 0.000,4.8652723E-6,6.444654E-6,7.9218435E-6,2.4930923E-5,3.1693708E-5, 12:21:05.232
33273.519531, 24174.505859, 70157.585938, 45441.652344, 64283.703125, 88819.101563, 28421.740234, 32384.949219, 0.000, 0.000, 0.000,4.8652723E-6,6.444654E-6,7.9218435E-6,2.4930923E-5,3.1693708E-5, 12:21:05.232
33669.636719, 24575.943359, 69894.078125, 44914.914063, 64164.054688, 89150.289063, 27986.216797, 31633.439453, 0.000, 0.000, 0.000,4.8652723E-6,6.444654E-6,7.9218435E-6,2.4930923E-5,3.1693708E-5, 12:21:05.232
33810.007813, 24719.687500, 69481.085938, 44570.070313, 64289.089844, 89326.218750, 27476.304688, 30726.250000, 0.000, 0.000, 0.000,4.8652723E-6,6.444654E-6,7.9218435E-6,2.4930923E-5,3.1693708E-5, 12:21:05.233
33433.113281, 24333.873047, 69707.578125, 45056.019531, 64441.707031, 89013.117188, 27862.656250, 31381.199219, 0.000, 0.000, 0.000,4.8652723E-6,6.444654E-6,7.9218435E-6,2.4930923E-5,3.1693708E-5, 12:21:05.233
33268.359375, 24163.330078, 70144.843750, 45449.343750, 64334.175781, 88812.734375, 28407.949219, 32360.720703, 0.000, 0.000, 0.000,4.8652723E-6,6.444654E-6,7.9218435E-6,2.4930923E-5,3.1693708E-5, 12:21:05.233
33638.726563, 24547.892578, 69956.484375, 45001.300781, 64184.105469, 89115.710938, 28085.681641, 31826.222656, 0.000, 0.000, 0.000,4.8652723E-6,6.444654E-6,7.9218435E-6,2.4930923E-5,3.1693708E-5, 12:21:05.234
33857.437500, 24773.263672, 69485.804688, 44540.386719, 64265.375000, 89355.500000, 27485.960938, 30761.072266, 0.122, 0.278, 0.948,4.8652723E-6,6.444654E-6,7.9218435E-6,2.4930923E-5,3.1693708E-5, 12:21:05.234
33502.984375, 24405.644531, 69605.406250, 44917.484375, 64434.781250, 89076.835938, 27730.265625, 31153.279297, 0.000, 0.000, 0.000,4.8652723E-6,6.444654E-6,7.9218435E-6,2.4930923E-5,3.1693708E-5, 12:21:05.234
33219.699219, 24116.390625, 70113.773438, 45431.574219, 64355.742188, 88779.093750, 28369.302734, 32275.851563, 0.000, 0.000, 0.000,4.8652723E-6,6.444654E-6,7.9218435E-6,2.4930923E-5,3.1693708E-5, 12:21:05.235
33531.953125, 24443.285156, 70061.515625, 45106.937500, 64171.945313, 89018.453125, 28212.794922, 32034.318359, 0.000, 0.000, 0.000,4.8652723E-6,6.444654E-6,7.9218435E-6,2.4930923E-5,3.1693708E-5, 12:21:05.236
33855.875000, 24771.365234, 69546.671875, 44538.218750, 64214.324219, 89342.625000, 27545.259766, 30870.105469, 0.000, 0.000, 0.000,4.8652723E-6,6.444654E-6,7.9218435E-6,2.4930923E-5,3.1693708E-5, 12:21:05.236
33587.046875, 24493.509766, 69534.351563, 44780.019531, 64410.328125, 89146.195313, 27624.453125, 30967.537109, 0.000, 0.000, 0.000,4.8652723E-6,6.444654E-6,7.9218435E-6,2.4930923E-5,3.1693708E-5, 12:21:05.237
33229.441406, 24132.484375, 70037.828125, 45366.015625, 64386.253906, 88801.625000, 28290.781250, 32128.865234, 0.000, 0.000, 0.000,4.8652723E-6,6.444654E-6,7.9218435E-6,2.4930923E-5,3.1693708E-5, 12:21:05.237
33447.507813, 24353.900391, 70115.609375, 45197.257813, 64193.851563, 88946.375000, 28304.347656, 32190.914063, 0.000, 0.000, 0.000,4.8652723E-6,6.444654E-6,7.9218435E-6,2.4930923E-5,3.1693708E-5, 12:21:05.238
33826.925781, 24741.480469, 69625.593750, 44586.542969, 64182.851563, 89305.562500, 27641.195313, 31035.910156, 0.000, 0.000, 0.000,4.8652723E-6,6.444654E-6,7.9218435E-6,2.4930923E-5,3.1693708E-5, 12:21:05.238
33663.222656, 24572.433594, 69481.757813, 44672.664063, 64378.742188, 89211.421875, 27541.796875, 30824.082031, 0.000, 0.000, 0.000,4.8652723E-6,6.444654E-6,7.9218435E-6,2.4930923E-5,3.1693708E-5, 12:21:05.239
33264.199219, 24166.548828, 69943.234375, 45285.550781, 64408.492188, 88841.070313, 28183.759766, 31941.625000, 0.116, 0.278, 0.954,4.8652723E-6,6.444654E-6,7.9218435E-6,2.4930923E-5,3.1693708E-5, 12:21:05.239
33377.859375, 24285.818359, 70133.335938, 45274.195313, 64226.863281, 88892.750000, 28362.484375, 32291.429688, 0.000, 0.000, 0.000,4.8652723E-6,6.444654E-6,7.9218435E-6,2.4930923E-5,3.1693708E-5, 12:21:05.240
33788.906250, 24706.857422, 69687.015625, 44652.613281, 64176.167969, 89271.609375, 27741.107422, 31214.298828, 0.000, 0.000, 0.000,4.8652723E-6,6.444654E-6,7.9218435E-6,2.4930923E-5,3.1693708E-5, 12:21:05.240
33729.652344, 24639.869141, 69424.429688, 44581.625000, 64355.656250, 89271.765625, 27478.138672, 30715.072266, 0.000, 0.000, 0.000,4.8652723E-6,6.444654E-6,7.9218435E-6,2.4930923E-5,3.1693708E-5, 12:21:05.241
33315.789063, 24215.476563, 69833.640625, 45200.722656, 64440.011719, 88900.015625, 28073.656250, 31729.685547, 0.000, 0.000, 0.000,4.8652723E-6,6.444654E-6,7.9218435E-6,2.4930923E-5,3.1693708E-5, 12:21:05.241
33323.789063, 24229.580078, 70152.179688, 45371.492188, 64280.015625, 88855.085938, 28423.929688, 32366.041016, 0.000, 0.000, 0.000,4.8652723E-6,6.444654E-6,7.9218435E-6,2.4930923E-5,3.1693708E-5, 12:21:05.241
33761.660156, 24679.386719, 69771.859375, 44785.160156, 64185.757813, 89239.382813, 27876.781250, 31433.257813, 0.000, 0.000, 0.000,4.8652723E-6,6.444654E-6,7.9218435E-6,2.4930923E-5,3.1693708E-5, 12:21:05.242
33810.925781, 24729.320313, 69387.593750, 44552.367188, 64343.628906, 89339.492188, 27447.181641, 30663.240234, 0.000, 0.000, 0.000,4.8652723E-6,6.444654E-6,7.9218435E-6,2.4930923E-5,3.1693708E-5, 12:21:05.242
33388.945313, 24298.960938, 69699.289063, 45114.558594, 64460.507813, 88972.031250, 27932.236328, 31488.845703, 0.000, 0.000, 0.000,4.8652723E-6,6.444654E-6,7.9218435E-6,2.4930923E-5,3.1693708E-5, 12:21:05.243
33268.269531, 24173.656250, 70117.664063, 45435.843750, 64314.281250, 88803.164063, 28421.494141, 32362.955078, 0.000, 0.000, 0.000,4.8652723E-6,6.444654E-6,7.9218435E-6,2.4930923E-5,3.1693708E-5, 12:21:05.243
33665.210938, 24579.408203, 69875.460938, 44930.691406, 64167.742188, 89133.257813, 28016.123047, 31670.855469, 0.120, 0.274, 0.952,4.8652723E-6,6.444654E-6,7.9218435E-6,2.4930923E-5,3.1693708E-5, 12:21:05.244
33833.968750, 24754.578125, 69414.367188, 44544.164063, 64277.246094, 89337.304688, 27460.099609, 30689.458984, 0.000, 0.000, 0.000,4.8652723E-6,6.444654E-6,7.9218435E-6,2.4930923E-5,3.1693708E-5, 12:21:05.244
33441.605469, 24357.611328, 69618.437500, 45013.976563, 64445.375000, 89015.281250, 27817.371094, 31278.001953, 0.000, 0.000, 0.000,4.8652723E-6,6.444654E-6,7.9218435E-6,2.4930923E-5,3.1693708E-5, 12:21:05.244
33233.445313, 24141.291016, 70088.343750, 45451.511719, 64339.851563, 88775.742188, 28401.689453, 32315.033203, 0.000, 0.000, 0.000,4.8652723E-6,6.444654E-6,7.9218435E-6,2.4930923E-5,3.1693708E-5, 12:21:05.245
33592.906250, 24502.517578, 69949.468750, 45044.597656, 64176.191406, 89054.171875, 28133.312500, 31873.630859, 0.000, 0.000, 0.000,4.8652723E-6,6.444654E-6,7.9218435E-6,2.4930923E-5,3.1693708E-5, 12:21:05.246
33863.183594, 24782.361328, 69447.585938, 44546.445313, 64249.750000, 89340.523438, 27496.355469, 30761.654297, 0.000, 0.000, 0.000,4.8652723E-6,6.444654E-6,7.9218435E-6,2.4930923E-5,3.1693708E-5, 12:21:05.246
33527.882813, 24443.843750, 69516.406250, 44889.386719, 64435.136719, 89091.320313, 27687.060547, 31063.537109, 0.000, 0.000, 0.000,4.8652723E-6,6.444654E-6,7.9218435E-6,2.4930923E-5,3.1693708E-5, 12:21:05.247
33219.808594, 24122.626953, 70033.867188, 45436.824219, 64378.230469, 88771.000000, 28343.822266, 32212.863281, 0.000, 0.000, 0.000,4.8652723E-6,6.444654E-6,7.9218435E-6,2.4930923E-5,3.1693708E-5, 12:21:05.247
33504.660156, 24415.525391, 70021.734375, 45161.921875, 64190.789063, 88985.015625, 28235.326172, 32061.095703, 0.000, 0.000, 0.000,4.8652723E-6,6.444654E-6,7.9218435E-6,2.4930923E-5,3.1693708E-5, 12:21:05.248
33839.980469, 24766.804688, 69503.890625, 44578.675781, 64220.851563, 89324.296875, 27559.521484, 30888.925781, 0.122, 0.278, 0.952,4.8652723E-6,6.444654E-6,7.9218435E-6,2.4930923E-5,3.1693708E-5, 12:21:05.248
33598.136719, 24520.287109, 69453.062500, 44780.308594, 64421.167969, 89159.984375, 27585.001953, 30897.216797, 0.000, 0.000, 0.000,4.8652723E-6,6.444654E-6,7.9218435E-6,2.4930923E-5,3.1693708E-5, 12:21:05.249
33232.394531, 24140.285156, 69943.679688, 45380.500000, 64411.890625, 88809.375000, 28246.166016, 32052.333984, 0.000, 0.000, 0.000,4.8652723E-6,6.444654E-6,7.9218435E-6,2.4930923E-5,3.1693708E-5, 12:21:05.249
33416.460938, 24334.589844, 70054.609375, 45264.406250, 64218.281250, 88929.046875, 28310.539063, 32201.017578, 0.000, 0.000, 0.000,4.8652723E-6,6.444654E-6,7.9218435E-6,2.4930923E-5,3.1693708E-5, 12:21:05.250
33814.945313, 24738.373047, 69579.234375, 44654.066406, 64200.601563, 89297.406250, 27661.691406, 31068.296875, 0.000, 0.000, 0.000,4.8652723E-6,6.444654E-6,7.9218435E-6,2.4930923E-5,3.1693708E-5, 12:21:05.250
33698.828125, 24609.470703, 69393.445313, 44692.000000, 64397.429688, 89235.421875, 27509.318359, 30767.533203, 0.000, 0.000, 0.000,4.8652723E-6,6.444654E-6,7.9218435E-6,2.4930923E-5,3.1693708E-5, 12:21:05.250
33287.781250, 24184.720703, 69856.398438, 45319.859375, 64443.765625, 88851.023438, 28151.216797, 31876.089844, 0.000, 0.000, 0.000,4.8652723E-6,6.444654E-6,7.9218435E-6,2.4930923E-5,3.1693708E-5, 12:21:05.251
33384.320313, 24283.179688, 70089.726563, 45355.824219, 64253.617188, 88878.492188, 28381.931641, 32315.636719, 0.000, 0.000, 0.000,2.635104E-5,3.724807E-5,4.610231E-5,1.279695E-4,1.4013582E-4, 12:21:05.251
33808.175781, 24723.173828, 69637.703125, 44728.476563, 64185.421875, 89265.734375, 27763.636719, 31259.160156, 0.000, 0.000, 0.000,2.635104E-5,3.724807E-5,4.610231E-5,1.279695E-4,1.4013582E-4, 12:21:05.252
33767.851563, 24681.308594, 69335.421875, 44607.015625, 64361.042969, 89286.859375, 27446.175781, 30673.656250, 0.000, 0.000, 0.000,2.635104E-5,3.724807E-5,4.610231E-5,1.279695E-4,1.4013582E-4, 12:21:05.252
33324.460938, 24227.546875, 69741.351563, 45219.500000, 64457.355469, 88893.960938, 28028.796875, 31656.529297, 0.118, 0.282, 0.950,2.635104E-5,3.724807E-5,4.610231E-5,1.279695E-4,1.4013582E-4, 12:21:05.253
33306.109375, 24207.474609, 70094.796875, 45426.476563, 64282.699219, 88815.304688, 28420.152344, 32369.660156, 0.000, 0.000, 0.000,2.635104E-5,3.724807E-5,4.610231E-5,1.279695E-4,1.4013582E-4, 12:21:05.253
33734.726563, 24641.277344, 69760.617188, 44856.550781, 64166.828125, 89180.437500, 27911.695313, 31507.398438, 0.000, 0.000, 0.000,2.635104E-5,3.724807E-5,4.610231E-5,1.279695E-4,1.4013582E-4, 12:21:05.253
33823.843750, 24737.970703, 69355.804688, 44572.863281, 64313.566406, 89317.812500, 27439.939453, 30670.414063, 0.000, 0.000, 0.000,2.635104E-5,3.724807E-5,4.610231E-5,1.279695E-4,1.4013582E-4, 12:21:05.254
33401.261719, 24307.341797, 69655.875000, 45116.593750, 64452.148438, 88959.742188, 27901.748047, 31445.416016, 0.000, 0.000, 0.000,2.635104E-5,3.724807E-5,4.610231E-5,1.279695E-4,1.4013582E-4, 12:21:05.254
33258.410156, 24157.496094, 70104.945313, 45472.812500, 64315.847656, 88777.125000, 28427.283203, 32386.291016, 0.000, 0.000, 0.000,2.635104E-5,3.724807E-5,4.610231E-5,1.279695E-4,1.4013582E-4, 12:21:05.255
33657.054688, 24572.904297, 69868.242188, 44972.000000, 64163.898438, 89116.695313, 28040.753906, 31745.421875, 0.000, 0.000, 0.000,2.635104E-5,3.724807E-5,4.610231E-5,1.279695E-4,1.4013582E-4, 12:21:05.255
33839.242188, 24762.759766, 69393.179688, 44547.226563, 64276.039063, 89332.789063, 27459.474609, 30721.710938, 0.000, 0.000, 0.000,2.635104E-5,3.724807E-5,4.610231E-5,1.279695E-4,1.4013582E-4, 12:21:05.256
33474.730469, 24387.451172, 69555.921875, 44977.562500, 64453.285156, 89039.937500, 27769.404297, 31231.017578, 0.000, 0.000, 0.000,2.635104E-5,3.724807E-5,4.610231E-5,1.279695E-4,1.4013582E-4, 12:21:05.256
33235.230469, 24134.519531, 70036.976563, 45450.640625, 64369.000000, 88775.851563, 28377.863281, 32310.205078, 0.114, 0.282, 0.952,2.635104E-5,3.724807E-5,4.610231E-5,1.279695E-4,1.4013582E-4, 12:21:05.257
33557.121094, 24468.005859, 69930.492188, 45074.906250, 64188.554688, 89035.015625, 28154.613281, 31951.638672, 0.000, 0.000, 0.000,2.635104E-5,3.724807E-5,4.610231E-5,1.279695E-4,1.4013582E-4, 12:21:05.257
33833.542969, 24751.716797, 69435.265625, 44552.433594, 64246.199219, 89325.187500, 27518.037109, 30827.570313, 0.000, 0.000, 0.000,2.635104E-5,3.724807E-5,4.610231E-5,1.279695E-4,1.4013582E-4, 12:21:05.257
33555.062500, 24461.837891, 69472.523438, 44853.109375, 64433.976563, 89111.414063, 27667.369141, 31049.500000, 0.000, 0.000, 0.000,2.635104E-5,3.724807E-5,4.610231E-5,1.279695E-4,1.4013582E-4, 12:21:05.258
33254.992188, 24151.550781, 69950.070313, 45408.371094, 64403.890625, 88807.921875, 28316.484375, 32186.935547, 0.000, 0.000, 0.000,2.635104E-5,3.724807E-5,4.610231E-5,1.279695E-4,1.4013582E-4, 12:21:05.258
33506.246094, 24414.966797, 69960.484375, 45180.406250, 64220.359375, 88992.062500, 28262.013672, 32117.109375, 0.000, 0.000, 0.000,2.635104E-5,3.724807E-5,4.610231E-5,1.279695E-4,1.4013582E-4, 12:21:05.259
33863.851563, 24779.076172, 69441.617188, 44588.687500, 64235.828125, 89339.335938, 27595.373047, 30944.714844, 0.000, 0.000, 0.000,2.635104E-5,3.724807E-5,4.610231E-5,1.279695E-4,1.4013582E-4, 12:21:05.259
33645.992188, 24559.380859, 69345.304688, 44748.503906, 64431.964844, 89198.476563, 27576.218750, 30861.992188, 0.000, 0.000, 0.000,2.635104E-5,3.724807E-5,4.610231E-5,1.279695E-4,1.4013582E-4, 12:21:05.260
33253.292969, 24155.841797, 69839.382813, 45367.535156, 64434.421875, 88820.421875, 28248.000000, 32021.287109, 0.000, 0.000, 0.000,2.635104E-5,3.724807E-5,4.610231E-5,1.279695E-4,1.4013582E-4, 12:21:05.260
33421.781250, 24322.384766, 70000.093750, 45298.511719, 64229.902344, 88906.164063, 28370.017578, 32268.654297, 0.000, 0.000, 0.000,2.635104E-5,3.724807E-5,4.610231E-5,1.279695E-4,1.4013582E-4, 12:21:05.260
33828.023438, 24740.273438, 69523.648438, 44667.433594, 64187.414063, 89279.703125, 27716.787109, 31146.126953, 0.116, 0.286, 0.958,2.635104E-5,3.724807E-5,4.610231E-5,1.279695E-4,1.4013582E-4, 12:21:05.261
33730.480469, 24635.957031, 69278.265625, 44636.074219, 64371.433594, 89247.140625, 27488.957031, 30737.044922, 0.000, 0.000, 0.000,2.635104E-5,3.724807E-5,4.610231E-5,1.279695E-4,1.4013582E-4, 12:21:05.261
33312.433594, 24200.613281, 69708.179688, 45254.882813, 64441.375000, 88856.492188, 28103.628906, 31801.210938, 0.000, 0.000, 0.000,2.635104E-5,3.724807E-5,4.610231E-5,1.279695E-4,1.4013582E-4, 12:21:05.262
33356.089844, 24252.177734, 69989.140625, 45352.648438, 64262.871094, 88836.914063, 28391.408203, 32336.982422, 0.000, 0.000, 0.000,2.635104E-5,3.724807E-5,4.610231E-5,1.279695E-4,1.4013582E-4, 12:21:05.262
33769.058594, 24675.878906, 69592.804688, 44744.925781, 64171.902344, 89207.867188, 27814.017578, 31349.593750, 0.000, 0.000, 0.000,2.635104E-5,3.724807E-5,4.610231E-5,1.279695E-4,1.4013582E-4, 12:21:05.262
33786.718750, 24696.240234, 69243.507813, 44564.347656, 64338.242188, 89287.171875, 27434.664063, 30674.392578, 0.000, 0.000, 0.000,2.635104E-5,3.724807E-5,4.610231E-5,1.279695E-4,1.4013582E-4, 12:21:05.263
33357.855469, 24259.287109, 69589.046875, 45173.410156, 64454.984375, 88919.039063, 27965.138672, 31581.470703, 0.000, 0.000, 0.000,2.635104E-5,3.724807E-5,4.610231E-5,1.279695E-4,1.4013582E-4, 12:21:05.263
33276.203125, 24182.373047, 69975.148438, 45465.996094, 64295.437500, 88799.742188, 28408.820313, 32375.271484, 0.000, 0.000, 0.000,2.635104E-5,3.724807E-5,4.610231E-5,1.279695E-4,1.4013582E-4, 12:21:05.264
33689.308594, 24606.632813, 69670.320313, 44939.855469, 64163.585938, 89160.750000, 27942.763672, 31579.861328, 0.000, 0.000, 0.000,0.0,0.0,0.0,0.0,0.0, 12:21:05.669
33811.796875, 24725.365234, 69249.210938, 44630.417969, 64293.316406, 89321.632813, 27444.923828, 30687.714844, 0.000, 0.000, 0.000,0.0,0.0,0.0,0.0,0.0, 12:21:05.670
33429.425781, 24320.753906, 69494.898438, 45151.101563, 64442.511719, 88990.250000, 27857.380859, 31376.193359, 0.122, 0.278, 0.952,0.0,0.0,0.0,0.0,0.0, 12:21:05.670
33263.550781, 24151.214844, 69942.875000, 45554.597656, 64330.488281, 88788.140625, 28410.787109, 32353.970703, 0.000, 0.000, 0.000,0.0,0.0,0.0,0.0,0.0, 12:21:05.670
33632.804688, 24537.162109, 69760.195313, 45111.003906, 64171.343750, 89092.507813, 28088.207031, 31806.441406, 0.000, 0.000, 0.000,0.0,0.0,0.0,0.0,0.0, 12:21:05.671
33864.566406, 24778.740234, 69261.367188, 44658.136719, 64257.820313, 89348.570313, 27476.640625, 30729.826172, 0.000, 0.000, 0.000,0.0,0.0,0.0,0.0,0.0, 12:21:05.671
33518.585938, 24419.615234, 69385.062500, 45062.277344, 64436.187500, 89065.507813, 27738.156250, 31148.361328, 0.000, 0.000, 0.000,0.0,0.0,0.0,0.0,0.0, 12:21:05.671
33253.941406, 24151.751953, 69870.101563, 45568.632813, 64365.511719, 88785.796875, 28360.451172, 32249.765625, 0.000, 0.000, 0.000,0.0,0.0,0.0,0.0,0.0, 12:21:05.672
33548.937500, 24456.628906, 69823.179688, 45249.519531, 64188.464844, 89008.843750, 28196.544922, 31990.933594, 0.000, 0.000, 0.000,0.0,0.0,0.0,0.0,0.0, 12:21:05.672
33875.566406, 24785.423828, 69308.289063, 44693.695313, 64223.914063, 89330.085938, 27529.525391, 30830.251953, 0.000, 0.000, 0.000,0.0,0.0,0.0,0.0,0.0, 12:21:05.673
33588.054688, 24490.158203, 69312.000000, 44954.230469, 64422.531250, 89113.007813, 27630.041016, 30961.501953, 0.000, 0.000, 0.000,0.0,0.0,0.0,0.0,0.0, 12:21:05.673
33256.242188, 24148.019531, 69816.992188, 45534.210938, 64397.699219, 88776.921875, 28294.937500, 32123.144531, 0.116, 0.280, 0.950,0.0,0.0,0.0,0.0,0.0, 12:21:05.673
33484.296875, 24385.349609, 69879.421875, 45357.187500, 64212.132813, 88931.281250, 28289.796875, 32151.507813, 0.000, 0.000, 0.000,0.0,0.0,0.0,0.0,0.0, 12:21:05.674
33861.371094, 24782.250000, 69359.718750, 44743.742188, 64207.773438, 89303.218750, 27606.996094, 30974.734375, 0.000, 0.000, 0.000,0.0,0.0,0.0,0.0,0.0, 12:21:05.674
33679.652344, 24587.185547, 69220.445313, 44848.414063, 64405.656250, 89189.109375, 27522.193359, 30793.236328, 0.000, 0.000, 0.000,0.0,0.0,0.0,0.0,0.0, 12:21:05.675
33281.546875, 24172.986328, 69697.632813, 45469.167969, 64419.847656, 88807.992188, 28173.478516, 31924.816406, 0.000, 0.000, 0.000,0.0,0.0,0.0,0.0,0.0, 12:21:05.675
33392.765625, 24284.052734, 69900.359375, 45449.765625, 64218.882813, 88856.718750, 28347.687500, 32258.505859, 0.000, 0.000, 0.000,0.0,0.0,0.0,0.0,0.0, 12:21:05.675
33804.890625, 24714.345703, 69448.296875, 44824.566406, 64161.128906, 89247.960938, 27717.882813, 31166.511719, 0.000, 0.000, 0.000,0.0,0.0,0.0,0.0,0.0, 12:21:05.676
33728.265625, 24635.599609, 69195.945313, 44766.789063, 64345.015625, 89239.671875, 27466.806641, 30692.185547, 0.000, 0.000, 0.000,0.0,0.0,0.0,0.0,0.0, 12:21:05.676
33314.648438, 24204.949219, 69610.210938, 45375.671875, 64413.792969, 88862.601563, 28062.703125, 31718.419922, 0.000, 0.000, 0.000,0.0,0.0,0.0,0.0,0.0, 12:21:05.676
33329.199219, 24223.300781, 69907.109375, 45517.000000, 64244.253906, 88821.515625, 28390.000000, 32322.320313, 0.000, 0.000, 0.000,0.0,0.0,0.0,0.0,0.0, 12:21:05.677
33754.976563, 24661.595703, 69522.101563, 44924.410156, 64146.062500, 89197.359375, 27835.095703, 31373.734375, 0.112, 0.282, 0.948,0.0,0.0,0.0,0.0,0.0, 12:21:05.677
33793.152344, 24703.416016, 69159.132813, 44706.484375, 64299.195313, 89285.851563, 27422.974609, 30632.640625, 0.000, 0.000, 0.000,0.0,0.0,0.0,0.0,0.0, 12:21:05.677
33379.558594, 24277.748047, 69490.500000, 45275.871094, 64417.769531, 88924.132813, 27926.134766, 31487.662109, 0.000, 0.000, 0.000,0.0,0.0,0.0,0.0,0.0, 12:21:05.678
33282.238281, 24179.355469, 69895.804688, 45578.023438, 64277.894531, 88782.507813, 28399.589844, 32339.261719, 0.000, 0.000, 0.000,0.0,0.0,0.0,0.0,0.0, 12:21:05.678
33679.742188, 24588.794922, 69634.421875, 45058.410156, 64139.625000, 89117.679688, 27970.949219, 31617.726563, 0.000, 0.000, 0.000,0.0,0.0,0.0,0.0,0.0, 12:21:05.678
33829.656250, 24742.798828, 69202.203125, 44695.640625, 64261.261719, 89301.046875, 27437.345703, 30672.671875, 0.000, 0.000, 0.000,0.0,0.0,0.0,0.0,0.0, 12:21:05.679
33457.320313, 24356.539063, 69433.656250, 45177.433594, 64425.906250, 88989.195313, 27815.158203, 31299.125000, 0.000, 0.000, 0.000,0.0,0.0,0.0,0.0,0.0, 12:21:05.679
33278.484375, 24169.878906, 69888.984375, 45598.339844, 64322.171875, 88774.734375, 28381.373047, 32315.816406, 0.000, 0.000, 0.000,0.0,0.0,0.0,0.0,0.0, 12:21:05.679
33640.558594, 24540.626953, 69730.468750, 45183.265625, 64162.781250, 89062.734375, 28091.201172, 31844.439453, 0.000, 0.000, 0.000,0.0,0.0,0.0,0.0,0.0, 12:21:05.680
33870.109375, 24777.667969, 69241.140625, 44697.117188, 64238.195313, 89315.867188, 27469.220703, 30752.109375, 0.118, 0.280, 0.952,0.0,0.0,0.0,0.0,0.0, 12:21:05.680
33545.718750, 24440.267578, 69333.726563, 45051.324219, 64418.484375, 89058.507813, 27681.605469, 31092.214844, 0.000, 0.000, 0.000,0.0,0.0,0.0,0.0,0.0, 12:21:05.681
33271.890625, 24149.851563, 69817.640625, 45570.554688, 64360.058594, 88765.835938, 28312.349609, 32213.355469, 0.000, 0.000, 0.000,0.0,0.0,0.0,0.0,0.0, 12:21:05.681
33550.101563, 24433.607422, 69801.117188, 45288.207031, 64177.265625, 88962.625000, 28194.175781, 32039.726563, 0.000, 0.000, 0.000,0.0,0.0,0.0,0.0,0.0, 12:21:05.682
33881.289063, 24777.712891, 69298.585938, 44715.468750, 64199.953125, 89288.710938, 27527.333984, 30877.994141, 0.000, 0.000, 0.000,0.0,0.0,0.0,0.0,0.0, 12:21:05.682
33634.636719, 24531.732422, 69244.875000, 44920.878906, 64396.132813, 89124.492188, 27559.521484, 30902.984375, 0.000, 0.000, 0.000,0.0,0.0,0.0,0.0,0.0, 12:21:05.682
33255.683594, 24146.365234, 69768.109375, 45528.132813, 64385.113281, 88753.789063, 28243.261719, 32082.173828, 0.000, 0.000, 0.000,0.0,0.0,0.0,0.0,0.0, 12:21:05.683
33456.851563, 24350.392578, 69892.406250, 45396.054688, 64189.335938, 88883.273438, 28305.734375, 32216.349609, 0.000, 0.000, 0.000,0.0,0.0,0.0,0.0,0.0, 12:21:05.683
33853.144531, 24757.953125, 69398.296875, 44773.941406, 64173.734375, 89267.429688, 27639.048828, 31059.894531, 0.000, 0.000, 0.000,0.0,0.0,0.0,0.0,0.0, 12:21:05.683
33708.039063, 24612.109375, 69217.406250, 44826.175781, 64368.683594, 89193.250000, 27498.142578, 30782.507813, 0.000, 0.000, 0.000,0.0,0.0,0.0,0.0,0.0, 12:21:05.684
33315.074219, 24207.585938, 69667.523438, 45443.753906, 64412.046875, 88825.468750, 28134.519531, 31884.628906, 0.122, 0.280, 0.950,0.0,0.0,0.0,0.0,0.0, 12:21:05.684
33398.511719, 24290.109375, 69914.195313, 45480.546875, 64231.265625, 88837.898438, 28366.978516, 32311.724609, 0.000, 0.000, 0.000,0.0,0.0,0.0,0.0,0.0, 12:21:05.684
33816.222656, 24718.882813, 69486.500000, 44858.093750, 64152.031250, 89217.742188, 27756.193359, 31260.076172, 0.000, 0.000, 0.000,0.0,0.0,0.0,0.0,0.0, 12:21:05.685
33773.285156, 24673.732422, 69196.351563, 44748.347656, 64325.210938, 89237.773438, 27451.025391, 30698.667969, 0.000, 0.000, 0.000,0.0,0.0,0.0,0.0,0.0, 12:21:05.685
33348.242188, 24235.972656, 69596.890625, 45352.695313, 64411.265625, 88861.054688, 28027.611328, 31681.919922, 0.000, 0.000, 0.000,0.0,0.0,0.0,0.0,0.0, 12:21:05.685
33342.878906, 24237.761719, 69915.000000, 45530.300781, 64244.296875, 88807.765625, 28388.816406, 32348.046875, 0.000, 0.000, 0.000,0.0,0.0,0.0,0.0,0.0, 12:21:05.686
33751.578125, 24660.500000, 69567.546875, 44953.089844, 64140.140625, 89167.695313, 27873.027344, 31457.822266, 0.000, 0.000, 0.000,0.0,0.0,0.0,0.0,0.0, 12:21:05.686
33811.839844, 24727.242188, 69192.351563, 44688.644531, 64283.503906, 89277.242188, 27431.132813, 30657.740234, 0.000, 0.000, 0.000,0.0,0.0,0.0,0.0,0.0, 12:21:05.687
33405.464844, 24304.972656, 69495.125000, 45228.976563, 64415.355469, 88925.164063, 27899.087891, 31448.367188, 0.000, 0.000, 0.000,0.0,0.0,0.0,0.0,0.0, 12:21:05.688
33276.316406, 24168.962891, 69941.710938, 45570.378906, 64282.050781, 88750.992188, 28418.767578, 32369.548828, 0.120, 0.284, 0.952,0.0,0.0,0.0,0.0,0.0, 12:21:05.689
33683.519531, 24588.951172, 69694.460938, 45060.222656, 64132.562500, 89095.546875, 28016.279297, 31699.109375, 0.000, 0.000, 0.000,0.0,0.0,0.0,0.0,0.0, 12:21:05.689
33853.214844, 24765.261719, 69236.335938, 44658.582031, 64251.964844, 89300.625000, 27451.875000, 30695.650391, 0.000, 0.000, 0.000,0.0,0.0,0.0,0.0,0.0, 12:21:05.689
33493.773438, 24387.742188, 69431.937500, 45110.691406, 64416.406250, 88999.031250, 27785.498047, 31239.087891, 0.000, 0.000, 0.000,0.0,0.0,0.0,0.0,0.0, 12:21:05.690
33276.539063, 24163.843750, 69903.203125, 45571.449219, 64327.738281, 88757.570313, 28379.248047, 32295.720703, 0.000, 0.000, 0.000,0.0,0.0,0.0,0.0,0.0, 12:21:05.690
33616.484375, 24517.650391, 69768.601563, 45179.402344, 64154.847656, 89028.914063, 28125.175781, 31892.585938, 0.000, 0.000, 0.000,0.0,0.0,0.0,0.0,0.0, 12:21:05.690
33898.253906, 24798.722656, 69243.398438, 44656.816406, 64224.093750, 89317.546875, 27471.767578, 30749.607422, 0.000, 0.000, 0.000,0.0,0.0,0.0,0.0,0.0, 12:21:05.691
33579.335938, 24465.927734, 69305.335938, 44985.074219, 64412.941406, 89068.234375, 27648.705078, 31010.339844, 0.000, 0.000, 0.000,0.0,0.0,0.0,0.0,0.0, 12:21:05.691
33261.898438, 24142.855469, 69830.828125, 45547.398438, 64361.175781, 88741.320313, 28320.441406, 32175.201172, 0.000, 0.000, 0.000,0.0,0.0,0.0,0.0,0.0, 12:21:05.691
33524.261719, 24421.515625, 69858.296875, 45307.789063, 64172.929688, 88933.656250, 28257.857422, 32090.779297, 0.000, 0.000, 0.000,0.0,0.0,0.0,0.0,0.0, 12:21:05.692
33886.851563, 24786.609375, 69348.453125, 44713.835938, 64184.238281, 89283.929688, 27585.203125, 30917.087891, 0.120, 0.278, 0.946,0.0,0.0,0.0,0.0,0.0, 12:21:05.692
33676.187500, 24570.333984, 69261.390625, 44881.273438, 64384.332031, 89145.148438, 27568.328125, 30853.832031, 0.000, 0.000, 0.000,0.0,0.0,0.0,0.0,0.0, 12:21:05.692
33299.539063, 24183.558594, 69753.132813, 45494.761719, 64394.726563, 88786.421875, 28229.671875, 32007.562500, 0.000, 0.000, 0.000,0.0,0.0,0.0,0.0,0.0, 12:21:05.693
33458.816406, 24346.033203, 69912.945313, 45415.054688, 64208.066406, 88876.945313, 28342.144531, 32233.001953, 0.000, 0.000, 0.000,0.0,0.0,0.0,0.0,0.0, 12:21:05.693
33861.750000, 24764.480469, 69439.312500, 44786.570313, 64172.101563, 89255.117188, 27687.955078, 31104.507813, 0.000, 0.000, 0.000,0.0,0.0,0.0,0.0,0.0, 12:21:05.693
33746.617188, 24653.771484, 69218.656250, 44789.453125, 64364.796875, 89215.171875, 27490.767578, 30735.257813, 0.000, 0.000, 0.000,0.0,0.0,0.0,0.0,0.0, 12:21:05.694
33315.609375, 24217.912109, 69679.953125, 45424.554688, 64429.414063, 88827.531250, 28127.880859, 31828.861328, 0.000, 0.000, 0.000,0.0,0.0,0.0,0.0,0.0, 12:21:05.694
33363.105469, 24261.789063, 69970.257813, 45508.195313, 64244.187500, 88809.265625, 28409.267578, 32346.593750, 0.000, 0.000, 0.000,0.0,0.0,0.0,0.0,0.0, 12:21:05.694
33791.722656, 24698.296875, 69567.585938, 44889.500000, 64148.542969, 89188.281250, 27823.382813, 31339.402344, 0.000, 0.000, 0.000,0.0,0.0,0.0,0.0,0.0, 12:21:05.695
33799.011719, 24703.951172, 69235.109375, 44720.183594, 64314.996094, 89253.507813, 27465.287109, 30691.738281, 0.000, 0.000, 0.000,0.0,0.0,0.0,0.0,0.0, 12:21:05.695
33372.250000, 24272.228516, 69600.468750, 45305.085938, 64421.437500, 88885.304688, 28009.259766, 31619.916016, 0.120, 0.278, 0.948,0.0,0.0,0.0,0.0,0.0, 12:21:05.695
33330.718750, 24231.882813, 69943.437500, 45525.562500, 64263.363281, 88793.820313, 28410.496094, 32357.009766, 0.000, 0.000, 0.000,0.0,0.0,0.0,0.0,0.0, 12:21:05.696
33723.730469, 24634.839844, 69650.445313, 44981.542969, 64144.296875, 89125.945313, 27946.027344, 31553.822266, 0.000, 0.000, 0.000,0.0,0.0,0.0,0.0,0.0, 12:21:05.696
33818.882813, 24734.058594, 69255.828125, 44676.105469, 64268.347656, 89264.664063, 27466.716797, 30691.089844, 0.000, 0.000, 0.000,0.0,0.0,0.0,0.0,0.0, 12:21:05.696
33429.289063, 24331.236328, 69519.218750, 45187.781250, 64412.359375, 88930.953125, 27891.890625, 31403.148438, 0.000, 0.000, 0.000,0.0,0.0,0.0,0.0,0.0, 12:21:05.697
33287.246094, 24179.601563, 69953.335938, 45562.578125, 64299.929688, 88750.343750, 28423.751953, 32353.097656, 0.000, 0.000, 0.000,0.0,0.0,0.0,0.0,0.0, 12:21:05.697
33669.257813, 24571.628906, 69755.343750, 45102.824219, 64149.078125, 89062.828125, 28079.019531, 31776.445313, 0.000, 0.000, 0.000,0.0,0.0,0.0,0.0,0.0, 12:21:05.697
33882.136719, 24788.576172, 69272.773438, 44660.125000, 64243.851563, 89297.359375, 27479.546875, 30721.935547, 0.000, 0.000, 0.000,0.0,0.0,0.0,0.0,0.0, 12:21:05.698
33534.296875, 24430.656250, 69416.398438, 45075.218750, 64422.464844, 89018.906250, 27755.300781, 31171.718750, 0.000, 0.000, 0.000,0.0,0.0,0.0,0.0,0.0, 12:21:05.698
33278.082031, 24171.755859, 69911.226563, 45576.570313, 64348.011719, 88749.093750, 28378.845703, 32272.476563, 0.114, 0.282, 0.950,0.0,0.0,0.0,0.0,0.0, 12:21:05.698
33590.222656, 24497.824219, 69836.773438, 45233.023438, 64167.386719, 88993.515625, 28189.146484, 31975.085938, 0.000, 0.000, 0.000,0.0,0.0,0.0,0.0,0.0, 12:21:05.699
33893.601563, 24805.093750, 69331.507813, 44692.781250, 64215.195313, 89297.828125, 27536.990234, 30832.039063, 0.000, 0.000, 0.000,0.0,0.0,0.0,0.0,0.0, 12:21:05.699
33610.785156, 24508.171875, 69353.882813, 44970.636719, 64407.933594, 89079.835938, 27655.656250, 30999.320313, 0.000, 0.000, 0.000,0.0,0.0,0.0,0.0,0.0, 12:21:05.699
33284.585938, 24173.835938, 69860.914063, 45541.386719, 64371.097656, 88752.937500, 28314.832031, 32158.929688, 0.000, 0.000, 0.000,0.0,0.0,0.0,0.0,0.0, 12:21:05.699
33517.601563, 24421.828125, 69908.585938, 45343.730469, 64187.101563, 88919.281250, 28286.601563, 32153.720703, 0.000, 0.000, 0.000,0.0,0.0,0.0,0.0,0.0, 12:21:05.700
33884.574219, 24801.046875, 69406.656250, 44741.218750, 64183.589844, 89275.523438, 27611.757813, 30988.546875, 0.000, 0.000, 0.000,0.0,0.0,0.0,0.0,0.0, 12:21:05.700
33693.152344, 24605.179688, 69272.968750, 44857.378906, 64373.648438, 89161.953125, 27532.789063, 30829.402344, 0.000, 0.000, 0.000,0.0,0.0,0.0,0.0,0.0, 12:21:05.701
33294.015625, 24198.914063, 69747.992188, 45473.886719, 64390.300781, 88792.773438, 28178.955078, 31964.111328, 0.000, 0.000, 0.000,0.0,0.0,0.0,0.0,0.0, 12:21:05.701
33420.664063, 24321.558594, 69950.273438, 45449.187500, 64197.695313, 88840.179688, 28342.054688, 32279.740234, 0.000, 0.000, 0.000,0.0,0.0,0.0,0.0,0.0, 12:21:05.701
33843.847656, 24755.607422, 69496.156250, 44823.003906, 64139.535156, 89226.062500, 27705.857422, 31181.398438, 0.122, 0.282, 0.952,0.0,0.0,0.0,0.0,0.0, 12:21:05.702
33767.917969, 24678.515625, 69239.890625, 44771.750000, 64327.468750, 89213.859375, 27458.804688, 30722.113281, 0.000, 0.000, 0.000,0.0,0.0,0.0,0.0,0.0, 12:21:05.702
33350.054688, 24250.523438, 69669.382813, 45392.949219, 64404.468750, 88831.710938, 28065.654297, 31762.363281, 0.000, 0.000, 0.000,0.0,0.0,0.0,0.0,0.0, 12:21:05.702
33375.890625, 24284.208984, 69979.781250, 45527.976563, 64240.050781, 88802.625000, 28389.642578, 32348.917969, 0.000, 0.000, 0.000,0.0,0.0,0.0,0.0,0.0, 12:21:05.703
33795.992188, 24715.865234, 69602.570313, 44930.269531, 64146.062500, 89178.851563, 27833.083984, 31388.621094, 0.000, 0.000, 0.000,0.0,0.0,0.0,0.0,0.0, 12:21:05.703
33834.011719, 24748.341797, 69249.367188, 44723.738281, 64309.675781, 89268.726563, 27435.132813, 30670.570313, 0.000, 0.000, 0.000,0.0,0.0,0.0,0.0,0.0, 12:21:05.703
33418.406250, 24320.306641, 69594.882813, 45299.339844, 64432.945313, 88905.828125, 27950.675781, 31549.195313, 0.000, 0.000, 0.000,0.0,0.0,0.0,0.0,0.0, 12:21:05.704
33343.480469, 24235.951172, 69988.023438, 45580.367188, 64288.800781, 88775.781250, 28407.591797, 32375.808594, 0.000, 0.000, 0.000,0.0,0.0,0.0,0.0,0.0, 12:21:05.704
33738.281250, 24642.707031, 69718.460938, 45055.238281, 64155.316406, 89106.906250, 27973.900391, 31633.013672, 0.000, 0.000, 0.000,0.0,0.0,0.0,0.0,0.0, 12:21:05.704
33887.500000, 24802.031250, 69271.007813, 44697.140625, 64274.652344, 89299.281250, 27440.542969, 30687.849609, 0.122, 0.276, 0.950,0.0,0.0,0.0,0.0,0.0, 12:21:05.705
33497.351563, 24400.416016, 69484.578125, 45181.457031, 64437.640625, 88979.476563, 27816.029297, 31318.056641, 0.000, 0.000, 0.000,0.0,0.0,0.0,0.0,0.0, 12:21:05.705
33303.406250, 24190.464844, 69962.789063, 45604.753906, 64333.546875, 88747.773438, 28399.611328, 32340.492188, 0.000, 0.000, 0.000,0.0,0.0,0.0,0.0,0.0, 12:21:05.706
33675.515625, 24570.132813, 69800.781250, 45170.640625, 64165.976563, 89045.750000, 28103.048828, 31841.824219, 0.000, 0.000, 0.000,0.0,0.0,0.0,0.0,0.0, 12:21:05.707
33908.468750, 24811.462891, 69305.648438, 44693.855469, 64244.812500, 89304.734375, 27485.179688, 30750.232422, 0.000, 0.000, 0.000,0.0,0.0,0.0,0.0,0.0, 12:21:05.708
33567.445313, 24459.066406, 69407.953125, 45060.914063, 64426.687500, 89039.265625, 27718.621094, 31116.332031, 0.000, 0.000, 0.000,0.0,0.0,0.0,0.0,0.0, 12:21:05.708
33286.441406, 24167.375000, 69903.984375, 45578.960938, 64366.292969, 88751.757813, 28358.574219, 32238.300781, 0.000, 0.000, 0.000,0.0,0.0,0.0,0.0,0.0, 12:21:05.708
33561.968750, 24456.875000, 69884.093750, 45287.000000, 64188.710938, 88964.632813, 28233.134766, 32038.630859, 0.000, 0.000, 0.000,0.0,0.0,0.0,0.0,0.0, 12:21:05.709
33883.210938, 24790.185547, 69386.140625, 44717.925781, 64206.253906, 89275.500000, 27568.126953, 30877.525391, 0.000, 0.000, 0.000,0.0,0.0,0.0,0.0,0.0, 12:21:05.709
33632.804688, 24531.574219, 69352.500000, 44937.980469, 64392.824219, 89091.812500, 27618.060547, 30933.160156, 0.000, 0.000, 0.000,0.0,0.0,0.0,0.0,0.0, 12:21:05.709
33274.281250, 24167.621094, 69858.835938, 45530.257813, 64378.183594, 88743.867188, 28283.806641, 32097.373047, 0.118, 0.270, 0.952,0.0,0.0,0.0,0.0,0.0, 12:21:05.710
33475.625000, 24379.917969, 69948.890625, 45373.234375, 64189.132813, 88879.851563, 28309.265625, 32183.738281, 0.000, 0.000, 0.000,0.0,0.0,0.0,0.0,0.0, 12:21:05.710
33845.390625, 24762.960938, 69470.132813, 44760.441406, 64176.929688, 89236.898438, 27652.705078, 31036.759766, 0.000, 0.000, 0.000,0.0,0.0,0.0,0.0,0.0, 12:21:05.710
33685.574219, 24604.240234, 69313.671875, 44823.425781, 64366.046875, 89149.687500, 27533.927734, 30792.031250, 0.000, 0.000, 0.000,0.0,0.0,0.0,0.0,0.0, 12:21:05.711
33278.886719, 24189.548828, 69781.406250, 45435.417969, 64395.148438, 88772.187500, 28174.238281, 31907.203125, 0.000, 0.000, 0.000,0.0,0.0,0.0,0.0,0.0, 12:21:05.711
33375.980469, 24294.132813, 69999.851563, 45440.269531, 64204.042969, 88810.250000, 28376.902344, 32293.777344, 0.000, 0.000, 0.000,0.0,0.0,0.0,0.0,0.0, 12:21:05.711
33793.914063, 24725.542969, 69545.906250, 44811.648438, 64138.953125, 89195.054688, 27748.908203, 31216.310547, 0.000, 0.000, 0.000,0.0,0.0,0.0,0.0,0.0, 12:21:05.712
33730.367188, 24661.058594, 69282.898438, 44722.621094, 64318.082031, 89192.820313, 27471.388672, 30695.248047, 0.000, 0.000, 0.000,0.0,0.0,0.0,0.0,0.0, 12:21:05.712
33321.128906, 24238.701172, 69673.914063, 45321.421875, 64405.609375, 88830.296875, 28045.269531, 31682.412109, 0.000, 0.000, 0.000,0.0,0.0,0.0,0.0,0.0, 12:21:05.712
33319.789063, 24236.755859, 69991.515625, 45489.910156, 64233.972656, 88767.890625, 28398.158203, 32333.451172, 0.000, 0.000, 0.000,0.0,0.0,0.0,0.0,0.0, 12:21:05.713
33733.855469, 24663.964844, 69634.554688, 44906.417969, 64124.804688, 89126.773438, 27869.808594, 31430.015625, 0.114, 0.280, 0.948,0.0,0.0,0.0,0.0,0.0, 12:21:05.713
33797.378906, 24732.451172, 69242.171875, 44651.832031, 64273.085938, 89242.484375, 27424.001953, 30635.457031, 0.000, 0.000, 0.000,0.0,0.0,0.0,0.0,0.0, 12:21:05.713
33377.457031, 24304.816406, 69541.546875, 45202.019531, 64408.226563, 88887.007813, 27900.273438, 31440.119141, 0.000, 0.000, 0.000,0.0,0.0,0.0,0.0,0.0, 12:21:05.714
33256.308594, 24173.791016, 69965.000000, 45529.472656, 64271.859375, 88720.375000, 28402.382813, 32335.619141, 0.000, 0.000, 0.000,0.0,0.0,0.0,0.0,0.0, 12:21:06.149
33657.636719, 24580.189453, 69721.148438, 45018.355469, 64123.332031, 89052.656250, 28000.365234, 31661.445313, 0.000, 0.000, 0.000,0.0,0.0,0.0,0.0,0.0, 12:21:06.149
33829.566406, 24756.210938, 69266.375000, 44628.519531, 64233.210938, 89261.171875, 27442.933594, 30677.589844, 0.000, 0.000, 0.000,0.0,0.0,0.0,0.0,0.0, 12:21:06.149
33460.113281, 24376.789063, 69446.687500, 45085.410156, 64401.476563, 88963.937500, 27773.583984, 31232.337891, 0.000, 0.000, 0.000,0.0,0.0,0.0,0.0,0.0, 12:21:06.149
33224.390625, 24138.900391, 69941.375000, 45548.027344, 64310.234375, 88705.195313, 28378.287109, 32300.929688, 0.000, 0.000, 0.000,0.0,0.0,0.0,0.0,0.0, 12:21:06.150
33577.593750, 24502.763672, 69813.968750, 45147.796875, 64135.667969, 88988.640625, 28124.103516, 31889.210938, 0.000, 0.000, 0.000,0.0,0.0,0.0,0.0,0.0, 12:21:06.150
33847.109375, 24784.417969, 69301.890625, 44641.707031, 64209.429688, 89276.929688, 27483.681641, 30764.873047, 0.124, 0.280, 0.946,0.0,0.0,0.0,0.0,0.0, 12:21:06.150
33528.218750, 24451.488281, 69374.250000, 44978.347656, 64397.050781, 89025.367188, 27673.716797, 31051.980469, 0.000, 0.000, 0.000,0.0,0.0,0.0,0.0,0.0, 12:21:06.150
33235.613281, 24144.912109, 69865.226563, 45518.187500, 64342.824219, 88719.304688, 28318.363281, 32186.890625, 0.000, 0.000, 0.000,0.0,0.0,0.0,0.0,0.0, 12:21:06.151
33508.324219, 24426.767578, 69854.179688, 45256.558594, 64159.519531, 88921.984375, 28224.910156, 32061.140625, 0.000, 0.000, 0.000,0.0,0.0,0.0,0.0,0.0, 12:21:06.151
33851.468750, 24783.859375, 69330.101563, 44667.078125, 64178.582031, 89266.695313, 27549.039063, 30886.175781, 0.000, 0.000, 0.000,0.0,0.0,0.0,0.0,0.0, 12:21:06.151
33624.511719, 24547.736328, 69244.609375, 44851.546875, 64374.250000, 89113.093750, 27548.769531, 30850.144531, 0.000, 0.000, 0.000,0.0,0.0,0.0,0.0,0.0, 12:21:06.152
33242.898438, 24154.457031, 69741.015625, 45466.441406, 64371.367188, 88745.093750, 28219.232422, 32012.099609, 0.000, 0.000, 0.000,0.0,0.0,0.0,0.0,0.0, 12:21:06.152
33420.910156, 24335.169922, 69860.484375, 45362.058594, 64174.472656, 88854.820313, 28298.023438, 32190.220703, 0.000, 0.000, 0.000,0.0,0.0,0.0,0.0,0.0, 12:21:06.152
33805.492188, 24732.406250, 69388.507813, 44751.363281, 64142.640625, 89218.171875, 27653.554688, 31066.800781, 0.000, 0.000, 0.000,0.0,0.0,0.0,0.0,0.0, 12:21:06.153
33682.667969, 24607.906250, 69189.015625, 44772.800781, 64331.335938, 89164.570313, 27484.285156, 30738.005859, 0.000, 0.000, 0.000,0.0,0.0,0.0,0.0,0.0, 12:21:06.153
33273.363281, 24190.152344, 69630.531250, 45390.871094, 64388.625000, 88791.562500, 28110.804688, 31821.976563, 0.120, 0.278, 0.950,0.0,0.0,0.0,0.0,0.0, 12:21:06.153
33352.937500, 24274.216797, 69865.203125, 45445.519531, 64213.855469, 88810.765625, 28352.203125, 32282.466797, 0.000, 0.000, 0.000,0.0,0.0,0.0,0.0,0.0, 12:21:06.154
33773.820313, 24703.503906, 69446.781250, 44836.210938, 64141.972656, 89181.828125, 27760.060547, 31262.199219, 0.000, 0.000, 0.000,0.0,0.0,0.0,0.0,0.0, 12:21:06.154
33749.324219, 24675.587891, 69146.195313, 44704.292969, 64309.968750, 89211.976563, 27436.117188, 30660.625000, 0.000, 0.000, 0.000,0.0,0.0,0.0,0.0,0.0, 12:21:06.154
33327.210938, 24239.080078, 69521.101563, 45297.351563, 64405.187500, 88841.679688, 27989.501953, 31608.136719, 0.000, 0.000, 0.000,0.0,0.0,0.0,0.0,0.0, 12:21:06.154
33283.109375, 24194.779297, 69881.250000, 45518.835938, 64246.757813, 88746.773438, 28395.275391, 32346.705078, 0.000, 0.000, 0.000,0.0,0.0,0.0,0.0,0.0, 12:21:06.155
33700.640625, 24625.408203, 69568.726563, 44966.968750, 64129.542969, 89105.312500, 27909.392578, 31518.328125, 0.000, 0.000, 0.000,0.0,0.0,0.0,0.0,0.0, 12:21:06.155
33807.750000, 24734.460938, 69158.867188, 44677.917969, 64271.230469, 89253.281250, 27429.501953, 30664.736328, 0.000, 0.000, 0.000,0.0,0.0,0.0,0.0,0.0, 12:21:06.155
33402.355469, 24313.332031, 69433.835938, 45208.769531, 64412.585938, 88910.226563, 27867.953125, 31405.048828, 0.000, 0.000, 0.000,0.0,0.0,0.0,0.0,0.0, 12:21:06.156
33259.839844, 24164.515625, 69864.218750, 45571.898438, 64292.488281, 88728.171875, 28390.492188, 32345.410156, 0.120, 0.278, 0.948,0.0,0.0,0.0,0.0,0.0, 12:21:06.156
33632.914063, 24549.099609, 69668.171875, 45102.890625, 64139.714844, 89031.578125, 28043.257813, 31756.507813, 0.000, 0.000, 0.000,0.0,0.0,0.0,0.0,0.0, 12:21:06.156
33847.625000, 24775.164063, 69172.585938, 44660.886719, 64231.691406, 89275.343750, 27443.828125, 30707.183594, 0.000, 0.000, 0.000,0.0,0.0,0.0,0.0,0.0, 12:21:06.156
33485.707031, 24401.554688, 69326.078125, 45088.855469, 64407.128906, 88978.359375, 27741.396484, 31187.878906, 0.000, 0.000, 0.000,0.0,0.0,0.0,0.0,0.0, 12:21:06.157
33245.894531, 24154.568359, 69811.937500, 45576.187500, 64323.000000, 88715.367188, 28356.964844, 32274.599609, 0.000, 0.000, 0.000,0.0,0.0,0.0,0.0,0.0, 12:21:06.157
33566.664063, 24489.597656, 69723.093750, 45225.714844, 64149.570313, 88967.648438, 28154.457031, 31950.968750, 0.000, 0.000, 0.000,0.0,0.0,0.0,0.0,0.0, 12:21:06.157
33855.089844, 24785.042969, 69219.304688, 44697.386719, 64202.613281, 89266.203125, 27506.257813, 30814.716797, 0.000, 0.000, 0.000,0.0,0.0,0.0,0.0,0.0, 12:21:06.158
33567.601563, 24491.855469, 69240.937500, 44986.347656, 64389.605469, 89059.718750, 27631.181641, 30999.656250, 0.000, 0.000, 0.000,0.0,0.0,0.0,0.0,0.0, 12:21:06.158
33249.066406, 24162.480469, 69721.500000, 45551.667969, 64361.511719, 88747.039063, 28276.564453, 32141.158203, 0.000, 0.000, 0.000,0.0,0.0,0.0,0.0,0.0, 12:21:06.158
33470.195313, 24384.769531, 69786.343750, 45357.500000, 64174.113281, 88890.625000, 28257.833984, 32137.582031, 0.000, 0.000, 0.000,0.0,0.0,0.0,0.0,0.0, 12:21:06.159
33850.328125, 24774.025391, 69267.382813, 44746.113281, 64164.503906, 89258.226563, 27573.201172, 30961.992188, 0.120, 0.282, 0.954,0.0,0.0,0.0,0.0,0.0, 12:21:06.159
33653.320313, 24572.187500, 69140.359375, 44880.558594, 64372.976563, 89140.679688, 27517.746094, 30833.984375, 0.000, 0.000, 0.000,0.0,0.0,0.0,0.0,0.0, 12:21:06.159
33261.339844, 24168.650391, 69638.804688, 45503.121094, 64390.253906, 88763.398438, 28188.119141, 31991.984375, 0.000, 0.000, 0.000,0.0,0.0,0.0,0.0,0.0, 12:21:06.160
33415.121094, 24328.242188, 69800.984375, 45448.492188, 64206.144531, 88847.484375, 28321.224609, 32261.031250, 0.000, 0.000, 0.000,0.0,0.0,0.0,0.0,0.0, 12:21:06.160
33819.953125, 24740.564453, 69339.156250, 44829.328125, 64161.507813, 89220.804688, 27682.724609, 31155.939453, 0.000, 0.000, 0.000,0.0,0.0,0.0,0.0,0.0, 12:21:06.160
33719.191406, 24637.902344, 69103.585938, 44800.761719, 64344.320313, 89189.984375, 27462.291016, 30736.910156, 0.000, 0.000, 0.000,0.0,0.0,0.0,0.0,0.0, 12:21:06.160
33316.636719, 24225.400391, 69517.429688, 45412.417969, 64406.035156, 88823.148438, 28064.625000, 31777.072266, 0.000, 0.000, 0.000,0.0,0.0,0.0,0.0,0.0, 12:21:06.161
33358.187500, 24266.439453, 69776.867188, 45521.851563, 64240.183594, 88804.617188, 28353.142578, 32318.720703, 0.000, 0.000, 0.000,0.0,0.0,0.0,0.0,0.0, 12:21:06.161
33763.226563, 24686.853516, 69386.609375, 44927.875000, 64149.167969, 89167.523438, 27791.689453, 31351.337891, 0.000, 0.000, 0.000,0.0,0.0,0.0,0.0,0.0, 12:21:06.161
33796.640625, 24717.384766, 69014.718750, 44725.527344, 64310.660156, 89255.671875, 27394.542969, 30640.687500, 0.000, 0.000, 0.000,0.0,0.0,0.0,0.0,0.0, 12:21:06.162
33383.714844, 24282.531250, 69334.687500, 45293.664063, 64437.730469, 88886.023438, 27907.046875, 31514.148438, 0.130, 0.282, 0.952,0.0,0.0,0.0,0.0,0.0, 12:21:06.162
33310.246094, 24203.808594, 69725.328125, 45566.621094, 64293.093750, 88750.437500, 28367.134766, 32328.488281, 0.000, 0.000, 0.000,0.0,0.0,0.0,0.0,0.0, 12:21:06.162
33712.152344, 24619.976563, 69448.585938, 45036.105469, 64157.035156, 89088.710938, 27930.179688, 31574.341797, 0.000, 0.000, 0.000,0.0,0.0,0.0,0.0,0.0, 12:21:06.162
33827.890625, 24738.351563, 69040.265625, 44700.222656, 64273.042969, 89246.023438, 27433.121094, 30680.292969, 0.000, 0.000, 0.000,0.0,0.0,0.0,0.0,0.0, 12:21:06.163
33460.156250, 24363.982422, 69258.460938, 45179.156250, 64416.292969, 88941.632813, 27815.158203, 31326.929688, 0.000, 0.000, 0.000,0.0,0.0,0.0,0.0,0.0, 12:21:06.163
33287.757813, 24194.689453, 69671.656250, 45571.628906, 64320.539063, 88749.296875, 28350.705078, 32290.513672, 0.000, 0.000, 0.000,0.0,0.0,0.0,0.0,0.0, 12:21:06.163
33618.566406, 24534.480469, 69524.023438, 45154.007813, 64167.140625, 89019.171875, 28061.519531, 31793.544922, 0.000, 0.000, 0.000,0.0,0.0,0.0,0.0,0.0, 12:21:06.163
33863.917969, 24784.955078, 69038.632813, 44689.917969, 64234.597656, 89278.140625, 27452.658203, 30720.593750, 0.000, 0.000, 0.000,0.0,0.0,0.0,0.0,0.0, 12:21:06.164
33545.542969, 24452.628906, 69120.640625, 45060.824219, 64409.210938, 89024.960938, 27677.181641, 31090.873047, 0.000, 0.000, 0.000,0.0,0.0,0.0,0.0,0.0, 12:21:06.164
33257.515625, 24156.222656, 69601.539063, 45571.070313, 64347.183594, 88730.523438, 28307.878906, 32201.039063, 0.124, 0.278, 0.948,0.0,0.0,0.0,0.0,0.0, 12:21:06.164
33539.683594, 24441.072266, 69575.140625, 45266.617188, 64162.601563, 88934.054688, 28175.757813, 31987.177734, 0.000, 0.000, 0.000,0.0,0.0,0.0,0.0,0.0, 12:21:06.165
33863.406250, 24770.134766, 69073.343750, 44710.214844, 64192.820313, 89258.984375, 27524.003906, 30840.802734, 0.000, 0.000, 0.000,0.0,0.0,0.0,0.0,0.0, 12:21:06.165
33609.914063, 24506.630859, 69046.882813, 44945.109375, 64386.187500, 89078.492188, 27597.832031, 30932.310547, 0.000, 0.000, 0.000,0.0,0.0,0.0,0.0,0.0, 12:21:06.165
33267.171875, 24154.433594, 69520.312500, 45518.968750, 64369.601563, 88743.062500, 28246.033203, 32074.505859, 0.000, 0.000, 0.000,0.0,0.0,0.0,0.0,0.0, 12:21:06.165
33472.785156, 24366.886719, 69610.234375, 45364.226563, 64183.078125, 88876.390625, 28273.167969, 32150.658203, 0.000, 0.000, 0.000,0.0,0.0,0.0,0.0,0.0, 12:21:06.166
33852.945313, 24758.691406, 69117.492188, 44752.683594, 64167.742188, 89238.820313, 27611.757813, 30998.091797, 0.000, 0.000, 0.000,0.0,0.0,0.0,0.0,0.0, 12:21:06.166
33673.171875, 24579.162109, 68976.609375, 44840.371094, 64361.042969, 89135.578125, 27519.914063, 30793.214844, 0.000, 0.000, 0.000,0.0,0.0,0.0,0.0,0.0, 12:21:06.166
33280.496094, 24175.445313, 69442.304688, 45453.589844, 64385.738281, 88764.140625, 28163.800781, 31911.091797, 0.000, 0.000, 0.000,0.0,0.0,0.0,0.0,0.0, 12:21:06.167
33401.238281, 24291.673828, 69644.281250, 45452.093750, 64200.332031, 88811.992188, 28350.146484, 32269.546875, 0.000, 0.000, 0.000,0.0,0.0,0.0,0.0,0.0, 12:21:06.167
33817.003906, 24719.552734, 69204.218750, 44838.312500, 64144.945313, 89188.976563, 27733.306641, 31202.675781, 0.124, 0.280, 0.942,0.0,0.0,0.0,0.0,0.0, 12:21:06.167
33759.761719, 24665.103516, 68928.195313, 44757.601563, 64330.308594, 89199.351563, 27456.859375, 30690.843750, 0.000, 0.000, 0.000,0.0,0.0,0.0,0.0,0.0, 12:21:06.167
33327.457031, 24225.310547, 69321.789063, 45354.750000, 64409.679688, 88817.601563, 28032.841797, 31686.703125, 0.000, 0.000, 0.000,0.0,0.0,0.0,0.0,0.0, 12:21:06.168
33326.628906, 24227.121094, 69634.554688, 45508.550781, 64240.273438, 88760.203125, 28374.912109, 32318.876953, 0.000, 0.000, 0.000,0.0,0.0,0.0,0.0,0.0, 12:21:06.168
33737.632813, 24649.300781, 69296.890625, 44935.007813, 64140.363281, 89119.664063, 27854.541016, 31423.445313, 0.000, 0.000, 0.000,0.0,0.0,0.0,0.0,0.0, 12:21:06.168
33804.417969, 24717.183594, 68919.367188, 44694.433594, 64279.546875, 89231.578125, 27422.080078, 30656.914063, 0.000, 0.000, 0.000,0.0,0.0,0.0,0.0,0.0, 12:21:06.169
33392.902344, 24295.808594, 69213.250000, 45242.074219, 64403.554688, 88877.507813, 27895.244141, 31468.841797, 0.000, 0.000, 0.000,0.0,0.0,0.0,0.0,0.0, 12:21:06.169
33291.156250, 24194.824219, 69595.593750, 45540.941406, 64269.355469, 88738.453125, 28364.474609, 32318.855469, 0.000, 0.000, 0.000,0.0,0.0,0.0,0.0,0.0, 12:21:06.169
33675.406250, 24592.058594, 69337.921875, 45030.917969, 64132.136719, 89065.820313, 27955.929688, 31623.380859, 0.000, 0.000, 0.000,0.0,0.0,0.0,0.0,0.0, 12:21:06.169
33850.152344, 24763.742188, 68889.906250, 44650.601563, 64241.347656, 89264.523438, 27413.654297, 30657.093750, 0.122, 0.274, 0.948,0.0,0.0,0.0,0.0,0.0, 12:21:06.170
33478.195313, 24384.701172, 69063.046875, 45103.226563, 64400.269531, 88961.367188, 27750.449219, 31220.111328, 0.000, 0.000, 0.000,0.0,0.0,0.0,0.0,0.0, 12:21:06.170
33266.234375, 24163.083984, 69528.656250, 45544.562500, 64306.570313, 88719.367188, 28336.712891, 32256.181641, 0.000, 0.000, 0.000,0.0,0.0,0.0,0.0,0.0, 12:21:06.170
33621.582031, 24525.382813, 69388.976563, 45138.964844, 64142.261719, 89000.554688, 28072.091797, 31819.250000, 0.000, 0.000, 0.000,0.0,0.0,0.0,0.0,0.0, 12:21:06.170
33880.414063, 24786.943359, 68906.312500, 44651.789063, 64219.332031, 89268.351563, 27457.195313, 30726.361328, 0.000, 0.000, 0.000,0.0,0.0,0.0,0.0,0.0, 12:21:06.171
33577.707031, 24472.097656, 68960.765625, 44982.125000, 64399.417969, 89031.328125, 27640.009766, 31015.033203, 0.000, 0.000, 0.000,0.0,0.0,0.0,0.0,0.0, 12:21:06.171
33272.894531, 24160.714844, 69447.671875, 45516.597656, 64343.515625, 88716.687500, 28282.220703, 32142.410156, 0.000, 0.000, 0.000,0.0,0.0,0.0,0.0,0.0, 12:21:06.171
33525.582031, 24422.208984, 69465.890625, 45259.062500, 64153.996094, 88894.609375, 28203.609375, 32017.666016, 0.000, 0.000, 0.000,0.0,0.0,0.0,0.0,0.0, 12:21:06.171
33865.953125, 24773.308594, 68969.703125, 44679.101563, 64167.250000, 89230.351563, 27543.316406, 30859.533203, 0.000, 0.000, 0.000,0.0,0.0,0.0,0.0,0.0, 12:21:06.172
33634.500000, 24536.470703, 68912.195313, 44870.296875, 64365.019531, 89080.281250, 27562.539063, 30858.011719, 0.000, 0.000, 0.000,0.0,0.0,0.0,0.0,0.0, 12:21:06.172
33275.980469, 24165.990234, 69393.023438, 45463.582031, 64365.781250, 88737.945313, 28212.951172, 32003.361328, 0.128, 0.276, 0.956,0.0,0.0,0.0,0.0,0.0, 12:21:06.172
33455.664063, 24350.927734, 69516.695313, 45348.492188, 64180.730469, 88844.539063, 28285.439453, 32165.052734, 0.000, 0.000, 0.000,0.0,0.0,0.0,0.0,0.0, 12:21:06.172
33848.316406, 24752.902344, 69039.953125, 44732.007813, 64154.957031, 89213.093750, 27634.332031, 31034.234375, 0.000, 0.000, 0.000,0.0,0.0,0.0,0.0,0.0, 12:21:06.173
33716.914063, 24614.119141, 68856.804688, 44770.074219, 64345.929688, 89146.171875, 27482.832031, 30737.492188, 0.000, 0.000, 0.000,0.0,0.0,0.0,0.0,0.0, 12:21:06.173
33302.265625, 24192.029297, 69305.445313, 45380.632813, 64384.375000, 88764.382813, 28108.859375, 31830.582031, 0.000, 0.000, 0.000,0.0,0.0,0.0,0.0,0.0, 12:21:06.174
33374.082031, 24265.767578, 69544.968750, 45422.386719, 64198.343750, 88772.296875, 28344.513672, 32276.833984, 0.000, 0.000, 0.000,0.0,0.0,0.0,0.0,0.0, 12:21:06.174
33803.078125, 24702.677734, 69123.796875, 44810.753906, 64123.218750, 89151.250000, 27747.812500, 31244.988281, 0.000, 0.000, 0.000,0.0,0.0,0.0,0.0,0.0, 12:21:06.175
33784.527344, 24688.439453, 68804.210938, 44682.187500, 64296.109375, 89192.195313, 27421.431641, 30646.855469, 0.000, 0.000, 0.000,0.0,0.0,0.0,0.0,0.0, 12:21:06.175
33346.050781, 24235.437500, 69193.867188, 45286.578125, 64387.437500, 88799.609375, 27993.078125, 31617.144531, 0.000, 0.000, 0.000,0.0,0.0,0.0,0.0,0.0, 12:21:06.175
33317.015625, 24205.798828, 69541.796875, 45488.683594, 64224.808594, 88718.812500, 28387.585938, 32328.511719, 0.000, 0.000, 0.000,0.0,0.0,0.0,0.0,0.0, 12:21:06.176
33737.968750, 24638.238281, 69211.882813, 44916.855469, 64114.234375, 89083.632813, 27890.572266, 31472.841797, 0.128, 0.272, 0.948,0.0,0.0,0.0,0.0,0.0, 12:21:06.176
33831.531250, 24733.478516, 68800.320313, 44632.542969, 64262.203125, 89223.578125, 27419.978516, 30632.998047, 0.000, 0.000, 0.000,0.0,0.0,0.0,0.0,0.0, 12:21:06.176
33445.851563, 24334.031250, 69045.523438, 45153.093750, 64398.882813, 88896.906250, 27847.478516, 31365.107422, 0.000, 0.000, 0.000,0.0,0.0,0.0,0.0,0.0, 12:21:06.176
33303.292969, 24189.392578, 69440.296875, 45496.394531, 64274.429688, 88719.523438, 28349.029297, 32267.916016, 0.000, 0.000, 0.000,0.0,0.0,0.0,0.0,0.0, 12:21:06.177
33674.308594, 24575.898438, 69215.437500, 45019.250000, 64130.886719, 89030.210938, 27983.310547, 31645.687500, 0.000, 0.000, 0.000,0.0,0.0,0.0,0.0,0.0, 12:21:06.177
33856.363281, 24770.716797, 68756.601563, 44609.855469, 64233.570313, 89244.765625, 27415.396484, 30636.998047, 0.000, 0.000, 0.000,0.0,0.0,0.0,0.0,0.0, 12:21:06.177
33512.328125, 24416.933594, 68895.382813, 45034.203125, 64402.125000, 88965.687500, 27708.339844, 31124.109375, 0.000, 0.000, 0.000,0.0,0.0,0.0,0.0,0.0, 12:21:06.177
33274.281250, 24159.351563, 69365.664063, 45509.335938, 64322.664063, 88699.898438, 28313.400391, 32195.943359, 0.000, 0.000, 0.000,0.0,0.0,0.0,0.0,0.0, 12:21:06.177
33585.214844, 24475.382813, 69289.218750, 45155.394531, 64143.625000, 88939.015625, 28111.832031, 31867.529297, 0.000, 0.000, 0.000,0.0,0.0,0.0,0.0,0.0, 12:21:06.178
33873.664063, 24773.509766, 68795.492188, 44635.804688, 64192.441406, 89234.734375, 27471.164063, 30750.724609, 0.116, 0.270, 0.952,0.0,0.0,0.0,0.0,0.0, 12:21:06.178
33591.898438, 24487.005859, 68817.132813, 44930.222656, 64377.714844, 89024.359375, 27603.039063, 30958.238281, 0.000, 0.000, 0.000,0.0,0.0,0.0,0.0,0.0, 12:21:06.178
33264.042969, 24151.169922, 69293.375000, 45481.351563, 64340.140625, 88695.609375, 28243.126953, 32090.533203, 0.000, 0.000, 0.000,0.0,0.0,0.0,0.0,0.0, 12:21:06.178
33498.535156, 24388.121094, 69336.359375, 45263.800781, 64153.906250, 88861.390625, 28207.542969, 32049.472656, 0.000, 0.000, 0.000,0.0,0.0,0.0,0.0,0.0, 12:21:06.179
33853.703125, 24758.556641, 68856.132813, 44683.550781, 64166.761719, 89210.859375, 27563.097656, 30909.220703, 0.000, 0.000, 0.000,0.0,0.0,0.0,0.0,0.0, 12:21:06.179
33666.261719, 24567.830078, 68737.289063, 44820.164063, 64358.558594, 89095.656250, 27520.003906, 30804.636719, 0.000, 0.000, 0.000,0.0,0.0,0.0,0.0,0.0, 12:21:06.179
33293.234375, 24180.898438, 69190.984375, 45418.117188, 64371.660156, 88738.476563, 28159.150391, 31929.890625, 0.000, 0.000, 0.000,0.0,0.0,0.0,0.0,0.0, 12:21:06.179
33438.363281, 24328.263672, 69335.867188, 45352.492188, 64186.250000, 88817.179688, 28274.753906, 32172.585938, 0.000, 0.000, 0.000,0.0,0.0,0.0,0.0,0.0, 12:21:06.180
33824.335938, 24723.398438, 68906.601563, 44754.984375, 64152.679688, 89171.343750, 27659.208984, 31094.449219, 0.000, 0.000, 0.000,0.0,0.0,0.0,0.0,0.0, 12:21:06.180
33722.054688, 24618.031250, 68704.882813, 44743.699219, 64334.644531, 89130.281250, 27465.621094, 30719.632813, 0.000, 0.000, 0.000,0.0,0.0,0.0,0.0,0.0, 12:21:06.180
33313.195313, 24202.982422, 69125.937500, 45341.808594, 64384.285156, 88756.046875, 28068.693359, 31771.148438, 0.112, 0.276, 0.952,0.0,0.0,0.0,0.0,0.0, 12:21:06.180
33363.015625, 24252.021484, 69386.671875, 45429.562500, 64214.546875, 88746.882813, 28347.509766, 32294.537109, 0.000, 0.000, 0.000,0.0,0.0,0.0,0.0,0.0, 12:21:06.181
33780.703125, 24679.208984, 69006.023438, 44837.375000, 64130.953125, 89119.976563, 27789.542969, 31325.656250, 0.000, 0.000, 0.000,0.0,0.0,0.0,0.0,0.0, 12:21:06.182
33802.898438, 24698.072266, 68663.414063, 44661.644531, 64295.730469, 89199.640625, 27420.203125, 30656.400391, 0.000, 0.000, 0.000,0.0,0.0,0.0,0.0,0.0, 12:21:06.182
33376.808594, 24260.113281, 69009.398438, 45238.992188, 64403.128906, 88823.882813, 27947.324219, 31557.509766, 0.000, 0.000, 0.000,0.0,0.0,0.0,0.0,0.0, 12:21:06.182
33318.894531, 24204.390625, 69359.742188, 45483.093750, 64253.753906, 88721.312500, 28367.089844, 32324.107422, 0.000, 0.000, 0.000,0.0,0.0,0.0,0.0,0.0, 12:21:06.183
33720.937500, 24617.673828, 69080.453125, 44955.167969, 64143.492188, 89068.164063, 27922.849609, 31556.326172, 0.000, 0.000, 0.000,0.0,0.0,0.0,0.0,0.0, 12:21:06.183
33848.562500, 24749.214844, 68659.906250, 44629.750000, 64277.445313, 89233.773438, 27421.386719, 30665.966797, 0.000, 0.000, 0.000,0.0,0.0,0.0,0.0,0.0, 12:21:06.183
33450.703125, 24343.955078, 68878.039063, 45120.144531, 64416.652344, 88901.085938, 27808.720703, 31325.343750, 0.000, 0.000, 0.000,0.0,0.0,0.0,0.0,0.9481372, 12:21:06.628
33293.480469, 24175.958984, 69291.101563, 45496.972656, 64295.683594, 88699.945313, 28337.250000, 32274.933594, 0.116, 0.280, 0.954,0.0,0.0,0.0,0.0,0.9481372, 12:21:06.628
33666.398438, 24553.681641, 69108.929688, 45060.468750, 64148.117188, 88996.062500, 28021.375000, 31738.626953, 0.000, 0.000, 0.000,0.0,0.0,0.0,0.0,0.9481372, 12:21:06.628
33878.804688, 24771.476563, 68657.046875, 44628.027344, 64241.792969, 89228.828125, 27442.330078, 30705.082031, 0.000, 0.000, 0.000,0.0,0.0,0.0,0.0,0.9481372, 12:21:06.629
33539.417969, 24426.119141, 68776.250000, 45014.871094, 64406.125000, 88962.554688, 27691.888672, 31120.757813, 0.000, 0.000, 0.000,0.0,0.0,0.0,0.0,0.9481372, 12:21:06.629
33284.562500, 24167.822266, 69222.453125, 45498.113281, 64328.074219, 88699.203125, 28284.253906, 32195.675781, 0.000, 0.000, 0.000,0.0,0.0,0.0,0.0,0.9481372, 12:21:06.629
33587.652344, 24481.552734, 69150.617188, 45177.031250, 64157.820313, 88932.757813, 28113.642578, 31929.845703, 0.000, 0.000, 0.000,0.0,0.0,0.0,0.0,0.9481372, 12:21:06.629
33877.753906, 24778.673828, 68675.328125, 44649.820313, 64203.574219, 89225.164063, 27482.898438, 30808.369141, 0.000, 0.000, 0.000,0.0,0.0,0.0,0.0,0.9481372, 12:21:06.630
33604.929688, 24497.667969, 68667.593750, 44897.789063, 64379.460938, 89029.031250, 27570.919922, 30931.191406, 0.000, 0.000, 0.000,0.0,0.0,0.0,0.0,0.9481372, 12:21:06.630
33269.808594, 24155.953125, 69134.593750, 45456.562500, 64350.445313, 88698.914063, 28210.046875, 32065.431641, 0.000, 0.000, 0.000,0.0,0.0,0.0,0.0,0.9481372, 12:21:06.630
33484.320313, 24373.861328, 69207.125000, 45279.269531, 64168.300781, 88842.414063, 28221.222656, 32110.537109, 0.000, 0.000, 0.000,0.0,0.0,0.0,0.0,0.9481372, 12:21:06.631
33849.859375, 24748.990234, 68731.882813, 44682.140625, 64170.156250, 89197.937500, 27575.212891, 30976.253906, 0.122, 0.272, 0.952,0.0,0.0,0.0,0.0,0.9481372, 12:21:06.631
33683.363281, 24576.054688, 68597.593750, 44780.644531, 64358.582031, 89095.257813, 27492.376953, 30799.517578, 0.000, 0.000, 0.000,0.0,0.0,0.0,0.0,0.9481372, 12:21:06.631
33306.937500, 24189.527344, 69048.492188, 45388.367188, 64379.773438, 88730.562500, 28131.681641, 31916.568359, 0.000, 0.000, 0.000,0.0,0.0,0.0,0.0,0.9481372, 12:21:06.631
33434.632813, 24317.087891, 69227.843750, 45371.222656, 64198.699219, 88787.945313, 28302.248047, 32247.351563, 0.000, 0.000, 0.000,0.0,0.0,0.0,0.0,0.9481372, 12:21:06.632
33832.628906, 24726.101563, 68798.468750, 44766.273438, 64144.074219, 89150.648438, 27696.291016, 31185.666016, 0.000, 0.000, 0.000,0.0,0.0,0.0,0.0,0.9481372, 12:21:06.632
33773.773438, 24669.441406, 68530.445313, 44696.468750, 64314.324219, 89154.625000, 27431.669922, 30701.259766, 0.000, 0.000, 0.000,0.0,0.0,0.0,0.0,0.9481372, 12:21:06.632
33359.394531, 24245.941406, 68918.984375, 45296.972656, 64384.531250, 88782.335938, 28008.433594, 31707.982422, 0.000, 0.000, 0.000,0.0,0.0,0.0,0.0,0.9481372, 12:21:06.632
33385.480469, 24269.880859, 69185.601563, 45425.828125, 64215.664063, 88754.281250, 28320.128906, 32295.609375, 0.000, 0.000, 0.000,0.0,0.0,0.0,0.0,0.9481372, 12:21:06.633
33788.460938, 24677.777344, 68835.320313, 44850.269531, 64128.089844, 89105.937500, 27802.349609, 31385.759766, 0.000, 0.000, 0.000,0.0,0.0,0.0,0.0,0.9481372, 12:21:06.633
33830.437500, 24721.833984, 68494.210938, 44637.394531, 64279.972656, 89196.687500, 27413.765625, 30662.792969, 0.000, 0.000, 0.000,0.0,0.0,0.0,0.0,0.9481372, 12:21:06.633
33431.750000, 24316.148438, 68783.937500, 45183.445313, 64396.246094, 88855.554688, 27892.003906, 31484.263672, 0.132, 0.276, 0.952,0.0,0.0,0.0,0.0,0.9481372, 12:21:06.633
33330.316406, 24211.341797, 69156.671875, 45476.589844, 64264.683594, 88710.312500, 28348.359375, 32315.345703, 0.000, 0.000, 0.000,0.0,0.0,0.0,0.0,0.9481372, 12:21:06.633
33716.667969, 24605.044922, 68911.031250, 44973.855469, 64132.964844, 89031.375000, 27940.439453, 31611.154297, 0.000, 0.000, 0.000,0.0,0.0,0.0,0.0,0.9481372, 12:21:06.634
33868.882813, 24760.837891, 68472.085938, 44611.867188, 64244.855469, 89220.492188, 27407.751953, 30662.033203, 0.000, 0.000, 0.000,0.0,0.0,0.0,0.0,0.9481372, 12:21:06.634
33494.246094, 24375.894531, 68673.359375, 45084.273438, 64395.460938, 88907.859375, 27764.978516, 31263.160156, 0.000, 0.000, 0.000,0.0,0.0,0.0,0.0,0.9481372, 12:21:06.634
33301.996094, 24183.937500, 69112.328125, 45507.972656, 64290.878906, 88692.187500, 28324.755859, 32265.367188, 0.000, 0.000, 0.000,0.0,0.0,0.0,0.0,0.9481372, 12:21:06.634
33658.015625, 24547.511719, 68948.000000, 45089.859375, 64135.781250, 88978.000000, 28038.228516, 31790.259766, 0.000, 0.000, 0.000,0.0,0.0,0.0,0.0,0.9481372, 12:21:06.634
33906.769531, 24799.617188, 68446.804688, 44605.453125, 64220.023438, 89243.117188, 27416.916016, 30687.513672, 0.000, 0.000, 0.000,0.0,0.0,0.0,0.0,0.9481372, 12:21:06.634
33571.691406, 24454.126953, 68536.414063, 44965.695313, 64404.136719, 88983.250000, 27636.232422, 31030.523438, 0.000, 0.000, 0.000,0.0,0.0,0.0,0.0,0.9481372, 12:21:06.634
33281.097656, 24152.980469, 69024.132813, 45496.953125, 64345.125000, 88685.210938, 28274.910156, 32161.119141, 0.130, 0.266, 0.948,0.0,0.0,0.0,0.0,0.9481372, 12:21:06.635
33553.542969, 24436.111328, 69020.437500, 45221.355469, 64159.695313, 88883.898438, 28168.472656, 32001.259766, 0.000, 0.000, 0.000,0.0,0.0,0.0,0.0,0.9481372, 12:21:06.635
33888.285156, 24780.328125, 68517.367188, 44646.535156, 64184.687500, 89215.734375, 27505.453125, 30842.388672, 0.000, 0.000, 0.000,0.0,0.0,0.0,0.0,0.9481372, 12:21:06.635
33649.609375, 24534.972656, 68458.296875, 44846.113281, 64379.214844, 89053.507813, 27534.486328, 30861.857422, 0.000, 0.000, 0.000,0.0,0.0,0.0,0.0,0.9481372, 12:21:06.635
33292.230469, 24174.529297, 68923.031250, 45430.789063, 64372.597656, 88711.453125, 28181.816406, 31999.470703, 0.000, 0.000, 0.000,0.0,0.0,0.0,0.0,0.9481372, 12:21:06.636
33484.632813, 24370.218750, 69022.320313, 45304.234375, 64185.265625, 88827.101563, 28236.599609, 32121.914063, 0.000, 0.000, 0.000,0.0,0.0,0.0,0.0,0.9481372, 12:21:06.636
33862.625000, 24756.142578, 68554.789063, 44702.347656, 64168.191406, 89184.710938, 27595.775391, 30990.714844, 0.000, 0.000, 0.000,0.0,0.0,0.0,0.0,0.9481372, 12:21:06.637
33724.445313, 24612.466797, 68374.140625, 44745.218750, 64359.632813, 89116.539063, 27456.367188, 30709.306641, 0.000, 0.000, 0.000,0.0,0.0,0.0,0.0,0.9481372, 12:21:06.637
33325.867188, 24204.078125, 68807.945313, 45353.296875, 64401.496094, 88747.601563, 28083.199219, 31798.417969, 0.000, 0.000, 0.000,0.0,0.0,0.0,0.0,0.9481372, 12:21:06.637
33421.242188, 24303.744141, 69020.531250, 45384.968750, 64216.871094, 88776.453125, 28298.738281, 32209.734375, 0.000, 0.000, 0.000,0.0,0.0,0.0,0.0,0.9481372, 12:21:06.637
33826.390625, 24722.011719, 68592.898438, 44782.476563, 64150.285156, 89146.843750, 27699.308594, 31164.923828, 0.122, 0.272, 0.960,0.0,0.0,0.0,0.0,0.9481372, 12:21:06.637
33769.886719, 24662.779297, 68325.031250, 44686.253906, 64321.253906, 89149.640625, 27416.068359, 30623.251953, 0.000, 0.000, 0.000,0.0,0.0,0.0,0.0,0.9481372, 12:21:06.638
33370.125000, 24254.771484, 68698.601563, 45273.589844, 64401.050781, 88795.429688, 27976.359375, 31592.603516, 0.000, 0.000, 0.000,0.0,0.0,0.0,0.0,0.9481372, 12:21:06.638
33370.148438, 24251.843750, 68994.398438, 45448.941406, 64252.390625, 88740.937500, 28332.601563, 32256.830078, 0.000, 0.000, 0.000,0.0,0.0,0.0,0.0,0.9481372, 12:21:06.638
33761.167969, 24652.900391, 68671.398438, 44886.503906, 64152.230469, 89081.132813, 27840.103516, 31398.187500, 0.000, 0.000, 0.000,0.0,0.0,0.0,0.0,0.9481372, 12:21:06.638
33839.242188, 24732.271484, 68292.023438, 44617.878906, 64287.773438, 89201.984375, 27395.011719, 30596.720703, 0.000, 0.000, 0.000,0.0,0.0,0.0,0.0,0.9481372, 12:21:06.639
33440.710938, 24317.154297, 68575.640625, 45150.656250, 64415.402344, 88855.851563, 27850.072266, 31373.064453, 0.000, 0.000, 0.000,0.0,0.0,0.0,0.0,0.9481372, 12:21:06.639
33315.898438, 24187.447266, 68989.773438, 45487.230469, 64282.898438, 88690.804688, 28351.421875, 32278.287109, 0.000, 0.000, 0.000,0.0,0.0,0.0,0.0,0.9481372, 12:21:06.639
33693.824219, 24577.933594, 68767.015625, 45000.855469, 64138.460938, 89005.335938, 27974.191406, 31640.033203, 0.000, 0.000, 0.000,0.0,0.0,0.0,0.0,0.9481372, 12:21:06.639
33889.847656, 24779.814453, 68284.710938, 44579.750000, 64234.640625, 89229.656250, 27391.345703, 30618.937500, 0.118, 0.274, 0.954,0.0,0.0,0.0,0.0,0.9481372, 12:21:06.639
33528.195313, 24405.443359, 68429.687500, 45016.546875, 64404.761719, 88935.171875, 27698.996094, 31132.669922, 0.000, 0.000, 0.000,0.0,0.0,0.0,0.0,0.9481372, 12:21:06.640
33279.554688, 24151.931641, 68911.859375, 45489.933594, 64317.835938, 88666.507813, 28311.589844, 32209.734375, 0.000, 0.000, 0.000,0.0,0.0,0.0,0.0,0.9481372, 12:21:06.640
33606.093750, 24490.335938, 68825.578125, 45121.957031, 64146.039063, 88920.218750, 28095.314453, 31854.789063, 0.000, 0.000, 0.000,0.0,0.0,0.0,0.0,0.9481372, 12:21:06.640
33892.148438, 24781.646484, 68316.921875, 44602.167969, 64203.527344, 89215.953125, 27446.466797, 30727.367188, 0.000, 0.000, 0.000,0.0,0.0,0.0,0.0,0.9481372, 12:21:06.640
33606.070313, 24481.351563, 68330.820313, 44901.902344, 64393.292969, 89001.875000, 27583.371094, 30950.771484, 0.000, 0.000, 0.000,0.0,0.0,0.0,0.0,0.9481372, 12:21:06.641
33300.253906, 24165.609375, 68803.140625, 45454.281250, 64365.265625, 88692.437500, 28227.212891, 32088.386719, 0.000, 0.000, 0.000,0.0,0.0,0.0,0.0,0.9481372, 12:21:06.641
33544.023438, 24418.474609, 68831.789063, 45230.363281, 64181.421875, 88859.554688, 28175.021484, 32020.080078, 0.000, 0.000, 0.000,0.0,0.0,0.0,0.0,0.9481372, 12:21:06.641
33894.898438, 24779.412109, 68328.273438, 44642.042969, 64184.507813, 89199.953125, 27510.548828, 30855.062500, 0.000, 0.000, 0.000,0.0,0.0,0.0,0.0,0.9481372, 12:21:06.641
33684.277344, 24562.107422, 68229.789063, 44801.097656, 64376.398438, 89063.789063, 27492.623047, 30786.353516, 0.000, 0.000, 0.000,0.0,0.0,0.0,0.0,0.9481372, 12:21:06.641
33301.863281, 24170.593750, 68707.117188, 45409.757813, 64389.449219, 88702.000000, 28152.781250, 31936.529297, 0.116, 0.270, 0.950,0.0,0.0,0.0,0.0,0.9481372, 12:21:06.642
33452.109375, 24324.552734, 68871.398438, 45335.125000, 64203.910156, 88780.921875, 28275.402344, 32174.261719, 0.000, 0.000, 0.000,0.0,0.0,0.0,0.0,0.9481372, 12:21:06.642
33865.687500, 24748.498047, 68390.726563, 44704.851563, 64158.980469, 89163.718750, 27618.082031, 31044.716797, 0.000, 0.000, 0.000,0.0,0.0,0.0,0.0,0.9481372, 12:21:06.642
33761.191406, 24635.064453, 68163.945313, 44703.800781, 64350.511719, 89117.812500, 27417.519531, 30670.458984, 0.000, 0.000, 0.000,0.0,0.0,0.0,0.0,0.9481372, 12:21:06.643
33344.843750, 24207.183594, 68595.648438, 45324.843750, 64409.835938, 88738.140625, 28038.027344, 31743.746094, 0.000, 0.000, 0.000,0.0,0.0,0.0,0.0,0.9481372, 12:21:06.643
33380.273438, 24249.607422, 68881.101563, 45417.402344, 64233.636719, 88720.281250, 28328.242188, 32270.798828, 0.000, 0.000, 0.000,0.0,0.0,0.0,0.0,0.9481372, 12:21:06.643
33815.507813, 24696.888672, 68460.148438, 44795.664063, 64144.230469, 89114.703125, 27734.982422, 31257.214844, 0.000, 0.000, 0.000,0.0,0.0,0.0,0.0,0.9481372, 12:21:06.643
33815.371094, 24698.720703, 68116.085938, 44628.855469, 64315.847656, 89174.539063, 27373.041016, 30602.488281, 0.000, 0.000, 0.000,0.0,0.0,0.0,0.0,0.9481372, 12:21:06.644
33381.792969, 24255.486328, 68480.914063, 45223.007813, 64421.324219, 88794.179688, 27925.507813, 31537.238281, 0.000, 0.000, 0.000,0.0,0.0,0.0,0.0,0.9481372, 12:21:06.644
33328.082031, 24201.595703, 68852.914063, 45462.910156, 64262.894531, 88688.609375, 28353.365234, 32307.947266, 0.120, 0.272, 0.958,0.0,0.0,0.0,0.0,0.9481372, 12:21:06.644
33752.050781, 24638.685547, 68526.445313, 44904.117188, 64140.875000, 89056.406250, 27867.998047, 31484.800781, 0.000, 0.000, 0.000,0.0,0.0,0.0,0.0,0.9481372, 12:21:06.644
33858.554688, 24743.179688, 68104.804688, 44593.984375, 64280.843750, 89206.234375, 27375.611328, 30605.839844, 0.000, 0.000, 0.000,0.0,0.0,0.0,0.0,0.9481372, 12:21:06.645
33459.777344, 24330.521484, 68371.593750, 45108.812500, 64418.796875, 88863.359375, 27803.490234, 31325.566406, 0.000, 0.000, 0.000,0.0,0.0,0.0,0.0,0.9481372, 12:21:06.645
33305.507813, 24171.712891, 68791.468750, 45475.984375, 64301.652344, 88677.437500, 28332.244141, 32277.437500, 0.000, 0.000, 0.000,0.0,0.0,0.0,0.0,0.9481372, 12:21:06.645
33669.304688, 24544.875000, 68605.929688, 45018.312500, 64147.066406, 88968.117188, 28003.806641, 31716.810547, 0.000, 0.000, 0.000,0.0,0.0,0.0,0.0,0.9481372, 12:21:06.645
33890.429688, 24768.570313, 68133.992188, 44576.664063, 64234.062500, 89201.695313, 27411.306641, 30669.476563, 0.000, 0.000, 0.000,0.0,0.0,0.0,0.0,0.9481372, 12:21:06.645
33550.882813, 24415.345703, 68271.125000, 44980.515625, 64406.796875, 88927.218750, 27686.634766, 31121.361328, 0.000, 0.000, 0.000,0.0,0.0,0.0,0.0,0.9481372, 12:21:06.646
33304.097656, 24165.162109, 68748.507813, 45469.636719, 64334.085938, 88665.812500, 28303.656250, 32218.943359, 0.000, 0.000, 0.000,0.0,0.0,0.0,0.0,0.9481372, 12:21:06.646
33619.457031, 24491.900391, 68659.281250, 45125.398438, 64162.019531, 88911.234375, 28109.462891, 31920.279297, 0.000, 0.000, 0.000,0.0,0.0,0.0,0.0,0.9481372, 12:21:06.646
33919.867188, 24795.996094, 68153.281250, 44587.816406, 64216.023438, 89215.914063, 27458.580078, 30775.177734, 0.124, 0.270, 0.952,0.0,0.0,0.0,0.0,0.9481372, 12:21:06.647
33641.140625, 24509.826172, 68155.046875, 44859.769531, 64408.136719, 89013.781250, 27564.929688, 30925.984375, 0.000, 0.000, 0.000,0.0,0.0,0.0,0.0,0.9481372, 12:21:06.647
33293.726563, 24156.826172, 68668.601563, 45443.730469, 64381.714844, 88669.750000, 28234.587891, 32097.617188, 0.000, 0.000, 0.000,0.0,0.0,0.0,0.0,0.9481372, 12:21:06.647
33516.417969, 24386.847656, 68742.046875, 45249.785156, 64185.714844, 88824.085938, 28225.333984, 32115.677734, 0.000, 0.000, 0.000,0.0,0.0,0.0,0.0,0.9481372, 12:21:06.647
33892.867188, 24775.253906, 68235.250000, 44638.062500, 64177.332031, 89191.859375, 27548.568359, 30943.417969, 0.000, 0.000, 0.000,0.0,0.0,0.0,0.0,0.9481372, 12:21:06.648
33706.652344, 24586.269531, 68099.390625, 44754.226563, 64376.015625, 89077.468750, 27476.841797, 30782.978516, 0.000, 0.000, 0.000,0.0,0.0,0.0,0.0,0.64261556, 12:21:06.648
33315.406250, 24182.462891, 68579.062500, 45373.347656, 64395.976563, 88700.523438, 28137.515625, 31926.962891, 0.000, 0.000, 0.000,0.0,0.0,0.0,0.0,0.64261556, 12:21:06.648
33431.144531, 24304.638672, 68778.843750, 45347.128906, 64206.882813, 88753.523438, 28307.187500, 32249.900391, 0.000, 0.000, 0.000,0.0,0.0,0.0,0.0,0.64261556, 12:21:06.649
33840.429688, 24726.638672, 68313.117188, 44720.878906, 64154.355469, 89139.554688, 27665.513672, 31145.187500, 0.000, 0.000, 0.000,0.0,0.0,0.0,0.0,0.64261556, 12:21:06.649
33764.230469, 24642.193359, 68048.992188, 44668.664063, 64338.289063, 89127.890625, 27414.480469, 30679.935547, 0.000, 0.000, 0.000,0.0,0.0,0.0,0.0,0.64261556, 12:21:06.650
33347.660156, 24210.828125, 68471.304688, 45289.125000, 64417.433594, 88744.625000, 28019.162109, 31723.851563, 0.120, 0.282, 0.952,0.0,0.0,0.0,0.0,0.64261556, 12:21:06.650
33372.093750, 24235.638672, 68768.695313, 45417.468750, 64238.128906, 88708.570313, 28337.228516, 32312.306641, 0.000, 0.000, 0.000,0.0,0.0,0.0,0.0,0.64261556, 12:21:06.650
33792.910156, 24668.658203, 68377.960938, 44819.203125, 64140.542969, 89085.843750, 27775.818359, 31349.638672, 0.000, 0.000, 0.000,0.0,0.0,0.0,0.0,0.64261556, 12:21:06.650
33821.382813, 24697.357422, 68017.046875, 44613.812500, 64299.687500, 89176.328125, 27375.386719, 30624.035156, 0.000, 0.000, 0.000,0.0,0.0,0.0,0.0,0.64261556, 12:21:06.651
33401.484375, 24267.220703, 68346.312500, 45186.597656, 64421.816406, 88819.726563, 27888.091797, 31494.298828, 0.000, 0.000, 0.000,0.0,0.0,0.0,0.0,0.64261556, 12:21:06.651
33293.972656, 24160.222656, 68759.929688, 45481.953125, 64277.847656, 88671.398438, 28366.576172, 32348.136719, 0.000, 0.000, 0.000,0.0,0.0,0.0,0.0,0.64261556, 12:21:06.651
33699.343750, 24572.613281, 68482.210938, 44948.730469, 64137.925781, 89012.710938, 27926.402344, 31603.912109, 0.000, 0.000, 0.000,0.0,0.0,0.0,0.0,0.64261556, 12:21:06.651
33853.882813, 24726.705078, 68030.414063, 44586.746094, 64258.917969, 89197.117188, 27391.302734, 30655.595703, 0.000, 0.000, 0.000,0.0,0.0,0.0,0.0,0.64261556, 12:21:06.651
33474.128906, 24332.019531, 68257.015625, 45080.269531, 64426.531250, 88882.445313, 27781.898438, 31300.175781, 0.000, 0.000, 0.000,0.0,0.0,0.0,0.0,0.64261556, 12:21:06.652
33278.640625, 24128.238281, 68729.398438, 45503.031250, 64318.886719, 88654.968750, 28363.871094, 32327.259766, 0.110, 0.284, 0.954,0.0,0.0,0.0,0.0,0.64261556, 12:21:06.652
33655.937500, 24517.425781, 68548.460938, 45065.675781, 64151.492188, 88962.000000, 28053.382813, 31820.099609, 0.000, 0.000, 0.000,0.0,0.0,0.0,0.0,0.64261556, 12:21:06.652
33894.945313, 24770.515625, 68030.015625, 44583.101563, 64239.425781, 89228.140625, 27415.173828, 30708.076172, 0.000, 0.000, 0.000,0.0,0.0,0.0,0.0,0.64261556, 12:21:06.652
33549.273438, 24411.814453, 68138.148438, 44964.667969, 64429.773438, 88954.531250, 27646.267578, 31079.205078, 0.000, 0.000, 0.000,0.0,0.0,0.0,0.0,0.64261556, 12:21:06.653
33258.968750, 24108.277344, 68665.632813, 45501.710938, 64361.554688, 88642.476563, 28300.369141, 32232.265625, 0.000, 0.000, 0.000,0.0,0.0,0.0,0.0,0.64261556, 12:21:06.653
33565.078125, 24424.464844, 68625.421875, 45195.605469, 64164.589844, 88872.187500, 28154.970703, 32021.666016, 0.000, 0.000, 0.000,0.0,0.0,0.0,0.0,0.64261556, 12:21:06.653
33897.289063, 24763.630859, 68085.492188, 44614.953125, 64192.242188, 89205.765625, 27467.656250, 30831.548828, 0.000, 0.000, 0.000,0.0,0.0,0.0,0.0,0.64261556, 12:21:06.653
33638.054688, 24495.722656, 68042.890625, 44838.312500, 64392.601563, 89022.460938, 27523.914063, 30885.349609, 0.000, 0.000, 0.000,0.0,0.0,0.0,0.0,0.64261556, 12:21:06.654
33281.121094, 24130.093750, 68546.898438, 45436.312500, 64389.875000, 88676.898438, 28203.408203, 32056.201172, 0.000, 0.000, 0.000,0.0,0.0,0.0,0.0,0.64261556, 12:21:06.654
33477.925781, 24336.042969, 68652.820313, 45289.886719, 64192.218750, 88802.156250, 28251.195313, 32160.851563, 0.000, 0.000, 0.000,0.0,0.0,0.0,0.0,0.64261556, 12:21:06.654
33861.035156, 24728.382813, 68143.445313, 44663.121094, 64164.523438, 89168.125000, 27571.792969, 30986.132813, 0.118, 0.290, 0.956,0.0,0.0,0.0,0.0,0.64261556, 12:21:06.654
33705.667969, 24565.103516, 67976.257813, 44734.199219, 64358.203125, 89083.429688, 27447.271484, 30733.535156, 0.000, 0.000, 0.000,0.0,0.0,0.0,0.0,0.64261556, 12:21:06.655
33314.984375, 24160.648438, 68436.726563, 45357.968750, 64396.535156, 88715.453125, 28093.683594, 31849.826172, 0.000, 0.000, 0.000,0.0,0.0,0.0,0.0,0.64261556, 12:21:06.655
33411.183594, 24260.023438, 68653.289063, 45377.726563, 64213.363281, 88742.929688, 28304.951172, 32242.703125, 0.000, 0.000, 0.000,0.0,0.0,0.0,0.0,0.64261556, 12:21:06.655
33824.714844, 24691.345703, 68202.437500, 44752.929688, 64138.375000, 89116.335938, 27682.343750, 31165.371094, 0.000, 0.000, 0.000,0.0,0.0,0.0,0.0,0.64261556, 12:21:06.656
33771.117188, 24632.939453, 67917.312500, 44659.945313, 64310.570313, 89123.148438, 27392.955078, 30624.816406, 0.000, 0.000, 0.000,0.0,0.0,0.0,0.0,0.64261556, 12:21:06.656
33355.820313, 24199.919922, 68325.125000, 45274.730469, 64402.324219, 88752.562500, 27983.175781, 31633.416016, 0.000, 0.000, 0.000,0.0,0.0,0.0,0.0,0.64261556, 12:21:06.656
33332.417969, 24185.615234, 68664.312500, 45455.980469, 64242.578125, 88681.460938, 28352.605469, 32311.144531, 0.000, 0.000, 0.000,0.0,0.0,0.0,0.0,0.64261556, 12:21:06.656
33766.109375, 24627.218750, 68312.093750, 44868.128906, 64126.906250, 89053.437500, 27817.371094, 31407.888672, 0.000, 0.000, 0.000,0.0,0.0,0.0,0.0,0.64261556, 12:21:06.657
33855.425781, 24716.132813, 67888.210938, 44597.472656, 64280.730469, 89193.132813, 27344.609375, 30580.515625, 0.124, 0.298, 0.956,0.0,0.0,0.0,0.0,0.64261556, 12:21:06.657
33450.054688, 24294.802734, 68158.242188, 45138.140625, 64418.933594, 88847.601563, 27800.070313, 31362.000000, 0.000, 0.000, 0.000,0.0,0.0,0.0,0.0,0.64261556, 12:21:06.657
33315.117188, 24155.751953, 68582.101563, 45475.785156, 64292.019531, 88671.804688, 28307.365234, 32264.652344, 0.000, 0.000, 0.000,0.0,0.0,0.0,0.0,0.64261556, 12:21:06.657
33689.507813, 24543.488281, 68372.531250, 44989.164063, 64142.375000, 88982.046875, 27932.839844, 31617.457031, 0.000, 0.000, 0.000,0.0,0.0,0.0,0.0,0.64261556, 12:21:06.658
33868.746094, 24728.650391, 67923.195313, 44589.316406, 64241.863281, 89188.125000, 27379.365234, 30631.031250, 0.000, 0.000, 0.000,0.055625364,0.12500168,0.14292417,0.09794747,0.06032508, 12:21:07.108
33514.160156, 24365.435547, 68094.585938, 45033.152344, 64409.320313, 88895.921875, 27708.361328, 31177.441406, 0.000, 0.000, 0.000,0.055625364,0.12500168,0.14292417,0.09794747,0.06032508, 12:21:07.109
33289.703125, 24138.363281, 68565.851563, 45486.937500, 64319.957031, 88646.859375, 28302.134766, 32232.957031, 0.000, 0.000, 0.000,0.055625364,0.12500168,0.14292417,0.09794747,0.06032508, 12:21:07.110
33624.019531, 24482.646484, 68454.250000, 45101.593750, 64146.128906, 88908.437500, 28061.162109, 31837.421875, 0.000, 0.000, 0.000,0.055625364,0.12500168,0.14292417,0.09794747,0.06032508, 12:21:07.110
33893.269531, 24754.376953, 67957.500000, 44597.226563, 64205.339844, 89190.343750, 27423.287109, 30721.152344, 0.000, 0.000, 0.000,0.055625364,0.12500168,0.14292417,0.09794747,0.06032508, 12:21:07.110
33590.582031, 24441.273438, 68024.890625, 44931.207031, 64390.457031, 88958.351563, 27601.519531, 30997.621094, 0.000, 0.000, 0.000,0.055625364,0.12500168,0.14292417,0.09794747,0.06032508, 12:21:07.110
33289.031250, 24134.496094, 68511.132813, 45471.671875, 64339.695313, 88654.343750, 28241.740234, 32136.041016, 0.136, 0.304, 0.948,0.055625364,0.12500168,0.14292417,0.09794747,0.06032508, 12:21:07.111
33554.570313, 24410.294922, 68504.648438, 45214.515625, 64159.183594, 88847.578125, 28155.597656, 32022.046875, 0.000, 0.000, 0.000,0.055625364,0.12500168,0.14292417,0.09794747,0.06032508, 12:21:07.111
33891.769531, 24761.685547, 67992.750000, 44633.660156, 64179.656250, 89180.593750, 27488.666016, 30854.503906, 0.000, 0.000, 0.000,0.055625364,0.12500168,0.14292417,0.09794747,0.06032508, 12:21:07.111
33662.039063, 24522.902344, 67925.179688, 44818.039063, 64373.558594, 89028.695313, 27498.166016, 30829.246094, 0.000, 0.000, 0.000,0.055625364,0.12500168,0.14292417,0.09794747,0.06032508, 12:21:07.112
33292.988281, 24137.021484, 68426.734375, 45430.902344, 64378.296875, 88670.507813, 28171.445313, 31998.376953, 0.000, 0.000, 0.000,0.055625364,0.12500168,0.14292417,0.09794747,0.06032508, 12:21:07.112
33462.617188, 24314.628906, 68574.390625, 45334.589844, 64188.328125, 88767.179688, 28267.736328, 32201.351563, 0.000, 0.000, 0.000,0.055625364,0.12500168,0.14292417,0.09794747,0.06032508, 12:21:07.112
33856.453125, 24719.621094, 68112.046875, 44716.183594, 64152.878906, 89132.156250, 27620.273438, 31076.701172, 0.000, 0.000, 0.000,0.055625364,0.12500168,0.14292417,0.09794747,0.06032508, 12:21:07.113
33745.320313, 24602.384766, 67913.695313, 44730.601563, 64344.636719, 89085.648438, 27443.671875, 30735.904297, 0.000, 0.000, 0.000,0.055625364,0.12500168,0.14292417,0.09794747,0.06032508, 12:21:07.113
33333.847656, 24181.591797, 68365.375000, 45353.453125, 64400.179688, 88710.984375, 28072.337891, 31824.054688, 0.000, 0.000, 0.000,0.055625364,0.12500168,0.14292417,0.09794747,0.06032508, 12:21:07.113
33405.394531, 24257.431641, 68608.320313, 45418.832031, 64217.656250, 88720.750000, 28317.111328, 32294.447266, 0.000, 0.000, 0.000,0.055625364,0.12500168,0.14292417,0.09794747,0.06032508, 12:21:07.113
33832.515625, 24691.144531, 68190.523438, 44812.789063, 64138.417969, 89097.109375, 27721.972656, 31271.140625, 0.130, 0.302, 0.950,0.055625364,0.12500168,0.14292417,0.09794747,0.06032508, 12:21:07.114
33813.738281, 24675.945313, 67869.953125, 44669.402344, 64313.746094, 89140.742188, 27383.322266, 30650.140625, 0.000, 0.000, 0.000,0.055625364,0.12500168,0.14292417,0.09794747,0.06032508, 12:21:07.114
33390.242188, 24243.394531, 68254.828125, 45271.355469, 64410.371094, 88763.359375, 27944.373047, 31606.169922, 0.000, 0.000, 0.000,0.055625364,0.12500168,0.14292417,0.09794747,0.06032508, 12:21:07.115
33362.750000, 24206.960938, 68603.289063, 45495.542969, 64252.679688, 88674.820313, 28347.398438, 32342.011719, 0.000, 0.000, 0.000,0.055625364,0.12500168,0.14292417,0.09794747,0.06032508, 12:21:07.115
33779.050781, 24632.001953, 68281.406250, 44936.726563, 64134.328125, 89032.429688, 27862.566406, 31508.716797, 0.000, 0.000, 0.000,0.055625364,0.12500168,0.14292417,0.09794747,0.06032508, 12:21:07.115
33883.769531, 24739.333984, 67850.257813, 44628.074219, 64274.183594, 89183.281250, 27369.128906, 30630.292969, 0.000, 0.000, 0.000,0.055625364,0.12500168,0.14292417,0.09794747,0.06032508, 12:21:07.116
33472.316406, 24319.390625, 68097.468750, 45141.492188, 64417.457031, 88836.398438, 27790.437500, 31340.945313, 0.000, 0.000, 0.000,0.055625364,0.12500168,0.14292417,0.09794747,0.06032508, 12:21:07.116
33314.535156, 24163.263672, 68530.914063, 45514.542969, 64299.125000, 88644.218750, 28319.837891, 32286.378906, 0.000, 0.000, 0.000,0.055625364,0.12500168,0.14292417,0.09794747,0.06032508, 12:21:07.116
33686.289063, 24544.115234, 68355.992188, 45061.160156, 64154.265625, 88950.015625, 27991.445313, 31720.677734, 0.000, 0.000, 0.000,0.055625364,0.12500168,0.14292417,0.09794747,0.06032508, 12:21:07.116
33882.628906, 24742.753906, 67912.640625, 44634.109375, 64243.316406, 89167.585938, 27421.455078, 30704.076172, 0.124, 0.306, 0.958,0.055625364,0.12500168,0.14292417,0.09794747,0.06032508, 12:21:07.117
33535.171875, 24389.082031, 68038.351563, 45028.617188, 64399.574219, 88892.546875, 27682.277344, 31144.494141, 0.000, 0.000, 0.000,0.055625364,0.12500168,0.14292417,0.09794747,0.06032508, 12:21:07.117
33291.113281, 24135.345703, 68481.695313, 45493.734375, 64318.394531, 88632.398438, 28264.382813, 32193.037109, 0.000, 0.000, 0.000,0.055625364,0.12500168,0.14292417,0.09794747,0.06032508, 12:21:07.117
33601.980469, 24452.001953, 68421.500000, 45159.218750, 64155.875000, 88867.492188, 28082.664063, 31900.050781, 0.000, 0.000, 0.000,0.055625364,0.12500168,0.14292417,0.09794747,0.06032508, 12:21:07.117
33887.097656, 24738.931641, 67975.187500, 44647.765625, 64210.859375, 89155.898438, 27471.007813, 30810.626953, 0.000, 0.000, 0.000,0.055625364,0.12500168,0.14292417,0.09794747,0.06032508, 12:21:07.117
33606.339844, 24451.154297, 67996.351563, 44913.972656, 64378.320313, 88948.632813, 27586.343750, 30984.388672, 0.000, 0.000, 0.000,0.055625364,0.12500168,0.14292417,0.09794747,0.06032508, 12:21:07.117
33290.285156, 24132.886719, 68439.500000, 45448.492188, 64330.753906, 88638.726563, 28195.808594, 32089.615234, 0.000, 0.000, 0.000,0.055625364,0.12500168,0.14292417,0.09794747,0.06032508, 12:21:07.118
33514.113281, 24366.619141, 68481.812500, 45252.019531, 64161.843750, 88798.914063, 28172.003906, 32075.333984, 0.000, 0.000, 0.000,0.055625364,0.12500168,0.14292417,0.09794747,0.06032508, 12:21:07.118
33855.804688, 24719.375000, 68058.000000, 44692.914063, 64173.398438, 89124.695313, 27563.500000, 30980.500000, 0.000, 0.000, 0.000,0.055625364,0.12500168,0.14292417,0.09794747,0.06032508, 12:21:07.118
33680.210938, 24532.267578, 67947.062500, 44814.285156, 64354.246094, 89016.468750, 27505.787109, 30851.173828, 0.000, 0.000, 0.000,0.055625364,0.12500168,0.14292417,0.09794747,0.06032508, 12:21:07.118
33291.042969, 24134.808594, 68395.953125, 45401.777344, 64358.875000, 88650.210938, 28131.300781, 31959.058594, 0.140, 0.304, 0.952,0.055625364,0.12500168,0.14292417,0.09794747,0.06032508, 12:21:07.118
33451.285156, 24296.769531, 68529.734375, 45338.769531, 64180.796875, 88740.648438, 28244.087891, 32211.455078, 0.000, 0.000, 0.000,0.055625364,0.12500168,0.14292417,0.09794747,0.06032508, 12:21:07.118
33852.296875, 24706.677734, 68125.406250, 44757.867188, 64166.312500, 89101.117188, 27650.113281, 31164.007813, 0.000, 0.000, 0.000,0.055625364,0.12500168,0.14292417,0.09794747,0.06032508, 12:21:07.119
33764.566406, 24617.003906, 67927.578125, 44738.804688, 64348.835938, 89080.171875, 27444.542969, 30768.046875, 0.000, 0.000, 0.000,0.055625364,0.12500168,0.14292417,0.09794747,0.06032508, 12:21:07.119
33367.085938, 24210.984375, 68284.218750, 45309.218750, 64394.925781, 88726.453125, 27993.054688, 31751.634766, 0.000, 0.000, 0.000,0.055625364,0.12500168,0.14292417,0.09794747,0.06032508, 12:21:07.119
33392.296875, 24241.628906, 68530.218750, 45416.843750, 64230.417969, 88694.445313, 28272.720703, 32285.439453, 0.000, 0.000, 0.000,0.055625364,0.12500168,0.14292417,0.09794747,0.06032508, 12:21:07.119
33788.773438, 24645.279297, 68208.554688, 44862.117188, 64157.820313, 89045.164063, 27765.783203, 31384.687500, 0.000, 0.000, 0.000,0.055625364,0.12500168,0.14292417,0.09794747,0.06032508, 12:21:07.119
33793.578125, 24641.902344, 67935.601563, 44689.003906, 64306.839844, 89102.429688, 27428.181641, 30751.820313, 0.000, 0.000, 0.000,0.055625364,0.12500168,0.14292417,0.09794747,0.06032508, 12:21:07.119
33401.574219, 24241.226563, 68225.343750, 45210.246094, 64382.765625, 88763.445313, 27891.689453, 31582.500000, 0.000, 0.000, 0.000,0.055625364,0.12500168,0.14292417,0.09794747,0.06032508, 12:21:07.119
33335.031250, 24175.466797, 68524.656250, 45437.183594, 64237.949219, 88655.148438, 28277.482422, 32317.513672, 0.142, 0.290, 0.950,0.055625364,0.12500168,0.14292417,0.09794747,0.06032508, 12:21:07.120
33718.007813, 24568.277344, 68286.898438, 44943.230469, 64141.750000, 88978.398438, 27873.787109, 31603.488281, 0.000, 0.000, 0.000,0.055625364,0.12500168,0.14292417,0.09794747,0.06032508, 12:21:07.120
33832.312500, 24682.001953, 67965.882813, 44657.152344, 64276.328125, 89125.765625, 27436.138672, 30779.312500, 0.000, 0.000, 0.000,0.055625364,0.12500168,0.14292417,0.09794747,0.06032508, 12:21:07.120
33471.289063, 24315.568359, 68173.937500, 45114.671875, 64384.980469, 88825.921875, 27796.136719, 31403.708984, 0.000, 0.000, 0.000,0.055625364,0.12500168,0.14292417,0.09794747,0.06032508, 12:21:07.120
33310.492188, 24157.562500, 68517.570313, 45469.773438, 64265.531250, 88636.781250, 28273.994141, 32304.974609, 0.000, 0.000, 0.000,0.055625364,0.12500168,0.14292417,0.09794747,0.06032508, 12:21:07.120
33641.878906, 24501.511719, 68377.093750, 45070.882813, 64141.972656, 88909.562500, 28003.425781, 31830.447266, 0.000, 0.000, 0.000,0.055625364,0.12500168,0.14292417,0.09794747,0.06032508, 12:21:07.120
33858.777344, 24716.201172, 68009.000000, 44665.734375, 64233.078125, 89139.023438, 27481.132813, 30859.419922, 0.000, 0.000, 0.000,0.055625364,0.12500168,0.14292417,0.09794747,0.06032508, 12:21:07.121
33561.859375, 24403.097656, 68106.968750, 45018.042969, 64375.277344, 88900.867188, 27695.509766, 31224.291016, 0.000, 0.000, 0.000,0.055625364,0.12500168,0.14292417,0.09794747,0.06032508, 12:21:07.121
33304.253906, 24140.732422, 68505.968750, 45475.808594, 64300.199219, 88638.562500, 28248.826172, 32252.449219, 0.000, 0.000, 0.000,0.055625364,0.12500168,0.14292417,0.09794747,0.06032508, 12:21:07.121
33579.203125, 24427.214844, 68464.148438, 45187.937500, 64152.945313, 88848.046875, 28109.820313, 32032.753906, 0.000, 0.000, 0.000,0.055625364,0.12500168,0.14292417,0.09794747,0.06032508, 12:21:07.121
33855.113281, 24717.384766, 68085.000000, 44705.253906, 64212.648438, 89126.796875, 27546.691406, 30990.849609, 0.134, 0.296, 0.952,0.055625364,0.12500168,0.14292417,0.09794747,0.06032508, 12:21:07.121
33615.390625, 24467.828125, 68089.710938, 44931.988281, 64358.695313, 88952.609375, 27616.673828, 31084.300781, 0.000, 0.000, 0.000,0.055625364,0.12500168,0.14292417,0.09794747,0.06032508, 12:21:07.122
33310.265625, 24147.281250, 68466.523438, 45441.183594, 64313.277344, 88646.882813, 28178.664063, 32126.474609, 0.000, 0.000, 0.000,0.055625364,0.12500168,0.14292417,0.09794747,0.06032508, 12:21:07.122
33521.156250, 24363.445313, 68498.507813, 45274.531250, 64160.835938, 88790.515625, 28173.501953, 32160.671875, 0.000, 0.000, 0.000,0.055625364,0.12500168,0.14292417,0.09794747,0.06032508, 12:21:07.122
33871.945313, 24722.392578, 68102.945313, 44733.730469, 64189.402344, 89123.148438, 27594.859375, 31099.769531, 0.000, 0.000, 0.000,0.055625364,0.12500168,0.14292417,0.09794747,0.06032508, 12:21:07.122
33695.433594, 24539.957031, 68024.406250, 44836.078125, 64356.703125, 89011.257813, 27529.501953, 30925.335938, 0.000, 0.000, 0.000,0.055625364,0.12500168,0.14292417,0.09794747,0.06032508, 12:21:07.123
33329.960938, 24171.980469, 68381.937500, 45377.882813, 64352.546875, 88678.734375, 28080.025391, 31928.503906, 0.000, 0.000, 0.000,0.055625364,0.12500168,0.14292417,0.09794747,0.06032508, 12:21:07.123
33433.558594, 24282.957031, 68525.976563, 45362.214844, 64194.007813, 88723.726563, 28236.398438, 32242.748047, 0.000, 0.000, 0.000,0.055625364,0.12500168,0.14292417,0.09794747,0.06032508, 12:21:07.123
33805.312500, 24664.412109, 68192.976563, 44817.726563, 64164.859375, 89056.523438, 27707.466797, 31273.263672, 0.000, 0.000, 0.000,0.055625364,0.12500168,0.14292417,0.09794747,0.06032508, 12:21:07.123
33753.457031, 24608.621094, 68005.984375, 44762.718750, 64320.183594, 89059.093750, 27480.664063, 30823.546875, 0.000, 0.000, 0.000,0.055625364,0.12500168,0.14292417,0.09794747,0.06032508, 12:21:07.124
33387.937500, 24229.333984, 68297.695313, 45296.007813, 64363.457031, 88732.507813, 27967.886719, 31717.503906, 0.142, 0.300, 0.954,0.055625364,0.12500168,0.14292417,0.09794747,0.06032508, 12:21:07.124
33379.738281, 24225.154297, 68530.710938, 45436.648438, 64212.355469, 88674.710938, 28260.248047, 32287.808594, 0.000, 0.000, 0.000,0.055625364,0.12500168,0.14292417,0.09794747,0.06032508, 12:21:07.124
33775.429688, 24630.906250, 68237.906250, 44909.347656, 64143.582031, 89020.554688, 27788.246094, 31447.919922, 0.000, 0.000, 0.000,0.055625364,0.12500168,0.14292417,0.09794747,0.06032508, 12:21:07.124
33811.324219, 24669.462891, 67968.750000, 44717.972656, 64299.773438, 89102.945313, 27434.507813, 30768.830078, 0.000, 0.000, 0.000,0.055625364,0.12500168,0.14292417,0.09794747,0.06032508, 12:21:07.125
33433.828125, 24283.404297, 68222.171875, 45215.878906, 64380.554688, 88779.250000, 27858.677734, 31520.898438, 0.000, 0.000, 0.000,0.055625364,0.12500168,0.14292417,0.09794747,0.06032508, 12:21:07.125
33334.093750, 24183.960938, 68514.062500, 45477.906250, 64247.316406, 88643.078125, 28264.181641, 32291.138672, 0.000, 0.000, 0.000,0.055625364,0.12500168,0.14292417,0.09794747,0.06032508, 12:21:07.125
33685.886719, 24547.445313, 68323.625000, 45025.171875, 64151.648438, 88935.781250, 27924.501953, 31669.044922, 0.000, 0.000, 0.000,0.055625364,0.12500168,0.14292417,0.09794747,0.06032508, 12:21:07.126
33833.835938, 24692.015625, 68001.734375, 44705.074219, 64268.484375, 89112.984375, 27474.740234, 30809.353516, 0.000, 0.000, 0.000,0.055625364,0.12500168,0.14292417,0.09794747,0.06032508, 12:21:07.126
33495.472656, 24341.607422, 68167.875000, 45123.679688, 64379.390625, 88830.390625, 27779.910156, 31337.501953, 0.000, 0.000, 0.000,0.055625364,0.12500168,0.14292417,0.09794747,0.06032508, 12:21:07.126
33314.761719, 24152.892578, 68504.718750, 45498.292969, 64272.304688, 88625.804688, 28264.093750, 32251.576172, 0.150, 0.300, 0.950,0.055625364,0.12500168,0.14292417,0.09794747,0.06032508, 12:21:07.126
33634.144531, 24480.703125, 68391.890625, 45132.910156, 64150.441406, 88879.898438, 28034.226563, 31848.708984, 0.000, 0.000, 0.000,0.055625364,0.12500168,0.14292417,0.09794747,0.06032508, 12:21:07.127
33879.855469, 24724.851563, 68018.078125, 44703.398438, 64242.128906, 89132.804688, 27500.109375, 30849.138672, 0.000, 0.000, 0.000,0.055625364,0.12500168,0.14292417,0.09794747,0.06032508, 12:21:07.127
33575.714844, 24415.345703, 68097.960938, 45020.121094, 64384.890625, 88901.671875, 27677.626953, 31128.289063, 0.000, 0.000, 0.000,0.055625364,0.12500168,0.14292417,0.09794747,0.06032508, 12:21:07.127
33299.316406, 24136.910156, 68466.789063, 45480.925781, 64303.976563, 88629.046875, 28216.326172, 32132.062500, 0.000, 0.000, 0.000,0.055625364,0.12500168,0.14292417,0.09794747,0.06032508, 12:21:07.128
33541.832031, 24385.193359, 68444.992188, 45224.261719, 64159.046875, 88813.695313, 28119.968750, 31991.044922, 0.000, 0.000, 0.000,0.055625364,0.12500168,0.14292417,0.09794747,0.06032508, 12:21:07.128
33841.300781, 24689.400391, 68085.289063, 44720.945313, 64207.484375, 89102.367188, 27567.902344, 30967.804688, 0.000, 0.000, 0.000,0.055625364,0.12500168,0.14292417,0.09794747,0.06032508, 12:21:07.129
33630.476563, 24478.646484, 68052.945313, 44893.945313, 64359.207031, 88963.937500, 27584.533203, 30973.570313, 0.000, 0.000, 0.000,0.04511521,0.10276836,0.13235646,0.087094024,0.054802526, 12:21:07.129
33308.859375, 24154.255859, 68401.093750, 45411.054688, 64330.687500, 88662.351563, 28124.394531, 31989.099609, 0.000, 0.000, 0.000,0.04511521,0.10276836,0.13235646,0.087094024,0.054802526, 12:21:07.129
33483.203125, 24331.416016, 68463.546875, 45294.714844, 64182.316406, 88766.734375, 28168.695313, 32114.404297, 0.000, 0.000, 0.000,0.04511521,0.10276836,0.13235646,0.087094024,0.054802526, 12:21:07.130
33827.171875, 24688.103516, 68125.140625, 44770.027344, 64201.496094, 89092.554688, 27634.779297, 31123.261719, 0.136, 0.302, 0.956,0.04511521,0.10276836,0.13235646,0.087094024,0.054802526, 12:21:07.130
33704.171875, 24565.236328, 67983.835938, 44807.085938, 64362.605469, 89038.460938, 27498.478516, 30845.226563, 0.000, 0.000, 0.000,0.04511521,0.10276836,0.13235646,0.087094024,0.054802526, 12:21:07.130
33343.839844, 24181.033203, 68321.460938, 45352.179688, 64366.785156, 88685.234375, 28028.148438, 31816.722656, 0.000, 0.000, 0.000,0.04511521,0.10276836,0.13235646,0.087094024,0.054802526, 12:21:07.130
33423.253906, 24255.263672, 68500.875000, 45390.558594, 64210.347656, 88696.257813, 28234.521484, 32220.910156, 0.000, 0.000, 0.000,0.04511521,0.10276836,0.13235646,0.087094024,0.054802526, 12:21:07.131
33793.242188, 24636.695313, 68209.609375, 44859.324219, 64171.117188, 89024.070313, 27750.292969, 31322.458984, 0.000, 0.000, 0.000,0.04511521,0.10276836,0.13235646,0.087094024,0.054802526, 12:21:07.131
33773.285156, 24619.976563, 67983.742188, 44749.308594, 64311.843750, 89061.953125, 27475.187500, 30794.175781, 0.000, 0.000, 0.000,0.04511521,0.10276836,0.13235646,0.087094024,0.054802526, 12:21:07.131
33386.152344, 24231.279297, 68262.179688, 45276.542969, 64366.964844, 88729.226563, 27940.126953, 31638.580078, 0.000, 0.000, 0.000,0.04511521,0.10276836,0.13235646,0.087094024,0.054802526, 12:21:07.131
33352.222656, 24203.919922, 68514.640625, 45455.222656, 64222.347656, 88652.757813, 28264.226563, 32264.517578, 0.000, 0.000, 0.000,0.04511521,0.10276836,0.13235646,0.087094024,0.054802526, 12:21:07.132
33728.824219, 24593.601563, 68281.492188, 44961.425781, 64153.347656, 88975.273438, 27855.726563, 31515.890625, 0.000, 0.000, 0.000,0.04511521,0.10276836,0.13235646,0.087094024,0.054802526, 12:21:07.132
33829.183594, 24681.755859, 67999.125000, 44723.312500, 64292.601563, 89101.515625, 27471.388672, 30779.603516, 0.134, 0.308, 0.948,0.04511521,0.10276836,0.13235646,0.087094024,0.054802526, 12:21:07.132
33449.429688, 24296.367188, 68219.171875, 45187.714844, 64383.304688, 88781.390625, 27847.277344, 31447.361328, 0.000, 0.000, 0.000,0.04511521,0.10276836,0.13235646,0.087094024,0.054802526, 12:21:07.132
33325.265625, 24173.857422, 68518.867188, 45477.664063, 64249.148438, 88634.367188, 28262.640625, 32251.755859, 0.000, 0.000, 0.000,0.04511521,0.10276836,0.13235646,0.087094024,0.054802526, 12:21:07.133
33685.105469, 24535.597656, 68346.085938, 45054.031250, 64152.121094, 88925.492188, 27950.140625, 31697.476563, 0.000, 0.000, 0.000,0.04511521,0.10276836,0.13235646,0.087094024,0.054802526, 12:21:07.133
33867.562500, 24716.714844, 68009.828125, 44700.851563, 64269.085938, 89127.171875, 27477.712891, 30800.568359, 0.000, 0.000, 0.000,0.04511521,0.10276836,0.13235646,0.087094024,0.054802526, 12:21:07.133
33537.449219, 24380.142578, 68132.203125, 45082.281250, 64393.472656, 88864.367188, 27728.947266, 31236.517578, 0.000, 0.000, 0.000,0.04511521,0.10276836,0.13235646,0.087094024,0.054802526, 12:21:07.133
33323.187500, 24161.429688, 68490.210938, 45490.871094, 64289.628906, 88619.585938, 28230.855469, 32180.632813, 0.000, 0.000, 0.000,0.04511521,0.10276836,0.13235646,0.087094024,0.054802526, 12:21:07.133
33650.101563, 24494.470703, 68395.953125, 45165.812500, 64165.910156, 88872.546875, 28038.765625, 31858.923828, 0.000, 0.000, 0.000,0.04511521,0.10276836,0.13235646,0.087094024,0.054802526, 12:21:07.134
33909.785156, 24753.460938, 68051.601563, 44732.925781, 64253.082031, 89119.773438, 27520.740234, 30876.855469, 0.000, 0.000, 0.000,0.04511521,0.10276836,0.13235646,0.087094024,0.054802526, 12:21:07.134
33644.089844, 24486.312500, 68085.804688, 45002.171875, 64390.812500, 88920.375000, 27636.007813, 31059.312500, 0.000, 0.000, 0.000,0.04511521,0.10276836,0.13235646,0.087094024,0.054802526, 12:21:07.134
33351.214844, 24189.437500, 68455.273438, 45494.312500, 64324.117188, 88625.804688, 28176.406250, 32068.671875, 0.132, 0.322, 0.956,0.04511521,0.10276836,0.13235646,0.087094024,0.054802526, 12:21:07.135
33587.851563, 24438.279297, 68461.648438, 45290.511719, 64178.359375, 88797.625000, 28132.955078, 32015.207031, 0.000, 0.000, 0.000,0.04511521,0.10276836,0.13235646,0.087094024,0.054802526, 12:21:07.135
33918.925781, 24768.750000, 68092.148438, 44777.113281, 64214.281250, 89105.429688, 27585.539063, 30990.826172, 0.000, 0.000, 0.000,0.04511521,0.10276836,0.13235646,0.087094024,0.054802526, 12:21:07.135
33754.128906, 24594.136719, 68006.546875, 44908.250000, 64369.355469, 89002.765625, 27544.544922, 30891.406250, 0.000, 0.000, 0.000,0.04511521,0.10276836,0.13235646,0.087094024,0.054802526, 12:21:07.135
33409.218750, 24243.617188, 68327.382813, 45434.769531, 64358.558594, 88689.375000, 28063.664063, 31866.388672, 0.000, 0.000, 0.000,0.04511521,0.10276836,0.13235646,0.087094024,0.054802526, 12:21:07.136
33513.511719, 24351.285156, 68445.218750, 45379.113281, 64212.691406, 88740.601563, 28173.277344, 32092.119141, 0.000, 0.000, 0.000,0.04511521,0.10276836,0.13235646,0.087094024,0.054802526, 12:21:07.136
33872.636719, 24717.318359, 68126.820313, 44849.175781, 64207.863281, 89071.070313, 27663.433594, 31138.236328, 0.000, 0.000, 0.000,0.04511521,0.10276836,0.13235646,0.087094024,0.054802526, 12:21:07.136
33789.890625, 24630.705078, 67967.875000, 44842.046875, 64359.230469, 89049.367188, 27489.828125, 30786.888672, 0.000, 0.000, 0.000,0.04511521,0.10276836,0.13235646,0.087094024,0.054802526, 12:21:07.137
33415.230469, 24247.283203, 68275.125000, 45378.753906, 64378.675781, 88709.625000, 27982.236328, 31698.392578, 0.000, 0.000, 0.000,0.04511521,0.10276836,0.13235646,0.087094024,0.054802526, 12:21:07.137
33446.613281, 24277.099609, 68485.765625, 45468.656250, 64231.222656, 88683.757813, 28228.062500, 32179.582031, 0.000, 0.000, 0.000,0.04511521,0.10276836,0.13235646,0.087094024,0.054802526, 12:21:07.137
33823.867188, 24663.830078, 68219.171875, 44951.187500, 64194.453125, 89014.164063, 27779.910156, 31345.660156, 0.126, 0.318, 0.956,0.04511521,0.10276836,0.13235646,0.087094024,0.054802526, 12:21:07.137
33815.820313, 24655.650391, 68022.523438, 44819.917969, 64335.605469, 89056.296875, 27501.339844, 30792.521484, 0.000, 0.000, 0.000,0.04511521,0.10276836,0.13235646,0.087094024,0.054802526, 12:21:07.138
33449.316406, 24281.951172, 68268.460938, 45308.593750, 64367.679688, 88742.812500, 27910.533203, 31555.611328, 0.000, 0.000, 0.000,0.04511521,0.10276836,0.13235646,0.087094024,0.054802526, 12:21:07.138
33400.949219, 24239.058594, 68505.593750, 45510.519531, 64230.976563, 88655.531250, 28242.457031, 32212.908203, 0.000, 0.000, 0.000,0.04511521,0.10276836,0.13235646,0.087094024,0.054802526, 12:21:07.138
33771.742188, 24610.365234, 68297.179688, 45052.890625, 64173.218750, 88955.781250, 27882.906250, 31545.507813, 0.000, 0.000, 0.000,0.04511521,0.10276836,0.13235646,0.087094024,0.054802526, 12:21:07.138
33878.628906, 24722.123047, 68018.125000, 44793.074219, 64297.988281, 89092.914063, 27491.503906, 30785.951172, 0.000, 0.000, 0.000,0.04511521,0.10276836,0.13235646,0.087094024,0.054802526, 12:21:07.138
33536.535156, 24372.699219, 68190.054688, 45232.843750, 64391.843750, 88810.273438, 27811.582031, 31364.570313, 0.000, 0.000, 0.000,0.04511521,0.10276836,0.13235646,0.087094024,0.054802526, 12:21:07.139
33386.152344, 24223.343750, 68483.062500, 45560.542969, 64278.003906, 88639.390625, 28234.230469, 32190.333984, 0.000, 0.000, 0.000,0.04511521,0.10276836,0.13235646,0.087094024,0.054802526, 12:21:07.139
33713.492188, 24551.423828, 68352.031250, 45176.875000, 64187.144531, 88902.984375, 27986.015625, 31735.699219, 0.000, 0.000, 0.000,0.04511521,0.10276836,0.13235646,0.087094024,0.054802526, 12:21:07.139
33917.562500, 24755.181641, 68030.414063, 44799.687500, 64284.351563, 89113.476563, 27520.070313, 30835.615234, 0.132, 0.312, 0.954,0.015025537,0.037848487,0.044503536,0.04075241,0.037854258, 12:21:07.595
33606.875000, 24445.855469, 68112.914063, 45134.898438, 64403.242188, 88879.632813, 27716.810547, 31177.708984, 0.000, 0.000, 0.000,0.015025537,0.037848487,0.044503536,0.04075241,0.037854258, 12:21:07.597
33369.050781, 24203.898438, 68453.085938, 45559.000000, 64309.656250, 88633.250000, 28211.789063, 32120.662109, 0.000, 0.000, 0.000,0.015025537,0.037848487,0.044503536,0.04075241,0.037854258, 12:21:07.597
33643.980469, 24480.992188, 68412.968750, 45276.562500, 64191.906250, 88842.500000, 28090.396484, 31909.841797, 0.000, 0.000, 0.000,0.015025537,0.037848487,0.044503536,0.04075241,0.037854258, 12:21:07.598
33917.675781, 24760.523438, 68066.179688, 44807.980469, 64247.605469, 89110.187500, 27572.910156, 30932.689453, 0.000, 0.000, 0.000,0.015025537,0.037848487,0.044503536,0.04075241,0.037854258, 12:21:07.598
33692.035156, 24528.871094, 68043.554688, 45020.906250, 64383.480469, 88952.945313, 27619.513672, 31007.814453, 0.000, 0.000, 0.000,0.015025537,0.037848487,0.044503536,0.04075241,0.037854258, 12:21:07.599
33382.441406, 24214.738281, 68365.132813, 45509.871094, 64339.335938, 88662.234375, 28121.779297, 31970.726563, 0.000, 0.000, 0.000,0.015025537,0.037848487,0.044503536,0.04075241,0.037854258, 12:21:07.599
33563.914063, 24398.179688, 68428.453125, 45363.667969, 64205.136719, 88772.093750, 28143.191406, 32026.562500, 0.000, 0.000, 0.000,0.015025537,0.037848487,0.044503536,0.04075241,0.037854258, 12:21:07.599
33910.097656, 24752.923828, 68091.656250, 44847.140625, 64243.695313, 89100.664063, 27627.134766, 31052.853516, 0.000, 0.000, 0.000,0.015025537,0.037848487,0.044503536,0.04075241,0.037854258, 12:21:07.600
33749.812500, 24592.929688, 67992.039063, 44940.707031, 64394.523438, 89012.820313, 27548.322266, 30882.554688, 0.000, 0.000, 0.000,0.015025537,0.037848487,0.044503536,0.04075241,0.037854258, 12:21:07.600
33387.894531, 24226.876953, 68329.976563, 45478.289063, 64367.390625, 88680.117188, 28057.271484, 31839.880859, 0.128, 0.298, 0.954,0.015025537,0.037848487,0.044503536,0.04075241,0.037854258, 12:21:07.600
33504.792969, 24348.000000, 68464.664063, 45463.648438, 64227.937500, 88740.289063, 28199.160156, 32136.152344, 0.000, 0.000, 0.000,0.015025537,0.037848487,0.044503536,0.04075241,0.037854258, 12:21:07.600
33872.996094, 24722.167969, 68166.898438, 44940.617188, 64231.871094, 89074.539063, 27722.398438, 31239.802734, 0.000, 0.000, 0.000,0.015025537,0.037848487,0.044503536,0.04075241,0.037854258, 12:21:07.601
33804.820313, 24652.185547, 68008.625000, 44896.808594, 64380.175781, 89063.156250, 27521.412109, 30839.058594, 0.000, 0.000, 0.000,0.015025537,0.037848487,0.044503536,0.04075241,0.037854258, 12:21:07.601
33455.351563, 24295.898438, 68273.218750, 45411.144531, 64397.519531, 88749.812500, 27957.671875, 31675.572266, 0.000, 0.000, 0.000,0.015025537,0.037848487,0.044503536,0.04075241,0.037854258, 12:21:07.601
33459.843750, 24302.582031, 68458.812500, 45525.718750, 64253.617188, 88708.570313, 28203.453125, 32182.734375, 0.000, 0.000, 0.000,0.015025537,0.037848487,0.044503536,0.04075241,0.037854258, 12:21:07.601
33805.425781, 24652.431641, 68229.257813, 45031.765625, 64217.945313, 89005.804688, 27807.423828, 31430.373047, 0.000, 0.000, 0.000,0.015025537,0.037848487,0.044503536,0.04075241,0.037854258, 12:21:07.602
33856.542969, 24703.191406, 67995.882813, 44843.386719, 64343.250000, 89098.789063, 27489.203125, 30809.509766, 0.000, 0.000, 0.000,0.015025537,0.037848487,0.044503536,0.04075241,0.037854258, 12:21:07.602
33487.089844, 24326.296875, 68209.968750, 45317.132813, 64401.742188, 88779.250000, 27854.832031, 31497.294922, 0.000, 0.000, 0.000,0.015025537,0.037848487,0.044503536,0.04075241,0.037854258, 12:21:07.602
33396.121094, 24233.134766, 68487.085938, 45568.343750, 64266.449219, 88647.710938, 28218.472656, 32211.812500, 0.150, 0.298, 0.950,0.015025537,0.037848487,0.044503536,0.04075241,0.037854258, 12:21:07.603
33745.902344, 24588.707031, 68309.703125, 45122.785156, 64200.042969, 88943.507813, 27900.921875, 31623.158203, 0.000, 0.000, 0.000,0.015025537,0.037848487,0.044503536,0.04075241,0.037854258, 12:21:07.603
33876.144531, 24721.140625, 68029.007813, 44816.898438, 64317.789063, 89102.789063, 27494.208984, 30833.605469, 0.000, 0.000, 0.000,0.015025537,0.037848487,0.044503536,0.04075241,0.037854258, 12:21:07.603
33549.566406, 24385.908203, 68169.937500, 45215.074219, 64403.843750, 88839.242188, 27756.216797, 31315.531250, 0.000, 0.000, 0.000,0.015025537,0.037848487,0.044503536,0.04075241,0.037854258, 12:21:07.603
33369.074219, 24213.710938, 68462.609375, 45572.835938, 64297.851563, 88650.187500, 28184.386719, 32149.988281, 0.000, 0.000, 0.000,0.015025537,0.037848487,0.044503536,0.04075241,0.037854258, 12:21:07.604
33662.730469, 24513.291016, 68378.898438, 45231.031250, 64202.457031, 88880.078125, 27993.300781, 31795.802734, 0.000, 0.000, 0.000,0.015025537,0.037848487,0.044503536,0.04075241,0.037854258, 12:21:07.604
33906.566406, 24738.441406, 68073.554688, 44823.113281, 64287.167969, 89111.171875, 27531.179688, 30902.447266, 0.000, 0.000, 0.000,0.015025537,0.037848487,0.044503536,0.04075241,0.037854258, 12:21:07.604
33637.117188, 24459.802734, 68126.101563, 45115.652344, 64395.796875, 88901.062500, 27668.462891, 31145.031250, 0.000, 0.000, 0.000,0.015025537,0.037848487,0.044503536,0.04075241,0.037854258, 12:21:07.605
33375.332031, 24209.107422, 68452.820313, 45563.695313, 64311.824219, 88642.992188, 28144.488281, 32065.744141, 0.000, 0.000, 0.000,0.015025537,0.037848487,0.044503536,0.04075241,0.037854258, 12:21:07.605
33615.882813, 24454.886719, 68441.617188, 45322.382813, 64192.332031, 88823.171875, 28066.681641, 31938.205078, 0.000, 0.000, 0.000,0.015025537,0.037848487,0.044503536,0.04075241,0.037854258, 12:21:07.606
33910.500000, 24744.564453, 68127.375000, 44848.976563, 64255.316406, 89099.796875, 27580.576172, 30996.548828, 0.164, 0.300, 0.952,0.015025537,0.037848487,0.044503536,0.04075241,0.037854258, 12:21:07.606
33710.832031, 24537.162109, 68114.726563, 45032.324219, 64383.347656, 88961.195313, 27600.582031, 31006.070313, 0.000, 0.000, 0.000,0.015025537,0.037848487,0.044503536,0.04075241,0.037854258, 12:21:07.606
33381.210938, 24208.792969, 68440.281250, 45532.984375, 64327.757813, 88655.148438, 28080.673828, 31935.298828, 0.000, 0.000, 0.000,0.015025537,0.037848487,0.044503536,0.04075241,0.037854258, 12:21:07.607
33537.136719, 24373.927734, 68514.015625, 45411.277344, 64185.265625, 88753.210938, 28126.003906, 32048.310547, 0.000, 0.000, 0.000,0.015025537,0.037848487,0.044503536,0.04075241,0.037854258, 12:21:07.607
33875.832031, 24720.558594, 68190.609375, 44877.250000, 64210.613281, 89070.312500, 27633.773438, 31110.005859, 0.000, 0.000, 0.000,0.015025537,0.037848487,0.044503536,0.04075241,0.037854258, 12:21:07.607
33751.691406, 24582.603516, 68105.070313, 44937.957031, 64358.226563, 88997.937500, 27540.119141, 30883.785156, 0.000, 0.000, 0.000,0.015025537,0.037848487,0.044503536,0.04075241,0.037854258, 12:21:07.607
33419.187500, 24237.582031, 68394.414063, 45458.773438, 64337.011719, 88689.101563, 27993.927734, 31756.664063, 0.000, 0.000, 0.000,0.015025537,0.037848487,0.044503536,0.04075241,0.037854258, 12:21:07.608
33496.570313, 24320.462891, 68531.695313, 45482.535156, 64201.828125, 88713.265625, 28156.066406, 32098.712891, 0.000, 0.000, 0.000,0.015025537,0.037848487,0.044503536,0.04075241,0.037854258, 12:21:07.608
33857.257813, 24684.037109, 68268.976563, 44970.968750, 64211.910156, 89030.570313, 27728.031250, 31269.798828, 0.000, 0.000, 0.000,0.015025537,0.037848487,0.044503536,0.04075241,0.037854258, 12:21:07.609
33820.222656, 24645.703125, 68104.132813, 44886.191406, 64346.960938, 89042.437500, 27503.775391, 30809.732422, 0.000, 0.000, 0.000,0.015025537,0.037848487,0.044503536,0.04075241,0.037854258, 12:21:07.609
33443.417969, 24267.556641, 68378.562500, 45398.515625, 64358.023438, 88715.281250, 27914.914063, 31591.484375, 0.162, 0.290, 0.952,0.015025537,0.037848487,0.044503536,0.04075241,0.037854258, 12:21:07.609
33426.226563, 24254.501953, 68610.171875, 45560.722656, 64219.175781, 88657.562500, 28197.060547, 32162.863281, 0.000, 0.000, 0.000,0.015025537,0.037848487,0.044503536,0.04075241,0.037854258, 12:21:07.609
33790.496094, 24621.517578, 68405.898438, 45078.347656, 64181.085938, 88968.117188, 27840.347656, 31480.597656, 0.000, 0.000, 0.000,0.015025537,0.037848487,0.044503536,0.04075241,0.037854258, 12:21:07.610
33860.320313, 24691.322266, 68171.390625, 44856.730469, 64305.609375, 89076.437500, 27504.960938, 30819.746094, 0.000, 0.000, 0.000,0.015048089,0.03865772,0.041649714,0.040693868,0.037928637, 12:21:07.610
33506.648438, 24334.656250, 68369.226563, 45312.371094, 64363.613281, 88776.093750, 27822.691406, 31427.757813, 0.000, 0.000, 0.000,0.015048089,0.03865772,0.041649714,0.040693868,0.037928637, 12:21:07.611
33381.367188, 24211.275391, 68670.140625, 45603.679688, 64244.074219, 88621.687500, 28206.044922, 32180.275391, 0.000, 0.000, 0.000,0.015048089,0.03865772,0.041649714,0.040693868,0.037928637, 12:21:07.611
33724.175781, 24562.107422, 68540.328125, 45182.328125, 64175.835938, 88905.851563, 27945.087891, 31688.738281, 0.000, 0.000, 0.000,0.015048089,0.03865772,0.041649714,0.040693868,0.037928637, 12:21:07.611
33888.417969, 24729.857422, 68262.585938, 44840.035156, 64289.359375, 89090.718750, 27534.017578, 30884.320313, 0.000, 0.000, 0.000,0.015048089,0.03865772,0.041649714,0.040693868,0.037928637, 12:21:07.612
33575.312500, 24404.638672, 68401.812500, 45218.648438, 64379.414063, 88836.421875, 27758.720703, 31294.876953, 0.000, 0.000, 0.000,0.015048089,0.03865772,0.041649714,0.040693868,0.037928637, 12:21:07.612
33378.617188, 24206.357422, 68720.859375, 45612.554688, 64279.589844, 88628.757813, 28190.152344, 32145.181641, 0.166, 0.268, 0.936,0.015048089,0.03865772,0.041649714,0.040693868,0.037928637, 12:21:07.613
33665.726563, 24499.166016, 68684.781250, 45305.687500, 64199.281250, 88855.085938, 28057.718750, 31887.310547, 0.000, 0.000, 0.000,0.015048089,0.03865772,0.041649714,0.040693868,0.037928637, 12:21:07.613
33907.996094, 24744.833984, 68397.429688, 44875.281250, 64279.390625, 89097.109375, 27610.572266, 31003.701172, 0.000, 0.000, 0.000,0.015048089,0.03865772,0.041649714,0.040693868,0.037928637, 12:21:07.616
33659.582031, 24491.855469, 68433.281250, 45134.808594, 64383.347656, 88904.171875, 27700.113281, 31160.789063, 0.000, 0.000, 0.000,0.015048089,0.03865772,0.041649714,0.040693868,0.037928637, 12:21:07.617
33383.828125, 24212.167969, 68764.445313, 45603.839844, 64311.933594, 88633.421875, 28162.482422, 32061.050781, 0.000, 0.000, 0.000,0.015048089,0.03865772,0.041649714,0.040693868,0.037928637, 12:21:07.617
33609.937500, 24441.140625, 68784.164063, 45397.867188, 64203.460938, 88798.898438, 28129.601563, 32014.939453, 0.000, 0.000, 0.000,0.015048089,0.03865772,0.041649714,0.040693868,0.037928637, 12:21:07.617
33905.964844, 24735.490234, 68493.812500, 44906.105469, 64272.035156, 89077.757813, 27670.609375, 31110.699219, 0.000, 0.000, 0.000,0.015048089,0.03865772,0.041649714,0.040693868,0.037928637, 12:21:07.618
