%OpenBCI Raw EEG Data
%
%Sample Rate = 250.0 Hz
%First Column = SampleIndex
%5 Columns before Timestamp are Frequency Power factors DELTA THETA ALPHA BETA GAMMA
%Last Column = Timestamp 
%Other Columns = EEG data in microvolts followed by Accel Data (in G) interleaved with Aux Data
0.000000, 0.000000, 0.000000, 0.000000, 0.000000, 0.000000, 0.000000, 0.000000, 1, 256, 1,0.0,0.0,0.0,0.0,0.0, 14:15:18.731
85869.968750, 113056.328125, 148504.890625, 152114.640625, 98600.562500, 105013.093750, 141330.046875, 144000.750000, 1, 256, 1,0.0,0.0,0.0,0.0,0.0, 14:15:19.211
85908.500000, 113093.609375, 148512.000000, 152048.203125, 98606.664063, 104971.726563, 141325.687500, 144029.968750, 1, 256, 1,0.0,0.0,0.0,0.0,0.0, 14:15:19.212
85883.085938, 113059.992188, 148530.421875, 152155.453125, 98614.750000, 105040.546875, 141347.421875, 144015.250000, 1, 256, 1,0.0,0.0,0.0,0.0,0.0, 14:15:19.213
85843.617188, 113020.226563, 148524.140625, 152239.109375, 98607.085938, 105090.726563, 141353.640625, 143984.687500, 1, 256, 1,0.0,0.0,0.0,0.0,0.0, 14:15:19.213
85866.953125, 113052.031250, 148498.859375, 152142.687500, 98600.539063, 105033.343750, 141336.890625, 143995.390625, 1, 256, 1,0.0,0.0,0.0,0.0,0.0, 14:15:19.214
85914.421875, 113094.460938, 148499.937500, 152048.937500, 98607.039063, 104972.843750, 141333.468750, 144029.890625, 1, 256, 1,0.0,0.0,0.0,0.0,0.0, 14:15:19.214
85891.265625, 113066.515625, 148522.328125, 152133.796875, 98618.484375, 105033.281250, 141357.500000, 144028.953125, 1, 256, 1,0.0,0.0,0.0,0.0,0.0, 14:15:19.216
85843.640625, 113019.156250, 148530.828125, 152239.046875, 98616.812500, 105099.531250, 141369.328125, 143996.234375, 1, 256, 1,0.0,0.0,0.0,0.0,0.0, 14:15:19.217
85855.640625, 113038.398438, 148512.265625, 152171.453125, 98605.968750, 105051.453125, 141347.890625, 143994.671875, 1, 256, 1,0.0,0.0,0.0,0.0,0.0, 14:15:19.217
85900.320313, 113091.867188, 148502.015625, 152051.093750, 98604.289063, 104975.789063, 141331.343750, 144026.390625, 1, 256, 1,0.0,0.0,0.0,0.0,0.0, 14:15:19.218
85890.914063, 113078.273438, 148524.593750, 152108.218750, 98615.085938, 105020.382813, 141349.750000, 144031.078125, 1, 256, 1,0.0,0.0,0.0,0.0,0.0, 14:15:19.218
85838.968750, 113024.382813, 148537.281250, 152232.265625, 98612.515625, 105090.750000, 141363.359375, 143994.203125, 1, 256, 1,0.0,0.0,0.0,0.0,0.0, 14:15:19.218
85849.757813, 113033.039063, 148522.906250, 152200.015625, 98606.375000, 105067.585938, 141354.281250, 143991.703125, 1, 256, 1,0.0,0.0,0.0,0.0,0.0, 14:15:19.219
85899.515625, 113082.859375, 148502.750000, 152070.109375, 98603.796875, 104987.414063, 141336.359375, 144025.625000, 1, 256, 1,0.0,0.0,0.0,0.0,0.0, 14:15:19.219
85906.398438, 113084.039063, 148519.218750, 152096.078125, 98617.054688, 105008.359375, 141353.296875, 144042.218750, 1, 256, 1,0.0,0.0,0.0,0.0,0.0, 14:15:19.220
85861.851563, 113036.789063, 148529.390625, 152223.562500, 98615.156250, 105090.164063, 141369.906250, 144013.890625, 1, 256, 1,0.0,0.0,0.0,0.0,0.0, 14:15:19.220
85841.156250, 113018.148438, 148514.640625, 152217.765625, 98601.210938, 105077.937500, 141355.828125, 143991.250000, 1, 256, 1,0.0,0.0,0.0,0.0,0.0, 14:15:19.221
85887.601563, 113068.687500, 148498.484375, 152085.640625, 98596.359375, 104990.921875, 141333.234375, 144015.390625, 1, 256, 1,0.0,0.0,0.0,0.0,0.0, 14:15:19.221
85922.359375, 113099.507813, 148523.625000, 152085.328125, 98620.789063, 105000.804688, 141358.375000, 144055.734375, 1, 256, 1,0.0,0.0,0.0,0.0,0.0, 14:15:19.222
85867.328125, 113043.609375, 148540.390625, 152214.406250, 98625.148438, 105082.367188, 141378.203125, 144023.906250, 1, 256, 1,0.0,0.0,0.0,0.0,0.0, 14:15:19.224
85834.632813, 113011.578125, 148523.296875, 152233.796875, 98606.171875, 105081.757813, 141360.968750, 143979.859375, 1, 256, 1,0.0,0.0,0.0,0.0,0.0, 14:15:19.224
85874.148438, 113059.750000, 148494.078125, 152102.468750, 98597.007813, 105002.054688, 141339.734375, 144002.703125, 1, 256, 1,0.0,0.0,0.0,0.0,0.0, 14:15:19.225
85910.734375, 113099.507813, 148512.734375, 152064.968750, 98614.414063, 104985.070313, 141352.968750, 144040.203125, 1, 256, 1,0.0,0.0,0.0,0.0,0.0, 14:15:19.225
85875.109375, 113054.445313, 148533.125000, 152182.453125, 98622.328125, 105062.851563, 141373.453125, 144021.515625, 1, 256, 1,0.0,0.0,0.0,0.0,0.0, 14:15:19.225
85840.710938, 113011.554688, 148527.718750, 152239.531250, 98609.859375, 105098.281250, 141367.328125, 143990.984375, 1, 256, 1,0.0,0.0,0.0,0.0,0.0, 14:15:19.226
85871.734375, 113048.304688, 148501.906250, 152126.531250, 98601.703125, 105030.148438, 141345.562500, 144005.437500, 1, 256, 1,0.0,0.0,0.0,0.0,0.0, 14:15:19.226
85907.765625, 113091.640625, 148501.656250, 152048.203125, 98606.375000, 104974.945313, 141340.828125, 144030.296875, 1, 256, 1,0.0,0.0,0.0,0.0,0.0, 14:15:19.226
85886.578125, 113065.218750, 148519.921875, 152154.593750, 98620.476563, 105050.851563, 141366.265625, 144033.671875, 1, 256, 1,0.0,0.0,0.0,0.0,0.0, 14:15:19.227
85838.945313, 113018.796875, 148520.984375, 152243.265625, 98617.164063, 105096.492188, 141370.390625, 143990.687500, 1, 256, 1,0.0,0.0,0.0,0.0,0.0, 14:15:19.227
85852.890625, 113043.359375, 148496.421875, 152150.203125, 98602.390625, 105031.359375, 141344.296875, 143990.250000, 1, 256, 1,0.0,0.0,0.0,0.0,0.0, 14:15:19.228
85902.265625, 113096.742188, 148496.578125, 152049.968750, 98613.296875, 104974.359375, 141339.625000, 144033.968750, 1, 256, 1,0.0,0.0,0.0,0.0,0.0, 14:15:19.228
85882.976563, 113072.734375, 148513.234375, 152124.109375, 98625.054688, 105023.085938, 141364.000000, 144028.125000, 1, 256, 1,0.0,0.0,0.0,0.0,0.0, 14:15:19.228
85831.101563, 113014.414063, 148514.953125, 152231.937500, 98612.632813, 105087.593750, 141364.453125, 143987.500000, 1, 256, 1,0.0,0.0,0.0,0.0,0.0, 14:15:19.229
85844.062500, 113028.992188, 148495.375000, 152169.437500, 98601.070313, 105045.015625, 141346.015625, 143985.640625, 1, 256, 1,0.0,0.0,0.0,0.0,0.0, 14:15:19.229
85901.375000, 113089.500000, 148489.187500, 152050.640625, 98610.906250, 104972.750000, 141338.765625, 144027.843750, 1, 256, 1,0.0,0.0,0.0,0.0,0.0, 14:15:19.229
85895.515625, 113079.171875, 148510.328125, 152101.359375, 98623.937500, 105009.476563, 141359.781250, 144037.562500, 1, 256, 1,0.0,0.0,0.0,0.0,0.0, 14:15:19.230
85847.078125, 113023.421875, 148518.593750, 152222.343750, 98618.507813, 105080.640625, 141370.687500, 144000.187500, 1, 256, 1,0.0,0.0,0.0,0.0,0.0, 14:15:19.230
85843.750000, 113025.210938, 148502.687500, 152194.187500, 98606.414063, 105057.039063, 141354.640625, 143985.218750, 1, 256, 1,0.0,0.0,0.0,0.0,0.0, 14:15:19.230
85894.867188, 113080.757813, 148484.687500, 152061.578125, 98605.585938, 104972.906250, 141336.875000, 144017.328125, 1, 256, 1,0.0,0.0,0.0,0.0,0.0, 14:15:19.231
85921.578125, 113104.539063, 148513.171875, 152086.218750, 98627.671875, 104996.312500, 141364.828125, 144049.453125, 1, 256, 1,0.0,0.0,0.0,0.0,0.0, 14:15:19.231
85866.929688, 113045.351563, 148530.375000, 152217.859375, 98622.171875, 105074.656250, 141375.093750, 144008.265625, 1, 256, 1,0.0,0.0,0.0,0.0,0.0, 14:15:19.232
85845.359375, 113029.906250, 148511.062500, 152213.343750, 98602.773438, 105070.117188, 141357.078125, 143982.531250, 1, 256, 1,0.0,0.0,0.0,0.0,0.0, 14:15:19.232
85886.617188, 113078.500000, 148495.390625, 152082.062500, 98599.195313, 104989.421875, 141339.000000, 144009.625000, 1, 256, 1,0.0,0.0,0.0,0.0,0.0, 14:15:19.233
85907.406250, 113097.921875, 148521.062500, 152067.828125, 98611.781250, 104980.734375, 141350.687500, 144035.281250, 1, 256, 1,0.0,0.0,0.0,0.0,0.0, 14:15:19.233
85870.257813, 113050.046875, 148539.187500, 152193.375000, 98616.500000, 105060.820313, 141371.453125, 144014.296875, 1, 256, 1,0.0,0.0,0.0,0.0,0.0, 14:15:19.233
85846.164063, 113027.914063, 148522.109375, 152228.984375, 98609.945313, 105083.171875, 141372.187500, 143994.671875, 1, 256, 1,0.0,0.0,0.0,0.0,0.0, 14:15:19.234
85878.351563, 113064.617188, 148500.968750, 152108.203125, 98606.437500, 105005.789063, 141349.984375, 144008.734375, 1, 256, 1,0.0,0.0,0.0,0.0,0.0, 14:15:19.234
85900.234375, 113086.945313, 148505.359375, 152048.875000, 98607.867188, 104969.890625, 141342.125000, 144030.953125, 1, 256, 1,0.0,0.0,0.0,0.0,0.0, 14:15:19.234
85864.781250, 113050.335938, 148515.625000, 152157.531250, 98613.929688, 105044.679688, 141363.984375, 144014.046875, 1, 256, 1,0.0,0.0,0.0,0.0,0.0, 14:15:19.235
85826.648438, 113008.117188, 148511.375000, 152225.750000, 98605.250000, 105082.945313, 141361.593750, 143978.406250, 1, 256, 1,0.0,0.0,0.0,0.0,0.0, 14:15:19.235
85855.570313, 113045.085938, 148486.671875, 152115.859375, 98596.937500, 105010.343750, 141341.781250, 143986.515625, 1, 256, 1,0.0,0.0,0.0,0.0,0.0, 14:15:19.243
85903.671875, 113099.312500, 148492.203125, 152031.671875, 98607.507813, 104962.695313, 141343.578125, 144028.578125, 1, 256, 1,0.0,0.0,0.0,0.0,0.0, 14:15:19.243
85880.945313, 113067.906250, 148514.015625, 152130.859375, 98619.539063, 105030.554688, 141366.281250, 144023.656250, 1, 256, 1,0.0,0.0,0.0,0.0,0.0, 14:15:19.243
85839.500000, 113024.539063, 148511.906250, 152226.500000, 98607.335938, 105085.828125, 141365.546875, 143987.781250, 1, 256, 1,0.0,0.0,0.0,0.0,0.0, 14:15:19.244
85850.296875, 113042.375000, 148493.234375, 152146.625000, 98597.921875, 105031.445313, 141343.421875, 143986.046875, 1, 256, 1,0.0,0.0,0.0,0.0,0.0, 14:15:19.244
85895.562500, 113085.203125, 148487.234375, 152038.953125, 98600.960938, 104964.257813, 141332.906250, 144022.546875, 1, 256, 1,0.0,0.0,0.0,0.0,0.0, 14:15:19.244
85883.828125, 113069.359375, 148501.078125, 152107.859375, 98607.375000, 105016.984375, 141351.468750, 144028.218750, 1, 256, 1,0.0,0.0,0.0,0.0,0.0, 14:15:19.244
85837.335938, 113020.515625, 148503.546875, 152219.171875, 98598.500000, 105088.015625, 141360.406250, 143994.328125, 1, 256, 1,0.0,0.0,0.0,0.0,0.0, 14:15:19.245
85852.843750, 113037.062500, 148487.468750, 152167.875000, 98594.343750, 105055.812500, 141348.093750, 143993.281250, 1, 256, 1,0.0,0.0,0.0,0.0,0.0, 14:15:19.245
85894.796875, 113082.523438, 148476.015625, 152046.031250, 98598.171875, 104974.828125, 141334.125000, 144023.953125, 1, 256, 1,0.0,0.0,0.0,0.0,0.0, 14:15:19.245
85897.125000, 113083.148438, 148500.734375, 152093.250000, 98612.968750, 105007.773438, 141351.437500, 144033.343750, 1, 256, 1,0.0,0.0,0.0,0.0,0.0, 14:15:19.246
85852.781250, 113028.117188, 148517.546875, 152221.000000, 98611.867188, 105085.046875, 141366.421875, 143998.406250, 1, 256, 1,0.0,0.0,0.0,0.0,0.0, 14:15:19.247
85838.453125, 113020.343750, 148496.062500, 152194.781250, 98595.796875, 105058.578125, 141348.890625, 143976.562500, 1, 256, 1,0.0,0.0,0.0,0.0,0.0, 14:15:19.248
85888.164063, 113078.273438, 148479.968750, 152064.140625, 98593.140625, 104975.234375, 141331.234375, 144008.187500, 1, 256, 1,0.0,0.0,0.0,0.0,0.0, 14:15:19.249
85909.460938, 113093.992188, 148500.000000, 152073.312500, 98607.914063, 104984.757813, 141346.296875, 144032.062500, 1, 256, 1,0.0,0.0,0.0,0.0,0.0, 14:15:19.249
85861.585938, 113042.625000, 148515.015625, 152198.921875, 98608.945313, 105065.171875, 141363.609375, 144001.593750, 1, 256, 1,0.0,0.0,0.0,0.0,0.0, 14:15:19.250
85843.570313, 113026.843750, 148503.218750, 152211.390625, 98601.835938, 105069.375000, 141359.781250, 143983.718750, 1, 256, 1,0.0,0.0,0.0,0.0,0.0, 14:15:19.250
85887.382813, 113076.171875, 148493.359375, 152093.156250, 98604.429688, 104994.093750, 141342.406250, 144010.187500, 1, 256, 1,0.0,0.0,0.0,0.0,0.0, 14:15:19.251
85911.382813, 113098.726563, 148498.296875, 152058.515625, 98609.585938, 104977.359375, 141346.031250, 144037.703125, 1, 256, 1,0.0,0.0,0.0,0.0,0.0, 14:15:19.251
85877.164063, 113056.054688, 148519.421875, 152185.734375, 98615.914063, 105062.601563, 141369.234375, 144020.578125, 1, 256, 1,0.0,0.0,0.0,0.0,0.0, 14:15:19.251
85845.671875, 113023.468750, 148511.937500, 152232.296875, 98604.289063, 105085.648438, 141360.078125, 143983.781250, 1, 256, 1,0.0,0.0,0.0,0.0,0.0, 14:15:19.252
85869.406250, 113055.992188, 148484.687500, 152109.687500, 98597.273438, 105007.507813, 141337.187500, 143999.328125, 1, 256, 1,0.0,0.0,0.0,0.0,0.0, 14:15:19.252
85910.242188, 113100.429688, 148491.531250, 152045.546875, 98609.656250, 104971.250000, 141342.687500, 144035.265625, 1, 256, 1,0.0,0.0,0.0,0.0,0.0, 14:15:19.252
85874.328125, 113059.632813, 148515.484375, 152158.484375, 98617.906250, 105045.882813, 141363.406250, 144019.484375, 1, 256, 1,0.0,0.0,0.0,0.0,0.0, 14:15:19.253
85834.648438, 113019.046875, 148507.484375, 152227.265625, 98607.648438, 105086.742188, 141360.890625, 143986.015625, 1, 256, 1,0.0,0.0,0.0,0.0,0.0, 14:15:19.253
85860.023438, 113049.109375, 148486.406250, 152129.859375, 98601.500000, 105025.390625, 141338.609375, 143993.734375, 1, 256, 1,0.0,0.0,0.0,0.0,0.0, 14:15:19.254
85908.210938, 113096.851563, 148488.062500, 152039.562500, 98611.625000, 104973.179688, 141339.000000, 144035.906250, 1, 256, 1,5.9278864E-6,7.852296E-6,9.651971E-6,3.0364685E-5,3.856435E-5, 14:15:19.255
85888.898438, 113067.656250, 148504.937500, 152127.531250, 98621.007813, 105033.054688, 141360.500000, 144029.046875, 1, 256, 1,5.9278864E-6,7.852296E-6,9.651971E-6,3.0364685E-5,3.856435E-5, 14:15:19.255
85842.523438, 113022.242188, 148503.593750, 152223.953125, 98614.906250, 105091.218750, 141366.390625, 143987.515625, 1, 256, 1,5.9278864E-6,7.852296E-6,9.651971E-6,3.0364685E-5,3.856435E-5, 14:15:19.256
85850.968750, 113044.593750, 148481.109375, 152150.359375, 98607.375000, 105042.710938, 141348.687500, 143987.718750, 1, 256, 1,5.9278864E-6,7.852296E-6,9.651971E-6,3.0364685E-5,3.856435E-5, 14:15:19.257
85900.234375, 113096.851563, 148479.421875, 152042.625000, 98616.343750, 104973.335938, 141341.234375, 144026.406250, 1, 256, 1,5.9278864E-6,7.852296E-6,9.651971E-6,3.0364685E-5,3.856435E-5, 14:15:19.257
85896.546875, 113082.609375, 148503.875000, 152106.953125, 98628.453125, 105022.195313, 141365.437500, 144038.859375, 1, 256, 1,5.9278864E-6,7.852296E-6,9.651971E-6,3.0364685E-5,3.856435E-5, 14:15:19.257
85845.804688, 113024.429688, 148521.171875, 152229.093750, 98624.296875, 105095.593750, 141376.875000, 144000.390625, 1, 256, 1,5.9278864E-6,7.852296E-6,9.651971E-6,3.0364685E-5,3.856435E-5, 14:15:19.258
85844.351563, 113030.445313, 148508.656250, 152184.578125, 98612.921875, 105063.898438, 141361.859375, 143992.375000, 1, 256, 1,5.9278864E-6,7.852296E-6,9.651971E-6,3.0364685E-5,3.856435E-5, 14:15:19.258
85896.992188, 113091.843750, 148500.062500, 152057.062500, 98616.140625, 104986.656250, 141348.203125, 144030.203125, 1, 256, 1,5.9278864E-6,7.852296E-6,9.651971E-6,3.0364685E-5,3.856435E-5, 14:15:19.258
85899.515625, 113089.812500, 148520.000000, 152090.187500, 98625.234375, 105008.851563, 141363.687500, 144040.968750, 1, 256, 1,5.9278864E-6,7.852296E-6,9.651971E-6,3.0364685E-5,3.856435E-5, 14:15:19.259
85845.515625, 113031.289063, 148527.031250, 152212.453125, 98618.554688, 105078.656250, 141374.937500, 143999.328125, 1, 256, 1,5.9278864E-6,7.852296E-6,9.651971E-6,3.0364685E-5,3.856435E-5, 14:15:19.259
85833.867188, 113024.187500, 148505.078125, 152195.500000, 98605.812500, 105065.000000, 141362.000000, 143984.015625, 1, 256, 1,5.9278864E-6,7.852296E-6,9.651971E-6,3.0364685E-5,3.856435E-5, 14:15:19.259
85880.515625, 113073.828125, 148488.125000, 152065.812500, 98602.171875, 104984.507813, 141339.593750, 144012.421875, 1, 256, 1,5.9278864E-6,7.852296E-6,9.651971E-6,3.0364685E-5,3.856435E-5, 14:15:19.260
85906.851563, 113094.992188, 148511.734375, 152066.906250, 98616.945313, 104988.242188, 141351.953125, 144035.578125, 1, 256, 1,5.9278864E-6,7.852296E-6,9.651971E-6,3.0364685E-5,3.856435E-5, 14:15:19.260
85860.000000, 113039.609375, 148527.562500, 152192.218750, 98614.195313, 105066.179688, 141365.875000, 144001.421875, 1, 256, 1,5.9278864E-6,7.852296E-6,9.651971E-6,3.0364685E-5,3.856435E-5, 14:15:19.260
85851.281250, 113029.617188, 148515.828125, 152212.250000, 98606.882813, 105079.617188, 141364.093750, 143986.734375, 1, 256, 1,5.9278864E-6,7.852296E-6,9.651971E-6,3.0364685E-5,3.856435E-5, 14:15:19.261
85896.320313, 113082.140625, 148499.265625, 152088.421875, 98607.000000, 105005.296875, 141350.453125, 144017.968750, 1, 256, 1,5.9278864E-6,7.852296E-6,9.651971E-6,3.0364685E-5,3.856435E-5, 14:15:19.261
85923.703125, 113108.804688, 148516.187500, 152054.843750, 98622.601563, 104989.023438, 141359.109375, 144051.218750, 1, 256, 1,5.9278864E-6,7.852296E-6,9.651971E-6,3.0364685E-5,3.856435E-5, 14:15:19.262
85882.398438, 113054.875000, 148538.265625, 152179.390625, 98634.710938, 105067.007813, 141384.281250, 144029.312500, 1, 256, 1,5.9278864E-6,7.852296E-6,9.651971E-6,3.0364685E-5,3.856435E-5, 14:15:19.262
85840.265625, 113013.570313, 148526.468750, 152230.937500, 98619.070313, 105093.117188, 141375.109375, 143995.453125, 1, 256, 1,5.9278864E-6,7.852296E-6,9.651971E-6,3.0364685E-5,3.856435E-5, 14:15:19.263
85867.734375, 113062.515625, 148503.875000, 152114.656250, 98613.007813, 105026.507813, 141353.406250, 144016.796875, 1, 256, 1,5.9278864E-6,7.852296E-6,9.651971E-6,3.0364685E-5,3.856435E-5, 14:15:19.264
85911.539063, 113109.906250, 148508.359375, 152041.046875, 98613.453125, 104975.273438, 141344.109375, 144038.796875, 1, 256, 1,5.9278864E-6,7.852296E-6,9.651971E-6,3.0364685E-5,3.856435E-5, 14:15:19.264
85888.296875, 113084.335938, 148526.750000, 152147.843750, 98617.812500, 105041.328125, 141362.640625, 144022.546875, 1, 256, 1,5.9278864E-6,7.852296E-6,9.651971E-6,3.0364685E-5,3.856435E-5, 14:15:19.264
85846.476563, 113042.492188, 148526.375000, 152231.640625, 98614.664063, 105094.968750, 141372.187500, 143995.312500, 1, 256, 1,5.9278864E-6,7.852296E-6,9.651971E-6,3.0364685E-5,3.856435E-5, 14:15:19.265
85864.421875, 113067.101563, 148507.218750, 152141.921875, 98608.117188, 105035.578125, 141354.375000, 144001.218750, 1, 256, 1,5.9278864E-6,7.852296E-6,9.651971E-6,3.0364685E-5,3.856435E-5, 14:15:19.265
85906.671875, 113110.710938, 148501.453125, 152045.593750, 98608.828125, 104970.515625, 141342.953125, 144029.046875, 1, 256, 1,5.9278864E-6,7.852296E-6,9.651971E-6,3.0364685E-5,3.856435E-5, 14:15:19.265
85879.218750, 113082.992188, 148519.203125, 152125.093750, 98610.976563, 105024.250000, 141355.250000, 144016.734375, 1, 256, 1,5.9278864E-6,7.852296E-6,9.651971E-6,3.0364685E-5,3.856435E-5, 14:15:19.266
85828.390625, 113029.078125, 148514.906250, 152222.906250, 98602.437500, 105081.828125, 141358.750000, 143977.375000, 1, 256, 1,5.9278864E-6,7.852296E-6,9.651971E-6,3.0364685E-5,3.856435E-5, 14:15:19.266
85840.554688, 113046.718750, 148491.593750, 152154.171875, 98589.562500, 105036.296875, 141338.953125, 143977.453125, 1, 256, 1,5.9278864E-6,7.852296E-6,9.651971E-6,3.0364685E-5,3.856435E-5, 14:15:19.266
85886.218750, 113096.742188, 148484.125000, 152037.250000, 98587.195313, 104958.000000, 141323.187500, 144009.093750, 1, 256, 1,5.9278864E-6,7.852296E-6,9.651971E-6,3.0364685E-5,3.856435E-5, 14:15:19.266
85879.000000, 113086.164063, 148503.796875, 152088.328125, 98606.039063, 105004.289063, 141345.812500, 144026.671875, 1, 256, 1,5.9278864E-6,7.852296E-6,9.651971E-6,3.0364685E-5,3.856435E-5, 14:15:19.267
85846.546875, 113045.843750, 148521.343750, 152216.421875, 98615.734375, 105089.226563, 141371.890625, 144001.937500, 1, 256, 1,5.9278864E-6,7.852296E-6,9.651971E-6,3.0364685E-5,3.856435E-5, 14:15:19.267
85846.718750, 113048.570313, 148503.125000, 152180.109375, 98605.320313, 105061.960938, 141354.890625, 143990.250000, 1, 256, 1,5.9278864E-6,7.852296E-6,9.651971E-6,3.0364685E-5,3.856435E-5, 14:15:19.267
85883.179688, 113087.710938, 148487.437500, 152048.250000, 98596.734375, 104974.250000, 141328.156250, 144009.625000, 1, 256, 1,5.9278864E-6,7.852296E-6,9.651971E-6,3.0364685E-5,3.856435E-5, 14:15:19.268
85892.632813, 113089.898438, 148504.265625, 152065.328125, 98605.835938, 104990.406250, 141342.234375, 144026.171875, 1, 256, 1,5.9278864E-6,7.852296E-6,9.651971E-6,3.0364685E-5,3.856435E-5, 14:15:19.269
85847.640625, 113043.984375, 148521.531250, 152193.875000, 98609.585938, 105075.210938, 141364.203125, 144001.687500, 1, 256, 1,5.9278864E-6,7.852296E-6,9.651971E-6,3.0364685E-5,3.856435E-5, 14:15:19.269
85828.484375, 113029.546875, 148510.218750, 152194.031250, 98599.132813, 105065.171875, 141353.609375, 143977.343750, 1, 256, 1,5.9278864E-6,7.852296E-6,9.651971E-6,3.0364685E-5,3.856435E-5, 14:15:19.269
85869.742188, 113075.726563, 148497.828125, 152071.343750, 98602.125000, 104984.554688, 141340.515625, 144007.234375, 1, 256, 1,5.9278864E-6,7.852296E-6,9.651971E-6,3.0364685E-5,3.856435E-5, 14:15:19.269
85899.070313, 113100.742188, 148508.000000, 152059.031250, 98615.359375, 104984.507813, 141355.203125, 144043.875000, 1, 256, 1,5.9278864E-6,7.852296E-6,9.651971E-6,3.0364685E-5,3.856435E-5, 14:15:19.270
85859.906250, 113052.390625, 148526.890625, 152192.906250, 98623.781250, 105068.906250, 141379.781250, 144020.546875, 1, 256, 1,5.9278864E-6,7.852296E-6,9.651971E-6,3.0364685E-5,3.856435E-5, 14:15:19.270
85832.570313, 113030.015625, 148515.640625, 152222.750000, 98612.828125, 105084.757813, 141376.546875, 143996.140625, 1, 256, 1,5.9278864E-6,7.852296E-6,9.651971E-6,3.0364685E-5,3.856435E-5, 14:15:19.270
85864.312500, 113075.054688, 148491.546875, 152095.437500, 98600.179688, 105003.734375, 141345.593750, 144010.515625, 1, 256, 1,5.9278864E-6,7.852296E-6,9.651971E-6,3.0364685E-5,3.856435E-5, 14:15:19.271
85903.453125, 113113.789063, 148505.593750, 152050.437500, 98619.601563, 104981.421875, 141359.625000, 144049.921875, 1, 256, 1,5.9278864E-6,7.852296E-6,9.651971E-6,3.0364685E-5,3.856435E-5, 14:15:19.271
85859.976563, 113061.625000, 148528.796875, 152172.015625, 98628.164063, 105057.914063, 141381.750000, 144026.921875, 1, 256, 1,5.9278864E-6,7.852296E-6,9.651971E-6,3.0364685E-5,3.856435E-5, 14:15:19.271
85814.312500, 113014.125000, 148521.843750, 152232.859375, 98612.164063, 105088.398438, 141374.578125, 143985.734375, 1, 256, 1,0.0,0.0,0.0,0.0,0.0, 14:15:19.691
85840.757813, 113047.656250, 148491.625000, 152115.125000, 98598.367188, 105019.242188, 141350.343750, 144001.156250, 1, 256, 1,0.0,0.0,0.0,0.0,0.0, 14:15:19.692
85883.757813, 113094.500000, 148496.937500, 152038.078125, 98606.570313, 104974.335938, 141347.578125, 144036.828125, 1, 256, 1,0.0,0.0,0.0,0.0,0.0, 14:15:19.692
85852.531250, 113053.507813, 148515.531250, 152136.031250, 98609.453125, 105034.171875, 141360.406250, 144016.078125, 1, 256, 1,0.0,0.0,0.0,0.0,0.0, 14:15:19.693
85814.062500, 113010.726563, 148511.281250, 152223.593750, 98601.031250, 105089.226563, 141364.515625, 143987.562500, 1, 256, 1,0.0,0.0,0.0,0.0,0.0, 14:15:19.693
85833.109375, 113035.382813, 148487.296875, 152138.687500, 98589.382813, 105032.343750, 141340.406250, 143984.593750, 1, 256, 1,0.0,0.0,0.0,0.0,0.0, 14:15:19.693
85879.625000, 113087.953125, 148478.593750, 152031.421875, 98590.929688, 104966.781250, 141330.296875, 144018.453125, 1, 256, 1,0.0,0.0,0.0,0.0,0.0, 14:15:19.694
85868.625000, 113072.601563, 148503.687500, 152108.625000, 98608.179688, 105023.398438, 141357.437500, 144025.140625, 1, 256, 1,0.0,0.0,0.0,0.0,0.0, 14:15:19.694
85822.359375, 113022.195313, 148516.734375, 152222.437500, 98606.171875, 105093.140625, 141373.296875, 143992.125000, 1, 256, 1,0.0,0.0,0.0,0.0,0.0, 14:15:19.695
85820.796875, 113028.898438, 148500.000000, 152165.484375, 98593.539063, 105051.320313, 141349.828125, 143979.890625, 1, 256, 1,0.0,0.0,0.0,0.0,0.0, 14:15:19.695
85875.085938, 113090.414063, 148490.437500, 152042.015625, 98598.257813, 104977.492188, 141335.593750, 144020.906250, 1, 256, 1,0.0,0.0,0.0,0.0,0.0, 14:15:19.695
85876.382813, 113082.117188, 148512.968750, 152091.031250, 98614.617188, 105013.835938, 141358.390625, 144034.281250, 1, 256, 1,0.0,0.0,0.0,0.0,0.0, 14:15:19.696
85822.445313, 113023.335938, 148523.687500, 152218.093750, 98612.226563, 105093.117188, 141370.843750, 144000.484375, 1, 256, 1,0.0,0.0,0.0,0.0,0.0, 14:15:19.696
85824.976563, 113031.625000, 148503.984375, 152193.093750, 98602.835938, 105074.671875, 141358.703125, 143988.859375, 1, 256, 1,0.0,0.0,0.0,0.0,0.0, 14:15:19.696
85865.609375, 113079.570313, 148487.578125, 152066.890625, 98596.625000, 104990.859375, 141336.484375, 144015.765625, 1, 256, 1,0.0,0.0,0.0,0.0,0.0, 14:15:19.697
85870.929688, 113083.375000, 148493.359375, 152070.296875, 98601.679688, 104991.820313, 141344.984375, 144026.765625, 1, 256, 1,0.0,0.0,0.0,0.0,0.0, 14:15:19.697
85832.507813, 113037.062500, 148506.578125, 152196.203125, 98604.742188, 105075.148438, 141363.015625, 144001.406250, 1, 256, 1,0.0,0.0,0.0,0.0,0.0, 14:15:19.698
85811.851563, 113020.343750, 148489.859375, 152202.953125, 98591.617188, 105074.851563, 141349.500000, 143974.328125, 1, 256, 1,0.0,0.0,0.0,0.0,0.0, 14:15:19.698
85856.062500, 113067.343750, 148471.953125, 152072.125000, 98585.156250, 104989.671875, 141327.859375, 143997.328125, 1, 256, 1,0.0,0.0,0.0,0.0,0.0, 14:15:19.699
85878.796875, 113088.179688, 148491.750000, 152050.843750, 98601.226563, 104981.984375, 141341.109375, 144030.046875, 1, 256, 1,0.0,0.0,0.0,0.0,0.0, 14:15:19.700
85843.523438, 113043.812500, 148510.734375, 152176.031250, 98610.328125, 105061.890625, 141365.640625, 144009.156250, 1, 256, 1,0.0,0.0,0.0,0.0,0.0, 14:15:19.700
85815.203125, 113012.609375, 148497.875000, 152211.062500, 98599.304688, 105079.390625, 141357.281250, 143976.812500, 1, 256, 1,0.0,0.0,0.0,0.0,0.0, 14:15:19.700
85844.421875, 113052.054688, 148476.531250, 152089.562500, 98595.929688, 105001.984375, 141337.718750, 143993.312500, 1, 256, 1,0.0,0.0,0.0,0.0,0.0, 14:15:19.701
85880.515625, 113089.179688, 148489.312500, 152033.031250, 98606.304688, 104969.890625, 141341.718750, 144029.625000, 1, 256, 1,0.0,0.0,0.0,0.0,0.0, 14:15:19.701
85849.468750, 113046.000000, 148511.515625, 152143.765625, 98610.015625, 105042.000000, 141357.953125, 144012.156250, 1, 256, 1,0.0,0.0,0.0,0.0,0.0, 14:15:19.702
85808.500000, 113003.867188, 148503.062500, 152208.359375, 98599.148438, 105081.109375, 141359.125000, 143979.734375, 1, 256, 1,0.0,0.0,0.0,0.0,0.0, 14:15:19.702
85841.851563, 113048.437500, 148484.781250, 152110.515625, 98594.125000, 105019.242188, 141341.390625, 143991.468750, 1, 256, 1,0.0,0.0,0.0,0.0,0.0, 14:15:19.702
85883.492188, 113088.000000, 148489.656250, 152029.312500, 98606.078125, 104967.187500, 141339.593750, 144026.796875, 1, 256, 1,0.0,0.0,0.0,0.0,0.0, 14:15:19.703
85862.320313, 113058.539063, 148512.187500, 152127.531250, 98615.804688, 105031.492188, 141358.312500, 144019.906250, 1, 256, 1,0.0,0.0,0.0,0.0,0.0, 14:15:19.703
85829.062500, 113020.968750, 148518.640625, 152231.218750, 98609.906250, 105098.007813, 141365.093750, 143991.765625, 1, 256, 1,0.0,0.0,0.0,0.0,0.0, 14:15:19.703
85844.242188, 113046.109375, 148496.984375, 152149.218750, 98602.101563, 105050.132813, 141347.671875, 143996.578125, 1, 256, 1,0.0,0.0,0.0,0.0,0.0, 14:15:19.703
85882.570313, 113085.585938, 148491.437500, 152040.046875, 98601.742188, 104975.906250, 141332.359375, 144023.656250, 1, 256, 1,0.0,0.0,0.0,0.0,0.0, 14:15:19.703
85872.468750, 113069.265625, 148506.343750, 152102.968750, 98609.835938, 105020.765625, 141349.984375, 144028.578125, 1, 256, 1,0.0,0.0,0.0,0.0,0.0, 14:15:19.704
85829.312500, 113023.070313, 148517.218750, 152221.796875, 98608.781250, 105095.593750, 141364.296875, 143997.953125, 1, 256, 1,0.0,0.0,0.0,0.0,0.0, 14:15:19.704
85824.328125, 113025.414063, 148494.609375, 152167.406250, 98590.500000, 105054.203125, 141339.375000, 143979.250000, 1, 256, 1,0.0,0.0,0.0,0.0,0.0, 14:15:19.704
85877.390625, 113080.578125, 148480.375000, 152038.750000, 98592.109375, 104971.765625, 141325.718750, 144014.203125, 1, 256, 1,0.0,0.0,0.0,0.0,0.0, 14:15:19.704
85880.851563, 113078.273438, 148506.328125, 152080.390625, 98604.179688, 105003.015625, 141342.281250, 144028.218750, 1, 256, 1,0.0,0.0,0.0,0.0,0.0, 14:15:19.704
85832.281250, 113024.562500, 148518.390625, 152208.796875, 98608.695313, 105086.656250, 141361.703125, 143998.609375, 1, 256, 1,0.0,0.0,0.0,0.0,0.0, 14:15:19.705
85824.148438, 113025.414063, 148499.203125, 152191.921875, 98602.703125, 105074.203125, 141351.515625, 143983.250000, 1, 256, 1,0.0,0.0,0.0,0.0,0.0, 14:15:19.705
85863.929688, 113071.859375, 148486.906250, 152064.921875, 98598.101563, 104991.773438, 141331.531250, 144010.578125, 1, 256, 1,0.0,0.0,0.0,0.0,0.0, 14:15:19.705
85882.687500, 113089.070313, 148501.203125, 152066.718750, 98607.890625, 104994.406250, 141341.718750, 144028.312500, 1, 256, 1,0.0,0.0,0.0,0.0,0.0, 14:15:19.705
85841.468750, 113040.906250, 148512.390625, 152193.109375, 98609.343750, 105075.007813, 141357.484375, 144001.593750, 1, 256, 1,0.0,0.0,0.0,0.0,0.0, 14:15:19.705
85817.976563, 113014.617188, 148499.109375, 152206.718750, 98594.460938, 105079.101563, 141343.078125, 143971.656250, 1, 256, 1,0.0,0.0,0.0,0.0,0.0, 14:15:19.706
85851.257813, 113054.585938, 148476.000000, 152075.203125, 98585.828125, 104996.890625, 141319.906250, 143991.828125, 1, 256, 1,0.0,0.0,0.0,0.0,0.0, 14:15:19.706
85877.906250, 113083.148438, 148492.125000, 152041.609375, 98599.039063, 104980.867188, 141332.109375, 144024.671875, 1, 256, 1,0.0,0.0,0.0,0.0,0.0, 14:15:19.706
85848.484375, 113048.031250, 148518.343750, 152166.937500, 98605.210938, 105061.039063, 141355.046875, 144010.203125, 1, 256, 1,0.0,0.0,0.0,0.0,0.0, 14:15:19.706
85813.171875, 113013.750000, 148508.500000, 152213.265625, 98595.328125, 105084.218750, 141351.468750, 143977.500000, 1, 256, 1,0.0,0.0,0.0,0.0,0.0, 14:15:19.706
85854.945313, 113059.523438, 148488.359375, 152099.796875, 98595.218750, 105012.109375, 141337.703125, 143998.500000, 1, 256, 1,0.0,0.0,0.0,0.0,0.0, 14:15:19.707
85889.546875, 113089.945313, 148498.859375, 152034.531250, 98603.375000, 104972.437500, 141334.515625, 144025.000000, 1, 256, 1,0.0,0.0,0.0,0.0,0.0, 14:15:19.708
85852.015625, 113051.476563, 148515.015625, 152138.171875, 98607.710938, 105038.757813, 141349.078125, 144006.078125, 1, 256, 1,0.0,0.0,0.0,0.0,0.0, 14:15:19.708
85813.617188, 113013.679688, 148513.015625, 152215.515625, 98598.773438, 105087.640625, 141355.593750, 143976.796875, 1, 256, 1,0.0,0.0,0.0,0.0,0.0, 14:15:19.708
85831.429688, 113036.031250, 148494.750000, 152119.187500, 98590.906250, 105026.890625, 141336.625000, 143982.937500, 1, 256, 1,0.0,0.0,0.0,0.0,0.0, 14:15:19.708
85885.187500, 113093.500000, 148497.390625, 152023.343750, 98596.515625, 104971.320313, 141331.015625, 144024.046875, 1, 256, 1,0.0,0.0,0.0,0.0,0.0, 14:15:19.709
85874.257813, 113074.296875, 148519.484375, 152110.031250, 98605.703125, 105028.609375, 141349.343750, 144018.703125, 1, 256, 1,0.0,0.0,0.0,0.0,0.0, 14:15:19.709
85819.367188, 113019.781250, 148519.171875, 152211.781250, 98601.031250, 105089.117188, 141356.656250, 143981.031250, 1, 256, 1,0.0,0.0,0.0,0.0,0.0, 14:15:19.709
85827.523438, 113038.289063, 148494.343750, 152142.625000, 98591.664063, 105043.046875, 141340.734375, 143980.812500, 1, 256, 1,0.0,0.0,0.0,0.0,0.0, 14:15:19.709
85877.632813, 113092.070313, 148492.000000, 152035.109375, 98600.671875, 104973.664063, 141332.171875, 144018.234375, 1, 256, 1,0.0,0.0,0.0,0.0,0.0, 14:15:19.709
85859.664063, 113065.515625, 148508.203125, 152094.265625, 98605.726563, 105012.828125, 141339.750000, 144014.859375, 1, 256, 1,0.0,0.0,0.0,0.0,0.0, 14:15:19.709
85826.250000, 113026.460938, 148509.328125, 152207.484375, 98605.250000, 105091.773438, 141357.812500, 143993.781250, 1, 256, 1,0.0,0.0,0.0,0.0,0.0, 14:15:19.710
85834.406250, 113040.945313, 148493.000000, 152169.578125, 98599.687500, 105063.273438, 141346.546875, 143984.750000, 1, 256, 1,0.0,0.0,0.0,0.0,0.0, 14:15:19.710
85880.562500, 113088.539063, 148482.796875, 152042.812500, 98597.406250, 104974.539063, 141323.500000, 144003.140625, 1, 256, 1,0.0,0.0,0.0,0.0,0.0, 14:15:19.710
85877.500000, 113078.500000, 148499.828125, 152069.015625, 98604.515625, 104994.789063, 141335.375000, 144016.796875, 1, 256, 1,0.0,0.0,0.0,0.0,0.0, 14:15:19.710
85830.156250, 113023.359375, 148499.531250, 152187.875000, 98596.625000, 105068.710938, 141348.609375, 143982.625000, 1, 256, 1,0.0,0.0,0.0,0.0,0.0, 14:15:19.711
85822.875000, 113017.031250, 148484.015625, 152175.140625, 98583.437500, 105058.070313, 141334.328125, 143964.609375, 1, 256, 1,0.0,0.0,0.0,0.0,0.0, 14:15:19.711
85870.976563, 113074.093750, 148478.406250, 152050.281250, 98590.609375, 104978.648438, 141319.843750, 143991.656250, 1, 256, 1,0.0,0.0,0.0,0.0,0.0, 14:15:19.711
85882.796875, 113085.070313, 148494.234375, 152041.343750, 98601.789063, 104975.453125, 141330.187500, 144012.593750, 1, 256, 1,0.0,0.0,0.0,0.0,0.0, 14:15:19.711
85838.382813, 113030.531250, 148507.937500, 152163.718750, 98602.882813, 105056.484375, 141349.296875, 143989.484375, 1, 256, 1,0.0,0.0,0.0,0.0,0.0, 14:15:19.712
85819.046875, 113011.421875, 148501.500000, 152191.656250, 98595.820313, 105075.750000, 141347.578125, 143973.328125, 1, 256, 1,0.0,0.0,0.0,0.0,0.0, 14:15:19.712
85853.515625, 113055.234375, 148483.531250, 152069.312500, 98593.164063, 105001.695313, 141329.265625, 143998.812500, 1, 256, 1,0.0,0.0,0.0,0.0,0.0, 14:15:19.712
85877.523438, 113075.617188, 148492.281250, 152028.640625, 98599.976563, 104975.882813, 141328.671875, 144022.546875, 1, 256, 1,0.0,0.0,0.0,0.0,0.0, 14:15:19.712
85838.117188, 113028.656250, 148500.218750, 152144.437500, 98599.890625, 105046.578125, 141346.250000, 143994.765625, 1, 256, 1,0.0,0.0,0.0,0.0,0.0, 14:15:19.713
85809.929688, 113003.867188, 148491.812500, 152200.640625, 98591.242188, 105080.507813, 141350.171875, 143971.359375, 1, 256, 1,0.0,0.0,0.0,0.0,0.0, 14:15:19.714
85835.140625, 113033.460938, 148476.531250, 152086.718750, 98578.390625, 105004.218750, 141324.062500, 143975.890625, 1, 256, 1,0.0,0.0,0.0,0.0,0.0, 14:15:19.714
85884.656250, 113084.085938, 148487.593750, 152016.593750, 98593.382813, 104961.265625, 141327.593750, 144013.984375, 1, 256, 1,0.0,0.0,0.0,0.0,0.0, 14:15:19.714
85863.593750, 113054.023438, 148517.640625, 152125.500000, 98605.968750, 105031.671875, 141348.609375, 144004.312500, 1, 256, 1,0.0,0.0,0.0,0.0,0.0, 14:15:19.715
85820.343750, 113017.812500, 148518.531250, 152209.609375, 98600.289063, 105083.929688, 141356.140625, 143973.484375, 1, 256, 1,0.0,0.0,0.0,0.0,0.0, 14:15:19.715
85832.460938, 113035.070313, 148496.953125, 152117.515625, 98589.117188, 105025.812500, 141334.750000, 143977.140625, 1, 256, 1,0.0,0.0,0.0,0.0,0.0, 14:15:19.715
85878.257813, 113077.562500, 148492.796875, 152015.640625, 98591.953125, 104961.039063, 141321.890625, 144010.546875, 1, 256, 1,0.0,0.0,0.0,0.0,0.0, 14:15:19.715
85867.398438, 113060.062500, 148512.046875, 152101.578125, 98609.726563, 105022.953125, 141349.093750, 144016.828125, 1, 256, 1,0.0,0.0,0.0,0.0,0.0, 14:15:19.715
85808.101563, 112999.617188, 148513.515625, 152211.781250, 98599.062500, 105087.148438, 141350.234375, 143973.734375, 1, 256, 1,0.0,0.0,0.0,0.0,0.0, 14:15:19.716
85819.898438, 113015.195313, 148491.031250, 152143.937500, 98585.250000, 105045.726563, 141330.875000, 143973.109375, 1, 256, 1,0.0,0.0,0.0,0.0,0.0, 14:15:19.716
85869.320313, 113068.664063, 148481.265625, 152021.812500, 98582.585938, 104965.734375, 141313.734375, 144002.140625, 1, 256, 1,0.0,0.0,0.0,0.0,0.0, 14:15:19.716
85868.539063, 113062.765625, 148507.890625, 152075.937500, 98600.960938, 105003.101563, 141337.703125, 144013.203125, 1, 256, 1,0.0,0.0,0.0,0.0,0.0, 14:15:19.717
85828.039063, 113013.812500, 148521.500000, 152200.062500, 98603.109375, 105079.367188, 141354.296875, 143980.875000, 1, 256, 1,0.0,0.0,0.0,0.0,0.0, 14:15:19.718
85824.484375, 113012.382813, 148505.078125, 152168.796875, 98590.187500, 105052.953125, 141336.921875, 143964.359375, 1, 256, 1,0.0,0.0,0.0,0.0,0.0, 14:15:19.718
85870.187500, 113067.437500, 148490.203125, 152039.062500, 98588.195313, 104970.117188, 141318.593750, 143996.578125, 1, 256, 1,0.0,0.0,0.0,0.0,0.0, 14:15:19.720
85886.171875, 113082.210938, 148509.859375, 152060.765625, 98609.320313, 104987.304688, 141349.390625, 144024.406250, 1, 256, 1,0.0,0.0,0.0,0.0,0.0, 14:15:19.721
85846.656250, 113030.468750, 148521.406250, 152193.093750, 98606.328125, 105066.562500, 141356.984375, 143989.843750, 1, 256, 1,0.0,0.0,0.0,0.0,0.0, 14:15:19.722
85827.054688, 113017.632813, 148499.265625, 152188.265625, 98591.195313, 105057.304688, 141341.296875, 143962.312500, 1, 256, 1,0.0,0.0,0.0,0.0,0.0, 14:15:19.722
85864.937500, 113068.328125, 148478.468750, 152056.093750, 98588.445313, 104976.796875, 141323.609375, 143990.093750, 1, 256, 1,0.0,0.0,0.0,0.0,0.0, 14:15:19.723
85880.476563, 113078.562500, 148496.796875, 152043.156250, 98599.484375, 104970.765625, 141331.531250, 144012.437500, 1, 256, 1,0.0,0.0,0.0,0.0,0.0, 14:15:19.723
85843.500000, 113038.109375, 148516.515625, 152172.859375, 98606.304688, 105056.812500, 141350.921875, 143988.015625, 1, 256, 1,0.0,0.0,0.0,0.0,0.0, 14:15:19.723
85815.273438, 113013.367188, 148498.484375, 152202.453125, 98587.507813, 105074.851563, 141340.734375, 143961.453125, 1, 256, 1,0.0,0.0,0.0,0.0,0.0, 14:15:19.724
85851.750000, 113058.226563, 148477.359375, 152079.937500, 98581.765625, 104998.296875, 141321.718750, 143982.531250, 1, 256, 1,0.0,0.0,0.0,0.0,0.0, 14:15:19.724
85890.640625, 113093.812500, 148495.234375, 152032.468750, 98596.601563, 104970.445313, 141328.781250, 144019.906250, 1, 256, 1,0.0,0.0,0.0,0.0,0.0, 14:15:19.725
85854.726563, 113046.914063, 148522.281250, 152151.515625, 98604.250000, 105045.039063, 141350.578125, 143997.890625, 1, 256, 1,0.0,0.0,0.0,0.0,0.0, 14:15:19.725
85816.367188, 113006.640625, 148515.781250, 152215.593750, 98594.304688, 105081.070313, 141349.390625, 143964.625000, 1, 256, 1,0.0,0.0,0.0,0.0,0.0, 14:15:19.726
85833.960938, 113039.828125, 148487.625000, 152102.984375, 98582.453125, 105010.773438, 141325.765625, 143977.546875, 1, 256, 1,0.0,0.0,0.0,0.0,0.0, 14:15:19.726
85878.414063, 113087.976563, 148492.484375, 152027.421875, 98593.093750, 104965.554688, 141325.984375, 144018.625000, 1, 256, 1,0.0,0.0,0.0,0.0,0.0, 14:15:19.726
85862.320313, 113062.695313, 148507.484375, 152127.000000, 98601.859375, 105035.250000, 141350.296875, 144017.296875, 1, 256, 1,0.0,0.0,0.0,0.0,0.0, 14:15:19.726
85812.320313, 113014.796875, 148507.796875, 152220.718750, 98594.656250, 105090.859375, 141354.843750, 143977.265625, 1, 256, 1,0.0,0.0,0.0,0.0,0.0, 14:15:19.727
85834.539063, 113038.085938, 148494.140625, 152139.218750, 98590.453125, 105037.640625, 141340.843750, 143981.703125, 1, 256, 1,0.0,0.0,0.0,0.0,0.0, 14:15:19.727
85881.234375, 113083.328125, 148491.062500, 152034.031250, 98598.750000, 104972.125000, 141335.593750, 144022.953125, 1, 256, 1,0.0,0.0,0.0,0.0,0.0, 14:15:19.728
85866.953125, 113060.843750, 148511.437500, 152108.671875, 98606.460938, 105019.867188, 141348.500000, 144016.390625, 1, 256, 1,0.0,0.0,0.0,0.0,0.0, 14:15:19.728
85813.796875, 113008.406250, 148508.984375, 152214.015625, 98598.367188, 105082.921875, 141351.562500, 143974.078125, 1, 256, 1,0.0,0.0,0.0,0.0,0.0, 14:15:19.728
85818.492188, 113017.101563, 148482.875000, 152155.671875, 98585.718750, 105043.648438, 141331.546875, 143968.187500, 1, 256, 1,0.0,0.0,0.0,0.0,0.0, 14:15:19.728
85861.093750, 113064.351563, 148470.921875, 152030.765625, 98585.625000, 104962.539063, 141316.796875, 143999.593750, 1, 256, 1,0.0,0.0,0.0,0.0,0.0, 14:15:19.729
85874.531250, 113074.812500, 148494.062500, 152076.125000, 98603.960938, 105000.914063, 141343.359375, 144018.750000, 1, 256, 1,0.0,0.0,0.0,0.0,0.0, 14:15:19.729
85834.179688, 113023.289063, 148512.234375, 152207.687500, 98603.421875, 105079.164063, 141357.968750, 143983.937500, 1, 256, 1,0.0,0.0,0.0,0.0,0.0, 14:15:19.729
85818.562500, 113015.312500, 148493.812500, 152178.968750, 98585.226563, 105055.742188, 141336.171875, 143964.203125, 1, 256, 1,0.0,0.0,0.0,0.0,0.0, 14:15:19.729
85869.226563, 113078.500000, 148489.656250, 152052.765625, 98588.492188, 104977.687500, 141324.390625, 144001.281250, 1, 256, 1,0.0,0.0,0.0,0.0,0.0, 14:15:19.729
85886.460938, 113092.648438, 148503.359375, 152060.609375, 98602.187500, 104990.187500, 141340.937500, 144026.296875, 1, 256, 1,0.0,0.0,0.0,0.0,0.0, 14:15:19.730
85831.320313, 113026.867188, 148510.812500, 152191.531250, 98599.554688, 105072.015625, 141352.890625, 143989.078125, 1, 256, 1,0.0,0.0,0.0,0.0,0.0, 14:15:19.730
85810.359375, 113006.929688, 148484.671875, 152194.093750, 98585.296875, 105070.335938, 141343.171875, 143965.062500, 1, 256, 1,0.0,0.0,0.0,0.0,0.0, 14:15:19.730
85857.203125, 113057.085938, 148461.640625, 152061.531250, 98580.960938, 104985.000000, 141321.734375, 143989.796875, 1, 256, 1,0.0,0.0,0.0,0.0,0.0, 14:15:19.730
85881.031250, 113079.281250, 148478.281250, 152037.312500, 98593.585938, 104970.804688, 141328.359375, 144014.718750, 1, 256, 1,0.0,0.0,0.0,0.0,0.0, 14:15:19.730
85845.492188, 113039.898438, 148495.531250, 152158.468750, 98596.421875, 105055.765625, 141349.718750, 143997.078125, 1, 256, 1,0.0,0.0,0.0,0.0,0.0, 14:15:19.730
85812.210938, 113007.601563, 148490.250000, 152203.546875, 98587.390625, 105080.937500, 141344.875000, 143965.500000, 1, 256, 1,0.0,0.0,0.0,0.0,0.0, 14:15:19.731
85849.335938, 113052.773438, 148468.906250, 152082.312500, 98582.500000, 105003.710938, 141322.234375, 143982.109375, 1, 256, 1,0.0,0.0,0.0,0.0,0.0, 14:15:19.731
85890.914063, 113093.273438, 148484.093750, 152029.203125, 98597.273438, 104968.281250, 141326.968750, 144015.843750, 1, 256, 1,0.0,0.0,0.0,0.0,0.0, 14:15:19.731
85853.695313, 113046.421875, 148503.390625, 152140.468750, 98601.406250, 105040.390625, 141344.296875, 143995.093750, 1, 256, 1,0.0,0.0,0.0,0.0,0.0, 14:15:20.172
85809.664063, 113000.625000, 148496.453125, 152208.421875, 98587.078125, 105080.265625, 141340.328125, 143954.859375, 1, 256, 1,0.0,0.0,0.0,0.0,0.0, 14:15:20.172
85833.781250, 113036.812500, 148473.218750, 152107.187500, 98579.101563, 105015.507813, 141320.421875, 143966.859375, 1, 256, 1,0.0,0.0,0.0,0.0,0.0, 14:15:20.172
85883.179688, 113086.750000, 148472.828125, 152023.187500, 98591.484375, 104964.328125, 141319.750000, 144009.984375, 1, 256, 1,0.0,0.0,0.0,0.0,0.0, 14:15:20.173
85861.851563, 113057.421875, 148493.781250, 152118.062500, 98604.000000, 105028.093750, 141344.937500, 144008.187500, 1, 256, 1,0.0,0.0,0.0,0.0,0.0, 14:15:20.173
85818.398438, 113018.062500, 148499.375000, 152221.609375, 98600.851563, 105091.929688, 141357.953125, 143978.281250, 1, 256, 1,0.0,0.0,0.0,0.0,0.0, 14:15:20.173
85819.875000, 113024.367188, 148477.203125, 152142.687500, 98582.609375, 105034.484375, 141331.484375, 143967.421875, 1, 256, 1,0.0,0.0,0.0,0.0,0.0, 14:15:20.173
85869.250000, 113075.992188, 148471.546875, 152028.781250, 98592.179688, 104965.617188, 141323.375000, 144008.468750, 1, 256, 1,0.0,0.0,0.0,0.0,0.0, 14:15:20.174
85867.820313, 113067.210938, 148495.390625, 152097.218750, 98606.796875, 105013.343750, 141344.250000, 144014.546875, 1, 256, 1,0.0,0.0,0.0,0.0,0.0, 14:15:20.174
85818.070313, 113009.234375, 148503.515625, 152212.671875, 98598.171875, 105081.562500, 141346.328125, 143970.281250, 1, 256, 1,0.0,0.0,0.0,0.0,0.0, 14:15:20.174
85821.351563, 113018.531250, 148482.203125, 152161.812500, 98586.257813, 105047.968750, 141330.250000, 143964.000000, 1, 256, 1,0.0,0.0,0.0,0.0,0.0, 14:15:20.175
85878.015625, 113076.312500, 148470.468750, 152034.609375, 98592.914063, 104970.828125, 141320.828125, 144002.203125, 1, 256, 1,0.0,0.0,0.0,0.0,0.0, 14:15:20.175
85886.218750, 113075.859375, 148491.375000, 152070.015625, 98605.234375, 104997.804688, 141339.593750, 144018.046875, 1, 256, 1,0.0,0.0,0.0,0.0,0.0, 14:15:20.176
85840.351563, 113028.093750, 148503.984375, 152200.156250, 98610.390625, 105081.960938, 141361.281250, 143989.906250, 1, 256, 1,0.0,0.0,0.0,0.0,0.0, 14:15:20.176
85817.398438, 113009.406250, 148482.968750, 152181.218750, 98593.117188, 105063.945313, 141339.656250, 143966.515625, 1, 256, 1,0.0,0.0,0.0,0.0,0.0, 14:15:20.177
85865.203125, 113065.625000, 148462.046875, 152048.156250, 98588.359375, 104980.507813, 141318.593750, 143993.156250, 1, 256, 1,0.0,0.0,0.0,0.0,0.0, 14:15:20.177
85888.523438, 113084.515625, 148479.328125, 152050.078125, 98604.429688, 104985.046875, 141337.468750, 144019.343750, 1, 256, 1,0.0,0.0,0.0,0.0,0.0, 14:15:20.177
85839.007813, 113028.210938, 148495.000000, 152183.046875, 98602.078125, 105064.796875, 141351.734375, 143984.765625, 1, 256, 1,0.0,0.0,0.0,0.0,0.0, 14:15:20.178
85806.242188, 113001.789063, 148482.984375, 152207.312500, 98585.179688, 105069.398438, 141332.671875, 143952.062500, 1, 256, 1,0.0,0.0,0.0,0.0,0.0, 14:15:20.179
85846.070313, 113045.914063, 148458.296875, 152073.390625, 98582.570313, 104987.343750, 141316.593750, 143978.671875, 1, 256, 1,0.0,0.0,0.0,0.0,0.0, 14:15:20.179
85889.164063, 113089.695313, 148475.171875, 152038.140625, 98603.218750, 104974.984375, 141335.234375, 144022.703125, 1, 256, 1,0.0,0.0,0.0,0.0,0.0, 14:15:20.179
85855.078125, 113053.375000, 148502.906250, 152163.718750, 98617.210938, 105061.351563, 141367.359375, 144010.468750, 1, 256, 1,0.0,0.0,0.0,0.0,0.0, 14:15:20.180
85821.265625, 113018.867188, 148498.812500, 152213.359375, 98608.000000, 105092.132813, 141366.437500, 143979.578125, 1, 256, 1,0.0,0.0,0.0,0.0,0.0, 14:15:20.180
85852.335938, 113055.054688, 148479.265625, 152102.546875, 98599.531250, 105017.570313, 141339.390625, 143989.906250, 1, 256, 1,0.0,0.0,0.0,0.0,0.0, 14:15:20.180
85895.046875, 113092.601563, 148482.281250, 152036.531250, 98601.382813, 104970.429688, 141331.453125, 144017.406250, 1, 256, 1,0.0,0.0,0.0,0.0,0.0, 14:15:20.180
85858.703125, 113050.359375, 148498.031250, 152141.375000, 98603.312500, 105041.484375, 141348.765625, 144004.437500, 1, 256, 1,0.0,0.0,0.0,0.0,0.0, 14:15:20.181
85817.328125, 113010.078125, 148497.671875, 152221.796875, 98594.031250, 105092.687500, 141352.375000, 143972.703125, 1, 256, 1,0.0,0.0,0.0,0.0,0.0, 14:15:20.181
85835.031250, 113031.250000, 148476.953125, 152126.953125, 98586.031250, 105024.429688, 141328.734375, 143968.031250, 1, 256, 1,0.0,0.0,0.0,0.0,0.0, 14:15:20.181
85884.632813, 113083.328125, 148473.671875, 152031.234375, 98598.101563, 104968.859375, 141325.312500, 144011.406250, 1, 256, 1,0.0,0.0,0.0,0.0,0.0, 14:15:20.181
85865.500000, 113058.718750, 148493.406250, 152119.859375, 98611.687500, 105029.593750, 141347.375000, 144007.875000, 1, 256, 1,0.0,0.0,0.0,0.0,0.0, 14:15:20.181
85826.781250, 113017.257813, 148493.921875, 152222.109375, 98608.429688, 105094.476563, 141357.031250, 143978.281250, 1, 256, 1,0.0,0.0,0.0,0.0,0.0, 14:15:20.182
85831.632813, 113030.015625, 148472.312500, 152152.390625, 98601.070313, 105048.968750, 141342.187500, 143978.156250, 1, 256, 1,0.0,0.0,0.0,0.0,0.0, 14:15:20.182
85872.781250, 113076.601563, 148467.921875, 152035.875000, 98602.054688, 104972.882813, 141326.875000, 144003.953125, 1, 256, 1,0.0,0.0,0.0,0.0,0.0, 14:15:20.183
85871.398438, 113072.531250, 148488.640625, 152092.859375, 98609.765625, 105013.789063, 141339.781250, 144008.640625, 1, 256, 1,0.0,0.0,0.0,0.0,0.0, 14:15:20.184
85822.289063, 113018.593750, 148494.703125, 152210.843750, 98604.921875, 105087.304688, 141352.781250, 143979.140625, 1, 256, 1,0.0,0.0,0.0,0.0,0.0, 14:15:20.184
85819.250000, 113014.976563, 148478.437500, 152172.703125, 98593.921875, 105055.343750, 141335.421875, 143964.609375, 1, 256, 1,0.0,0.0,0.0,0.0,0.0, 14:15:20.184
85874.640625, 113066.695313, 148466.250000, 152042.468750, 98589.562500, 104971.273438, 141315.375000, 143993.703125, 1, 256, 1,0.0,0.0,0.0,0.0,0.0, 14:15:20.185
85891.289063, 113076.734375, 148493.359375, 152072.234375, 98609.343750, 104995.460938, 141339.078125, 144016.078125, 1, 256, 1,0.0,0.0,0.0,0.0,0.0, 14:15:20.185
85835.656250, 113020.945313, 148505.484375, 152200.734375, 98609.906250, 105075.953125, 141354.218750, 143983.515625, 1, 256, 1,0.0,0.0,0.0,0.0,0.0, 14:15:20.185
85806.843750, 113001.273438, 148486.953125, 152191.171875, 98592.265625, 105061.960938, 141334.359375, 143954.937500, 1, 256, 1,0.0,0.0,0.0,0.0,0.0, 14:15:20.185
85860.242188, 113062.921875, 148471.343750, 152061.890625, 98591.820313, 104981.359375, 141319.593750, 143984.953125, 1, 256, 1,0.0,0.0,0.0,0.0,0.0, 14:15:20.186
85891.445313, 113090.632813, 148495.171875, 152062.406250, 98611.000000, 104986.343750, 141338.921875, 144017.937500, 1, 256, 1,0.0,0.0,0.0,0.0,0.0, 14:15:20.186
85847.507813, 113039.117188, 148512.312500, 152189.984375, 98612.046875, 105070.453125, 141358.265625, 143995.250000, 1, 256, 1,0.0,0.0,0.0,0.0,0.0, 14:15:20.186
85812.164063, 113007.218750, 148504.375000, 152220.984375, 98598.500000, 105081.421875, 141349.984375, 143965.531250, 1, 256, 1,0.0,0.0,0.0,0.0,0.0, 14:15:20.186
85845.648438, 113054.250000, 148474.781250, 152088.859375, 98590.281250, 104997.984375, 141329.343750, 143987.046875, 1, 256, 1,0.0,0.0,0.0,0.0,0.0, 14:15:20.187
85885.726563, 113089.968750, 148489.156250, 152046.109375, 98603.351563, 104972.101563, 141334.234375, 144016.312500, 1, 256, 1,0.0,0.0,0.0,0.0,0.0, 14:15:20.187
85854.703125, 113055.609375, 148507.734375, 152165.125000, 98610.171875, 105049.484375, 141355.984375, 143996.703125, 1, 256, 1,0.0,0.0,0.0,0.0,0.0, 14:15:20.187
85815.226563, 113019.445313, 148499.890625, 152223.781250, 98597.851563, 105079.593750, 141350.484375, 143958.218750, 1, 256, 1,0.0,0.0,0.0,0.0,0.0, 14:15:20.187
85846.367188, 113056.953125, 148472.328125, 152111.171875, 98587.710938, 105008.242188, 141328.328125, 143974.312500, 1, 256, 1,0.0,0.0,0.0,0.0,0.0, 14:15:20.188
85886.710938, 113098.664063, 148476.859375, 152036.468750, 98596.132813, 104961.421875, 141325.968750, 144009.468750, 1, 256, 1,0.0,0.0,0.0,0.0,0.0, 14:15:20.188
85863.750000, 113072.460938, 148500.093750, 152138.015625, 98606.039063, 105028.500000, 141346.734375, 144002.312500, 1, 256, 1,0.0,0.0,0.0,0.0,0.0, 14:15:20.188
85817.265625, 113030.109375, 148510.062500, 152233.234375, 98602.726563, 105090.585938, 141359.046875, 143975.000000, 1, 256, 1,0.0,0.0,0.0,0.0,0.0, 14:15:20.189
85827.921875, 113048.007813, 148488.250000, 152142.437500, 98583.281250, 105026.796875, 141326.953125, 143966.109375, 1, 256, 1,0.0,0.0,0.0,0.0,0.0, 14:15:20.189
85873.250000, 113092.757813, 148485.562500, 152036.375000, 98577.289063, 104960.859375, 141303.859375, 143995.968750, 1, 256, 1,0.0,0.0,0.0,0.0,0.0, 14:15:20.189
85856.398438, 113070.320313, 148509.546875, 152113.562500, 98587.710938, 105013.609375, 141326.796875, 143996.859375, 1, 256, 1,0.0,0.0,0.0,0.0,0.0, 14:15:20.190
85810.937500, 113020.742188, 148513.453125, 152222.906250, 98583.882813, 105082.632813, 141339.593750, 143964.906250, 1, 256, 1,0.0,0.0,0.0,0.0,0.0, 14:15:20.190
85824.953125, 113043.898438, 148489.875000, 152164.140625, 98575.257813, 105044.921875, 141324.203125, 143967.453125, 1, 256, 1,0.0,0.0,0.0,0.0,0.0, 14:15:20.191
85869.164063, 113093.875000, 148469.765625, 152038.703125, 98574.007813, 104969.351563, 141311.203125, 144003.828125, 1, 256, 1,0.0,0.0,0.0,0.0,0.0, 14:15:20.191
85861.140625, 113081.960938, 148486.171875, 152087.921875, 98588.109375, 105004.398438, 141334.015625, 144010.453125, 1, 256, 1,0.0,0.0,0.0,0.0,0.0, 14:15:20.191
85815.140625, 113029.054688, 148493.625000, 152212.140625, 98584.648438, 105080.914063, 141347.531250, 143973.328125, 1, 256, 1,0.0,0.0,0.0,0.0,0.0, 14:15:20.192
85808.367188, 113023.203125, 148476.468750, 152180.593750, 98572.398438, 105057.640625, 141332.671875, 143958.734375, 1, 256, 1,0.0,0.0,0.0,0.0,0.0, 14:15:20.192
85844.601563, 113069.023438, 148459.203125, 152046.781250, 98566.804688, 104971.273438, 141309.265625, 143983.343750, 1, 256, 1,0.0,0.0,0.0,0.0,0.0, 14:15:20.192
85849.359375, 113068.757813, 148475.968750, 152059.828125, 98581.382813, 104985.265625, 141324.906250, 144003.656250, 1, 256, 1,0.0,0.0,0.0,0.0,0.0, 14:15:20.192
85812.414063, 113020.789063, 148489.859375, 152189.609375, 98586.296875, 105067.656250, 141348.421875, 143979.046875, 1, 256, 1,0.0,0.0,0.0,0.0,0.0, 14:15:20.193
85788.335938, 113003.195313, 148472.953125, 152191.921875, 98567.546875, 105059.210938, 141331.140625, 143947.593750, 1, 256, 1,0.0,0.0,0.0,0.0,0.0, 14:15:20.193
85835.593750, 113064.218750, 148454.812500, 152061.343750, 98569.398438, 104981.867188, 141317.531250, 143982.718750, 1, 256, 1,0.0,0.0,0.0,0.0,0.0, 14:15:20.193
85879.671875, 113105.101563, 148477.406250, 152052.296875, 98596.804688, 104984.421875, 141344.734375, 144028.828125, 1, 256, 1,0.0,0.0,0.0,0.0,0.0, 14:15:20.193
85835.031250, 113050.851563, 148502.765625, 152188.796875, 98599.148438, 105063.812500, 141358.468750, 143995.765625, 1, 256, 1,0.0,0.0,0.0,0.0,0.0, 14:15:20.194
85805.281250, 113019.960938, 148492.156250, 152226.078125, 98582.945313, 105082.007813, 141347.984375, 143964.109375, 1, 256, 1,0.0,0.0,0.0,0.0,0.0, 14:15:20.194
85840.578125, 113060.554688, 148466.359375, 152100.203125, 98578.031250, 105006.101563, 141331.890625, 143987.093750, 1, 256, 1,0.0,0.0,0.0,0.0,0.0, 14:15:20.194
85870.906250, 113091.281250, 148473.625000, 152047.625000, 98585.140625, 104975.273438, 141331.343750, 144016.906250, 1, 256, 1,0.0,0.0,0.0,0.0,0.0, 14:15:20.194
85838.875000, 113054.046875, 148492.046875, 152161.656250, 98591.687500, 105048.320313, 141355.015625, 144000.187500, 1, 256, 1,0.0,0.0,0.0,0.0,0.0, 14:15:20.195
85794.796875, 113010.390625, 148490.093750, 152230.734375, 98581.156250, 105083.437500, 141353.031250, 143962.218750, 1, 256, 1,0.0,0.0,0.0,0.0,0.0, 14:15:20.195
85822.445313, 113039.117188, 148464.343750, 152118.328125, 98571.726563, 105017.585938, 141328.796875, 143974.109375, 1, 256, 1,0.0,0.0,0.0,0.0,0.0, 14:15:20.195
85867.218750, 113090.679688, 148464.937500, 152029.046875, 98581.093750, 104971.882813, 141329.156250, 144022.203125, 1, 256, 1,0.0,0.0,0.0,0.0,0.0, 14:15:20.196
85850.968750, 113071.484375, 148496.140625, 152133.031250, 98599.617188, 105039.718750, 141356.343750, 144016.781250, 1, 256, 1,0.0,0.0,0.0,0.0,0.0, 14:15:20.196
85799.898438, 113017.257813, 148501.125000, 152232.234375, 98588.375000, 105091.234375, 141355.046875, 143971.562500, 1, 256, 1,0.0,0.0,0.0,0.0,0.0, 14:15:20.196
85815.742188, 113031.093750, 148485.250000, 152156.296875, 98581.781250, 105038.195313, 141333.203125, 143969.921875, 1, 256, 1,0.0,0.0,0.0,0.0,0.0, 14:15:20.196
85866.257813, 113085.742188, 148479.328125, 152045.125000, 98586.609375, 104969.843750, 141322.031250, 144008.156250, 1, 256, 1,0.0,0.0,0.0,0.0,0.0, 14:15:20.197
85848.445313, 113062.875000, 148495.796875, 152110.015625, 98592.914063, 105015.843750, 141338.796875, 144008.687500, 1, 256, 1,0.0,0.0,0.0,0.0,0.0, 14:15:20.197
85803.132813, 113016.335938, 148493.984375, 152216.843750, 98588.554688, 105086.164063, 141351.062500, 143978.265625, 1, 256, 1,0.0,0.0,0.0,0.0,0.0, 14:15:20.197
85810.554688, 113029.859375, 148468.015625, 152162.531250, 98584.289063, 105051.875000, 141338.656250, 143972.359375, 1, 256, 1,0.0,0.0,0.0,0.0,0.0, 14:15:20.198
85858.007813, 113081.875000, 148463.031250, 152045.687500, 98586.257813, 104971.609375, 141319.484375, 143997.796875, 1, 256, 1,0.0,0.0,0.0,0.0,0.0, 14:15:20.198
85858.609375, 113074.835938, 148490.437500, 152088.265625, 98599.132813, 105002.210938, 141338.015625, 144008.390625, 1, 256, 1,0.0,0.0,0.0,0.0,0.0, 14:15:20.198
85816.414063, 113029.031250, 148501.312500, 152210.500000, 98597.585938, 105084.445313, 141355.796875, 143982.171875, 1, 256, 1,0.0,0.0,0.0,0.0,0.0, 14:15:20.199
85799.601563, 113018.867188, 148488.937500, 152190.593750, 98584.398438, 105066.828125, 141337.421875, 143960.046875, 1, 256, 1,0.0,0.0,0.0,0.0,0.0, 14:15:20.199
85851.687500, 113076.781250, 148472.500000, 152055.609375, 98583.054688, 104982.609375, 141322.625000, 143995.156250, 1, 256, 1,0.0,0.0,0.0,0.0,0.0, 14:15:20.200
85863.710938, 113081.093750, 148488.984375, 152059.406250, 98596.914063, 104990.656250, 141335.968750, 144012.437500, 1, 256, 1,0.0,0.0,0.0,0.0,0.0, 14:15:20.200
85826.203125, 113036.726563, 148505.000000, 152193.671875, 98602.187500, 105072.460938, 141355.359375, 143981.578125, 1, 256, 1,0.0,0.0,0.0,0.0,0.0, 14:15:20.200
85797.148438, 113012.562500, 148485.000000, 152205.109375, 98587.953125, 105073.265625, 141342.406250, 143957.328125, 1, 256, 1,0.0,0.0,0.0,0.0,0.0, 14:15:20.201
85837.695313, 113058.492188, 148466.187500, 152079.921875, 98582.570313, 104988.304688, 141319.500000, 143978.015625, 1, 256, 1,0.0,0.0,0.0,0.0,0.0, 14:15:20.201
85859.796875, 113078.007813, 148477.296875, 152049.656250, 98589.539063, 104969.242188, 141322.250000, 144000.343750, 1, 256, 1,0.0,0.0,0.0,0.0,0.0, 14:15:20.201
85826.765625, 113041.796875, 148491.625000, 152168.531250, 98597.031250, 105055.250000, 141348.531250, 143990.796875, 1, 256, 1,0.0,0.0,0.0,0.0,0.0, 14:15:20.202
85790.437500, 113009.187500, 148489.093750, 152218.031250, 98586.453125, 105079.390625, 141345.875000, 143956.781250, 1, 256, 1,0.0,0.0,0.0,0.0,0.0, 14:15:20.202
85827.078125, 113052.546875, 148466.812500, 152098.187500, 98577.156250, 105002.101563, 141325.000000, 143975.265625, 1, 256, 1,0.0,0.0,0.0,0.0,0.0, 14:15:20.202
85857.273438, 113080.398438, 148473.687500, 152033.593750, 98582.390625, 104962.578125, 141321.671875, 144006.343750, 1, 256, 1,0.0,0.0,0.0,0.0,0.0, 14:15:20.202
85826.023438, 113041.195313, 148495.578125, 152143.890625, 98592.937500, 105034.554688, 141341.828125, 143989.906250, 1, 256, 1,0.0,0.0,0.0,0.0,0.0, 14:15:20.203
85786.929688, 112999.195313, 148486.875000, 152215.015625, 98584.085938, 105077.515625, 141340.609375, 143956.375000, 1, 256, 1,0.0,0.0,0.0,0.0,0.0, 14:15:20.203
85813.351563, 113033.531250, 148458.765625, 152109.656250, 98574.851563, 105012.757813, 141319.812500, 143967.687500, 1, 256, 1,0.0,0.0,0.0,0.0,0.0, 14:15:20.203
85860.445313, 113081.140625, 148462.984375, 152022.500000, 98585.046875, 104954.421875, 141315.750000, 143998.937500, 1, 256, 1,0.0,0.0,0.0,0.0,0.0, 14:15:20.203
85840.914063, 113054.875000, 148486.812500, 152115.843750, 98595.843750, 105016.382813, 141333.312500, 143989.734375, 1, 256, 1,0.0,0.0,0.0,0.0,0.0, 14:15:20.204
85795.070313, 113007.664063, 148487.687500, 152217.406250, 98591.578125, 105082.742188, 141344.093750, 143961.031250, 1, 256, 1,0.0,0.0,0.0,0.0,0.0, 14:15:20.204
85812.789063, 113032.476563, 148464.375000, 152140.734375, 98585.429688, 105032.656250, 141329.046875, 143963.468750, 1, 256, 1,0.0,0.0,0.0,0.0,0.0, 14:15:20.204
85862.703125, 113083.882813, 148454.843750, 152026.640625, 98590.546875, 104963.500000, 141319.703125, 144002.375000, 1, 256, 1,0.0,0.0,0.0,0.0,0.0, 14:15:20.205
85857.046875, 113070.851563, 148479.078125, 152092.859375, 98607.132813, 105007.437500, 141340.890625, 144005.109375, 1, 256, 1,0.0,0.0,0.0,0.0,0.0, 14:15:20.205
85808.812500, 113017.609375, 148493.781250, 152213.937500, 98605.476563, 105079.546875, 141353.125000, 143967.687500, 1, 256, 1,0.0,0.0,0.0,0.0,0.0, 14:15:20.205
85803.445313, 113023.671875, 148468.468750, 152164.125000, 98587.773438, 105047.945313, 141332.171875, 143959.406250, 1, 256, 1,0.0,0.0,0.0,0.0,0.0, 14:15:20.205
85843.679688, 113067.992188, 148448.906250, 152032.625000, 98579.484375, 104964.750000, 141312.218750, 143988.968750, 1, 256, 1,0.0,0.0,0.0,0.0,0.0, 14:15:20.206
85851.148438, 113065.828125, 148470.359375, 152065.328125, 98594.078125, 104992.867188, 141333.875000, 144008.500000, 1, 256, 1,0.0,0.0,0.0,0.0,0.0, 14:15:20.206
85805.257813, 113014.460938, 148481.609375, 152194.078125, 98596.984375, 105078.070313, 141350.343750, 143980.968750, 1, 256, 1,0.0,0.0,0.0,0.0,0.0, 14:15:20.206
85792.585938, 113011.781250, 148463.296875, 152180.531250, 98584.757813, 105067.414063, 141334.593750, 143960.468750, 1, 256, 1,0.0,0.0,0.0,0.0,0.0, 14:15:20.206
85836.242188, 113063.859375, 148451.390625, 152054.890625, 98583.257813, 104981.492188, 141317.218750, 143986.265625, 1, 256, 1,0.0,0.0,0.0,0.0,0.0, 14:15:20.207
85850.609375, 113072.953125, 148473.453125, 152055.656250, 98595.242188, 104984.304688, 141328.625000, 144009.093750, 1, 256, 1,0.0,0.0,0.0,0.0,0.0, 14:15:20.207
85811.335938, 113028.117188, 148496.203125, 152185.281250, 98601.718750, 105066.960938, 141351.281250, 143984.296875, 1, 256, 1,0.0,0.0,0.0,0.0,0.0, 14:15:20.207
85788.765625, 113010.882813, 148486.125000, 152207.468750, 98588.648438, 105074.742188, 141342.593750, 143955.578125, 1, 256, 1,0.0,0.0,0.0,0.0,0.0, 14:15:20.208
85823.632813, 113051.007813, 148465.750000, 152081.312500, 98578.585938, 104992.468750, 141316.828125, 143974.734375, 1, 256, 1,0.0,0.0,0.0,0.0,0.0, 14:15:20.208
85858.031250, 113084.039063, 148475.125000, 152040.734375, 98591.328125, 104975.164063, 141326.437500, 144012.890625, 1, 256, 1,0.0,0.0,0.0,0.0,0.0, 14:15:20.208
85829.109375, 113046.937500, 148492.062500, 152164.765625, 98597.921875, 105057.218750, 141347.421875, 143996.890625, 1, 256, 1,0.0,0.0,0.0,0.0,0.0, 14:15:20.209
85792.359375, 113005.859375, 148487.390625, 152219.906250, 98586.257813, 105080.460938, 141338.390625, 143953.406250, 1, 256, 1,0.0,0.0,0.0,0.0,0.0, 14:15:20.209
85824.234375, 113042.109375, 148467.859375, 152107.609375, 98579.773438, 105006.414063, 141317.156250, 143969.250000, 1, 256, 1,0.0,0.0,0.0,0.0,0.0, 14:15:20.209
85861.476563, 113079.531250, 148473.781250, 152038.453125, 98591.664063, 104964.812500, 141317.328125, 144005.062500, 1, 256, 1,0.0,0.0,0.0,0.0,0.0, 14:15:20.651
85827.921875, 113046.445313, 148491.640625, 152138.703125, 98598.703125, 105036.070313, 141339.953125, 143996.796875, 1, 256, 1,0.0,0.0,0.0,0.0,0.0, 14:15:20.652
85783.351563, 113002.484375, 148486.703125, 152215.171875, 98588.937500, 105083.171875, 141342.562500, 143959.921875, 1, 256, 1,0.0,0.0,0.0,0.0,0.0, 14:15:20.652
85804.742188, 113029.328125, 148469.328125, 152125.312500, 98584.085938, 105023.937500, 141322.453125, 143963.265625, 1, 256, 1,0.0,0.0,0.0,0.0,0.0, 14:15:20.652
85858.234375, 113082.750000, 148470.500000, 152029.093750, 98591.687500, 104963.835938, 141317.015625, 144002.828125, 1, 256, 1,0.0,0.0,0.0,0.0,0.0, 14:15:20.652
85837.492188, 113055.992188, 148492.328125, 152114.140625, 98602.976563, 105025.437500, 141339.156250, 144007.125000, 1, 256, 1,0.0,0.0,0.0,0.0,0.0, 14:15:20.652
85788.632813, 113005.117188, 148496.515625, 152218.171875, 98596.578125, 105088.375000, 141345.546875, 143966.828125, 1, 256, 1,0.0,0.0,0.0,0.0,0.0, 14:15:20.653
85798.734375, 113019.265625, 148470.500000, 152148.984375, 98579.054688, 105033.437500, 141318.437500, 143952.203125, 1, 256, 1,0.0,0.0,0.0,0.0,0.0, 14:15:20.653
85860.445313, 113086.679688, 148458.250000, 152031.781250, 98585.179688, 104963.476563, 141309.265625, 143998.468750, 1, 256, 1,0.0,0.0,0.0,0.0,0.0, 14:15:20.653
85856.335938, 113073.718750, 148487.812500, 152094.046875, 98606.375000, 105011.640625, 141337.656250, 144014.546875, 1, 256, 1,0.0,0.0,0.0,0.0,0.0, 14:15:20.653
85798.554688, 113010.796875, 148496.140625, 152213.156250, 98599.484375, 105080.062500, 141343.125000, 143969.453125, 1, 256, 1,0.0,0.0,0.0,0.0,0.0, 14:15:20.654
85799.671875, 113013.632813, 148480.937500, 152181.015625, 98591.843750, 105054.359375, 141329.562500, 143958.031250, 1, 256, 1,0.0,0.0,0.0,0.0,0.0, 14:15:20.654
85847.101563, 113066.007813, 148462.031250, 152046.484375, 98585.984375, 104970.093750, 141309.375000, 143986.937500, 1, 256, 1,0.0,0.0,0.0,0.0,0.0, 14:15:20.654
85855.195313, 113070.164063, 148478.453125, 152068.281250, 98595.421875, 104985.226563, 141322.500000, 144002.718750, 1, 256, 1,0.0,0.0,0.0,0.0,0.0, 14:15:20.655
85820.007813, 113027.648438, 148483.687500, 152193.000000, 98596.242188, 105067.765625, 141342.703125, 143975.406250, 1, 256, 1,0.0,0.0,0.0,0.0,0.0, 14:15:20.655
85809.617188, 113020.671875, 148468.312500, 152191.843750, 98589.382813, 105068.484375, 141336.640625, 143964.968750, 1, 256, 1,0.0,0.0,0.0,0.0,0.0, 14:15:20.655
85832.507813, 113055.703125, 148451.000000, 152063.156250, 98586.453125, 104986.273438, 141311.500000, 143985.640625, 1, 256, 1,0.0,0.0,0.0,0.0,0.0, 14:15:20.655
85854.968750, 113080.109375, 148462.875000, 152047.312500, 98594.953125, 104982.046875, 141322.296875, 144009.953125, 1, 256, 1,0.0,0.0,0.0,0.0,0.0, 14:15:20.656
85817.281250, 113033.414063, 148476.265625, 152171.468750, 98594.750000, 105062.117188, 141341.671875, 143981.796875, 1, 256, 1,0.0,0.0,0.0,0.0,0.0, 14:15:20.656
85788.164063, 113001.406250, 148473.062500, 152211.390625, 98585.140625, 105081.382813, 141334.015625, 143954.265625, 1, 256, 1,0.0,0.0,0.0,0.0,0.0, 14:15:20.656
85823.320313, 113040.656250, 148454.109375, 152089.359375, 98580.156250, 105002.789063, 141315.078125, 143976.296875, 1, 256, 1,0.0,0.0,0.0,0.0,0.0, 14:15:20.656
85858.500000, 113074.921875, 148463.765625, 152043.531250, 98592.359375, 104974.828125, 141322.625000, 144010.859375, 1, 256, 1,0.0,0.0,0.0,0.0,0.0, 14:15:20.657
85821.617188, 113030.796875, 148483.437500, 152161.187500, 98595.757813, 105046.445313, 141341.671875, 143986.109375, 1, 256, 1,0.0,0.0,0.0,0.0,0.0, 14:15:20.657
85789.210938, 112999.710938, 148479.125000, 152227.484375, 98586.703125, 105085.289063, 141341.453125, 143959.281250, 1, 256, 1,0.0,0.0,0.0,0.0,0.0, 14:15:20.657
85809.929688, 113024.765625, 148452.812500, 152116.406250, 98573.804688, 105008.578125, 141312.125000, 143960.406250, 1, 256, 1,0.0,0.0,0.0,0.0,0.0, 14:15:20.657
85855.796875, 113071.460938, 148451.859375, 152032.062500, 98578.679688, 104957.750000, 141307.703125, 143999.187500, 1, 256, 1,0.0,0.0,0.0,0.0,0.0, 14:15:20.657
85822.046875, 113039.406250, 148474.750000, 152129.968750, 98586.968750, 105025.570313, 141330.906250, 143988.921875, 1, 256, 1,0.0,0.0,0.0,0.0,0.0, 14:15:20.658
85779.171875, 112990.343750, 148473.328125, 152217.312500, 98576.796875, 105074.046875, 141334.843750, 143952.453125, 1, 256, 1,0.0,0.0,0.0,0.0,0.0, 14:15:20.658
85808.140625, 113016.093750, 148452.015625, 152131.000000, 98569.695313, 105016.445313, 141314.000000, 143957.484375, 1, 256, 1,0.0,0.0,0.0,0.0,0.0, 14:15:20.658
85860.710938, 113075.390625, 148451.968750, 152030.906250, 98581.804688, 104957.062500, 141311.015625, 143998.453125, 1, 256, 1,0.0,0.0,0.0,0.0,0.0, 14:15:20.659
85843.078125, 113053.601563, 148473.015625, 152105.562500, 98590.945313, 105012.960938, 141332.671875, 143995.671875, 1, 256, 1,0.0,0.0,0.0,0.0,0.0, 14:15:20.659
85802.039063, 113004.875000, 148472.593750, 152208.250000, 98585.539063, 105079.500000, 141341.718750, 143959.218750, 1, 256, 1,0.0,0.0,0.0,0.0,0.0, 14:15:20.660
85811.898438, 113014.437500, 148447.234375, 152144.609375, 98571.054688, 105035.851563, 141319.328125, 143951.109375, 1, 256, 1,0.0,0.0,0.0,0.0,0.0, 14:15:20.661
85859.351563, 113067.210938, 148433.843750, 152023.687500, 98572.039063, 104959.117188, 141302.062500, 143989.593750, 1, 256, 1,0.0,0.0,0.0,0.0,0.0, 14:15:20.661
85858.031250, 113062.296875, 148453.515625, 152074.796875, 98587.640625, 104990.406250, 141322.187500, 143998.734375, 1, 256, 1,0.0,0.0,0.0,0.0,0.0, 14:15:20.662
85811.562500, 113011.109375, 148469.453125, 152205.968750, 98587.593750, 105073.648438, 141343.468750, 143972.750000, 1, 256, 1,0.0,0.0,0.0,0.0,0.0, 14:15:20.662
85806.937500, 113010.687500, 148458.453125, 152185.375000, 98580.507813, 105057.195313, 141330.406250, 143958.328125, 1, 256, 1,0.0,0.0,0.0,0.0,0.0, 14:15:20.662
85852.648438, 113057.820313, 148439.406250, 152050.531250, 98578.765625, 104969.804688, 141310.828125, 143982.328125, 1, 256, 1,0.0,0.0,0.0,0.0,0.0, 14:15:20.662
85869.921875, 113066.406250, 148456.453125, 152059.093750, 98597.046875, 104984.062500, 141330.125000, 144008.703125, 1, 256, 1,0.0,0.0,0.0,0.0,0.0, 14:15:20.663
85820.859375, 113012.000000, 148472.750000, 152189.093750, 98596.515625, 105066.203125, 141343.734375, 143976.750000, 1, 256, 1,0.0,0.0,0.0,0.0,0.0, 14:15:20.663
85805.640625, 112999.281250, 148460.640625, 152197.093750, 98588.265625, 105070.000000, 141338.593750, 143957.281250, 1, 256, 1,0.0,0.0,0.0,0.0,0.0, 14:15:20.663
85840.617188, 113040.679688, 148443.390625, 152066.421875, 98577.109375, 104979.257813, 141307.984375, 143968.125000, 1, 256, 1,0.0,0.0,0.0,0.0,0.0, 14:15:20.663
85860.515625, 113066.117188, 148450.375000, 152036.828125, 98581.226563, 104964.640625, 141316.796875, 143998.921875, 1, 256, 1,0.0,0.0,0.0,0.0,0.0, 14:15:20.663
85824.523438, 113023.828125, 148474.593750, 152166.734375, 98591.734375, 105054.179688, 141344.156250, 143987.187500, 1, 256, 1,0.0,0.0,0.0,0.0,0.0, 14:15:20.664
85804.367188, 113009.007813, 148469.046875, 152210.843750, 98587.062500, 105086.546875, 141346.734375, 143969.703125, 1, 256, 1,0.0,0.0,0.0,0.0,0.0, 14:15:20.664
85831.476563, 113044.703125, 148445.500000, 152094.156250, 98575.484375, 105004.023438, 141320.546875, 143971.687500, 1, 256, 1,0.0,0.0,0.0,0.0,0.0, 14:15:20.664
85862.390625, 113071.812500, 148451.093750, 152039.000000, 98582.882813, 104967.812500, 141322.625000, 144003.125000, 1, 256, 1,0.0,0.0,0.0,0.0,0.0, 14:15:20.664
85833.132813, 113035.828125, 148472.437500, 152152.796875, 98593.296875, 105043.625000, 141349.125000, 143993.734375, 1, 256, 1,0.0,0.0,0.0,0.0,0.0, 14:15:20.664
85783.085938, 112978.718750, 148471.593750, 152219.546875, 98578.453125, 105075.570313, 141337.718750, 143944.265625, 1, 256, 1,0.0,0.0,0.0,0.0,0.0, 14:15:20.664
85815.164063, 113019.046875, 148442.593750, 152106.156250, 98569.000000, 105012.421875, 141317.015625, 143964.359375, 1, 256, 1,0.0,0.0,0.0,0.0,0.0, 14:15:20.665
85861.921875, 113065.781250, 148445.015625, 152020.406250, 98581.445313, 104960.390625, 141319.093750, 144003.703125, 1, 256, 1,0.0,0.0,0.0,0.0,0.0, 14:15:20.665
85838.585938, 113038.398438, 148472.218750, 152121.093750, 98597.875000, 105026.125000, 141345.609375, 144000.484375, 1, 256, 1,0.0,0.0,0.0,0.0,0.0, 14:15:20.665
85801.460938, 113002.078125, 148471.843750, 152211.578125, 98591.507813, 105082.789063, 141348.937500, 143966.937500, 1, 256, 1,0.0,0.0,0.0,0.0,0.0, 14:15:20.665
85821.132813, 113023.179688, 148454.406250, 152134.703125, 98586.390625, 105029.460938, 141327.765625, 143964.937500, 1, 256, 1,0.0,0.0,0.0,0.0,0.0, 14:15:20.665
85865.679688, 113071.148438, 148449.468750, 152027.390625, 98590.210938, 104961.687500, 141318.031250, 143999.359375, 1, 256, 1,0.0,0.0,0.0,0.0,0.0, 14:15:20.665
85847.054688, 113051.296875, 148461.171875, 152091.640625, 98596.265625, 105001.609375, 141332.468750, 143991.718750, 1, 256, 1,0.0,0.0,0.0,0.0,0.0, 14:15:20.666
85798.710938, 112996.757813, 148466.234375, 152201.937500, 98590.296875, 105074.320313, 141342.765625, 143954.890625, 1, 256, 1,0.0,0.0,0.0,0.0,0.0, 14:15:20.666
85802.507813, 113009.679688, 148447.578125, 152152.359375, 98580.625000, 105045.843750, 141329.828125, 143956.453125, 1, 256, 1,0.0,0.0,0.0,0.0,0.0, 14:15:20.666
85853.140625, 113066.429688, 148432.906250, 152025.234375, 98583.148438, 104967.296875, 141315.343750, 143993.078125, 1, 256, 1,0.0,0.0,0.0,0.0,0.0, 14:15:20.667
85846.367188, 113053.421875, 148453.062500, 152066.265625, 98590.773438, 104988.953125, 141325.140625, 143994.265625, 1, 256, 1,0.0,0.0,0.0,0.0,0.0, 14:15:20.667
85793.968750, 113002.234375, 148463.234375, 152197.296875, 98586.859375, 105071.296875, 141338.437500, 143964.359375, 1, 256, 1,0.0,0.0,0.0,0.0,0.0, 14:15:20.668
85779.976563, 112992.062500, 148444.296875, 152173.109375, 98570.992188, 105060.171875, 141325.562500, 143954.593750, 1, 256, 1,0.0,0.0,0.0,0.0,0.0, 14:15:20.668
85837.539063, 113048.210938, 148434.468750, 152044.515625, 98576.484375, 104977.492188, 141312.812500, 143984.390625, 1, 256, 1,0.0,0.0,0.0,0.0,0.0, 14:15:20.668
85849.273438, 113056.593750, 148451.296875, 152045.703125, 98587.796875, 104980.687500, 141324.984375, 144008.312500, 1, 256, 1,0.0,0.0,0.0,0.0,0.0, 14:15:20.668
85803.625000, 113006.664063, 148467.281250, 152172.953125, 98588.335938, 105063.992188, 141342.906250, 143979.343750, 1, 256, 1,0.0,0.0,0.0,0.0,0.0, 14:15:20.668
85782.929688, 112985.984375, 148459.250000, 152189.671875, 98580.640625, 105066.898438, 141330.078125, 143946.296875, 1, 256, 1,0.0,0.0,0.0,0.0,0.0, 14:15:20.668
85832.414063, 113042.179688, 148435.984375, 152056.312500, 98576.351563, 104985.578125, 141309.484375, 143977.328125, 1, 256, 1,0.0,0.0,0.0,0.0,0.0, 14:15:20.669
85865.046875, 113074.632813, 148452.921875, 152026.859375, 98592.109375, 104969.710938, 141321.484375, 144010.968750, 1, 256, 1,0.0,0.0,0.0,0.0,0.0, 14:15:20.669
85836.242188, 113041.015625, 148480.312500, 152160.812500, 98608.945313, 105057.085938, 141354.390625, 143995.125000, 1, 256, 1,0.0,0.0,0.0,0.0,0.0, 14:15:20.669
85807.648438, 113013.054688, 148468.015625, 152210.343750, 98602.726563, 105086.859375, 141354.750000, 143968.125000, 1, 256, 1,0.0,0.0,0.0,0.0,0.0, 14:15:20.669
85834.875000, 113043.359375, 148441.593750, 152092.531250, 98591.617188, 105006.835938, 141325.406250, 143973.968750, 1, 256, 1,0.0,0.0,0.0,0.0,0.0, 14:15:20.670
85869.968750, 113082.882813, 148447.312500, 152031.171875, 98600.109375, 104969.242188, 141322.937500, 144009.062500, 1, 256, 1,0.0,0.0,0.0,0.0,0.0, 14:15:20.670
85839.773438, 113045.976563, 148465.109375, 152142.109375, 98606.148438, 105041.281250, 141346.250000, 143994.890625, 1, 256, 1,0.0,0.0,0.0,0.0,0.0, 14:15:20.670
85789.570313, 112997.429688, 148460.531250, 152220.000000, 98591.820313, 105078.632813, 141342.062500, 143949.156250, 1, 256, 1,0.0,0.0,0.0,0.0,0.0, 14:15:20.670
85821.132813, 113028.718750, 148440.906250, 152121.562500, 98588.265625, 105015.132813, 141325.140625, 143960.187500, 1, 256, 1,0.0,0.0,0.0,0.0,0.0, 14:15:20.670
85874.437500, 113075.773438, 148449.312500, 152031.421875, 98597.695313, 104965.148438, 141322.718750, 144001.093750, 1, 256, 1,0.0,0.0,0.0,0.0,0.0, 14:15:20.671
85854.164063, 113054.625000, 148469.984375, 152120.062500, 98604.093750, 105031.265625, 141341.203125, 144001.750000, 1, 256, 1,0.0,0.0,0.0,0.0,0.0, 14:15:20.671
85810.445313, 113014.531250, 148462.718750, 152214.968750, 98589.492188, 105092.734375, 141344.406250, 143964.156250, 1, 256, 1,0.0,0.0,0.0,0.0,0.0, 14:15:20.671
85819.921875, 113029.171875, 148445.468750, 152148.296875, 98578.585938, 105046.242188, 141326.468750, 143964.046875, 1, 256, 1,0.0,0.0,0.0,0.0,0.0, 14:15:20.671
85863.593750, 113080.039063, 148438.015625, 152029.515625, 98577.851563, 104970.179688, 141311.296875, 143995.046875, 1, 256, 1,0.0,0.0,0.0,0.0,0.0, 14:15:20.671
85856.734375, 113068.796875, 148461.484375, 152087.281250, 98588.890625, 105014.679688, 141335.218750, 144003.500000, 1, 256, 1,0.0,0.0,0.0,0.0,0.0, 14:15:20.671
85816.656250, 113019.554688, 148473.640625, 152211.171875, 98589.382813, 105093.226563, 141350.187500, 143971.734375, 1, 256, 1,0.0,0.0,0.0,0.0,0.0, 14:15:20.671
85811.023438, 113014.796875, 148448.328125, 152165.343750, 98575.437500, 105056.234375, 141324.687500, 143952.031250, 1, 256, 1,0.0,0.0,0.0,0.0,0.0, 14:15:20.672
85854.656250, 113070.898438, 148429.656250, 152033.453125, 98572.218750, 104969.507813, 141301.515625, 143981.125000, 1, 256, 1,0.0,0.0,0.0,0.0,0.0, 14:15:20.672
85870.437500, 113081.250000, 148457.750000, 152066.890625, 98592.242188, 104995.929688, 141327.140625, 144003.546875, 1, 256, 1,0.0,0.0,0.0,0.0,0.0, 14:15:20.672
85829.710938, 113031.359375, 148479.531250, 152201.265625, 98599.976563, 105080.601563, 141352.062500, 143977.390625, 1, 256, 1,0.0,0.0,0.0,0.0,0.0, 14:15:20.672
85814.671875, 113014.820313, 148464.890625, 152192.218750, 98592.218750, 105061.960938, 141340.062500, 143951.046875, 1, 256, 1,0.0,0.0,0.0,0.0,0.0, 14:15:20.672
85860.062500, 113068.890625, 148447.187500, 152058.671875, 98588.781250, 104975.765625, 141321.875000, 143980.046875, 1, 256, 1,0.0,0.0,0.0,0.0,0.0, 14:15:20.673
85866.367188, 113073.203125, 148466.812500, 152053.015625, 98598.726563, 104973.085938, 141330.828125, 143999.390625, 1, 256, 1,0.0,0.0,0.0,0.0,0.0, 14:15:20.673
85819.476563, 113018.687500, 148479.062500, 152177.515625, 98595.976563, 105052.789063, 141346.953125, 143968.500000, 1, 256, 1,0.0,0.0,0.0,0.0,0.0, 14:15:20.673
85804.476563, 113007.625000, 148467.593750, 152203.937500, 98588.265625, 105071.007813, 141340.796875, 143951.062500, 1, 256, 1,0.0,0.0,0.0,0.0,0.0, 14:15:20.673
85842.812500, 113053.039063, 148446.843750, 152079.453125, 98580.265625, 104995.328125, 141315.343750, 143976.765625, 1, 256, 1,0.0,0.0,0.0,0.0,0.0, 14:15:20.674
85890.843750, 113095.375000, 148462.656250, 152042.171875, 98600.070313, 104976.726563, 141332.203125, 144014.875000, 1, 256, 1,0.0,0.0,0.0,0.0,0.0, 14:15:20.674
85847.796875, 113042.539063, 148495.390625, 152172.093750, 98613.078125, 105061.375000, 141357.359375, 143994.656250, 1, 256, 1,0.0,0.0,0.0,0.0,0.0, 14:15:20.674
85800.921875, 113003.062500, 148488.125000, 152226.953125, 98593.968750, 105088.601563, 141348.062500, 143953.000000, 1, 256, 1,0.0,0.0,0.0,0.0,0.0, 14:15:20.674
85831.789063, 113049.218750, 148454.718750, 152102.515625, 98570.382813, 105006.187500, 141309.093750, 143955.828125, 1, 256, 1,0.0,0.0,0.0,0.0,0.0, 14:15:20.675
85869.945313, 113089.250000, 148454.328125, 152024.875000, 98576.148438, 104961.328125, 141306.250000, 143994.609375, 1, 256, 1,0.0,0.0,0.0,0.0,0.0, 14:15:20.675
85835.125000, 113043.164063, 148474.812500, 152128.062500, 98588.023438, 105034.062500, 141332.781250, 143989.421875, 1, 256, 1,0.0,0.0,0.0,0.0,0.0, 14:15:20.675
85784.093750, 112995.820313, 148468.531250, 152206.281250, 98576.085938, 105079.500000, 141332.734375, 143945.656250, 1, 256, 1,0.0,0.0,0.0,0.0,0.0, 14:15:20.675
85787.492188, 113014.125000, 148442.109375, 152109.656250, 98557.468750, 105010.703125, 141301.953125, 143936.484375, 1, 256, 1,0.0,0.0,0.0,0.0,0.0, 14:15:20.675
85831.273438, 113060.843750, 148434.046875, 152002.203125, 98561.015625, 104948.296875, 141292.875000, 143977.484375, 1, 256, 1,0.0,0.0,0.0,0.0,0.0, 14:15:20.676
85817.328125, 113042.242188, 148459.343750, 152090.578125, 98586.257813, 105011.976563, 141329.359375, 143985.031250, 1, 256, 1,0.0,0.0,0.0,0.0,0.0, 14:15:20.676
85772.242188, 112993.875000, 148465.640625, 152202.437500, 98583.195313, 105076.554688, 141338.718750, 143947.750000, 1, 256, 1,0.0,0.0,0.0,0.0,0.0, 14:15:20.676
85789.078125, 113013.007813, 148442.718750, 152138.187500, 98577.156250, 105034.867188, 141326.906250, 143949.921875, 1, 256, 1,0.0,0.0,0.0,0.0,0.0, 14:15:20.676
85836.242188, 113062.429688, 148426.687500, 152017.296875, 98570.968750, 104956.750000, 141297.546875, 143977.906250, 1, 256, 1,0.0,0.0,0.0,0.0,0.0, 14:15:20.677
85828.234375, 113050.757813, 148451.984375, 152074.843750, 98582.992188, 104994.078125, 141314.031250, 143983.890625, 1, 256, 1,0.0,0.0,0.0,0.0,0.0, 14:15:20.677
85775.578125, 112996.937500, 148455.906250, 152194.515625, 98573.515625, 105067.187500, 141323.921875, 143946.734375, 1, 256, 1,0.0,0.0,0.0,0.0,0.0, 14:15:20.677
85778.210938, 113001.226563, 148440.078125, 152163.671875, 98565.554688, 105047.382813, 141319.500000, 143943.796875, 1, 256, 1,0.0,0.0,0.0,0.0,0.0, 14:15:20.677
85821.484375, 113045.398438, 148429.250000, 152032.984375, 98564.507813, 104964.953125, 141302.453125, 143975.343750, 1, 256, 1,0.0,0.0,0.0,0.0,0.0, 14:15:20.678
85836.242188, 113053.890625, 148451.312500, 152049.218750, 98580.484375, 104987.640625, 141324.625000, 144001.312500, 1, 256, 1,0.0,0.0,0.0,0.0,0.0, 14:15:20.678
85793.500000, 113003.242188, 148473.937500, 152187.765625, 98587.570313, 105078.992188, 141348.531250, 143977.390625, 1, 256, 1,0.0,0.0,0.0,0.0,0.0, 14:15:20.678
85776.109375, 112986.632813, 148459.828125, 152186.468750, 98572.554688, 105066.875000, 141327.125000, 143946.812500, 1, 256, 1,0.0,0.0,0.0,0.0,0.0, 14:15:20.679
85823.546875, 113038.156250, 148441.781250, 152056.500000, 98568.148438, 104987.187500, 141309.562500, 143978.687500, 1, 256, 1,0.0,0.0,0.0,0.0,0.0, 14:15:20.679
85840.929688, 113058.539063, 148450.687500, 152043.515625, 98573.468750, 104974.945313, 141316.781250, 143996.375000, 1, 256, 1,0.0,0.0,0.0,0.0,0.0, 14:15:20.680
85808.117188, 113026.171875, 148460.703125, 152173.046875, 98576.796875, 105051.539063, 141332.953125, 143967.171875, 1, 256, 1,0.0,0.0,0.0,0.0,0.0, 14:15:20.680
85793.679688, 113013.609375, 148452.281250, 152211.062500, 98570.320313, 105075.367188, 141332.468750, 143949.828125, 1, 256, 1,0.0,0.0,0.0,0.0,0.0, 14:15:20.680
85830.960938, 113059.343750, 148438.000000, 152089.437500, 98564.078125, 104997.046875, 141308.656250, 143967.640625, 1, 256, 1,0.0,0.0,0.0,0.0,0.0, 14:15:20.680
85859.507813, 113087.953125, 148449.343750, 152034.734375, 98569.335938, 104958.648438, 141305.906250, 143987.046875, 1, 256, 1,0.0,0.0,0.0,0.0,0.0, 14:15:20.681
85817.351563, 113040.210938, 148470.578125, 152153.015625, 98574.585938, 105034.640625, 141325.968750, 143969.687500, 1, 256, 1,0.0,0.0,0.0,0.0,0.0, 14:15:20.681
85789.609375, 113003.398438, 148465.328125, 152215.468750, 98571.992188, 105073.023438, 141328.750000, 143939.265625, 1, 256, 1,0.0,0.0,0.0,0.0,0.0, 14:15:20.681
85814.671875, 113032.992188, 148443.937500, 152103.968750, 98569.601563, 105008.625000, 141313.453125, 143955.718750, 1, 256, 1,0.011490525,0.04953272,0.037456933,0.066171855,0.034795918, 14:15:21.132
85841.023438, 113065.828125, 148436.656250, 152008.312500, 98569.937500, 104956.593750, 141304.734375, 143993.000000, 1, 256, 1,0.011490525,0.04953272,0.037456933,0.066171855,0.034795918, 14:15:21.132
85817.734375, 113038.671875, 148456.609375, 152105.468750, 98578.546875, 105023.445313, 141329.531250, 143985.109375, 1, 256, 1,0.011490525,0.04953272,0.037456933,0.066171855,0.034795918, 14:15:21.132
85768.914063, 112985.093750, 148465.156250, 152204.531250, 98572.554688, 105079.367188, 141329.984375, 143945.546875, 1, 256, 1,0.011490525,0.04953272,0.037456933,0.066171855,0.034795918, 14:15:21.132
85782.640625, 113005.992188, 148435.156250, 152111.015625, 98562.695313, 105020.960938, 141310.937500, 143950.062500, 1, 256, 1,0.011490525,0.04953272,0.037456933,0.066171855,0.034795918, 14:15:21.132
85830.585938, 113063.414063, 148423.468750, 151998.468750, 98563.101563, 104952.835938, 141304.421875, 143993.109375, 1, 256, 1,0.011490525,0.04953272,0.037456933,0.066171855,0.034795918, 14:15:21.132
85817.734375, 113041.484375, 148453.375000, 152079.031250, 98575.859375, 105003.375000, 141321.296875, 143988.343750, 1, 256, 1,0.011490525,0.04953272,0.037456933,0.066171855,0.034795918, 14:15:21.133
85776.804688, 112993.320313, 148474.031250, 152206.078125, 98582.898438, 105080.687500, 141338.437500, 143957.812500, 1, 256, 1,0.011490525,0.04953272,0.037456933,0.066171855,0.034795918, 14:15:21.133
85774.593750, 112994.367188, 148446.109375, 152140.625000, 98562.226563, 105038.937500, 141314.937500, 143948.093750, 1, 256, 1,0.011490525,0.04953272,0.037456933,0.066171855,0.034795918, 14:15:21.133
85828.703125, 113057.265625, 148434.328125, 152013.000000, 98566.515625, 104965.867188, 141306.578125, 143992.031250, 1, 256, 1,0.011490525,0.04953272,0.037456933,0.066171855,0.034795918, 14:15:21.133
85825.976563, 113051.093750, 148458.781250, 152062.890625, 98585.093750, 104999.125000, 141330.015625, 144001.687500, 1, 256, 1,0.011490525,0.04953272,0.037456933,0.066171855,0.034795918, 14:15:21.133
85780.445313, 112998.906250, 148469.484375, 152191.250000, 98584.648438, 105082.343750, 141347.218750, 143972.156250, 1, 256, 1,0.011490525,0.04953272,0.037456933,0.066171855,0.034795918, 14:15:21.133
85776.023438, 112994.773438, 148451.828125, 152164.718750, 98570.609375, 105066.539063, 141332.484375, 143962.437500, 1, 256, 1,0.011490525,0.04953272,0.037456933,0.066171855,0.034795918, 14:15:21.134
85819.679688, 113044.281250, 148445.109375, 152037.250000, 98570.117188, 104982.023438, 141310.046875, 143987.265625, 1, 256, 1,0.011490525,0.04953272,0.037456933,0.066171855,0.034795918, 14:15:21.134
85840.554688, 113055.390625, 148470.546875, 152050.015625, 98587.867188, 104995.726563, 141325.156250, 144009.015625, 1, 256, 1,0.011490525,0.04953272,0.037456933,0.066171855,0.034795918, 14:15:21.134
85795.851563, 113002.796875, 148486.250000, 152177.828125, 98587.843750, 105075.703125, 141343.203125, 143976.250000, 1, 256, 1,0.011490525,0.04953272,0.037456933,0.066171855,0.034795918, 14:15:21.134
85769.359375, 112984.328125, 148466.203125, 152181.375000, 98572.929688, 105066.875000, 141334.234375, 143941.750000, 1, 256, 1,0.011490525,0.04953272,0.037456933,0.066171855,0.034795918, 14:15:21.134
85806.710938, 113034.218750, 148433.171875, 152046.703125, 98557.578125, 104982.671875, 141300.687500, 143967.687500, 1, 256, 1,0.011490525,0.04953272,0.037456933,0.066171855,0.034795918, 14:15:21.134
85853.960938, 113073.046875, 148449.000000, 152027.578125, 98578.609375, 104975.812500, 141318.140625, 144005.359375, 1, 256, 1,0.011490525,0.04953272,0.037456933,0.066171855,0.034795918, 14:15:21.134
85815.226563, 113026.132813, 148475.906250, 152164.843750, 98592.000000, 105053.460938, 141343.171875, 143976.234375, 1, 256, 1,0.011490525,0.04953272,0.037456933,0.066171855,0.034795918, 14:15:21.135
85787.445313, 112998.343750, 148464.640625, 152209.343750, 98573.335938, 105064.531250, 141325.812500, 143932.843750, 1, 256, 1,0.011490525,0.04953272,0.037456933,0.066171855,0.034795918, 14:15:21.135
85811.671875, 113030.976563, 148432.937500, 152083.859375, 98559.164063, 104982.320313, 141294.671875, 143944.953125, 1, 256, 1,0.011490525,0.04953272,0.037456933,0.066171855,0.034795918, 14:15:21.135
85838.765625, 113067.210938, 148437.265625, 152018.875000, 98561.156250, 104944.140625, 141284.546875, 143972.437500, 1, 256, 1,0.011490525,0.04953272,0.037456933,0.066171855,0.034795918, 14:15:21.136
85814.312500, 113043.007813, 148467.796875, 152135.437500, 98578.476563, 105025.906250, 141322.937500, 143968.546875, 1, 256, 1,0.011490525,0.04953272,0.037456933,0.066171855,0.034795918, 14:15:21.136
85765.695313, 112994.632813, 148461.671875, 152205.250000, 98562.429688, 105067.632813, 141322.390625, 143934.296875, 1, 256, 1,0.011490525,0.04953272,0.037456933,0.066171855,0.034795918, 14:15:21.137
85782.843750, 113021.570313, 148436.765625, 152097.171875, 98550.406250, 105001.539063, 141300.328125, 143941.031250, 1, 256, 1,0.011490525,0.04953272,0.037456933,0.066171855,0.034795918, 14:15:21.137
85826.601563, 113067.148438, 148440.515625, 152007.093750, 98565.289063, 104949.281250, 141307.187500, 143981.953125, 1, 256, 1,0.011490525,0.04953272,0.037456933,0.066171855,0.034795918, 14:15:21.137
85813.867188, 113038.890625, 148464.625000, 152100.046875, 98578.546875, 105017.078125, 141327.687500, 143980.906250, 1, 256, 1,0.011490525,0.04953272,0.037456933,0.066171855,0.034795918, 14:15:21.137
85770.882813, 112992.781250, 148466.187500, 152200.875000, 98570.382813, 105078.070313, 141326.750000, 143941.453125, 1, 256, 1,0.011490525,0.04953272,0.037456933,0.066171855,0.034795918, 14:15:21.138
85785.921875, 113017.187500, 148445.906250, 152125.359375, 98561.601563, 105029.882813, 141309.828125, 143948.812500, 1, 256, 1,0.011490525,0.04953272,0.037456933,0.066171855,0.034795918, 14:15:21.138
85827.882813, 113061.218750, 148437.390625, 152007.187500, 98560.664063, 104953.710938, 141301.281250, 143980.750000, 1, 256, 1,0.011490525,0.04953272,0.037456933,0.066171855,0.034795918, 14:15:21.138
85824.929688, 113048.390625, 148460.484375, 152075.250000, 98574.164063, 104999.820313, 141322.500000, 143983.656250, 1, 256, 1,0.011490525,0.04953272,0.037456933,0.066171855,0.034795918, 14:15:21.138
85775.640625, 112992.914063, 148467.859375, 152195.062500, 98568.640625, 105070.453125, 141332.671875, 143948.781250, 1, 256, 1,0.011490525,0.04953272,0.037456933,0.066171855,0.034795918, 14:15:21.139
85782.257813, 113001.851563, 148454.843750, 152147.656250, 98551.992188, 105037.281250, 141304.578125, 143937.203125, 1, 256, 1,0.011490525,0.04953272,0.037456933,0.066171855,0.034795918, 14:15:21.139
85832.195313, 113057.171875, 148445.500000, 152018.234375, 98556.640625, 104958.468750, 141293.218750, 143972.937500, 1, 256, 1,0.011490525,0.04953272,0.037456933,0.066171855,0.034795918, 14:15:21.139
85836.257813, 113060.460938, 148466.406250, 152055.140625, 98575.976563, 104986.226563, 141318.437500, 143991.046875, 1, 256, 1,0.011490525,0.04953272,0.037456933,0.066171855,0.034795918, 14:15:21.139
85790.039063, 113011.445313, 148482.796875, 152189.828125, 98580.445313, 105069.421875, 141341.406250, 143966.640625, 1, 256, 1,0.011490525,0.04953272,0.037456933,0.066171855,0.034795918, 14:15:21.140
85771.890625, 112995.796875, 148464.906250, 152173.828125, 98560.281250, 105048.593750, 141312.937500, 143933.937500, 1, 256, 1,0.011490525,0.04953272,0.037456933,0.066171855,0.034795918, 14:15:21.140
85822.289063, 113048.500000, 148448.171875, 152040.218750, 98562.382813, 104967.789063, 141305.125000, 143967.218750, 1, 256, 1,0.011490525,0.04953272,0.037456933,0.066171855,0.034795918, 14:15:21.140
85847.703125, 113063.968750, 148472.062500, 152045.015625, 98583.281250, 104975.921875, 141321.656250, 143992.328125, 1, 256, 1,0.011490525,0.04953272,0.037456933,0.066171855,0.034795918, 14:15:21.140
85794.578125, 113001.187500, 148485.687500, 152173.156250, 98574.343750, 105055.898438, 141320.593750, 143957.203125, 1, 256, 1,0.011490525,0.04953272,0.037456933,0.066171855,0.034795918, 14:15:21.141
85776.312500, 112991.882813, 148469.093750, 152185.734375, 98567.835938, 105067.750000, 141320.734375, 143946.218750, 1, 256, 1,0.011490525,0.04953272,0.037456933,0.066171855,0.034795918, 14:15:21.141
85814.851563, 113042.203125, 148448.406250, 152054.906250, 98567.320313, 104992.109375, 141308.781250, 143974.484375, 1, 256, 1,0.011490525,0.04953272,0.037456933,0.066171855,0.034795918, 14:15:21.141
85846.968750, 113064.953125, 148464.656250, 152022.500000, 98580.109375, 104970.851563, 141320.437500, 144001.312500, 1, 256, 1,0.011490525,0.04953272,0.037456933,0.066171855,0.034795918, 14:15:21.141
85821.820313, 113031.179688, 148485.656250, 152151.875000, 98591.593750, 105053.328125, 141348.578125, 143989.125000, 1, 256, 1,0.011490525,0.04953272,0.037456933,0.066171855,0.034795918, 14:15:21.142
85784.140625, 112996.242188, 148474.437500, 152205.343750, 98569.695313, 105078.500000, 141334.140625, 143950.281250, 1, 256, 1,0.011490525,0.04953272,0.037456933,0.066171855,0.034795918, 14:15:21.142
85806.375000, 113037.375000, 148448.343750, 152083.093750, 98557.039063, 105001.648438, 141310.156250, 143964.546875, 1, 256, 1,0.011490525,0.04953272,0.037456933,0.066171855,0.034795918, 14:15:21.142
85850.726563, 113083.078125, 148457.015625, 152016.312500, 98571.460938, 104962.578125, 141317.265625, 144001.203125, 1, 256, 1,0.011490525,0.04953272,0.037456933,0.066171855,0.034795918, 14:15:21.143
85824.507813, 113046.468750, 148482.796875, 152133.078125, 98581.562500, 105030.757813, 141340.984375, 143984.078125, 1, 256, 1,0.011490525,0.04953272,0.037456933,0.066171855,0.034795918, 14:15:21.143
85785.789063, 113006.664063, 148477.890625, 152211.890625, 98570.609375, 105079.835938, 141344.734375, 143954.937500, 1, 256, 1,0.011490525,0.04953272,0.037456933,0.066171855,0.034795918, 14:15:21.143
85804.296875, 113031.648438, 148448.812500, 152106.875000, 98561.664063, 105014.859375, 141326.656250, 143957.250000, 1, 256, 1,0.011490525,0.04953272,0.037456933,0.066171855,0.034795918, 14:15:21.144
85860.242188, 113087.242188, 148455.234375, 152012.203125, 98574.562500, 104961.929688, 141324.953125, 144000.656250, 1, 256, 1,0.011490525,0.04953272,0.037456933,0.066171855,0.034795918, 14:15:21.144
85847.992188, 113066.789063, 148482.437500, 152109.187500, 98589.476563, 105028.968750, 141345.203125, 144006.406250, 1, 256, 1,0.011490525,0.04953272,0.037456933,0.066171855,0.034795918, 14:15:21.144
85796.765625, 113018.773438, 148478.703125, 152211.734375, 98574.187500, 105084.375000, 141339.531250, 143961.484375, 1, 256, 1,0.011490525,0.04953272,0.037456933,0.066171855,0.034795918, 14:15:21.144
85795.398438, 113027.898438, 148454.890625, 152135.937500, 98560.617188, 105035.960938, 141314.031250, 143954.437500, 1, 256, 1,0.011490525,0.04953272,0.037456933,0.066171855,0.034795918, 14:15:21.145
85843.679688, 113078.406250, 148447.031250, 152017.140625, 98570.164063, 104959.539063, 141308.328125, 143982.734375, 1, 256, 1,0.011490525,0.04953272,0.037456933,0.066171855,0.034795918, 14:15:21.145
85836.375000, 113070.406250, 148455.656250, 152071.734375, 98576.578125, 104995.796875, 141324.203125, 143985.468750, 1, 256, 1,0.011490525,0.04953272,0.037456933,0.066171855,0.034795918, 14:15:21.145
85802.445313, 113026.484375, 148460.859375, 152193.359375, 98573.109375, 105066.023438, 141327.078125, 143947.062500, 1, 256, 1,0.011490525,0.04953272,0.037456933,0.066171855,0.034795918, 14:15:21.145
85803.273438, 113027.562500, 148448.015625, 152158.203125, 98567.187500, 105038.156250, 141312.656250, 143935.656250, 1, 256, 1,0.011490525,0.04953272,0.037456933,0.066171855,0.034795918, 14:15:21.145
85860.109375, 113091.328125, 148441.906250, 152030.328125, 98577.000000, 104963.500000, 141308.062500, 143979.578125, 1, 256, 1,0.011490525,0.04953272,0.037456933,0.066171855,0.034795918, 14:15:21.145
85878.257813, 113103.039063, 148467.796875, 152057.906250, 98596.312500, 104990.968750, 141330.828125, 144002.671875, 1, 256, 1,0.011490525,0.04953272,0.037456933,0.066171855,0.034795918, 14:15:21.145
85831.390625, 113054.742188, 148481.937500, 152191.531250, 98590.835938, 105074.296875, 141345.437500, 143972.187500, 1, 256, 1,0.011490525,0.04953272,0.037456933,0.066171855,0.034795918, 14:15:21.146
85813.351563, 113036.585938, 148469.953125, 152187.078125, 98577.914063, 105066.296875, 141335.062500, 143948.625000, 1, 256, 1,0.011490525,0.04953272,0.037456933,0.066171855,0.034795918, 14:15:21.146
85876.453125, 113102.859375, 148458.250000, 152056.671875, 98580.554688, 104989.828125, 141317.359375, 143984.640625, 1, 256, 1,0.011490525,0.04953272,0.037456933,0.066171855,0.034795918, 14:15:21.146
85914.875000, 113136.414063, 148484.281250, 152052.750000, 98600.382813, 104990.187500, 141336.796875, 144012.265625, 1, 256, 1,0.011490525,0.04953272,0.037456933,0.066171855,0.034795918, 14:15:21.146
85876.781250, 113094.992188, 148500.515625, 152185.281250, 98602.773438, 105077.085938, 141352.890625, 143991.828125, 1, 256, 1,0.011490525,0.04953272,0.037456933,0.066171855,0.034795918, 14:15:21.146
85853.140625, 113077.250000, 148483.921875, 152212.531250, 98585.093750, 105089.695313, 141336.171875, 143964.453125, 1, 256, 1,0.011490525,0.04953272,0.037456933,0.066171855,0.034795918, 14:15:21.146
85899.625000, 113133.929688, 148468.750000, 152092.937500, 98584.625000, 105004.203125, 141318.093750, 143974.640625, 1, 256, 1,0.011490525,0.04953272,0.037456933,0.066171855,0.034795918, 14:15:21.146
85941.046875, 113171.148438, 148483.109375, 152054.265625, 98600.046875, 104982.718750, 141329.828125, 144010.312500, 1, 256, 1,0.011490525,0.04953272,0.037456933,0.066171855,0.034795918, 14:15:21.146
85908.835938, 113127.562500, 148503.203125, 152177.046875, 98608.742188, 105061.820313, 141352.093750, 143990.109375, 1, 256, 1,0.011490525,0.04953272,0.037456933,0.066171855,0.034795918, 14:15:21.147
85875.757813, 113101.921875, 148488.875000, 152224.718750, 98588.468750, 105087.906250, 141340.000000, 143951.062500, 1, 256, 1,0.011490525,0.04953272,0.037456933,0.066171855,0.034795918, 14:15:21.147
85906.867188, 113143.742188, 148469.671875, 152112.109375, 98580.625000, 105019.687500, 141317.359375, 143964.703125, 1, 256, 1,0.011490525,0.04953272,0.037456933,0.066171855,0.034795918, 14:15:21.147
85964.156250, 113197.140625, 148475.968750, 152033.593750, 98592.578125, 104976.414063, 141320.859375, 144004.703125, 1, 256, 1,0.011490525,0.04953272,0.037456933,0.066171855,0.034795918, 14:15:21.147
85947.906250, 113166.742188, 148506.640625, 152144.000000, 98610.820313, 105051.320313, 141354.375000, 144002.921875, 1, 256, 1,0.011490525,0.04953272,0.037456933,0.066171855,0.034795918, 14:15:21.147
85901.039063, 113121.187500, 148505.234375, 152235.625000, 98602.820313, 105096.539063, 141355.984375, 143958.812500, 1, 256, 1,0.011490525,0.04953272,0.037456933,0.066171855,0.034795918, 14:15:21.147
85922.273438, 113151.859375, 148481.531250, 152143.093750, 98590.054688, 105030.640625, 141327.859375, 143956.093750, 1, 256, 1,0.011490525,0.04953272,0.037456933,0.066171855,0.034795918, 14:15:21.148
85971.781250, 113202.640625, 148485.312500, 152039.593750, 98602.390625, 104972.750000, 141329.250000, 144003.031250, 1, 256, 1,0.011490525,0.04953272,0.037456933,0.066171855,0.034795918, 14:15:21.148
85958.546875, 113181.453125, 148507.156250, 152120.328125, 98616.632813, 105028.023438, 141361.843750, 144006.859375, 1, 256, 1,0.011490525,0.04953272,0.037456933,0.066171855,0.034795918, 14:15:21.148
85906.132813, 113121.640625, 148505.343750, 152231.937500, 98607.421875, 105089.296875, 141360.234375, 143965.921875, 1, 256, 1,0.011490525,0.04953272,0.037456933,0.066171855,0.034795918, 14:15:21.148
85901.867188, 113123.625000, 148473.265625, 152163.765625, 98585.226563, 105041.843750, 141313.406250, 143953.281250, 1, 256, 1,0.011490525,0.04953272,0.037456933,0.066171855,0.034795918, 14:15:21.148
85958.304688, 113189.476563, 148470.421875, 152044.703125, 98603.664063, 104979.437500, 141327.437500, 144008.187500, 1, 256, 1,0.011490525,0.04953272,0.037456933,0.066171855,0.034795918, 14:15:21.148
85960.382813, 113182.164063, 148494.187500, 152093.984375, 98616.320313, 105013.945313, 141343.984375, 144012.781250, 1, 256, 1,0.011490525,0.04953272,0.037456933,0.066171855,0.034795918, 14:15:21.148
85905.375000, 113116.453125, 148503.546875, 152225.203125, 98609.343750, 105092.218750, 141348.828125, 143981.140625, 1, 256, 1,0.011490525,0.04953272,0.037456933,0.066171855,0.034795918, 14:15:21.149
85888.226563, 113102.460938, 148485.296875, 152195.531250, 98598.617188, 105065.757813, 141335.578125, 143957.453125, 1, 256, 1,0.011490525,0.04953272,0.037456933,0.066171855,0.034795918, 14:15:21.149
85926.898438, 113149.398438, 148460.968750, 152053.718750, 98594.476563, 104982.851563, 141319.437500, 143987.296875, 1, 256, 1,0.011490525,0.04953272,0.037456933,0.066171855,0.034795918, 14:15:21.149
85938.226563, 113155.234375, 148481.687500, 152071.296875, 98610.953125, 105000.312500, 141340.828125, 144011.015625, 1, 256, 1,0.011490525,0.04953272,0.037456933,0.066171855,0.034795918, 14:15:21.149
85888.140625, 113096.851563, 148501.625000, 152212.843750, 98612.140625, 105081.109375, 141357.593750, 143978.593750, 1, 256, 1,0.011490525,0.04953272,0.037456933,0.066171855,0.034795918, 14:15:21.149
85854.257813, 113063.882813, 148484.937500, 152214.375000, 98593.742188, 105072.039063, 141340.046875, 143948.453125, 1, 256, 1,0.011490525,0.04953272,0.037456933,0.066171855,0.034795918, 14:15:21.150
85888.382813, 113107.757813, 148467.812500, 152078.171875, 98592.468750, 104991.617188, 141323.375000, 143978.156250, 1, 256, 1,0.011490525,0.04953272,0.037456933,0.066171855,0.034795918, 14:15:21.150
85910.734375, 113129.710938, 148486.359375, 152058.359375, 98607.757813, 104993.828125, 141331.625000, 144012.546875, 1, 256, 1,0.011490525,0.04953272,0.037456933,0.066171855,0.034795918, 14:15:21.150
85869.718750, 113075.304688, 148508.500000, 152190.437500, 98608.781250, 105067.585938, 141343.828125, 143977.500000, 1, 256, 1,0.011490525,0.04953272,0.037456933,0.066171855,0.034795918, 14:15:21.150
85836.820313, 113040.390625, 148492.671875, 152222.656250, 98591.664063, 105079.546875, 141334.046875, 143948.671875, 1, 256, 1,0.011490525,0.04953272,0.037456933,0.066171855,0.034795918, 14:15:21.151
85872.382813, 113087.351563, 148473.218750, 152098.453125, 98596.468750, 105008.289063, 141326.187500, 143976.031250, 1, 256, 1,0.011490525,0.04953272,0.037456933,0.066171855,0.034795918, 14:15:21.151
85903.140625, 113119.312500, 148483.390625, 152044.515625, 98607.890625, 104979.007813, 141330.656250, 144009.578125, 1, 256, 1,0.011490525,0.04953272,0.037456933,0.066171855,0.034795918, 14:15:21.151
85868.000000, 113072.578125, 148498.906250, 152165.015625, 98606.976563, 105052.617188, 141344.203125, 143990.625000, 1, 256, 1,0.011490525,0.04953272,0.037456933,0.066171855,0.034795918, 14:15:21.151
85821.507813, 113026.867188, 148487.187500, 152232.546875, 98589.765625, 105083.726563, 141336.125000, 143951.109375, 1, 256, 1,0.011490525,0.04953272,0.037456933,0.066171855,0.034795918, 14:15:21.151
85834.023438, 113048.210938, 148463.546875, 152120.953125, 98579.953125, 105016.742188, 141314.546875, 143958.500000, 1, 256, 1,0.011490525,0.04953272,0.037456933,0.066171855,0.034795918, 14:15:21.151
85868.000000, 113079.390625, 148461.828125, 152028.421875, 98587.437500, 104962.406250, 141314.562500, 143990.421875, 1, 256, 1,0.011490525,0.04953272,0.037456933,0.066171855,0.034795918, 14:15:21.151
85855.257813, 113055.921875, 148485.968750, 152129.187500, 98600.875000, 105031.781250, 141340.687500, 143994.468750, 1, 256, 1,0.011490525,0.04953272,0.037456933,0.066171855,0.034795918, 14:15:21.152
85822.109375, 113021.570313, 148493.343750, 152234.625000, 98594.125000, 105091.218750, 141344.968750, 143964.031250, 1, 256, 1,0.011490525,0.04953272,0.037456933,0.066171855,0.034795918, 14:15:21.152
85837.421875, 113039.164063, 148477.062500, 152152.593750, 98585.156250, 105036.859375, 141326.703125, 143961.812500, 1, 256, 1,0.011490525,0.04953272,0.037456933,0.066171855,0.034795918, 14:15:21.152
85882.085938, 113085.562500, 148469.375000, 152034.687500, 98590.500000, 104966.648438, 141321.843750, 143994.984375, 1, 256, 1,0.011490525,0.04953272,0.037456933,0.066171855,0.034795918, 14:15:21.152
85869.742188, 113070.500000, 148491.953125, 152107.328125, 98599.375000, 105014.859375, 141333.812500, 143996.578125, 1, 256, 1,0.011490525,0.04953272,0.037456933,0.066171855,0.034795918, 14:15:21.152
85827.007813, 113015.312500, 148503.234375, 152228.656250, 98597.812500, 105087.664063, 141347.171875, 143964.406250, 1, 256, 1,0.011490525,0.04953272,0.037456933,0.066171855,0.034795918, 14:15:21.152
85822.156250, 113013.765625, 148480.531250, 152166.484375, 98582.234375, 105045.640625, 141325.843750, 143949.859375, 1, 256, 1,0.011490525,0.04953272,0.037456933,0.066171855,0.034795918, 14:15:21.152
85871.976563, 113073.000000, 148463.671875, 152028.890625, 98583.054688, 104968.726563, 141316.125000, 143988.968750, 1, 256, 1,0.011490525,0.04953272,0.037456933,0.066171855,0.034795918, 14:15:21.153
85869.718750, 113064.195313, 148492.671875, 152078.359375, 98600.625000, 104999.750000, 141336.468750, 143997.781250, 1, 256, 1,0.011490525,0.04953272,0.037456933,0.066171855,0.034795918, 14:15:21.153
85822.914063, 113017.593750, 148503.593750, 152213.156250, 98594.343750, 105078.070313, 141346.968750, 143963.609375, 1, 256, 1,0.011490525,0.04953272,0.037456933,0.066171855,0.034795918, 14:15:21.153
85812.031250, 113014.750000, 148482.046875, 152188.265625, 98581.960938, 105060.390625, 141332.750000, 143949.968750, 1, 256, 1,0.011490525,0.04953272,0.037456933,0.066171855,0.034795918, 14:15:21.153
85856.062500, 113067.078125, 148469.250000, 152049.656250, 98586.140625, 104984.281250, 141317.250000, 143984.484375, 1, 256, 1,0.011490525,0.04953272,0.037456933,0.066171855,0.034795918, 14:15:21.153
85868.382813, 113072.601563, 148487.578125, 152053.796875, 98598.523438, 104994.320313, 141329.890625, 144003.703125, 1, 256, 1,0.011490525,0.04953272,0.037456933,0.066171855,0.034795918, 14:15:21.153
85832.773438, 113027.046875, 148499.046875, 152188.125000, 98601.226563, 105079.210938, 141351.359375, 143984.234375, 1, 256, 1,0.011490525,0.04953272,0.037456933,0.066171855,0.034795918, 14:15:21.153
85810.289063, 113003.710938, 148485.968750, 152204.328125, 98594.078125, 105083.835938, 141345.515625, 143961.546875, 1, 256, 1,0.011490525,0.04953272,0.037456933,0.066171855,0.034795918, 14:15:21.154
85843.882813, 113045.421875, 148465.562500, 152068.343750, 98594.304688, 105001.718750, 141330.718750, 143983.078125, 1, 256, 1,0.011490525,0.04953272,0.037456933,0.066171855,0.034795918, 14:15:21.154
85879.625000, 113074.070313, 148478.750000, 152037.750000, 98608.984375, 104991.976563, 141339.375000, 144016.843750, 1, 256, 1,0.011490525,0.04953272,0.037456933,0.066171855,0.034795918, 14:15:21.154
85842.382813, 113029.726563, 148491.781250, 152165.109375, 98608.960938, 105065.757813, 141353.828125, 143992.015625, 1, 256, 1,0.011490525,0.04953272,0.037456933,0.066171855,0.034795918, 14:15:21.154
85806.601563, 112998.343750, 148487.546875, 152215.625000, 98597.992188, 105084.687500, 141349.203125, 143956.109375, 1, 256, 1,0.011490525,0.04953272,0.037456933,0.066171855,0.034795918, 14:15:21.154
85831.570313, 113038.242188, 148460.265625, 152087.328125, 98591.171875, 105010.835938, 141331.781250, 143977.421875, 1, 256, 1,0.011490525,0.04953272,0.037456933,0.066171855,0.034795918, 14:15:21.154
85874.257813, 113077.984375, 148473.578125, 152024.937500, 98603.757813, 104979.476563, 141334.234375, 144015.187500, 1, 256, 1,0.011490525,0.04953272,0.037456933,0.066171855,0.034795918, 14:15:21.154
85846.343750, 113030.062500, 148498.484375, 152142.125000, 98605.031250, 105045.726563, 141344.062500, 143990.796875, 1, 256, 1,0.011490525,0.04953272,0.037456933,0.066171855,0.034795918, 14:15:21.155
85809.976563, 112988.109375, 148496.062500, 152221.515625, 98600.445313, 105089.765625, 141351.437500, 143964.031250, 1, 256, 1,0.011490525,0.04953272,0.037456933,0.066171855,0.034795918, 14:15:21.155
85831.679688, 113030.781250, 148472.437500, 152115.328125, 98597.367188, 105027.578125, 141341.312500, 143976.140625, 1, 256, 1,0.0039407895,0.015676703,0.020324185,0.02247956,0.014779633, 14:15:21.612
85867.773438, 113074.835938, 148474.109375, 152016.828125, 98600.492188, 104970.289063, 141323.953125, 144004.953125, 1, 256, 1,0.0039407895,0.015676703,0.020324185,0.02247956,0.014779633, 14:15:21.612
85850.789063, 113051.226563, 148500.984375, 152114.125000, 98606.460938, 105028.742188, 141340.734375, 143995.906250, 1, 256, 1,0.0039407895,0.015676703,0.020324185,0.02247956,0.014779633, 14:15:21.612
85799.984375, 112997.203125, 148501.718750, 152215.687500, 98589.273438, 105079.835938, 141338.125000, 143950.687500, 1, 256, 1,0.0039407895,0.015676703,0.020324185,0.02247956,0.014779633, 14:15:21.613
85809.953125, 113017.281250, 148472.390625, 152133.328125, 98577.335938, 105029.234375, 141321.937500, 143951.796875, 1, 256, 1,0.0039407895,0.015676703,0.020324185,0.02247956,0.014779633, 14:15:21.613
85864.265625, 113077.742188, 148472.343750, 152025.250000, 98590.437500, 104971.968750, 141323.843750, 143997.890625, 1, 256, 1,0.0039407895,0.015676703,0.020324185,0.02247956,0.014779633, 14:15:21.613
85854.187500, 113059.609375, 148498.328125, 152098.078125, 98598.703125, 105018.531250, 141338.546875, 143998.843750, 1, 256, 1,0.0039407895,0.015676703,0.020324185,0.02247956,0.014779633, 14:15:21.613
85804.609375, 113002.906250, 148503.328125, 152219.796875, 98592.335938, 105088.648438, 141348.984375, 143968.828125, 1, 256, 1,0.0039407895,0.015676703,0.020324185,0.02247956,0.014779633, 14:15:21.613
85805.281250, 113013.054688, 148475.328125, 152167.140625, 98582.609375, 105053.640625, 141331.484375, 143955.218750, 1, 256, 1,0.0039407895,0.015676703,0.020324185,0.02247956,0.014779633, 14:15:21.613
85855.882813, 113069.781250, 148460.218750, 152032.765625, 98594.679688, 104980.929688, 141330.015625, 143997.578125, 1, 256, 1,0.0039407895,0.015676703,0.020324185,0.02247956,0.014779633, 14:15:21.613
85874.703125, 113076.843750, 148485.062500, 152073.531250, 98605.835938, 105009.632813, 141336.515625, 144012.671875, 1, 256, 1,0.0039407895,0.015676703,0.020324185,0.02247956,0.014779633, 14:15:21.614
85828.125000, 113020.671875, 148497.078125, 152213.156250, 98604.492188, 105084.148438, 141351.375000, 143973.234375, 1, 256, 1,0.0039407895,0.015676703,0.020324185,0.02247956,0.014779633, 14:15:21.614
85815.203125, 113015.648438, 148473.937500, 152196.640625, 98585.960938, 105061.445313, 141328.203125, 143947.359375, 1, 256, 1,0.0039407895,0.015676703,0.020324185,0.02247956,0.014779633, 14:15:21.614
85864.781250, 113077.562500, 148466.546875, 152060.828125, 98593.226563, 104987.390625, 141319.812500, 143981.968750, 1, 256, 1,0.0039407895,0.015676703,0.020324185,0.02247956,0.014779633, 14:15:21.614
85891.492188, 113102.414063, 148487.593750, 152058.671875, 98610.710938, 104995.078125, 141340.484375, 144010.812500, 1, 256, 1,0.0039407895,0.015676703,0.020324185,0.02247956,0.014779633, 14:15:21.614
85855.546875, 113057.937500, 148505.359375, 152196.125000, 98615.937500, 105076.796875, 141361.531250, 143988.953125, 1, 256, 1,0.0039407895,0.015676703,0.020324185,0.02247956,0.014779633, 14:15:21.615
85824.773438, 113030.601563, 148488.421875, 152214.078125, 98594.546875, 105079.054688, 141343.515625, 143954.500000, 1, 256, 1,0.0039407895,0.015676703,0.020324185,0.02247956,0.014779633, 14:15:21.615
85872.429688, 113089.671875, 148473.875000, 152084.921875, 98596.265625, 105007.148438, 141327.078125, 143984.390625, 1, 256, 1,0.0039407895,0.015676703,0.020324185,0.02247956,0.014779633, 14:15:21.615
85902.468750, 113118.242188, 148483.218750, 152040.937500, 98612.765625, 104990.859375, 141348.718750, 144022.312500, 1, 256, 1,0.0039407895,0.015676703,0.020324185,0.02247956,0.014779633, 14:15:21.615
85881.656250, 113084.671875, 148502.953125, 152171.671875, 98615.648438, 105068.039063, 141361.171875, 143999.500000, 1, 256, 1,0.0039407895,0.015676703,0.020324185,0.02247956,0.014779633, 14:15:21.616
85853.804688, 113061.960938, 148490.406250, 152229.828125, 98585.765625, 105087.703125, 141332.468750, 143951.515625, 1, 256, 1,0.0039407895,0.015676703,0.020324185,0.02247956,0.014779633, 14:15:21.616
85893.187500, 113109.968750, 148469.937500, 152113.109375, 98581.539063, 105018.375000, 141309.109375, 143965.218750, 1, 256, 1,0.0039407895,0.015676703,0.020324185,0.02247956,0.014779633, 14:15:21.616
85936.914063, 113163.726563, 148479.218750, 152037.921875, 98598.500000, 104977.757813, 141321.140625, 143999.234375, 1, 256, 1,0.0039407895,0.015676703,0.020324185,0.02247956,0.014779633, 14:15:21.616
85922.429688, 113150.468750, 148504.875000, 152149.187500, 98602.281250, 105040.117188, 141336.687500, 143981.937500, 1, 256, 1,0.0039407895,0.015676703,0.020324185,0.02247956,0.014779633, 14:15:21.617
85899.585938, 113128.703125, 148505.031250, 152235.062500, 98589.648438, 105088.000000, 141334.921875, 143950.921875, 1, 256, 1,0.0039407895,0.015676703,0.020324185,0.02247956,0.014779633, 14:15:21.617
85928.843750, 113169.492188, 148483.578125, 152135.015625, 98584.335938, 105027.179688, 141321.968750, 143959.000000, 1, 256, 1,0.0039407895,0.015676703,0.020324185,0.02247956,0.014779633, 14:15:21.617
85988.609375, 113225.820313, 148490.437500, 152040.734375, 98600.265625, 104974.695313, 141330.812500, 144004.375000, 1, 256, 1,0.0039407895,0.015676703,0.020324185,0.02247956,0.014779633, 14:15:21.617
85972.179688, 113210.953125, 148515.687500, 152135.468750, 98613.187500, 105032.523438, 141354.109375, 144004.812500, 1, 256, 1,0.0039407895,0.015676703,0.020324185,0.02247956,0.014779633, 14:15:21.617
85929.398438, 113174.187500, 148517.593750, 152244.593750, 98597.117188, 105084.578125, 141346.296875, 143955.375000, 1, 256, 1,0.0039407895,0.015676703,0.020324185,0.02247956,0.014779633, 14:15:21.617
85943.234375, 113193.273438, 148490.609375, 152168.859375, 98591.460938, 105041.546875, 141333.609375, 143955.781250, 1, 256, 1,0.0039407895,0.015676703,0.020324185,0.02247956,0.014779633, 14:15:21.618
85998.960938, 113252.085938, 148486.609375, 152048.000000, 98604.226563, 104977.781250, 141332.125000, 144000.015625, 1, 256, 1,0.0039407895,0.015676703,0.020324185,0.02247956,0.014779633, 14:15:21.618
85992.210938, 113236.906250, 148509.671875, 152109.656250, 98615.539063, 105017.812500, 141349.234375, 144006.609375, 1, 256, 1,0.0039407895,0.015676703,0.020324185,0.02247956,0.014779633, 14:15:21.618
85938.476563, 113171.664063, 148512.234375, 152234.031250, 98599.617188, 105085.312500, 141347.218750, 143966.031250, 1, 256, 1,0.0039407895,0.015676703,0.020324185,0.02247956,0.014779633, 14:15:21.618
85927.750000, 113173.312500, 148488.375000, 152189.468750, 98581.898438, 105060.054688, 141329.562500, 143954.546875, 1, 256, 1,0.0039407895,0.015676703,0.020324185,0.02247956,0.014779633, 14:15:21.618
85975.218750, 113232.773438, 148477.109375, 152054.312500, 98584.062500, 104988.781250, 141314.234375, 143994.984375, 1, 256, 1,0.0039407895,0.015676703,0.020324185,0.02247956,0.014779633, 14:15:21.618
85983.156250, 113228.523438, 148510.062500, 152088.906250, 98609.320313, 105013.406250, 141343.625000, 144017.656250, 1, 256, 1,0.0039407895,0.015676703,0.020324185,0.02247956,0.014779633, 14:15:21.618
85928.101563, 113170.367188, 148522.015625, 152221.562500, 98601.070313, 105086.609375, 141349.406250, 143979.625000, 1, 256, 1,0.0039407895,0.015676703,0.020324185,0.02247956,0.014779633, 14:15:21.618
85901.062500, 113147.992188, 148501.609375, 152215.203125, 98580.625000, 105074.343750, 141327.531250, 143949.125000, 1, 256, 1,0.0039407895,0.015676703,0.020324185,0.02247956,0.014779633, 14:15:21.619
85937.648438, 113191.781250, 148479.484375, 152071.562500, 98580.710938, 104991.882813, 141314.078125, 143975.187500, 1, 256, 1,0.0039407895,0.015676703,0.020324185,0.02247956,0.014779633, 14:15:21.619
85958.234375, 113208.382813, 148501.781250, 152058.937500, 98598.835938, 104990.007813, 141330.015625, 144005.156250, 1, 256, 1,0.0039407895,0.015676703,0.020324185,0.02247956,0.014779633, 14:15:21.619
85915.382813, 113153.289063, 148523.843750, 152198.250000, 98599.757813, 105065.195313, 141343.359375, 143975.265625, 1, 256, 1,0.0039407895,0.015676703,0.020324185,0.02247956,0.014779633, 14:15:21.619
85882.796875, 113119.718750, 148510.640625, 152227.421875, 98585.179688, 105077.445313, 141333.234375, 143947.781250, 1, 256, 1,0.0039407895,0.015676703,0.020324185,0.02247956,0.014779633, 14:15:21.619
85909.171875, 113152.570313, 148491.015625, 152095.187500, 98589.250000, 105003.328125, 141320.781250, 143968.296875, 1, 256, 1,0.0039407895,0.015676703,0.020324185,0.02247956,0.014779633, 14:15:21.619
85940.468750, 113180.421875, 148502.062500, 152042.078125, 98606.195313, 104978.226563, 141332.109375, 144002.531250, 1, 256, 1,0.0039407895,0.015676703,0.020324185,0.02247956,0.014779633, 14:15:21.619
85897.773438, 113128.968750, 148519.671875, 152166.359375, 98606.882813, 105050.515625, 141347.218750, 143981.281250, 1, 256, 1,0.0039407895,0.015676703,0.020324185,0.02247956,0.014779633, 14:15:21.620
85856.554688, 113088.421875, 148509.234375, 152233.750000, 98590.296875, 105084.710938, 141343.265625, 143948.828125, 1, 256, 1,0.0039407895,0.015676703,0.020324185,0.02247956,0.014779633, 14:15:21.620
85880.406250, 113121.484375, 148487.218750, 152121.781250, 98590.656250, 105022.460938, 141328.671875, 143966.156250, 1, 256, 1,0.0039407895,0.015676703,0.020324185,0.02247956,0.014779633, 14:15:21.620
85913.734375, 113156.953125, 148484.750000, 152031.109375, 98601.367188, 104973.890625, 141328.796875, 144003.984375, 1, 256, 1,0.0039407895,0.015676703,0.020324185,0.02247956,0.014779633, 14:15:21.620
85875.820313, 113106.390625, 148502.500000, 152135.890625, 98594.812500, 105031.578125, 141333.140625, 143983.078125, 1, 256, 1,0.0039407895,0.015676703,0.020324185,0.02247956,0.014779633, 14:15:21.620
85818.648438, 113044.929688, 148494.281250, 152230.125000, 98572.757813, 105078.140625, 141323.703125, 143938.171875, 1, 256, 1,0.0039407895,0.015676703,0.020324185,0.02247956,0.014779633, 14:15:21.621
85836.820313, 113069.804688, 148464.687500, 152133.390625, 98566.648438, 105027.492188, 141308.468750, 143949.296875, 1, 256, 1,0.0039407895,0.015676703,0.020324185,0.02247956,0.014779633, 14:15:21.621
85880.117188, 113110.867188, 148460.328125, 152020.125000, 98579.257813, 104965.398438, 141306.859375, 143986.156250, 1, 256, 1,0.0039407895,0.015676703,0.020324185,0.02247956,0.014779633, 14:15:21.621
85870.507813, 113083.664063, 148484.953125, 152103.765625, 98592.781250, 105019.554688, 141329.296875, 143987.187500, 1, 256, 1,0.0039407895,0.015676703,0.020324185,0.02247956,0.014779633, 14:15:21.621
85821.289063, 113032.546875, 148488.109375, 152221.703125, 98576.734375, 105082.523438, 141327.109375, 143948.453125, 1, 256, 1,0.0039407895,0.015676703,0.020324185,0.02247956,0.014779633, 14:15:21.622
85819.273438, 113048.101563, 148458.203125, 152155.968750, 98562.609375, 105041.953125, 141307.015625, 143943.468750, 1, 256, 1,0.0039407895,0.015676703,0.020324185,0.02247956,0.014779633, 14:15:21.622
85865.320313, 113099.171875, 148454.046875, 152032.171875, 98568.820313, 104971.406250, 141299.046875, 143978.718750, 1, 256, 1,0.0039407895,0.015676703,0.020324185,0.02247956,0.014779633, 14:15:21.622
85876.875000, 113105.429688, 148486.234375, 152085.484375, 98593.476563, 105014.078125, 141330.875000, 144003.984375, 1, 256, 1,0.0039407895,0.015676703,0.020324185,0.02247956,0.014779633, 14:15:21.622
85824.593750, 113043.140625, 148497.359375, 152218.375000, 98587.101563, 105081.203125, 141334.640625, 143957.281250, 1, 256, 1,0.0039407895,0.015676703,0.020324185,0.02247956,0.014779633, 14:15:21.623
85809.531250, 113031.804688, 148477.656250, 152187.234375, 98574.187500, 105050.132813, 141314.968750, 143933.156250, 1, 256, 1,0.0039407895,0.015676703,0.020324185,0.02247956,0.014779633, 14:15:21.623
85861.742188, 113087.890625, 148456.609375, 152040.343750, 98578.523438, 104975.679688, 141307.671875, 143975.609375, 1, 256, 1,0.0039407895,0.015676703,0.020324185,0.02247956,0.014779633, 14:15:21.623
85884.335938, 113104.648438, 148489.765625, 152061.484375, 98604.671875, 104996.625000, 141334.921875, 144005.718750, 1, 256, 1,0.0039407895,0.015676703,0.020324185,0.02247956,0.014779633, 14:15:21.623
85835.101563, 113051.968750, 148506.687500, 152204.796875, 98597.679688, 105069.781250, 141341.921875, 143968.125000, 1, 256, 1,0.0039407895,0.015676703,0.020324185,0.02247956,0.014779633, 14:15:21.624
85805.617188, 113019.578125, 148485.937500, 152210.375000, 98576.351563, 105060.835938, 141321.093750, 143932.421875, 1, 256, 1,0.0039407895,0.015676703,0.020324185,0.02247956,0.014779633, 14:15:21.624
85854.187500, 113074.054688, 148470.765625, 152074.625000, 98582.453125, 104989.671875, 141314.203125, 143966.953125, 1, 256, 1,0.0039407895,0.015676703,0.020324185,0.02247956,0.014779633, 14:15:21.624
85878.726563, 113097.656250, 148491.156250, 152047.109375, 98604.203125, 104986.187500, 141335.265625, 144002.718750, 1, 256, 1,0.0039407895,0.015676703,0.020324185,0.02247956,0.014779633, 14:15:21.624
85830.226563, 113040.882813, 148504.218750, 152173.781250, 98596.203125, 105059.546875, 141344.015625, 143972.859375, 1, 256, 1,0.0039407895,0.015676703,0.020324185,0.02247956,0.014779633, 14:15:21.624
85788.898438, 112999.617188, 148485.359375, 152211.625000, 98568.414063, 105072.242188, 141322.406250, 143932.937500, 1, 256, 1,0.0039407895,0.015676703,0.020324185,0.02247956,0.014779633, 14:15:21.624
85823.367188, 113038.468750, 148454.843750, 152076.281250, 98560.859375, 104999.531250, 141303.046875, 143958.500000, 1, 256, 1,0.0039407895,0.015676703,0.020324185,0.02247956,0.014779633, 14:15:21.624
85872.046875, 113082.078125, 148471.593750, 152025.390625, 98587.976563, 104983.617188, 141328.125000, 144011.531250, 1, 256, 1,0.0039407895,0.015676703,0.020324185,0.02247956,0.014779633, 14:15:21.624
85828.882813, 113031.226563, 148489.609375, 152146.515625, 98584.179688, 105055.742188, 141337.562500, 143989.843750, 1, 256, 1,0.0039407895,0.015676703,0.020324185,0.02247956,0.014779633, 14:15:21.624
85781.007813, 112994.007813, 148476.937500, 152214.296875, 98563.765625, 105089.296875, 141328.250000, 143950.796875, 1, 256, 1,0.0039407895,0.015676703,0.020324185,0.02247956,0.014779633, 14:15:21.625
85805.703125, 113027.898438, 148456.968750, 152107.062500, 98561.601563, 105029.968750, 141316.000000, 143965.437500, 1, 256, 1,0.0039407895,0.015676703,0.020324185,0.02247956,0.014779633, 14:15:21.625
85858.656250, 113072.398438, 148463.328125, 152016.421875, 98575.570313, 104981.695313, 141315.531250, 144004.265625, 1, 256, 1,0.0039407895,0.015676703,0.020324185,0.02247956,0.014779633, 14:15:21.625
85845.335938, 113045.125000, 148495.343750, 152122.921875, 98593.187500, 105046.179688, 141335.796875, 144000.890625, 1, 256, 1,0.0039407895,0.015676703,0.020324185,0.02247956,0.014779633, 14:15:21.625
85792.179688, 112993.585938, 148489.515625, 152222.062500, 98578.609375, 105092.843750, 141331.343750, 143956.890625, 1, 256, 1,0.0039407895,0.015676703,0.020324185,0.02247956,0.014779633, 14:15:21.625
85805.703125, 113014.726563, 148462.562500, 152136.296875, 98574.367188, 105043.273438, 141317.828125, 143959.828125, 1, 256, 1,0.0039407895,0.015676703,0.020324185,0.02247956,0.014779633, 14:15:21.625
85854.320313, 113066.117188, 148464.703125, 152020.562500, 98593.515625, 104983.546875, 141323.093750, 143998.687500, 1, 256, 1,0.0039407895,0.015676703,0.020324185,0.02247956,0.014779633, 14:15:21.625
