%OpenBCI Raw EEG Data
%
%Sample Rate = 250.0 Hz
%First Column = SampleIndex
%5 Columns before Timestamp are Frequency Power factors DELTA THETA ALPHA BETA GAMMA
%Last Column = Timestamp 
%Other Columns = EEG data in microvolts followed by Accel Data (in G) interleaved with Aux Data
, 0.00, 0.00, 0.00, 0.00, 0.00, 0.00, 0.00, 0.00, 0.280, 0.392, 0.864,0.0,0.0,0.0,0.0,0.0, 21:47:59.095
, 65927.14, 104885.52, 154218.77, 137554.48, 97588.09, 67177.14, 99840.45, 101173.98, 0.000, 0.000, 0.000,0.0,0.0,0.0,0.0,0.0, 21:47:59.576
, 65967.55, 104921.79, 154254.86, 137462.36, 97646.32, 67109.21, 99894.88, 101047.78, 0.000, 0.000, 0.000,0.0,0.0,0.0,0.0,0.0, 21:47:59.577
, 65930.16, 104875.56, 154211.11, 137533.13, 97606.48, 67199.55, 99883.17, 101116.47, 0.000, 0.000, 0.000,0.0,0.0,0.0,0.0,0.0, 21:47:59.578
, 65876.38, 104817.72, 154156.17, 137649.89, 97547.13, 67294.15, 99836.84, 101255.84, 0.000, 0.000, 0.000,0.0,0.0,0.0,0.0,0.0, 21:47:59.578
, 65900.63, 104849.84, 154187.94, 137614.56, 97563.64, 67231.23, 99817.01, 101242.45, 0.000, 0.000, 0.000,0.0,0.0,0.0,0.0,0.0, 21:47:59.579
, 65978.88, 104930.95, 154273.66, 137466.83, 97661.63, 67113.55, 99905.63, 101054.71, 0.000, 0.000, 0.000,0.0,0.0,0.0,0.0,0.0, 21:47:59.579
, 65964.06, 104907.64, 154249.47, 137515.59, 97642.09, 67186.15, 99922.11, 101075.99, 0.298, 0.386, 0.858,0.0,0.0,0.0,0.0,0.0, 21:47:59.579
, 65897.57, 104836.31, 154176.42, 137637.44, 97559.48, 67287.17, 99847.05, 101212.27, 0.000, 0.000, 0.000,0.0,0.0,0.0,0.0,0.0, 21:47:59.580
, 65919.70, 104858.49, 154202.06, 137623.17, 97577.86, 67251.10, 99830.22, 101210.46, 0.000, 0.000, 0.000,0.0,0.0,0.0,0.0,0.0, 21:47:59.580
, 65977.25, 104921.50, 154262.09, 137495.17, 97645.45, 67131.14, 99877.05, 101047.45, 0.000, 0.000, 0.000,0.0,0.0,0.0,0.0,0.0, 21:47:59.580
, 65963.39, 104895.98, 154241.16, 137517.36, 97638.70, 67181.01, 99897.54, 101057.91, 0.000, 0.000, 0.000,0.0,0.0,0.0,0.0,0.0, 21:47:59.581
, 65889.97, 104821.16, 154169.16, 137631.08, 97567.57, 67282.73, 99851.34, 101187.84, 0.000, 0.000, 0.000,0.0,0.0,0.0,0.0,0.0, 21:47:59.581
, 65873.65, 104809.31, 154156.05, 137660.91, 97541.34, 67284.59, 99814.38, 101253.48, 0.000, 0.000, 0.000,0.0,0.0,0.0,0.0,0.0, 21:47:59.581
, 65960.55, 104907.40, 154254.30, 137506.11, 97628.82, 67139.61, 99863.14, 101075.23, 0.000, 0.000, 0.000,0.0,0.0,0.0,0.0,0.0, 21:47:59.582
, 65965.59, 104903.98, 154250.81, 137494.61, 97639.57, 67156.46, 99897.38, 101037.57, 0.000, 0.000, 0.000,0.0,0.0,0.0,0.0,0.0, 21:47:59.582
, 65906.98, 104841.73, 154187.00, 137601.42, 97581.43, 67255.34, 99863.37, 101148.99, 0.000, 0.000, 0.000,0.0,0.0,0.0,0.0,0.0, 21:47:59.582
, 65877.65, 104807.23, 154152.67, 137662.98, 97546.05, 67283.30, 99823.40, 101233.51, 0.312, 0.386, 0.856,0.0,0.0,0.0,0.0,0.0, 21:47:59.583
, 65946.23, 104884.93, 154230.92, 137535.36, 97612.21, 67150.45, 99840.14, 101093.61, 0.000, 0.000, 0.000,0.0,0.0,0.0,0.0,0.0, 21:47:59.584
, 65979.64, 104912.76, 154261.20, 137485.70, 97658.77, 67137.64, 99896.98, 101008.67, 0.000, 0.000, 0.000,0.0,0.0,0.0,0.0,0.0, 21:47:59.584
, 65912.86, 104835.87, 154190.69, 137585.00, 97592.12, 67236.88, 99851.03, 101110.21, 0.000, 0.000, 0.000,0.0,0.0,0.0,0.0,0.0, 21:47:59.584
, 65887.64, 104811.93, 154170.81, 137657.89, 97566.12, 67287.51, 99824.48, 101202.26, 0.000, 0.000, 0.000,0.0,0.0,0.0,0.0,0.0, 21:47:59.585
, 65941.66, 104872.39, 154232.98, 137558.39, 97625.04, 67173.77, 99846.58, 101087.46, 0.000, 0.000, 0.000,0.0,0.0,0.0,0.0,0.0, 21:47:59.585
, 65977.97, 104902.25, 154264.67, 137484.86, 97675.13, 67126.58, 99906.30, 100978.61, 0.000, 0.000, 0.000,0.0,0.0,0.0,0.0,0.0, 21:47:59.585
, 65936.99, 104858.40, 154222.81, 137563.27, 97642.59, 67220.52, 99899.71, 101050.91, 0.000, 0.000, 0.000,0.0,0.0,0.0,0.0,0.0, 21:47:59.586
, 65887.60, 104802.70, 154166.23, 137667.30, 97580.16, 67301.68, 99845.55, 101173.45, 0.000, 0.000, 0.000,0.0,0.0,0.0,0.0,0.0, 21:47:59.586
, 65945.71, 104866.05, 154226.86, 137594.83, 97614.55, 67213.48, 99840.21, 101102.34, 0.316, 0.378, 0.862,0.0,0.0,0.0,0.0,0.0, 21:47:59.586
, 66001.34, 104916.07, 154278.13, 137491.66, 97672.18, 67133.28, 99894.62, 100958.83, 0.000, 0.000, 0.000,0.0,0.0,0.0,0.0,0.0, 21:47:59.587
, 65950.63, 104855.70, 154218.19, 137561.02, 97617.42, 67211.58, 99872.38, 101025.21, 0.000, 0.000, 0.000,0.0,0.0,0.0,0.0,0.0, 21:47:59.587
, 65897.39, 104800.20, 154163.23, 137666.83, 97560.98, 67295.11, 99821.70, 101155.77, 0.000, 0.000, 0.000,0.0,0.0,0.0,0.0,0.0, 21:47:59.587
, 65925.24, 104834.23, 154199.69, 137629.91, 97587.04, 67238.94, 99817.45, 101132.27, 0.000, 0.000, 0.000,0.0,0.0,0.0,0.0,0.0, 21:47:59.587
, 65987.47, 104897.00, 154263.73, 137502.72, 97658.23, 67131.54, 99876.80, 100972.48, 0.000, 0.000, 0.000,0.0,0.0,0.0,0.0,0.0, 21:47:59.588
, 65956.33, 104856.92, 154225.28, 137543.67, 97631.97, 67194.30, 99882.05, 101009.74, 0.000, 0.000, 0.000,0.0,0.0,0.0,0.0,0.0, 21:47:59.588
, 65904.92, 104803.23, 154171.27, 137648.11, 97574.15, 67285.32, 99834.27, 101128.70, 0.000, 0.000, 0.000,0.0,0.0,0.0,0.0,0.0, 21:47:59.588
, 65902.40, 104805.98, 154174.03, 137648.66, 97564.29, 67256.35, 99790.27, 101152.28, 0.000, 0.000, 0.000,0.0,0.0,0.0,0.0,0.0, 21:47:59.588
, 65993.27, 104900.04, 154270.14, 137498.67, 97663.28, 67117.80, 99860.10, 100964.50, 0.000, 0.000, 0.000,0.0,0.0,0.0,0.0,0.0, 21:47:59.589
, 65975.17, 104871.41, 154244.05, 137518.13, 97651.05, 67160.91, 99888.84, 100965.15, 0.322, 0.374, 0.862,0.0,0.0,0.0,0.0,0.0, 21:47:59.589
, 65916.95, 104809.18, 154182.27, 137633.36, 97583.78, 67262.68, 99842.47, 101090.39, 0.000, 0.000, 0.000,0.0,0.0,0.0,0.0,0.0, 21:47:59.589
, 65903.02, 104795.28, 154169.78, 137674.48, 97552.30, 67270.16, 99794.21, 101159.05, 0.000, 0.000, 0.000,0.0,0.0,0.0,0.0,0.0, 21:47:59.589
, 65975.06, 104878.16, 154251.95, 137534.33, 97627.99, 67134.63, 99831.67, 100998.92, 0.000, 0.000, 0.000,0.0,0.0,0.0,0.0,0.0, 21:47:59.590
, 65991.45, 104883.59, 154260.61, 137507.64, 97646.61, 67145.98, 99881.83, 100949.23, 0.000, 0.000, 0.000,0.0,0.0,0.0,0.0,0.0, 21:47:59.590
, 65918.42, 104807.52, 154181.75, 137616.36, 97571.64, 67251.39, 99833.86, 101069.60, 0.000, 0.000, 0.000,0.0,0.0,0.0,0.0,0.0, 21:47:59.590
, 65904.25, 104799.97, 154169.72, 137671.55, 97551.26, 67285.59, 99794.97, 101152.81, 0.000, 0.000, 0.000,0.0,0.0,0.0,0.0,0.0, 21:47:59.591
, 65969.49, 104872.10, 154241.16, 137550.00, 97617.69, 67161.13, 99825.15, 101011.58, 0.000, 0.000, 0.000,0.0,0.0,0.0,0.0,0.0, 21:47:59.591
, 65995.42, 104888.15, 154258.23, 137502.39, 97645.65, 67141.13, 99869.63, 100937.68, 0.000, 0.000, 0.000,0.0,0.0,0.0,0.0,0.0, 21:47:59.591
, 65950.43, 104841.91, 154212.55, 137583.30, 97599.02, 67233.76, 99851.79, 101019.55, 0.000, 0.000, 0.000,0.0,0.0,0.0,0.0,0.0, 21:47:59.591
, 65900.30, 104787.08, 154157.16, 137677.63, 97533.11, 67298.82, 99791.38, 101141.80, 0.320, 0.378, 0.864,0.0,0.0,0.0,0.0,0.0, 21:47:59.592
, 65953.07, 104849.50, 154220.91, 137582.92, 97576.73, 67190.93, 99796.94, 101053.13, 0.000, 0.000, 0.000,0.0,0.0,0.0,0.0,0.0, 21:47:59.592
, 66002.04, 104895.15, 154269.64, 137498.50, 97635.70, 67135.01, 99868.06, 100940.63, 0.000, 0.000, 0.000,0.0,0.0,0.0,0.0,0.0, 21:47:59.592
, 65967.06, 104857.15, 154235.66, 137572.02, 97604.77, 67221.26, 99865.80, 101008.18, 0.000, 0.000, 0.000,0.0,0.0,0.0,0.0,0.0, 21:47:59.592
, 65907.60, 104794.14, 154173.14, 137679.28, 97545.29, 67300.74, 99817.61, 101132.05, 0.000, 0.000, 0.000,0.0,0.0,0.0,0.0,0.0, 21:47:59.593
, 65939.21, 104832.56, 154212.88, 137614.97, 97566.63, 67214.13, 99784.98, 101077.87, 0.000, 0.000, 0.000,0.0,0.0,0.0,0.0,0.0, 21:47:59.593
, 66001.08, 104892.62, 154275.20, 137500.47, 97640.13, 67124.66, 99853.95, 100932.45, 0.000, 0.000, 0.000,0.0,0.0,0.0,0.0,0.0, 21:47:59.593
, 65973.66, 104857.91, 154242.00, 137550.22, 97612.41, 67200.20, 99866.49, 100975.55, 0.000, 0.000, 0.000,0.0,0.0,0.0,0.0,0.0, 21:47:59.593
, 65914.27, 104793.27, 154181.19, 137659.06, 97555.21, 67294.93, 99818.69, 101099.87, 0.000, 0.000, 0.000,0.0,0.0,0.0,0.0,0.0, 21:47:59.593
, 65924.86, 104806.97, 154192.30, 137640.56, 97555.80, 67250.85, 99786.92, 101102.77, 0.310, 0.376, 0.868,0.0,0.0,0.0,0.0,0.0, 21:47:59.594
, 65992.25, 104875.52, 154260.83, 137508.58, 97625.76, 67132.34, 99843.67, 100938.89, 0.000, 0.000, 0.000,0.0,0.0,0.0,0.0,0.0, 21:47:59.594
, 65969.27, 104847.38, 154233.36, 137541.56, 97608.74, 67191.17, 99857.33, 100964.68, 0.000, 0.000, 0.000,0.0,0.0,0.0,0.0,0.0, 21:47:59.594
, 65910.13, 104787.61, 154175.53, 137644.31, 97549.45, 67284.94, 99814.30, 101089.49, 0.000, 0.000, 0.000,0.0,0.0,0.0,0.0,0.0, 21:47:59.594
, 65915.63, 104796.91, 154182.06, 137650.31, 97545.40, 67266.92, 99789.16, 101118.04, 0.000, 0.000, 0.000,0.0,0.0,0.0,0.0,0.0, 21:47:59.601
, 65984.52, 104871.50, 154254.86, 137511.64, 97622.83, 67135.05, 99834.78, 100953.15, 0.000, 0.000, 0.000,0.0,0.0,0.0,0.0,0.0, 21:47:59.601
, 66000.25, 104878.02, 154259.64, 137507.22, 97636.38, 67165.96, 99871.59, 100931.24, 0.000, 0.000, 0.000,0.0,0.0,0.0,0.0,0.0, 21:47:59.602
, 65935.09, 104807.26, 154189.72, 137612.27, 97572.23, 67267.93, 99827.85, 101043.20, 0.000, 0.000, 0.000,0.0,0.0,0.0,0.0,0.0, 21:47:59.602
, 65901.41, 104772.86, 154161.45, 137660.59, 97538.90, 67285.37, 99786.30, 101120.09, 0.000, 0.000, 0.000,0.0,0.0,0.0,0.0,0.0, 21:47:59.602
, 65976.29, 104858.35, 154245.73, 137524.05, 97614.52, 67150.43, 99827.67, 100966.41, 0.000, 0.000, 0.000,0.0,0.0,0.0,0.0,0.0, 21:47:59.603
, 65980.20, 104854.06, 154241.45, 137497.28, 97625.69, 67153.27, 99865.63, 100922.30, 0.312, 0.374, 0.866,5.7053135E-4,7.5574615E-4,9.2895434E-4,0.0029224153,0.0037115477, 21:47:59.603
, 65925.93, 104795.68, 154187.72, 137590.42, 97569.66, 67253.18, 99836.48, 101029.03, 0.000, 0.000, 0.000,5.7053135E-4,7.5574615E-4,9.2895434E-4,0.0029224153,0.0037115477, 21:47:59.604
, 65886.44, 104755.18, 154146.72, 137663.63, 97520.50, 67299.87, 99783.75, 101133.08, 0.000, 0.000, 0.000,5.7053135E-4,7.5574615E-4,9.2895434E-4,0.0029224153,0.0037115477, 21:47:59.604
, 65956.58, 104834.28, 154226.98, 137541.88, 97584.72, 67173.54, 99799.71, 101005.59, 0.000, 0.000, 0.000,5.7053135E-4,7.5574615E-4,9.2895434E-4,0.0029224153,0.0037115477, 21:47:59.604
, 66008.48, 104876.66, 154271.02, 137470.91, 97644.35, 67141.42, 99871.70, 100896.69, 0.000, 0.000, 0.000,5.7053135E-4,7.5574615E-4,9.2895434E-4,0.0029224153,0.0037115477, 21:47:59.605
, 65954.07, 104811.46, 154209.42, 137567.22, 97591.05, 67241.17, 99851.43, 100986.95, 0.000, 0.000, 0.000,5.7053135E-4,7.5574615E-4,9.2895434E-4,0.0029224153,0.0037115477, 21:47:59.605
, 65908.05, 104764.92, 154163.27, 137664.69, 97538.02, 67310.40, 99806.55, 101105.20, 0.000, 0.000, 0.000,5.7053135E-4,7.5574615E-4,9.2895434E-4,0.0029224153,0.0037115477, 21:47:59.605
, 65982.55, 104853.44, 154248.67, 137563.88, 97607.78, 67201.26, 99837.66, 100988.15, 0.000, 0.000, 0.000,5.7053135E-4,7.5574615E-4,9.2895434E-4,0.0029224153,0.0037115477, 21:47:59.606
, 66006.89, 104872.66, 154266.06, 137481.23, 97640.84, 67138.91, 99876.11, 100863.18, 0.000, 0.000, 0.000,5.7053135E-4,7.5574615E-4,9.2895434E-4,0.0029224153,0.0037115477, 21:47:59.606
, 65958.52, 104823.27, 154214.94, 137557.48, 97591.22, 67225.64, 99843.25, 100939.71, 0.310, 0.378, 0.864,5.7053135E-4,7.5574615E-4,9.2895434E-4,0.0029224153,0.0037115477, 21:47:59.606
, 65895.82, 104753.95, 154149.11, 137665.11, 97528.28, 67308.34, 99795.23, 101071.10, 0.000, 0.000, 0.000,5.7053135E-4,7.5574615E-4,9.2895434E-4,0.0029224153,0.0037115477, 21:47:59.607
, 65919.77, 104790.98, 154185.25, 137605.98, 97554.37, 67231.54, 99785.13, 101032.45, 0.000, 0.000, 0.000,5.7053135E-4,7.5574615E-4,9.2895434E-4,0.0029224153,0.0037115477, 21:47:59.607
, 65996.49, 104866.54, 154263.75, 137479.67, 97642.63, 67133.17, 99866.34, 100864.61, 0.000, 0.000, 0.000,5.7053135E-4,7.5574615E-4,9.2895434E-4,0.0029224153,0.0037115477, 21:47:59.607
, 65959.46, 104824.63, 154223.77, 137536.11, 97611.70, 67211.88, 99876.17, 100909.80, 0.000, 0.000, 0.000,5.7053135E-4,7.5574615E-4,9.2895434E-4,0.0029224153,0.0037115477, 21:47:59.608
, 65881.43, 104742.15, 154142.14, 137657.38, 97528.28, 67310.06, 99807.29, 101055.20, 0.000, 0.000, 0.000,5.7053135E-4,7.5574615E-4,9.2895434E-4,0.0029224153,0.0037115477, 21:47:59.608
, 65902.04, 104767.95, 154169.16, 137635.75, 97536.26, 67267.13, 99781.29, 101065.40, 0.000, 0.000, 0.000,5.7053135E-4,7.5574615E-4,9.2895434E-4,0.0029224153,0.0037115477, 21:47:59.608
, 66000.19, 104870.18, 154272.25, 137482.31, 97642.95, 67139.61, 99866.74, 100868.97, 0.000, 0.000, 0.000,5.7053135E-4,7.5574615E-4,9.2895434E-4,0.0029224153,0.0037115477, 21:47:59.609
, 65970.99, 104828.94, 154235.23, 137519.86, 97610.84, 67199.87, 99872.33, 100888.88, 0.000, 0.000, 0.000,5.7053135E-4,7.5574615E-4,9.2895434E-4,0.0029224153,0.0037115477, 21:47:59.609
, 65917.33, 104772.81, 154181.77, 137629.09, 97553.88, 67297.88, 99827.29, 101011.48, 0.000, 0.000, 0.000,5.7053135E-4,7.5574615E-4,9.2895434E-4,0.0029224153,0.0037115477, 21:47:59.609
, 65918.47, 104777.06, 154183.48, 137652.45, 97545.52, 67293.84, 99803.59, 101049.59, 0.316, 0.376, 0.862,5.7053135E-4,7.5574615E-4,9.2895434E-4,0.0029224153,0.0037115477, 21:47:59.610
, 65997.41, 104860.12, 154264.06, 137513.66, 97621.77, 67158.74, 99848.97, 100877.91, 0.000, 0.000, 0.000,5.7053135E-4,7.5574615E-4,9.2895434E-4,0.0029224153,0.0037115477, 21:47:59.610
, 65989.26, 104841.88, 154249.52, 137513.83, 97623.79, 67186.59, 99882.05, 100856.48, 0.000, 0.000, 0.000,5.7053135E-4,7.5574615E-4,9.2895434E-4,0.0029224153,0.0037115477, 21:47:59.610
, 65933.09, 104779.88, 154197.55, 137622.34, 97573.90, 67291.16, 99858.70, 100969.80, 0.000, 0.000, 0.000,5.7053135E-4,7.5574615E-4,9.2895434E-4,0.0029224153,0.0037115477, 21:47:59.611
, 65902.93, 104753.62, 154169.75, 137681.00, 97538.56, 67319.02, 99811.17, 101056.73, 0.000, 0.000, 0.000,5.7053135E-4,7.5574615E-4,9.2895434E-4,0.0029224153,0.0037115477, 21:47:59.611
, 65978.05, 104843.29, 154244.58, 137540.61, 97604.14, 67178.61, 99832.70, 100899.21, 0.000, 0.000, 0.000,5.7053135E-4,7.5574615E-4,9.2895434E-4,0.0029224153,0.0037115477, 21:47:59.612
, 65997.48, 104854.87, 154260.16, 137496.28, 97631.79, 67167.48, 99881.13, 100824.55, 0.000, 0.000, 0.000,5.7053135E-4,7.5574615E-4,9.2895434E-4,0.0029224153,0.0037115477, 21:47:59.612
, 65930.20, 104782.16, 154192.94, 137588.59, 97572.80, 67265.70, 99840.45, 100918.50, 0.000, 0.000, 0.000,5.7053135E-4,7.5574615E-4,9.2895434E-4,0.0029224153,0.0037115477, 21:47:59.612
, 65881.70, 104730.97, 154142.52, 137674.73, 97523.79, 67320.79, 99790.45, 101037.59, 0.000, 0.000, 0.000,5.7053135E-4,7.5574615E-4,9.2895434E-4,0.0029224153,0.0037115477, 21:47:59.612
, 65936.66, 104797.67, 154206.44, 137565.69, 97577.25, 67197.92, 99809.21, 100931.49, 0.318, 0.378, 0.864,5.7053135E-4,7.5574615E-4,9.2895434E-4,0.0029224153,0.0037115477, 21:47:59.613
, 65981.03, 104839.38, 154244.42, 137483.47, 97624.75, 67147.74, 99866.41, 100821.77, 0.000, 0.000, 0.000,5.7053135E-4,7.5574615E-4,9.2895434E-4,0.0029224153,0.0037115477, 21:47:59.613
, 65933.89, 104783.50, 154196.28, 137562.33, 97571.10, 67238.05, 99834.82, 100902.39, 0.000, 0.000, 0.000,5.7053135E-4,7.5574615E-4,9.2895434E-4,0.0029224153,0.0037115477, 21:47:59.613
, 65874.41, 104722.37, 154136.53, 137657.08, 97511.96, 67305.91, 99776.48, 101024.02, 0.000, 0.000, 0.000,5.7053135E-4,7.5574615E-4,9.2895434E-4,0.0029224153,0.0037115477, 21:47:59.614
, 65933.76, 104796.17, 154204.33, 137565.53, 97572.11, 67201.99, 99799.06, 100929.61, 0.000, 0.000, 0.000,5.7053135E-4,7.5574615E-4,9.2895434E-4,0.0029224153,0.0037115477, 21:47:59.615
, 65976.34, 104831.06, 154241.94, 137480.53, 97621.15, 67132.73, 99865.91, 100802.09, 0.000, 0.000, 0.000,5.7053135E-4,7.5574615E-4,9.2895434E-4,0.0029224153,0.0037115477, 21:47:59.615
, 65932.64, 104782.78, 154192.36, 137560.30, 97567.73, 67219.34, 99840.32, 100886.14, 0.000, 0.000, 0.000,5.7053135E-4,7.5574615E-4,9.2895434E-4,0.0029224153,0.0037115477, 21:47:59.616
, 65884.00, 104729.25, 154141.63, 137655.03, 97524.10, 67297.21, 99788.60, 100999.57, 0.000, 0.000, 0.000,5.7053135E-4,7.5574615E-4,9.2895434E-4,0.0029224153,0.0037115477, 21:47:59.616
, 65906.62, 104759.88, 154171.28, 137609.19, 97545.45, 67234.96, 99782.70, 100974.70, 0.000, 0.000, 0.000,5.7053135E-4,7.5574615E-4,9.2895434E-4,0.0029224153,0.0037115477, 21:47:59.616
, 65973.70, 104829.43, 154235.77, 137480.25, 97615.23, 67129.38, 99848.84, 100815.39, 0.000, 0.000, 0.000,5.7053135E-4,7.5574615E-4,9.2895434E-4,0.0029224153,0.0037115477, 21:47:59.617
, 65955.88, 104807.73, 154212.61, 137509.16, 97599.38, 67190.73, 99855.05, 100833.05, 0.322, 0.374, 0.858,5.7053135E-4,7.5574615E-4,9.2895434E-4,0.0029224153,0.0037115477, 21:47:59.617
, 65894.88, 104740.59, 154148.63, 137621.19, 97532.48, 67287.80, 99806.52, 100958.11, 0.000, 0.000, 0.000,5.7053135E-4,7.5574615E-4,9.2895434E-4,0.0029224153,0.0037115477, 21:47:59.617
, 65894.52, 104744.45, 154153.25, 137623.11, 97524.84, 67259.23, 99779.95, 100982.88, 0.000, 0.000, 0.000,5.7053135E-4,7.5574615E-4,9.2895434E-4,0.0029224153,0.0037115477, 21:47:59.618
, 65966.34, 104822.46, 154234.47, 137487.56, 97605.95, 67133.02, 99838.84, 100818.79, 0.000, 0.000, 0.000,5.7053135E-4,7.5574615E-4,9.2895434E-4,0.0029224153,0.0037115477, 21:47:59.618
, 65972.76, 104817.88, 154231.81, 137499.91, 97617.80, 67175.93, 99880.58, 100804.40, 0.000, 0.000, 0.000,5.7053135E-4,7.5574615E-4,9.2895434E-4,0.0029224153,0.0037115477, 21:47:59.618
, 65899.47, 104739.89, 154151.17, 137622.75, 97541.58, 67283.42, 99826.87, 100935.38, 0.000, 0.000, 0.000,5.7053135E-4,7.5574615E-4,9.2895434E-4,0.0029224153,0.0037115477, 21:47:59.619
, 65881.67, 104724.70, 154134.14, 137654.91, 97509.44, 67288.45, 99780.33, 101002.97, 0.000, 0.000, 0.000,5.7053135E-4,7.5574615E-4,9.2895434E-4,0.0029224153,0.0037115477, 21:47:59.619
, 65959.19, 104812.24, 154221.94, 137508.02, 97592.98, 67151.73, 99833.59, 100836.13, 0.000, 0.000, 0.000,5.7053135E-4,7.5574615E-4,9.2895434E-4,0.0029224153,0.0037115477, 21:47:59.619
, 65965.88, 104810.59, 154222.78, 137491.08, 97607.13, 67164.48, 99866.27, 100795.92, 0.000, 0.000, 0.000,5.7053135E-4,7.5574615E-4,9.2895434E-4,0.0029224153,0.0037115477, 21:47:59.620
, 65905.88, 104742.48, 154163.16, 137594.61, 97548.91, 67264.16, 99827.83, 100904.60, 0.000, 0.000, 0.000,5.7053135E-4,7.5574615E-4,9.2895434E-4,0.0029224153,0.0037115477, 21:47:59.620
, 65871.23, 104705.49, 154131.41, 137660.03, 97510.64, 67296.52, 99790.59, 100998.73, 0.322, 0.378, 0.862,5.7053135E-4,7.5574615E-4,9.2895434E-4,0.0029224153,0.0037115477, 21:47:59.620
, 65937.51, 104780.10, 154208.92, 137533.36, 97575.91, 67162.56, 99809.79, 100864.66, 0.000, 0.000, 0.000,5.7053135E-4,7.5574615E-4,9.2895434E-4,0.0029224153,0.0037115477, 21:47:59.621
, 65969.09, 104806.37, 154237.00, 137480.69, 97620.39, 67145.64, 99870.36, 100786.83, 0.000, 0.000, 0.000,5.7053135E-4,7.5574615E-4,9.2895434E-4,0.0029224153,0.0037115477, 21:47:59.621
, 65935.72, 104770.05, 154201.63, 137559.61, 97584.47, 67242.12, 99860.53, 100861.17, 0.000, 0.000, 0.000,5.7053135E-4,7.5574615E-4,9.2895434E-4,0.0029224153,0.0037115477, 21:47:59.621
, 65883.30, 104712.13, 154144.47, 137654.39, 97526.31, 67310.42, 99816.09, 100975.99, 0.000, 0.000, 0.000,5.7053135E-4,7.5574615E-4,9.2895434E-4,0.0029224153,0.0037115477, 21:47:59.622
, 65918.06, 104758.38, 154192.61, 137563.31, 97554.61, 67200.05, 99809.01, 100889.83, 0.000, 0.000, 0.000,5.7053135E-4,7.5574615E-4,9.2895434E-4,0.0029224153,0.0037115477, 21:47:59.622
, 65971.82, 104810.70, 154245.14, 137468.91, 97617.04, 67144.17, 99869.13, 100765.30, 0.000, 0.000, 0.000,5.7053135E-4,7.5574615E-4,9.2895434E-4,0.0029224153,0.0037115477, 21:47:59.622
, 65938.98, 104775.20, 154212.48, 137542.53, 97590.22, 67235.01, 99869.13, 100829.30, 0.000, 0.000, 0.000,5.7053135E-4,7.5574615E-4,9.2895434E-4,0.0029224153,0.0037115477, 21:47:59.623
, 65882.97, 104708.73, 154150.41, 137653.08, 97524.73, 67314.24, 99816.47, 100957.88, 0.000, 0.000, 0.000,0.0,0.0,0.0,0.0,0.0, 21:48:00.055
, 65925.89, 104758.47, 154200.02, 137585.94, 97555.39, 67226.36, 99809.23, 100897.47, 0.318, 0.380, 0.866,0.0,0.0,0.0,0.0,0.0, 21:48:00.056
, 65971.75, 104804.94, 154247.23, 137479.25, 97616.39, 67139.77, 99860.35, 100755.55, 0.000, 0.000, 0.000,0.0,0.0,0.0,0.0,0.0, 21:48:00.056
, 65926.00, 104752.72, 154194.94, 137544.06, 97569.67, 67219.43, 99844.48, 100822.46, 0.000, 0.000, 0.000,0.0,0.0,0.0,0.0,0.0, 21:48:00.057
, 65868.73, 104690.90, 154136.64, 137650.67, 97510.95, 67305.28, 99805.38, 100956.61, 0.000, 0.000, 0.000,0.0,0.0,0.0,0.0,0.0, 21:48:00.057
, 65895.20, 104721.52, 154169.63, 137618.91, 97531.03, 67248.55, 99803.58, 100944.07, 0.000, 0.000, 0.000,0.0,0.0,0.0,0.0,0.0, 21:48:00.057
, 65965.83, 104796.40, 154242.44, 137488.86, 97605.91, 67131.95, 99856.35, 100782.80, 0.000, 0.000, 0.000,0.0,0.0,0.0,0.0,0.0, 21:48:00.058
, 65934.49, 104761.75, 154204.66, 137523.78, 97581.92, 67190.82, 99849.59, 100810.34, 0.000, 0.000, 0.000,0.0,0.0,0.0,0.0,0.0, 21:48:00.058
, 65872.38, 104698.27, 154140.95, 137632.52, 97514.76, 67287.16, 99799.69, 100940.85, 0.000, 0.000, 0.000,0.0,0.0,0.0,0.0,0.0, 21:48:00.058
, 65886.46, 104715.82, 154156.31, 137629.34, 97516.34, 67266.43, 99781.65, 100955.95, 0.000, 0.000, 0.000,0.0,0.0,0.0,0.0,0.0, 21:48:00.059
, 65960.87, 104797.36, 154237.41, 137483.86, 97600.34, 67134.36, 99838.47, 100773.26, 0.000, 0.000, 0.000,0.0,0.0,0.0,0.0,0.0, 21:48:00.059
, 65966.66, 104791.81, 154235.17, 137495.00, 97610.55, 67173.96, 99880.87, 100753.63, 0.318, 0.386, 0.866,0.0,0.0,0.0,0.0,0.0, 21:48:00.059
, 65905.73, 104721.56, 154169.70, 137615.19, 97536.69, 67279.93, 99828.77, 100877.94, 0.000, 0.000, 0.000,0.0,0.0,0.0,0.0,0.0, 21:48:00.060
, 65885.81, 104700.48, 154153.67, 137663.39, 97508.90, 67297.13, 99790.23, 100954.82, 0.000, 0.000, 0.000,0.0,0.0,0.0,0.0,0.0, 21:48:00.060
, 65966.01, 104789.27, 154241.19, 137522.86, 97589.59, 67159.52, 99831.91, 100791.30, 0.000, 0.000, 0.000,0.0,0.0,0.0,0.0,0.0, 21:48:00.060
, 65981.03, 104796.09, 154249.36, 137498.55, 97609.10, 67167.30, 99876.84, 100738.77, 0.000, 0.000, 0.000,0.0,0.0,0.0,0.0,0.0, 21:48:00.061
, 65920.45, 104735.33, 154182.75, 137603.28, 97541.58, 67269.41, 99833.05, 100847.29, 0.000, 0.000, 0.000,0.0,0.0,0.0,0.0,0.0, 21:48:00.061
, 65882.26, 104697.60, 154144.06, 137675.77, 97496.74, 67311.74, 99783.59, 100952.01, 0.000, 0.000, 0.000,0.0,0.0,0.0,0.0,0.0, 21:48:00.061
, 65944.23, 104769.10, 154219.19, 137544.27, 97565.77, 67178.32, 99812.67, 100812.63, 0.000, 0.000, 0.000,0.0,0.0,0.0,0.0,0.0, 21:48:00.062
, 65977.81, 104794.95, 154248.25, 137477.94, 97609.15, 67151.21, 99873.65, 100717.88, 0.000, 0.000, 0.000,0.0,0.0,0.0,0.0,0.0, 21:48:00.062
, 65925.95, 104740.52, 154194.20, 137566.72, 97558.61, 67248.28, 99853.98, 100805.09, 0.324, 0.378, 0.864,0.0,0.0,0.0,0.0,0.0, 21:48:00.062
, 65874.63, 104686.34, 154140.86, 137661.86, 97498.22, 67311.52, 99794.88, 100924.91, 0.000, 0.000, 0.000,0.0,0.0,0.0,0.0,0.0, 21:48:00.062
, 65930.02, 104749.70, 154205.89, 137563.81, 97544.57, 67201.45, 99800.83, 100831.11, 0.000, 0.000, 0.000,0.0,0.0,0.0,0.0,0.0, 21:48:00.063
, 65977.34, 104796.62, 154250.52, 137471.16, 97608.79, 67142.05, 99868.33, 100708.15, 0.000, 0.000, 0.000,0.0,0.0,0.0,0.0,0.0, 21:48:00.063
, 65931.14, 104745.08, 154197.42, 137542.89, 97565.90, 67227.09, 99858.83, 100779.48, 0.000, 0.000, 0.000,0.0,0.0,0.0,0.0,0.0, 21:48:00.063
, 65879.48, 104687.77, 154139.45, 137647.36, 97502.24, 67306.55, 99798.79, 100909.23, 0.000, 0.000, 0.000,0.0,0.0,0.0,0.0,0.0, 21:48:00.064
, 65920.23, 104738.39, 154190.02, 137585.59, 97533.76, 67227.25, 99785.54, 100858.11, 0.000, 0.000, 0.000,0.0,0.0,0.0,0.0,0.0, 21:48:00.064
, 65982.91, 104803.02, 154255.81, 137464.88, 97607.07, 67132.28, 99858.74, 100698.88, 0.000, 0.000, 0.000,0.0,0.0,0.0,0.0,0.0, 21:48:00.064
, 65941.82, 104757.46, 154213.28, 137524.06, 97570.08, 67209.66, 99856.15, 100748.90, 0.000, 0.000, 0.000,0.0,0.0,0.0,0.0,0.0, 21:48:00.064
, 65881.92, 104691.95, 154149.20, 137636.86, 97503.80, 67302.09, 99805.48, 100880.37, 0.000, 0.000, 0.000,0.0,0.0,0.0,0.0,0.0, 21:48:00.065
, 65899.78, 104713.13, 154171.20, 137619.84, 97507.41, 67256.06, 99784.45, 100890.34, 0.324, 0.376, 0.860,0.0,0.0,0.0,0.0,0.0, 21:48:00.065
, 65978.81, 104798.05, 154255.28, 137480.59, 97590.93, 67132.55, 99851.63, 100721.45, 0.000, 0.000, 0.000,0.0,0.0,0.0,0.0,0.0, 21:48:00.065
, 65968.96, 104782.76, 154242.72, 137501.59, 97586.35, 67180.98, 99873.09, 100725.83, 0.000, 0.000, 0.000,0.0,0.0,0.0,0.0,0.0, 21:48:00.066
, 65910.77, 104719.75, 154178.91, 137613.58, 97524.32, 67279.66, 99829.41, 100841.26, 0.000, 0.000, 0.000,0.0,0.0,0.0,0.0,0.0, 21:48:00.066
, 65905.73, 104717.61, 154173.00, 137636.05, 97508.23, 67269.23, 99795.22, 100883.86, 0.000, 0.000, 0.000,0.0,0.0,0.0,0.0,0.0, 21:48:00.066
, 65976.89, 104796.82, 154247.02, 137498.66, 97589.79, 67135.16, 99848.05, 100714.84, 0.000, 0.000, 0.000,0.0,0.0,0.0,0.0,0.0, 21:48:00.067
, 65959.82, 104773.87, 154224.64, 137502.77, 97583.69, 67166.07, 99867.61, 100706.16, 0.000, 0.000, 0.000,0.0,0.0,0.0,0.0,0.0, 21:48:00.067
, 65898.55, 104709.90, 154161.70, 137607.08, 97515.05, 67264.76, 99819.02, 100832.56, 0.000, 0.000, 0.000,0.0,0.0,0.0,0.0,0.0, 21:48:00.067
, 65889.99, 104704.98, 154155.03, 137645.03, 97502.04, 67282.37, 99784.69, 100901.38, 0.000, 0.000, 0.000,0.0,0.0,0.0,0.0,0.0, 21:48:00.068
, 65966.16, 104793.85, 154239.02, 137507.75, 97581.72, 67148.86, 99833.10, 100741.61, 0.316, 0.378, 0.856,0.0,0.0,0.0,0.0,0.0, 21:48:00.068
, 65978.50, 104796.62, 154246.45, 137470.67, 97598.60, 67145.89, 99867.88, 100677.75, 0.000, 0.000, 0.000,0.0,0.0,0.0,0.0,0.0, 21:48:00.068
, 65922.38, 104733.54, 154190.28, 137567.03, 97547.23, 67244.04, 99838.45, 100775.07, 0.000, 0.000, 0.000,0.0,0.0,0.0,0.0,0.0, 21:48:00.069
, 65884.67, 104687.50, 154151.23, 137643.30, 97505.37, 67293.99, 99795.77, 100876.57, 0.000, 0.000, 0.000,0.0,0.0,0.0,0.0,0.0, 21:48:00.069
, 65947.63, 104757.80, 154220.84, 137529.00, 97559.62, 67172.45, 99800.60, 100750.91, 0.000, 0.000, 0.000,0.0,0.0,0.0,0.0,0.0, 21:48:00.069
, 65969.25, 104772.81, 154235.17, 137473.48, 97597.75, 67142.54, 99850.80, 100668.32, 0.000, 0.000, 0.000,0.0,0.0,0.0,0.0,0.0, 21:48:00.069
, 65929.27, 104733.38, 154196.19, 137548.98, 97565.77, 67232.16, 99845.15, 100747.04, 0.000, 0.000, 0.000,0.0,0.0,0.0,0.0,0.0, 21:48:00.070
, 65898.08, 104701.24, 154165.34, 137635.33, 97534.09, 67298.28, 99818.10, 100844.97, 0.000, 0.000, 0.000,0.0,0.0,0.0,0.0,0.0, 21:48:00.070
, 65934.05, 104747.16, 154209.23, 137561.75, 97569.50, 67205.93, 99819.11, 100769.57, 0.000, 0.000, 0.000,0.0,0.0,0.0,0.0,0.0, 21:48:00.070
, 65974.23, 104783.92, 154247.39, 137469.53, 97623.77, 67138.18, 99875.08, 100645.61, 0.000, 0.000, 0.000,0.0,0.0,0.0,0.0,0.0, 21:48:00.070
, 65932.86, 104737.48, 154203.14, 137534.48, 97586.69, 67218.17, 99863.66, 100709.67, 0.314, 0.372, 0.858,0.0,0.0,0.0,0.0,0.0, 21:48:00.071
, 65866.68, 104666.31, 154136.70, 137647.22, 97526.27, 67302.17, 99808.67, 100843.22, 0.000, 0.000, 0.000,0.0,0.0,0.0,0.0,0.0, 21:48:00.071
, 65897.63, 104702.30, 154177.20, 137600.22, 97553.13, 67230.52, 99790.95, 100814.12, 0.000, 0.000, 0.000,0.0,0.0,0.0,0.0,0.0, 21:48:00.071
, 65977.88, 104782.00, 154253.83, 137471.31, 97640.80, 67124.09, 99865.58, 100645.56, 0.000, 0.000, 0.000,0.0,0.0,0.0,0.0,0.0, 21:48:00.072
, 65958.12, 104755.56, 154230.55, 137518.16, 97623.61, 67191.35, 99881.56, 100677.33, 0.000, 0.000, 0.000,0.0,0.0,0.0,0.0,0.0, 21:48:00.072
, 65893.08, 104683.32, 154163.70, 137635.58, 97565.30, 67289.70, 99834.20, 100803.55, 0.000, 0.000, 0.000,0.0,0.0,0.0,0.0,0.0, 21:48:00.072
, 65886.21, 104679.34, 154159.33, 137635.11, 97550.20, 67256.77, 99791.41, 100827.80, 0.000, 0.000, 0.000,0.0,0.0,0.0,0.0,0.0, 21:48:00.073
, 65959.52, 104756.74, 154236.67, 137493.56, 97627.21, 67125.46, 99848.62, 100656.49, 0.000, 0.000, 0.000,0.0,0.0,0.0,0.0,0.0, 21:48:00.073
, 65943.45, 104731.69, 154209.83, 137518.30, 97617.91, 67173.98, 99875.59, 100672.68, 0.000, 0.000, 0.000,0.0,0.0,0.0,0.0,0.0, 21:48:00.073
, 65879.15, 104663.58, 154146.19, 137631.13, 97554.86, 67274.63, 99830.87, 100802.72, 0.000, 0.000, 0.000,0.0,0.0,0.0,0.0,0.0, 21:48:00.073
, 65863.57, 104650.23, 154134.14, 137659.67, 97535.56, 67274.79, 99798.41, 100862.89, 0.320, 0.372, 0.858,0.0,0.0,0.0,0.0,0.0, 21:48:00.074
, 65953.05, 104746.33, 154232.31, 137507.80, 97627.55, 67134.96, 99848.84, 100685.33, 0.000, 0.000, 0.000,0.0,0.0,0.0,0.0,0.0, 21:48:00.074
, 65952.75, 104730.33, 154217.59, 137509.02, 97631.16, 67164.22, 99883.26, 100659.71, 0.000, 0.000, 0.000,0.0,0.0,0.0,0.0,0.0, 21:48:00.074
, 65889.23, 104661.57, 154152.06, 137616.27, 97564.22, 67262.59, 99837.70, 100779.45, 0.000, 0.000, 0.000,0.0,0.0,0.0,0.0,0.0, 21:48:00.075
, 65862.50, 104635.80, 154129.89, 137671.31, 97537.89, 67289.95, 99803.35, 100867.90, 0.000, 0.000, 0.000,0.0,0.0,0.0,0.0,0.0, 21:48:00.075
, 65939.92, 104722.21, 154213.89, 137535.42, 97613.38, 67153.71, 99833.10, 100719.39, 0.000, 0.000, 0.000,0.0,0.0,0.0,0.0,0.0, 21:48:00.075
, 65982.23, 104761.08, 154247.69, 137481.81, 97664.78, 67140.32, 99886.63, 100630.26, 0.000, 0.000, 0.000,0.0,0.0,0.0,0.0,0.0, 21:48:00.075
, 65917.41, 104686.05, 154174.42, 137594.00, 97595.91, 67248.77, 99842.94, 100740.88, 0.000, 0.000, 0.000,0.0,0.0,0.0,0.0,0.0, 21:48:00.076
, 65873.59, 104641.68, 154132.34, 137680.13, 97545.63, 67299.36, 99791.33, 100854.13, 0.000, 0.000, 0.000,0.0,0.0,0.0,0.0,0.0, 21:48:00.076
, 65938.83, 104717.72, 154213.73, 137567.38, 97614.69, 67179.93, 99818.33, 100730.57, 0.322, 0.374, 0.856,0.0,0.0,0.0,0.0,0.0, 21:48:00.076
, 65978.59, 104750.11, 154248.48, 137498.56, 97664.58, 67138.05, 99884.73, 100622.99, 0.000, 0.000, 0.000,0.0,0.0,0.0,0.0,0.0, 21:48:00.077
, 65924.05, 104690.29, 154190.94, 137586.03, 97614.45, 67230.65, 99866.14, 100713.29, 0.000, 0.000, 0.000,0.0,0.0,0.0,0.0,0.0, 21:48:00.077
, 65878.12, 104640.27, 154151.84, 137682.86, 97569.59, 67303.91, 99824.07, 100834.52, 0.000, 0.000, 0.000,0.0,0.0,0.0,0.0,0.0, 21:48:00.077
, 65914.48, 104683.79, 154202.72, 137607.59, 97609.80, 67207.71, 99825.16, 100761.73, 0.000, 0.000, 0.000,0.0,0.0,0.0,0.0,0.0, 21:48:00.078
, 65982.05, 104753.44, 154265.50, 137491.36, 97679.11, 67119.31, 99888.38, 100607.41, 0.000, 0.000, 0.000,0.0,0.0,0.0,0.0,0.0, 21:48:00.078
, 65967.62, 104733.34, 154233.09, 137547.69, 97660.22, 67199.00, 99897.90, 100646.70, 0.000, 0.000, 0.000,0.0,0.0,0.0,0.0,0.0, 21:48:00.079
, 65879.73, 104636.31, 154138.30, 137667.94, 97570.46, 67292.98, 99827.13, 100790.41, 0.000, 0.000, 0.000,0.0,0.0,0.0,0.0,0.0, 21:48:00.079
, 65897.30, 104664.01, 154171.59, 137623.38, 97585.79, 67230.49, 99807.04, 100774.83, 0.000, 0.000, 0.000,0.0,0.0,0.0,0.0,0.0, 21:48:00.079
, 65970.03, 104742.20, 154245.36, 137487.83, 97669.70, 67124.39, 99875.03, 100612.48, 0.000, 0.000, 0.000,0.0,0.0,0.0,0.0,0.0, 21:48:00.080
, 65946.41, 104711.62, 154215.00, 137521.27, 97644.27, 67187.69, 99880.84, 100639.87, 0.324, 0.376, 0.860,0.0,0.0,0.0,0.0,0.0, 21:48:00.080
, 65888.45, 104646.82, 154155.75, 137630.92, 97579.98, 67280.07, 99835.38, 100764.66, 0.000, 0.000, 0.000,0.0,0.0,0.0,0.0,0.0, 21:48:00.080
, 65882.39, 104646.10, 154154.97, 137633.45, 97566.91, 67254.92, 99793.61, 100793.65, 0.000, 0.000, 0.000,0.0,0.0,0.0,0.0,0.0, 21:48:00.081
, 65964.29, 104734.82, 154239.92, 137489.70, 97652.11, 67124.48, 99843.36, 100622.25, 0.000, 0.000, 0.000,0.0,0.0,0.0,0.0,0.0, 21:48:00.081
, 65960.45, 104717.61, 154226.47, 137505.06, 97653.12, 67169.09, 99876.73, 100622.14, 0.000, 0.000, 0.000,0.0,0.0,0.0,0.0,0.0, 21:48:00.081
, 65880.11, 104634.44, 154146.05, 137617.39, 97580.72, 67268.60, 99823.54, 100751.47, 0.000, 0.000, 0.000,0.0,0.0,0.0,0.0,0.0, 21:48:00.081
, 65870.74, 104631.66, 154142.50, 137646.64, 97566.50, 67269.49, 99787.23, 100810.14, 0.000, 0.000, 0.000,0.0,0.0,0.0,0.0,0.0, 21:48:00.082
, 65954.20, 104720.80, 154232.08, 137505.05, 97653.92, 67132.44, 99837.73, 100641.41, 0.000, 0.000, 0.000,0.0,0.0,0.0,0.0,0.0, 21:48:00.082
, 65966.79, 104722.03, 154236.84, 137487.83, 97673.77, 67147.12, 99883.04, 100601.40, 0.000, 0.000, 0.000,0.0,0.0,0.0,0.0,0.0, 21:48:00.082
, 65907.00, 104654.73, 154174.89, 137585.63, 97610.94, 67245.76, 99851.03, 100700.44, 0.320, 0.380, 0.860,0.0,0.0,0.0,0.0,0.0, 21:48:00.083
, 65866.03, 104614.14, 154135.55, 137653.77, 97563.06, 67284.56, 99800.73, 100797.60, 0.000, 0.000, 0.000,0.0,0.0,0.0,0.0,0.0, 21:48:00.083
, 65939.16, 104699.45, 154219.59, 137521.20, 97641.54, 67152.20, 99832.81, 100649.48, 0.000, 0.000, 0.000,0.0,0.0,0.0,0.0,0.0, 21:48:00.083
, 65955.80, 104710.34, 154229.58, 137475.72, 97669.63, 67137.06, 99889.20, 100576.27, 0.000, 0.000, 0.000,0.0,0.0,0.0,0.0,0.0, 21:48:00.083
, 65911.65, 104661.19, 154185.14, 137561.61, 97627.23, 67230.89, 99865.11, 100664.56, 0.000, 0.000, 0.000,0.0,0.0,0.0,0.0,0.0, 21:48:00.084
, 65869.07, 104612.58, 154141.30, 137651.56, 97578.82, 67293.26, 99818.69, 100774.02, 0.000, 0.000, 0.000,0.0,0.0,0.0,0.0,0.0, 21:48:00.084
, 65911.73, 104661.86, 154191.25, 137559.94, 97616.81, 67182.66, 99814.17, 100684.41, 0.000, 0.000, 0.000,0.0,0.0,0.0,0.0,0.0, 21:48:00.084
, 65960.35, 104710.59, 154241.53, 137468.30, 97679.18, 67119.72, 99881.05, 100559.84, 0.000, 0.000, 0.000,0.0,0.0,0.0,0.0,0.0, 21:48:00.085
, 65937.89, 104683.25, 154215.78, 137533.13, 97655.86, 67204.59, 99887.73, 100609.31, 0.000, 0.000, 0.000,0.0,0.0,0.0,0.0,0.0, 21:48:00.085
, 65889.05, 104630.03, 154162.08, 137636.22, 97600.77, 67284.72, 99849.58, 100722.74, 0.000, 0.000, 0.000,0.0,0.0,0.0,0.0,0.0, 21:48:00.086
, 65920.52, 104667.49, 154201.02, 137580.84, 97620.66, 67202.88, 99840.30, 100671.56, 0.316, 0.374, 0.860,0.0,0.0,0.0,0.0,0.0, 21:48:00.086
, 65979.04, 104722.81, 154258.17, 137472.88, 97687.49, 67115.38, 99901.03, 100521.24, 0.000, 0.000, 0.000,0.0,0.0,0.0,0.0,0.0, 21:48:00.086
, 65945.27, 104683.52, 154218.72, 137536.52, 97645.36, 67193.50, 99874.68, 100579.09, 0.000, 0.000, 0.000,0.0,0.0,0.0,0.0,0.0, 21:48:00.086
, 65894.86, 104630.91, 154165.27, 137644.63, 97591.55, 67283.46, 99832.27, 100700.06, 0.000, 0.000, 0.000,0.0,0.0,0.0,0.0,0.0, 21:48:00.087
, 65903.87, 104648.52, 154178.11, 137622.13, 97597.64, 67233.91, 99812.92, 100692.19, 0.000, 0.000, 0.000,0.0,0.0,0.0,0.0,0.0, 21:48:00.087
, 65965.61, 104714.70, 154245.19, 137490.45, 97669.05, 67118.30, 99871.73, 100532.22, 0.000, 0.000, 0.000,0.0,0.0,0.0,0.0,0.0, 21:48:00.087
, 65955.84, 104697.38, 154233.84, 137516.75, 97665.54, 67174.45, 99895.24, 100549.12, 0.000, 0.000, 0.000,0.0,0.0,0.0,0.0,0.0, 21:48:00.087
, 65899.04, 104631.62, 154170.06, 137632.92, 97603.49, 67272.60, 99847.72, 100675.59, 0.000, 0.000, 0.000,0.0,0.0,0.0,0.0,0.0, 21:48:00.088
, 65904.52, 104639.04, 154178.45, 137641.81, 97595.40, 67251.97, 99820.02, 100705.80, 0.000, 0.000, 0.000,0.0,0.0,0.0,0.0,0.0, 21:48:00.088
, 65982.39, 104721.88, 154259.63, 137497.47, 97674.70, 67120.30, 99865.55, 100529.78, 0.306, 0.368, 0.862,0.0,0.0,0.0,0.0,0.0, 21:48:00.088
, 65974.39, 104705.58, 154244.73, 137507.39, 97669.27, 67158.90, 99887.98, 100520.71, 0.000, 0.000, 0.000,0.0,0.0,0.0,0.0,0.0, 21:48:00.088
, 65899.67, 104625.14, 154165.36, 137624.58, 97590.80, 67263.41, 99836.95, 100651.82, 0.000, 0.000, 0.000,0.0,0.0,0.0,0.0,0.0, 21:48:00.088
, 65869.60, 104592.88, 154130.06, 137672.75, 97549.73, 67279.77, 99778.95, 100741.45, 0.000, 0.000, 0.000,0.0,0.0,0.0,0.0,0.0, 21:48:00.089
, 65961.18, 104697.40, 154232.08, 137517.66, 97640.71, 67134.55, 99834.53, 100570.22, 0.000, 0.000, 0.000,0.0,0.0,0.0,0.0,0.0, 21:48:00.089
, 65980.38, 104712.06, 154246.52, 137485.94, 97673.50, 67139.77, 99890.48, 100506.31, 0.000, 0.000, 0.000,0.0,0.0,0.0,0.0,0.0, 21:48:00.089
, 65922.80, 104651.11, 154182.59, 137586.11, 97611.45, 67237.42, 99851.70, 100609.60, 0.000, 0.000, 0.000,0.0,0.0,0.0,0.0,0.0, 21:48:00.089
, 65902.91, 104632.13, 154158.95, 137654.13, 97577.79, 67276.60, 99807.82, 100697.94, 0.000, 0.000, 0.000,0.0,0.0,0.0,0.0,0.0, 21:48:00.089
, 65970.92, 104709.65, 154234.77, 137535.73, 97646.37, 67151.26, 99841.38, 100556.80, 0.000, 0.000, 0.000,0.0,0.0,0.0,0.0,0.0, 21:48:00.090
, 65973.38, 104702.02, 154230.34, 137494.78, 97653.29, 67126.63, 99875.59, 100489.44, 0.000, 0.000, 0.000,0.0,0.0,0.0,0.0,0.0, 21:48:00.090
, 65923.02, 104649.91, 154179.78, 137579.98, 97601.10, 67216.37, 99845.10, 100586.11, 0.310, 0.374, 0.868,0.0,0.0,0.0,0.0,0.0, 21:48:00.090
, 65870.73, 104594.31, 154128.03, 137669.64, 97547.41, 67279.76, 99797.49, 100707.93, 0.000, 0.000, 0.000,0.0,0.0,0.0,0.0,0.0, 21:48:00.090
, 65934.56, 104674.58, 154206.38, 137566.63, 97610.11, 67169.13, 99819.53, 100602.27, 0.000, 0.000, 0.000,0.0,0.0,0.0,0.0,0.0, 21:48:00.091
, 65977.41, 104709.80, 154242.03, 137478.00, 97664.54, 67104.98, 99877.56, 100473.59, 0.000, 0.000, 0.000,0.0,0.0,0.0,0.0,0.0, 21:48:00.091
, 65917.46, 104642.17, 154181.75, 137555.02, 97606.80, 67193.14, 99847.54, 100554.88, 0.000, 0.000, 0.000,0.0,0.0,0.0,0.0,0.0, 21:48:00.535
, 65871.05, 104595.77, 154135.14, 137650.69, 97554.32, 67272.69, 99800.42, 100672.21, 0.000, 0.000, 0.000,0.0,0.0,0.0,0.0,0.0, 21:48:00.535
, 65897.61, 104628.49, 154165.50, 137602.83, 97571.40, 67203.63, 99792.11, 100638.41, 0.000, 0.000, 0.000,0.0,0.0,0.0,0.0,0.0, 21:48:00.536
, 65942.77, 104671.36, 154211.78, 137493.52, 97622.65, 67110.80, 99843.56, 100510.43, 0.000, 0.000, 0.000,0.0,0.0,0.0,0.0,0.0, 21:48:00.536
, 65923.12, 104648.80, 154191.52, 137530.88, 97607.29, 67174.16, 99859.30, 100552.16, 0.000, 0.000, 0.000,0.0,0.0,0.0,0.0,0.0, 21:48:00.536
, 65873.30, 104595.14, 154139.30, 137633.95, 97551.28, 67264.16, 99815.31, 100674.24, 0.000, 0.000, 0.000,0.0,0.0,0.0,0.0,0.0, 21:48:00.536
, 65899.67, 104625.72, 154170.91, 137612.44, 97566.92, 67222.00, 99792.87, 100668.19, 0.316, 0.372, 0.864,0.0,0.0,0.0,0.0,0.0, 21:48:00.536
, 65962.30, 104691.97, 154237.02, 137482.69, 97636.84, 67103.87, 99838.00, 100504.93, 0.000, 0.000, 0.000,0.0,0.0,0.0,0.0,0.0, 21:48:00.537
, 65942.49, 104663.07, 154206.17, 137511.23, 97615.97, 67155.92, 99841.20, 100522.83, 0.000, 0.000, 0.000,0.0,0.0,0.0,0.0,0.0, 21:48:00.537
, 65886.05, 104602.00, 154144.42, 137616.25, 97551.62, 67250.70, 99799.02, 100642.48, 0.000, 0.000, 0.000,0.0,0.0,0.0,0.0,0.0, 21:48:00.537
, 65876.63, 104596.57, 154138.55, 137637.88, 97535.79, 67248.17, 99771.12, 100690.94, 0.000, 0.000, 0.000,0.0,0.0,0.0,0.0,0.0, 21:48:00.537
, 65947.30, 104677.93, 154219.86, 137497.33, 97618.91, 67116.07, 99823.58, 100527.64, 0.000, 0.000, 0.000,0.0,0.0,0.0,0.0,0.0, 21:48:00.537
, 65952.15, 104678.34, 154221.72, 137490.16, 97630.38, 67141.55, 99865.34, 100504.23, 0.000, 0.000, 0.000,0.0,0.0,0.0,0.0,0.0, 21:48:00.538
, 65895.69, 104616.87, 154165.56, 137590.31, 97573.52, 67239.01, 99835.92, 100611.41, 0.000, 0.000, 0.000,0.0,0.0,0.0,0.0,0.0, 21:48:00.538
, 65876.89, 104595.56, 154146.61, 137643.20, 97548.09, 67265.52, 99801.16, 100687.95, 0.000, 0.000, 0.000,0.0,0.0,0.0,0.0,0.0, 21:48:00.538
, 65939.08, 104665.88, 154216.73, 137517.11, 97615.38, 67135.27, 99831.85, 100544.70, 0.316, 0.374, 0.866,0.0,0.0,0.0,0.0,0.0, 21:48:00.538
, 65963.66, 104681.64, 154231.70, 137476.20, 97644.89, 67127.61, 99879.33, 100477.46, 0.000, 0.000, 0.000,0.0,0.0,0.0,0.0,0.0, 21:48:00.538
, 65912.81, 104623.80, 154172.77, 137569.38, 97584.41, 67222.29, 99843.92, 100570.24, 0.000, 0.000, 0.000,0.0,0.0,0.0,0.0,0.0, 21:48:00.538
, 65873.05, 104585.40, 154132.34, 137651.09, 97538.59, 67276.60, 99802.81, 100678.09, 0.000, 0.000, 0.000,0.0,0.0,0.0,0.0,0.0, 21:48:00.539
, 65935.23, 104655.42, 154203.50, 137540.77, 97593.62, 67157.49, 99818.33, 100563.78, 0.000, 0.000, 0.000,0.0,0.0,0.0,0.0,0.0, 21:48:00.539
, 65971.20, 104688.10, 154237.11, 137468.61, 97635.45, 67116.50, 99868.04, 100463.73, 0.000, 0.000, 0.000,0.0,0.0,0.0,0.0,0.0, 21:48:00.539
, 65913.34, 104625.96, 154176.42, 137555.83, 97580.05, 67208.27, 99845.69, 100551.38, 0.000, 0.000, 0.000,0.0,0.0,0.0,0.0,0.0, 21:48:00.539
, 65858.77, 104568.85, 154122.94, 137654.27, 97516.55, 67273.25, 99781.54, 100678.55, 0.000, 0.000, 0.000,0.0,0.0,0.0,0.0,0.0, 21:48:00.540
, 65917.80, 104638.75, 154192.23, 137563.84, 97572.98, 67170.74, 99797.05, 100590.87, 0.000, 0.000, 0.000,0.0,0.0,0.0,0.0,0.0, 21:48:00.540
, 65963.82, 104684.26, 154234.39, 137465.59, 97635.45, 67097.16, 99862.45, 100458.05, 0.000, 0.000, 0.000,0.0,0.0,0.0,0.0,0.0, 21:48:00.540
, 65917.35, 104629.18, 154182.97, 137541.05, 97593.48, 67182.21, 99853.76, 100532.91, 0.310, 0.376, 0.858,0.0,0.0,0.0,0.0,0.0, 21:48:00.540
, 65867.77, 104578.16, 154134.81, 137642.28, 97543.21, 67260.95, 99813.73, 100654.64, 0.000, 0.000, 0.000,0.0,0.0,0.0,0.0,0.0, 21:48:00.541
, 65898.82, 104614.77, 154172.41, 137592.39, 97569.30, 67194.88, 99799.38, 100617.85, 0.000, 0.000, 0.000,0.0,0.0,0.0,0.0,0.0, 21:48:00.541
, 65979.38, 104698.12, 154254.50, 137462.08, 97656.35, 67088.73, 99873.55, 100446.77, 0.000, 0.000, 0.000,0.0,0.0,0.0,0.0,0.0, 21:48:00.541
, 65959.15, 104668.55, 154228.19, 137505.09, 97637.98, 67154.95, 99887.39, 100470.88, 0.000, 0.000, 0.000,0.0,0.0,0.0,0.0,0.0, 21:48:00.541
, 65879.06, 104585.17, 154146.39, 137627.78, 97555.05, 67254.52, 99816.83, 100605.22, 0.000, 0.000, 0.000,0.0,0.0,0.0,0.0,0.0, 21:48:00.542
, 65888.16, 104601.71, 154163.17, 137618.77, 97557.11, 67222.78, 99791.73, 100619.75, 0.000, 0.000, 0.000,0.0,0.0,0.0,0.0,0.0, 21:48:00.542
, 65959.48, 104676.44, 154237.69, 137481.17, 97635.30, 67099.27, 99850.91, 100449.34, 0.000, 0.000, 0.000,0.0,0.0,0.0,0.0,0.0, 21:48:00.542
, 65942.43, 104648.45, 154217.16, 137505.27, 97622.27, 67150.80, 99868.24, 100463.96, 0.000, 0.000, 0.000,0.0,0.0,0.0,0.0,0.0, 21:48:00.542
, 65887.62, 104591.66, 154166.80, 137609.11, 97568.98, 67248.98, 99834.64, 100580.03, 0.316, 0.382, 0.860,0.0,0.0,0.0,0.0,0.0, 21:48:00.543
, 65887.06, 104593.98, 154166.70, 137632.67, 97558.41, 67249.49, 99816.34, 100621.98, 0.000, 0.000, 0.000,0.0,0.0,0.0,0.0,0.0, 21:48:00.543
, 65963.93, 104678.06, 154244.78, 137494.27, 97626.18, 67116.97, 99854.09, 100450.10, 0.000, 0.000, 0.000,0.0,0.0,0.0,0.0,0.0, 21:48:00.544
, 65970.32, 104674.87, 154242.20, 137482.92, 97639.97, 67137.80, 99896.60, 100412.95, 0.000, 0.000, 0.000,0.0,0.0,0.0,0.0,0.0, 21:48:00.544
, 65899.91, 104600.73, 154170.95, 137597.83, 97571.15, 67243.01, 99853.55, 100534.14, 0.000, 0.000, 0.000,0.0,0.0,0.0,0.0,0.0, 21:48:00.544
, 65862.03, 104560.32, 154133.41, 137663.88, 97521.38, 67269.65, 99793.88, 100631.73, 0.000, 0.000, 0.000,0.0,0.0,0.0,0.0,0.0, 21:48:00.544
, 65931.14, 104638.59, 154209.50, 137534.66, 97586.39, 67133.44, 99807.29, 100490.65, 0.000, 0.000, 0.000,0.0,0.0,0.0,0.0,0.0, 21:48:00.544
, 65961.67, 104659.73, 154233.84, 137482.56, 97626.88, 67117.01, 99858.63, 100412.39, 0.000, 0.000, 0.000,0.0,0.0,0.0,0.0,0.0, 21:48:00.544
, 65921.04, 104618.43, 154194.31, 137562.89, 97586.91, 67207.98, 99840.37, 100490.80, 0.000, 0.000, 0.000,0.0,0.0,0.0,0.0,0.0, 21:48:00.545
, 65874.57, 104573.10, 154149.61, 137646.70, 97540.46, 67264.27, 99795.87, 100594.18, 0.000, 0.000, 0.000,0.0,0.0,0.0,0.0,0.0, 21:48:00.545
, 65919.52, 104630.13, 154203.52, 137553.80, 97579.64, 67156.98, 99807.73, 100500.08, 0.316, 0.380, 0.852,0.0,0.0,0.0,0.0,0.0, 21:48:00.545
, 65953.20, 104661.52, 154232.58, 137478.84, 97619.63, 67109.01, 99859.43, 100399.79, 0.000, 0.000, 0.000,0.0,0.0,0.0,0.0,0.0, 21:48:00.545
, 65924.61, 104626.43, 154198.36, 137545.14, 97589.99, 67192.18, 99850.52, 100462.64, 0.000, 0.000, 0.000,0.0,0.0,0.0,0.0,0.0, 21:48:00.546
, 65876.65, 104574.48, 154145.69, 137643.31, 97535.50, 67265.80, 99806.59, 100578.87, 0.000, 0.000, 0.000,0.0,0.0,0.0,0.0,0.0, 21:48:00.546
, 65922.96, 104628.27, 154200.98, 137565.80, 97574.80, 67173.07, 99808.94, 100503.03, 0.000, 0.000, 0.000,0.0,0.0,0.0,0.0,0.0, 21:48:00.546
, 65971.66, 104677.02, 154247.19, 137463.33, 97634.23, 67091.22, 99868.62, 100360.60, 0.000, 0.000, 0.000,0.0,0.0,0.0,0.0,0.0, 21:48:00.546
, 65926.00, 104628.55, 154199.00, 137529.30, 97590.48, 67170.81, 99859.84, 100421.40, 0.000, 0.000, 0.000,0.0,0.0,0.0,0.0,0.0, 21:48:00.546
, 65856.82, 104556.63, 154126.92, 137642.58, 97517.55, 67258.38, 99799.89, 100556.74, 0.000, 0.000, 0.000,0.0,0.0,0.0,0.0,0.0, 21:48:00.546
, 65880.40, 104585.80, 154159.48, 137608.16, 97534.20, 67200.27, 99784.87, 100544.42, 0.000, 0.000, 0.000,0.0,0.0,0.0,0.0,0.0, 21:48:00.546
, 65955.99, 104665.05, 154236.63, 137470.94, 97621.15, 67087.28, 99852.03, 100372.61, 0.312, 0.380, 0.852,0.0,0.0,0.0,0.0,0.0, 21:48:00.547
, 65928.46, 104630.81, 154200.19, 137510.31, 97601.88, 67155.16, 99859.12, 100401.26, 0.000, 0.000, 0.000,0.0,0.0,0.0,0.0,0.0, 21:48:00.547
, 65862.84, 104563.58, 154134.86, 137624.25, 97538.23, 67254.23, 99815.53, 100537.16, 0.000, 0.000, 0.000,0.0,0.0,0.0,0.0,0.0, 21:48:00.547
, 65865.05, 104571.34, 154140.28, 137628.16, 97534.65, 67235.03, 99793.31, 100568.25, 0.000, 0.000, 0.000,0.0,0.0,0.0,0.0,0.0, 21:48:00.547
, 65948.51, 104661.23, 154228.64, 137481.80, 97619.50, 67099.89, 99844.21, 100397.02, 0.000, 0.000, 0.000,0.0,0.0,0.0,0.0,0.0, 21:48:00.547
, 65949.31, 104650.10, 154222.61, 137490.38, 97627.05, 67136.23, 99886.37, 100384.90, 0.000, 0.000, 0.000,0.0,0.0,0.0,0.0,0.0, 21:48:00.547
, 65888.63, 104583.05, 154160.64, 137601.77, 97560.27, 67238.74, 99838.89, 100507.09, 0.000, 0.000, 0.000,0.0,0.0,0.0,0.0,0.0, 21:48:00.548
, 65874.37, 104565.48, 154144.86, 137646.47, 97530.98, 67255.73, 99799.64, 100578.87, 0.000, 0.000, 0.000,0.0,0.0,0.0,0.0,0.0, 21:48:00.548
, 65943.73, 104645.41, 154223.92, 137508.47, 97600.25, 67118.91, 99832.81, 100424.64, 0.000, 0.000, 0.000,0.0,0.0,0.0,0.0,0.0, 21:48:00.548
, 65958.32, 104651.71, 154232.64, 137483.70, 97622.47, 67127.41, 99879.15, 100378.15, 0.000, 0.000, 0.000,0.0,0.0,0.0,0.0,0.0, 21:48:00.548
, 65901.91, 104596.55, 154176.42, 137576.50, 97571.35, 67221.88, 99846.96, 100473.62, 0.320, 0.382, 0.854,0.0,0.0,0.0,0.0,0.0, 21:48:00.548
, 65858.95, 104549.27, 154128.44, 137646.94, 97518.73, 67264.09, 99789.16, 100573.93, 0.000, 0.000, 0.000,0.0,0.0,0.0,0.0,0.0, 21:48:00.549
, 65925.28, 104627.38, 154205.44, 137518.64, 97584.65, 67137.13, 99816.83, 100435.86, 0.000, 0.000, 0.000,0.0,0.0,0.0,0.0,0.0, 21:48:00.550
, 65947.12, 104646.73, 154223.66, 137460.41, 97620.13, 67116.16, 99857.35, 100349.09, 0.000, 0.000, 0.000,0.0,0.0,0.0,0.0,0.0, 21:48:00.550
, 65900.23, 104596.41, 154173.47, 137547.36, 97574.66, 67213.33, 99837.21, 100433.34, 0.000, 0.000, 0.000,0.0,0.0,0.0,0.0,0.0, 21:48:00.550
, 65849.00, 104542.37, 154119.03, 137645.59, 97516.92, 67282.91, 99789.54, 100554.88, 0.000, 0.000, 0.000,0.0,0.0,0.0,0.0,0.0, 21:48:00.550
, 65890.02, 104589.04, 154167.38, 137558.95, 97548.91, 67178.50, 99783.46, 100476.97, 0.000, 0.000, 0.000,0.0,0.0,0.0,0.0,0.0, 21:48:00.550
, 65951.68, 104646.77, 154225.84, 137459.11, 97617.82, 67113.41, 99854.31, 100348.02, 0.000, 0.000, 0.000,0.0,0.0,0.0,0.0,0.0, 21:48:00.550
, 65921.26, 104610.48, 154189.53, 137526.80, 97585.37, 67198.55, 99854.65, 100408.68, 0.000, 0.000, 0.000,0.0,0.0,0.0,0.0,0.0, 21:48:00.551
, 65848.53, 104532.55, 154115.55, 137643.48, 97505.99, 67280.78, 99789.41, 100551.42, 0.000, 0.000, 0.000,0.0,0.0,0.0,0.0,0.0, 21:48:00.551
, 65889.38, 104585.22, 154170.25, 137576.92, 97538.92, 67195.13, 99782.70, 100497.09, 0.318, 0.388, 0.848,0.0,0.0,0.0,0.0,0.0, 21:48:00.551
, 65951.41, 104648.25, 154231.14, 137460.19, 97609.48, 67104.16, 99846.87, 100348.29, 0.000, 0.000, 0.000,0.0,0.0,0.0,0.0,0.0, 21:48:00.551
, 65924.70, 104614.23, 154198.84, 137513.45, 97585.99, 67178.50, 99848.68, 100392.72, 0.000, 0.000, 0.000,0.0,0.0,0.0,0.0,0.0, 21:48:00.551
, 65865.49, 104548.94, 154137.38, 137629.05, 97522.76, 67272.09, 99807.13, 100521.63, 0.000, 0.000, 0.000,0.0,0.0,0.0,0.0,0.0, 21:48:00.552
, 65869.80, 104558.28, 154146.98, 137616.11, 97521.46, 67232.66, 99784.94, 100531.52, 0.000, 0.000, 0.000,0.0,0.0,0.0,0.0,0.0, 21:48:00.552
, 65954.41, 104650.87, 154234.66, 137469.45, 97607.63, 67109.79, 99843.95, 100353.34, 0.000, 0.000, 0.000,0.0,0.0,0.0,0.0,0.0, 21:48:00.552
, 65952.84, 104645.86, 154225.67, 137488.28, 97608.03, 67163.81, 99876.13, 100349.52, 0.000, 0.000, 0.000,0.0,0.0,0.0,0.0,0.0, 21:48:00.552
, 65885.27, 104575.92, 154155.22, 137604.94, 97536.51, 67264.87, 99831.13, 100471.34, 0.000, 0.000, 0.000,0.0,0.0,0.0,0.0,0.0, 21:48:00.552
, 65872.42, 104563.47, 154141.52, 137629.97, 97510.22, 67257.83, 99787.99, 100519.28, 0.000, 0.000, 0.000,0.0,0.0,0.0,0.0,0.0, 21:48:00.552
, 65947.19, 104644.77, 154223.39, 137490.69, 97586.70, 67120.05, 99828.61, 100355.44, 0.322, 0.388, 0.850,0.0,0.0,0.0,0.0,0.0, 21:48:00.553
, 65958.90, 104648.61, 154233.38, 137483.97, 97608.68, 67146.60, 99878.63, 100324.17, 0.000, 0.000, 0.000,0.0,0.0,0.0,0.0,0.0, 21:48:00.553
, 65892.25, 104576.16, 154169.77, 137594.70, 97545.34, 67250.23, 99842.94, 100435.82, 0.000, 0.000, 0.000,0.0,0.0,0.0,0.0,0.0, 21:48:00.553
, 65856.15, 104537.16, 154137.09, 137654.58, 97502.64, 67274.86, 99790.97, 100525.02, 0.000, 0.000, 0.000,0.0,0.0,0.0,0.0,0.0, 21:48:00.553
, 65934.25, 104620.66, 154218.34, 137515.66, 97577.59, 67137.69, 99827.13, 100373.08, 0.000, 0.000, 0.000,0.0,0.0,0.0,0.0,0.0, 21:48:00.553
, 65935.72, 104609.49, 154205.63, 137488.80, 97582.44, 67138.96, 99860.77, 100330.65, 0.000, 0.000, 0.000,0.0,0.0,0.0,0.0,0.0, 21:48:00.553
, 65871.95, 104544.89, 154145.72, 137580.03, 97518.40, 67230.05, 99817.21, 100444.80, 0.000, 0.000, 0.000,0.0,0.0,0.0,0.0,0.0, 21:48:00.554
, 65851.27, 104523.37, 154130.86, 137641.09, 97498.09, 67269.31, 99792.63, 100534.95, 0.000, 0.000, 0.000,0.0,0.0,0.0,0.0,0.0, 21:48:00.554
, 65916.14, 104599.92, 154198.75, 137523.28, 97556.11, 67144.28, 99817.08, 100408.95, 0.000, 0.000, 0.000,0.0,0.0,0.0,0.0,0.0, 21:48:00.554
, 65952.55, 104631.35, 154227.81, 137455.94, 97602.02, 67112.59, 99876.42, 100307.49, 0.000, 0.000, 0.000,0.0,0.0,0.0,0.0,0.0, 21:48:00.554
, 65903.58, 104576.34, 154176.88, 137542.33, 97558.88, 67208.84, 99857.94, 100391.80, 0.316, 0.380, 0.848,0.0,0.0,0.0,0.0,0.0, 21:48:00.554
, 65855.59, 104525.09, 154127.67, 137632.92, 97507.56, 67271.80, 99804.27, 100504.52, 0.000, 0.000, 0.000,0.0,0.0,0.0,0.0,0.0, 21:48:00.554
, 65902.80, 104582.63, 154186.66, 137545.34, 97556.91, 67169.63, 99812.41, 100417.42, 0.000, 0.000, 0.000,0.0,0.0,0.0,0.0,0.0, 21:48:00.554
, 65959.13, 104638.62, 154241.09, 137445.59, 97624.64, 67098.52, 99882.99, 100277.09, 0.000, 0.000, 0.000,0.0,0.0,0.0,0.0,0.0, 21:48:00.555
, 65917.57, 104590.94, 154196.36, 137516.42, 97584.36, 67184.76, 99865.84, 100335.21, 0.000, 0.000, 0.000,0.0,0.0,0.0,0.0,0.0, 21:48:00.555
, 65854.95, 104523.99, 154138.27, 137628.38, 97525.98, 67271.23, 99811.06, 100462.68, 0.000, 0.000, 0.000,0.0,0.0,0.0,0.0,0.0, 21:48:00.555
, 65873.92, 104553.09, 154165.23, 137581.05, 97539.63, 67201.14, 99791.84, 100428.66, 0.000, 0.000, 0.000,0.0,0.0,0.0,0.0,0.0, 21:48:00.556
, 65928.50, 104613.73, 154218.53, 137461.97, 97599.83, 67098.75, 99837.77, 100275.45, 0.000, 0.000, 0.000,0.0,0.0,0.0,0.0,0.0, 21:48:00.556
, 65901.61, 104587.54, 154185.30, 137509.67, 97578.39, 67167.77, 99851.70, 100314.05, 0.000, 0.000, 0.000,0.0,0.0,0.0,0.0,0.0, 21:48:00.556
, 65839.70, 104523.82, 154116.09, 137623.91, 97508.95, 67259.91, 99801.95, 100446.61, 0.316, 0.366, 0.856,0.0,0.0,0.0,0.0,0.0, 21:48:00.557
, 65862.03, 104551.45, 154139.08, 137605.33, 97523.52, 67217.84, 99785.25, 100446.32, 0.000, 0.000, 0.000,0.0,0.0,0.0,0.0,0.0, 21:48:00.557
, 65926.36, 104619.15, 154207.30, 137469.64, 97595.38, 67093.70, 99840.41, 100278.59, 0.000, 0.000, 0.000,0.0,0.0,0.0,0.0,0.0, 21:48:00.557
, 65910.02, 104596.80, 154182.70, 137495.48, 97580.38, 67144.91, 99858.41, 100293.44, 0.000, 0.000, 0.000,0.0,0.0,0.0,0.0,0.0, 21:48:00.557
, 65866.81, 104552.67, 154137.17, 137599.44, 97532.08, 67243.14, 99819.34, 100405.09, 0.000, 0.000, 0.000,0.0,0.0,0.0,0.0,0.0, 21:48:00.557
, 65856.71, 104540.34, 154130.97, 137629.50, 97515.61, 67246.45, 99785.09, 100457.05, 0.000, 0.000, 0.000,0.0,0.0,0.0,0.0,0.0, 21:48:00.558
, 65944.80, 104635.22, 154230.16, 137486.27, 97615.01, 67109.95, 99855.68, 100278.21, 0.000, 0.000, 0.000,0.0,0.0,0.0,0.0,0.0, 21:48:00.558
, 65937.35, 104617.88, 154217.22, 137492.66, 97619.88, 67137.91, 99895.35, 100257.67, 0.000, 0.000, 0.000,0.0,0.0,0.0,0.0,0.0, 21:48:00.558
, 65880.13, 104556.23, 154161.16, 137598.70, 97562.55, 67238.38, 99852.81, 100370.84, 0.000, 0.000, 0.000,0.0,0.0,0.0,0.0,0.0, 21:48:00.558
, 65853.29, 104526.52, 154136.95, 137656.23, 97535.09, 67268.78, 99814.82, 100456.47, 0.000, 0.000, 0.000,0.0,0.0,0.0,0.0,0.0, 21:48:00.558
, 65921.75, 104603.16, 154214.94, 137525.39, 97608.59, 67132.03, 99845.84, 100309.20, 0.322, 0.370, 0.854,0.0,0.0,0.0,0.0,0.0, 21:48:00.558
, 65937.04, 104608.10, 154223.72, 137486.11, 97633.24, 67121.08, 99894.91, 100246.74, 0.000, 0.000, 0.000,0.0,0.0,0.0,0.0,0.0, 21:48:00.559
, 65883.80, 104551.55, 154168.53, 137581.33, 97574.05, 67217.33, 99858.34, 100349.34, 0.000, 0.000, 0.000,0.0,0.0,0.0,0.0,0.0, 21:48:00.559
, 65845.87, 104513.22, 154130.63, 137662.09, 97534.45, 67269.61, 99814.46, 100457.01, 0.000, 0.000, 0.000,0.0,0.0,0.0,0.0,0.0, 21:48:00.559
, 65903.87, 104584.99, 154198.31, 137550.00, 97594.69, 67148.44, 99839.61, 100337.36, 0.000, 0.000, 0.000,0.0,0.0,0.0,0.0,0.0, 21:48:00.559
, 65945.51, 104625.92, 154234.55, 137468.08, 97648.29, 67102.64, 99905.01, 100219.72, 0.000, 0.000, 0.000,0.0,0.0,0.0,0.0,0.0, 21:48:00.559
, 65886.66, 104561.99, 154167.73, 137556.13, 97586.84, 67202.10, 99877.96, 100310.20, 0.000, 0.000, 0.000,0.0,0.0,0.0,0.0,0.0, 21:48:00.559
, 65826.63, 104500.03, 154106.95, 137654.94, 97520.97, 67277.59, 99811.60, 100443.95, 0.000, 0.000, 0.000,0.0,0.0,0.0,0.0,0.0, 21:48:00.559
, 65877.25, 104559.94, 154166.81, 137570.05, 97565.80, 67180.98, 99819.96, 100368.47, 0.000, 0.000, 0.000,0.0,0.0,0.0,0.0,0.0, 21:48:00.560
, 65933.15, 104613.49, 154219.20, 137460.92, 97626.76, 67097.92, 99873.42, 100222.23, 0.000, 0.000, 0.000,0.0,0.0,0.0,0.0,0.0, 21:48:01.015
, 65910.58, 104583.52, 154192.16, 137515.42, 97602.51, 67175.33, 99862.47, 100267.48, 0.326, 0.372, 0.846,0.0,0.0,0.0,0.0,0.0, 21:48:01.016
, 65840.62, 104503.99, 154120.84, 137636.03, 97532.68, 67269.61, 99811.27, 100405.95, 0.000, 0.000, 0.000,0.0,0.0,0.0,0.0,0.0, 21:48:01.016
, 65855.23, 104524.63, 154146.20, 137606.75, 97546.83, 67210.28, 99790.05, 100400.99, 0.000, 0.000, 0.000,0.0,0.0,0.0,0.0,0.0, 21:48:01.016
, 65934.49, 104608.48, 154230.11, 137468.86, 97639.95, 67093.70, 99863.84, 100232.39, 0.000, 0.000, 0.000,0.0,0.0,0.0,0.0,0.0, 21:48:01.016
, 65910.46, 104573.28, 154197.69, 137509.69, 97622.54, 67161.94, 99877.41, 100259.28, 0.000, 0.000, 0.000,0.0,0.0,0.0,0.0,0.0, 21:48:01.016
, 65822.17, 104477.77, 154108.17, 137637.20, 97534.65, 67264.78, 99814.73, 100413.33, 0.000, 0.000, 0.000,0.0,0.0,0.0,0.0,0.0, 21:48:01.017
, 65824.97, 104486.73, 154120.19, 137630.44, 97532.37, 67235.14, 99781.29, 100444.38, 0.000, 0.000, 0.000,0.0,0.0,0.0,0.0,0.0, 21:48:01.017
, 65906.44, 104573.21, 154207.61, 137482.42, 97620.39, 67102.64, 99839.85, 100273.32, 0.000, 0.000, 0.000,0.0,0.0,0.0,0.0,0.0, 21:48:01.017
, 65912.95, 104573.23, 154208.91, 137487.39, 97629.98, 67140.62, 99876.84, 100260.18, 0.000, 0.000, 0.000,0.0,0.0,0.0,0.0,0.0, 21:48:01.017
, 65854.09, 104510.92, 154147.14, 137596.39, 97573.68, 67238.65, 99841.46, 100374.38, 0.330, 0.382, 0.850,0.0,0.0,0.0,0.0,0.0, 21:48:01.017
, 65835.85, 104495.85, 154131.34, 137639.58, 97546.83, 67245.16, 99800.85, 100445.65, 0.000, 0.000, 0.000,0.0,0.0,0.0,0.0,0.0, 21:48:01.017
, 65931.45, 104599.55, 154231.44, 137494.11, 97638.70, 67100.63, 99857.17, 100265.07, 0.000, 0.000, 0.000,0.0,0.0,0.0,0.0,0.0, 21:48:01.018
, 65935.72, 104595.88, 154228.69, 137486.05, 97651.02, 67113.59, 99900.85, 100223.45, 0.000, 0.000, 0.000,0.0,0.0,0.0,0.0,0.0, 21:48:01.018
, 65874.43, 104529.70, 154164.16, 137596.22, 97584.61, 67212.21, 99855.52, 100335.70, 0.000, 0.000, 0.000,0.0,0.0,0.0,0.0,0.0, 21:48:01.018
, 65842.34, 104499.23, 154131.05, 137663.77, 97539.81, 67246.98, 99799.55, 100430.61, 0.000, 0.000, 0.000,0.0,0.0,0.0,0.0,0.0, 21:48:01.018
, 65904.83, 104573.57, 154202.05, 137536.02, 97606.48, 67112.01, 99821.45, 100287.94, 0.000, 0.000, 0.000,0.0,0.0,0.0,0.0,0.0, 21:48:01.018
, 65929.69, 104591.72, 154222.00, 137486.92, 97639.62, 67093.12, 99876.94, 100210.35, 0.000, 0.000, 0.000,0.0,0.0,0.0,0.0,0.0, 21:48:01.018
, 65883.87, 104542.55, 154175.56, 137577.47, 97593.32, 67192.34, 99858.74, 100301.91, 0.000, 0.000, 0.000,0.0,0.0,0.0,0.0,0.0, 21:48:01.018
, 65832.68, 104488.95, 154120.88, 137670.58, 97534.23, 67251.84, 99801.23, 100416.84, 0.000, 0.000, 0.000,0.0,0.0,0.0,0.0,0.0, 21:48:01.019
, 65892.80, 104557.19, 154192.52, 137563.61, 97587.63, 67133.59, 99815.66, 100306.22, 0.330, 0.388, 0.856,0.0,0.0,0.0,0.0,0.0, 21:48:01.019
, 65939.37, 104598.41, 154237.02, 137473.42, 97646.88, 67078.97, 99885.65, 100178.03, 0.000, 0.000, 0.000,0.0,0.0,0.0,0.0,0.0, 21:48:01.020
, 65884.58, 104539.69, 154179.83, 137555.41, 97590.91, 67173.29, 99856.26, 100260.83, 0.000, 0.000, 0.000,0.0,0.0,0.0,0.0,0.0, 21:48:01.020
, 65822.02, 104474.82, 154122.83, 137661.78, 97532.21, 67251.62, 99805.77, 100391.94, 0.000, 0.000, 0.000,0.0,0.0,0.0,0.0,0.0, 21:48:01.020
, 65867.03, 104523.28, 154178.11, 137593.56, 97570.70, 67164.71, 99805.43, 100330.92, 0.000, 0.000, 0.000,0.0,0.0,0.0,0.0,0.0, 21:48:01.020
, 65944.38, 104593.73, 154244.05, 137473.50, 97645.65, 67071.21, 99877.38, 100170.39, 0.000, 0.000, 0.000,0.0,0.0,0.0,0.0,0.0, 21:48:01.021
, 65889.66, 104526.19, 154175.64, 137547.17, 97590.04, 67153.51, 99860.57, 100250.59, 0.000, 0.000, 0.000,0.0,0.0,0.0,0.0,0.0, 21:48:01.021
, 65836.26, 104472.14, 154126.94, 137647.88, 97536.82, 67235.68, 99815.20, 100382.15, 0.000, 0.000, 0.000,0.0,0.0,0.0,0.0,0.0, 21:48:01.021
, 65858.36, 104501.87, 154156.20, 137617.88, 97546.34, 67182.32, 99795.64, 100372.20, 0.000, 0.000, 0.000,0.0,0.0,0.0,0.0,0.0, 21:48:01.021
, 65937.06, 104589.28, 154234.66, 137479.25, 97629.11, 67062.07, 99863.68, 100195.52, 0.320, 0.378, 0.864,0.0,0.0,0.0,0.0,0.0, 21:48:01.021
, 65895.98, 104543.04, 154187.95, 137521.31, 97596.79, 67124.34, 99868.06, 100227.50, 0.000, 0.000, 0.000,0.0,0.0,0.0,0.0,0.0, 21:48:01.021
, 65845.04, 104493.20, 154139.22, 137623.39, 97545.83, 67217.08, 99829.64, 100341.58, 0.000, 0.000, 0.000,0.0,0.0,0.0,0.0,0.0, 21:48:01.022
, 65841.06, 104494.23, 154136.48, 137635.44, 97535.59, 67199.94, 99799.40, 100371.11, 0.000, 0.000, 0.000,0.0,0.0,0.0,0.0,0.0, 21:48:01.022
, 65912.81, 104572.63, 154211.86, 137490.63, 97612.01, 67063.10, 99844.95, 100193.45, 0.000, 0.000, 0.000,0.0,0.0,0.0,0.0,0.0, 21:48:01.022
, 65903.87, 104555.89, 154194.83, 137499.70, 97610.16, 67099.64, 99868.51, 100182.75, 0.000, 0.000, 0.000,0.0,0.0,0.0,0.0,0.0, 21:48:01.022
, 65834.65, 104481.98, 154126.19, 137612.09, 97542.49, 67201.01, 99824.95, 100303.92, 0.000, 0.000, 0.000,0.0,0.0,0.0,0.0,0.0, 21:48:01.022
, 65818.29, 104467.55, 154111.19, 137650.63, 97521.30, 67209.62, 99786.25, 100368.13, 0.000, 0.000, 0.000,0.0,0.0,0.0,0.0,0.0, 21:48:01.023
, 65904.25, 104561.41, 154204.20, 137501.22, 97606.51, 67066.23, 99826.42, 100190.73, 0.000, 0.000, 0.000,0.0,0.0,0.0,0.0,0.0, 21:48:01.023
, 65920.90, 104567.09, 154210.05, 137476.61, 97627.43, 67071.19, 99877.29, 100131.27, 0.000, 0.000, 0.000,0.0,0.0,0.0,0.0,0.0, 21:48:01.023
, 65857.36, 104500.55, 154143.08, 137588.64, 97563.73, 67175.33, 99852.48, 100241.85, 0.312, 0.374, 0.868,0.0,0.0,0.0,0.0,0.0, 21:48:01.023
, 65817.44, 104459.53, 154108.14, 137660.05, 97514.84, 67213.57, 99797.90, 100343.80, 0.000, 0.000, 0.000,0.0,0.0,0.0,0.0,0.0, 21:48:01.024
, 65890.41, 104536.67, 154189.75, 137531.53, 97588.48, 67081.88, 99820.05, 100198.22, 0.000, 0.000, 0.000,0.0,0.0,0.0,0.0,0.0, 21:48:01.024
, 65916.30, 104555.06, 154214.20, 137477.08, 97627.21, 67054.12, 99868.28, 100111.72, 0.000, 0.000, 0.000,0.0,0.0,0.0,0.0,0.0, 21:48:01.024
, 65869.65, 104502.29, 154163.13, 137564.23, 97577.84, 67150.12, 99841.82, 100199.45, 0.000, 0.000, 0.000,0.0,0.0,0.0,0.0,0.0, 21:48:01.024
, 65832.61, 104462.91, 154123.34, 137648.86, 97532.41, 67213.88, 99798.52, 100304.84, 0.000, 0.000, 0.000,0.0,0.0,0.0,0.0,0.0, 21:48:01.025
, 65898.53, 104538.34, 154200.75, 137552.50, 97593.93, 67107.83, 99829.34, 100198.27, 0.000, 0.000, 0.000,0.0,0.0,0.0,0.0,0.0, 21:48:01.025
, 65954.88, 104591.68, 154254.44, 137455.38, 97669.79, 67045.73, 99906.80, 100044.86, 0.000, 0.000, 0.000,0.0,0.0,0.0,0.0,0.0, 21:48:01.025
, 65898.95, 104531.53, 154194.23, 137536.77, 97615.66, 67138.73, 99886.16, 100111.80, 0.000, 0.000, 0.000,0.0,0.0,0.0,0.0,0.0, 21:48:01.025
, 65841.48, 104470.64, 154138.11, 137642.00, 97558.08, 67218.16, 99837.28, 100229.55, 0.312, 0.372, 0.866,0.0,0.0,0.0,0.0,0.0, 21:48:01.026
, 65859.95, 104494.34, 154162.92, 137597.05, 97569.41, 67146.56, 99810.17, 100193.86, 0.000, 0.000, 0.000,0.0,0.0,0.0,0.0,0.0, 21:48:01.026
, 65913.52, 104549.77, 154216.06, 137478.78, 97626.76, 67046.02, 99858.85, 100044.41, 0.000, 0.000, 0.000,0.0,0.0,0.0,0.0,0.0, 21:48:01.026
, 65891.47, 104519.13, 154187.27, 137524.83, 97601.08, 67117.30, 99867.14, 100083.20, 0.000, 0.000, 0.000,0.0,0.0,0.0,0.0,0.0, 21:48:01.027
, 65840.39, 104462.41, 154133.83, 137631.28, 97542.12, 67209.55, 99825.19, 100203.85, 0.000, 0.000, 0.000,0.0,0.0,0.0,0.0,0.0, 21:48:01.027
, 65843.70, 104472.92, 154142.39, 137620.33, 97544.10, 67172.38, 99804.54, 100206.24, 0.000, 0.000, 0.000,0.0,0.0,0.0,0.0,0.0, 21:48:01.027
, 65910.46, 104547.17, 154212.38, 137490.47, 97614.80, 67051.43, 99852.91, 100043.27, 0.000, 0.000, 0.000,0.0,0.0,0.0,0.0,0.0, 21:48:01.027
, 65903.20, 104533.20, 154201.23, 137512.53, 97610.49, 67100.23, 99870.20, 100048.87, 0.000, 0.000, 0.000,0.0,0.0,0.0,0.0,0.0, 21:48:01.028
, 65845.48, 104472.95, 154146.70, 137616.53, 97557.85, 67196.96, 99830.24, 100157.13, 0.000, 0.000, 0.000,0.0,0.0,0.0,0.0,0.0, 21:48:01.028
, 65828.39, 104457.19, 154133.33, 137642.58, 97534.18, 67195.48, 99790.73, 100209.62, 0.000, 0.000, 0.000,0.0,0.0,0.0,0.0,0.0, 21:48:01.028
, 65895.87, 104527.68, 154205.48, 137502.66, 97606.06, 67059.08, 99836.45, 100048.84, 0.316, 0.378, 0.860,0.0,0.0,0.0,0.0,0.0, 21:48:01.029
, 65900.49, 104525.13, 154202.83, 137496.80, 97615.77, 67082.70, 99873.72, 100026.38, 0.000, 0.000, 0.000,0.0,0.0,0.0,0.0,0.0, 21:48:01.029
, 65855.84, 104478.89, 154156.98, 137598.23, 97570.10, 67180.49, 99853.58, 100131.41, 0.000, 0.000, 0.000,0.0,0.0,0.0,0.0,0.0, 21:48:01.029
, 65847.81, 104469.68, 154151.73, 137644.56, 97555.75, 67202.48, 99829.23, 100191.67, 0.000, 0.000, 0.000,0.0,0.0,0.0,0.0,0.0, 21:48:01.029
, 65895.60, 104520.15, 154201.80, 137524.63, 97605.62, 67074.12, 99843.65, 100050.47, 0.000, 0.000, 0.000,0.0,0.0,0.0,0.0,0.0, 21:48:01.030
, 65906.44, 104528.20, 154208.72, 137487.34, 97628.37, 67065.98, 99876.69, 99994.39, 0.000, 0.000, 0.000,0.0,0.0,0.0,0.0,0.0, 21:48:01.030
, 65849.55, 104467.58, 154151.03, 137576.02, 97572.88, 67161.31, 99848.91, 100089.84, 0.000, 0.000, 0.000,0.0,0.0,0.0,0.0,0.0, 21:48:01.030
, 65813.68, 104431.50, 154114.77, 137655.05, 97525.59, 67212.50, 99796.76, 100196.56, 0.000, 0.000, 0.000,0.0,0.0,0.0,0.0,0.0, 21:48:01.030
, 65882.30, 104509.06, 154192.98, 137537.36, 97593.01, 67090.86, 99811.60, 100065.60, 0.000, 0.000, 0.000,0.0,0.0,0.0,0.0,0.0, 21:48:01.030
, 65915.91, 104539.30, 154223.36, 137463.48, 97641.67, 67051.74, 99878.79, 99956.23, 0.000, 0.000, 0.000,0.0,0.0,0.0,0.0,0.0, 21:48:01.031
, 65849.45, 104466.26, 154151.58, 137555.36, 97573.23, 67149.02, 99847.85, 100052.91, 0.322, 0.382, 0.860,0.0,0.0,0.0,0.0,0.0, 21:48:01.031
, 65817.03, 104431.21, 154121.33, 137646.17, 97533.09, 67219.77, 99806.41, 100169.63, 0.000, 0.000, 0.000,0.0,0.0,0.0,0.0,0.0, 21:48:01.031
, 65869.63, 104493.15, 154182.97, 137568.03, 97583.04, 67130.06, 99817.66, 100088.72, 0.000, 0.000, 0.000,0.0,0.0,0.0,0.0,0.0, 21:48:01.031
, 65892.02, 104513.04, 154202.58, 137478.16, 97620.19, 67054.52, 99858.12, 99966.92, 0.000, 0.000, 0.000,0.0,0.0,0.0,0.0,0.0, 21:48:01.031
, 65851.74, 104470.62, 154163.70, 137539.39, 97578.59, 67130.96, 99844.99, 100029.62, 0.000, 0.000, 0.000,0.0,0.0,0.0,0.0,0.0, 21:48:01.031
, 65802.20, 104423.70, 154117.78, 137640.19, 97523.95, 67213.10, 99803.30, 100148.80, 0.000, 0.000, 0.000,0.0,0.0,0.0,0.0,0.0, 21:48:01.032
, 65826.65, 104457.34, 154153.25, 137596.64, 97546.41, 67148.35, 99800.34, 100115.00, 0.000, 0.000, 0.000,0.0,0.0,0.0,0.0,0.0, 21:48:01.032
, 65882.79, 104511.44, 154208.39, 137478.09, 97610.94, 67043.25, 99854.02, 99964.64, 0.000, 0.000, 0.000,0.0,0.0,0.0,0.0,0.0, 21:48:01.032
, 65875.08, 104492.88, 154187.64, 137519.08, 97599.80, 67107.20, 99866.05, 99995.53, 0.000, 0.000, 0.000,0.0,0.0,0.0,0.0,0.0, 21:48:01.032
, 65817.70, 104429.60, 154128.17, 137633.36, 97543.77, 67202.95, 99828.90, 100118.87, 0.320, 0.382, 0.850,0.0,0.0,0.0,0.0,0.0, 21:48:01.033
, 65809.63, 104426.50, 154129.28, 137633.45, 97532.62, 67174.66, 99789.72, 100145.16, 0.000, 0.000, 0.000,0.0,0.0,0.0,0.0,0.0, 21:48:01.033
, 65899.20, 104523.48, 154222.97, 137482.06, 97623.34, 67044.21, 99851.95, 99960.66, 0.000, 0.000, 0.000,0.0,0.0,0.0,0.0,0.0, 21:48:01.033
, 65872.17, 104486.78, 154188.45, 137506.09, 97598.82, 67093.97, 99867.84, 99966.59, 0.000, 0.000, 0.000,0.0,0.0,0.0,0.0,0.0, 21:48:01.033
, 65806.08, 104419.86, 154123.03, 137616.48, 97525.40, 67192.11, 99806.34, 100094.10, 0.000, 0.000, 0.000,0.0,0.0,0.0,0.0,0.0, 21:48:01.033
, 65799.91, 104417.04, 154118.14, 137638.34, 97511.43, 67188.38, 99772.98, 100144.44, 0.000, 0.000, 0.000,0.0,0.0,0.0,0.0,0.0, 21:48:01.033
, 65890.34, 104513.96, 154218.58, 137488.38, 97610.13, 67046.23, 99836.59, 99963.86, 0.000, 0.000, 0.000,0.0,0.0,0.0,0.0,0.0, 21:48:01.034
, 65897.97, 104511.52, 154214.33, 137480.86, 97622.07, 67068.13, 99884.80, 99925.73, 0.000, 0.000, 0.000,0.0,0.0,0.0,0.0,0.0, 21:48:01.034
, 65832.52, 104445.41, 154147.73, 137587.33, 97555.73, 67169.25, 99840.21, 100035.43, 0.000, 0.000, 0.000,0.0,0.0,0.0,0.0,0.0, 21:48:01.034
, 65793.30, 104408.33, 154107.05, 137655.00, 97507.31, 67206.87, 99783.34, 100129.17, 0.000, 0.000, 0.000,0.0,0.0,0.0,0.0,0.0, 21:48:01.034
, 65859.37, 104485.48, 154183.16, 137531.11, 97574.62, 67073.23, 99810.26, 99993.66, 0.322, 0.386, 0.860,0.0,0.0,0.0,0.0,0.0, 21:48:01.034
, 65895.33, 104515.28, 154215.94, 137478.20, 97624.46, 67051.63, 99874.97, 99905.37, 0.000, 0.000, 0.000,0.0,0.0,0.0,0.0,0.0, 21:48:01.034
, 65835.95, 104448.11, 154149.89, 137578.20, 97558.63, 67151.14, 99838.73, 100008.45, 0.000, 0.000, 0.000,0.0,0.0,0.0,0.0,0.0, 21:48:01.035
, 65793.72, 104404.08, 154108.98, 137657.30, 97512.09, 67201.12, 99786.55, 100111.36, 0.000, 0.000, 0.000,0.0,0.0,0.0,0.0,0.0, 21:48:01.035
, 65854.65, 104472.05, 154178.53, 137553.14, 97567.28, 67086.19, 99799.87, 100001.27, 0.000, 0.000, 0.000,0.0,0.0,0.0,0.0,0.0, 21:48:01.035
, 65918.55, 104532.35, 154238.30, 137463.42, 97638.36, 67032.97, 99879.39, 99867.68, 0.000, 0.000, 0.000,0.0,0.0,0.0,0.0,0.0, 21:48:01.035
, 65862.79, 104471.20, 154179.80, 137550.47, 97589.97, 67128.21, 99865.45, 99943.54, 0.000, 0.000, 0.000,0.0,0.0,0.0,0.0,0.0, 21:48:01.035
, 65800.59, 104406.45, 154117.80, 137655.92, 97524.05, 67207.60, 99809.27, 100073.38, 0.000, 0.000, 0.000,0.0,0.0,0.0,0.0,0.0, 21:48:01.036
, 65846.96, 104459.29, 154170.23, 137585.02, 97564.78, 67120.70, 99810.17, 100007.83, 0.000, 0.000, 0.000,0.0,0.0,0.0,0.0,0.0, 21:48:01.036
, 65901.92, 104512.55, 154224.39, 137475.36, 97628.20, 67036.45, 99877.07, 99863.59, 0.320, 0.384, 0.858,0.0,0.0,0.0,0.0,0.0, 21:48:01.036
, 65871.23, 104476.79, 154189.88, 137531.02, 97596.97, 67112.90, 99885.09, 99906.21, 0.000, 0.000, 0.000,0.0,0.0,0.0,0.0,0.0, 21:48:01.036
, 65806.20, 104407.52, 154119.97, 137642.22, 97522.83, 67203.52, 99823.42, 100035.54, 0.000, 0.000, 0.000,0.0,0.0,0.0,0.0,0.0, 21:48:01.036
, 65839.95, 104449.50, 154158.45, 137597.94, 97545.34, 67145.47, 99787.73, 100003.53, 0.000, 0.000, 0.000,0.0,0.0,0.0,0.0,0.0, 21:48:01.036
, 65903.87, 104515.97, 154227.80, 137471.14, 97623.23, 67037.93, 99854.38, 99834.69, 0.000, 0.000, 0.000,0.0,0.0,0.0,0.0,0.0, 21:48:01.037
, 65857.18, 104462.04, 154179.73, 137520.89, 97588.34, 67102.26, 99859.12, 99875.48, 0.000, 0.000, 0.000,0.0,0.0,0.0,0.0,0.0, 21:48:01.037
, 65790.59, 104393.35, 154111.20, 137634.81, 97519.63, 67195.80, 99803.46, 100008.49, 0.000, 0.000, 0.000,0.0,0.0,0.0,0.0,0.0, 21:48:01.037
, 65789.85, 104395.70, 154115.30, 137635.27, 97509.23, 67170.08, 99766.63, 100038.49, 0.000, 0.000, 0.000,0.0,0.0,0.0,0.0,0.0, 21:48:01.037
, 65881.43, 104496.01, 154215.77, 137478.17, 97607.72, 67030.95, 99836.08, 99843.43, 0.000, 0.000, 0.000,0.0,0.0,0.0,0.0,0.0, 21:48:01.038
, 65884.16, 104489.59, 154211.77, 137486.61, 97617.73, 67070.70, 99878.86, 99821.30, 0.000, 0.000, 0.000,0.0,0.0,0.0,0.0,0.0, 21:48:01.038
, 65812.48, 104410.00, 154137.38, 137604.06, 97549.88, 67177.79, 99834.48, 99941.69, 0.318, 0.378, 0.862,0.0,0.0,0.0,0.0,0.0, 21:48:01.038
, 65791.02, 104392.59, 154119.78, 137642.64, 97523.74, 67192.91, 99792.96, 100006.53, 0.000, 0.000, 0.000,0.0,0.0,0.0,0.0,0.0, 21:48:01.038
, 65863.28, 104473.34, 154202.11, 137507.30, 97602.11, 67060.64, 99834.78, 99849.95, 0.000, 0.000, 0.000,0.0,0.0,0.0,0.0,0.0, 21:48:01.039
, 65875.39, 104472.70, 154206.33, 137485.67, 97619.30, 67069.24, 99873.45, 99803.71, 0.000, 0.000, 0.000,0.0,0.0,0.0,0.0,0.0, 21:48:01.039
, 65825.88, 104421.13, 154154.83, 137582.89, 97564.94, 67168.63, 99840.45, 99906.23, 0.000, 0.000, 0.000,0.0,0.0,0.0,0.0,0.0, 21:48:01.039
, 65796.70, 104394.96, 154128.73, 137645.30, 97532.75, 67207.42, 99806.48, 99991.80, 0.000, 0.000, 0.000,0.0,0.0,0.0,0.0,0.0, 21:48:01.039
, 65847.21, 104458.73, 154192.81, 137529.39, 97583.40, 67080.53, 99830.76, 99859.59, 0.000, 0.000, 0.000,0.0,0.0,0.0,0.0,0.0, 21:48:01.040
, 65866.63, 104473.08, 154210.84, 137476.97, 97612.50, 67054.83, 99877.52, 99780.73, 0.000, 0.000, 0.000,0.0,0.0,0.0,0.0,0.0, 21:48:01.040
, 65824.12, 104424.59, 154163.55, 137561.03, 97563.88, 67149.45, 99852.30, 99864.51, 0.000, 0.000, 0.000,0.0,0.0,0.0,0.0,0.0, 21:48:01.041
, 65777.56, 104375.58, 154112.33, 137651.84, 97508.79, 67210.42, 99795.55, 99979.98, 0.324, 0.372, 0.864,0.0,0.0,0.0,0.0,0.0, 21:48:01.041
, 65833.13, 104440.63, 154174.38, 137552.78, 97562.19, 67099.48, 99801.59, 99879.37, 0.000, 0.000, 0.000,0.0,0.0,0.0,0.0,0.0, 21:48:01.041
, 65881.36, 104483.88, 154216.77, 137462.28, 97616.97, 67036.77, 99859.25, 99754.96, 0.000, 0.000, 0.000,0.0,0.0,0.0,0.0,0.0, 21:48:01.041
, 65831.83, 104427.73, 154164.33, 137540.53, 97570.30, 67123.76, 99845.71, 99831.98, 0.000, 0.000, 0.000,0.0,0.0,0.0,0.0,0.0, 21:48:01.041
, 65771.19, 104359.76, 154100.05, 137646.64, 97502.69, 67200.02, 99786.14, 99965.47, 0.000, 0.000, 0.000,0.0,0.0,0.0,0.0,0.0, 21:48:01.041
, 65812.48, 104407.77, 154151.86, 137574.77, 97540.51, 67112.66, 99784.98, 99906.30, 0.000, 0.000, 0.000,5.0086465,8.1292715,8.586024,15.169939,8.909341, 21:48:01.496
, 65876.53, 104470.09, 154214.22, 137454.16, 97614.02, 67018.40, 99856.66, 99748.48, 0.000, 0.000, 0.000,5.0086465,8.1292715,8.586024,15.169939,8.909341, 21:48:01.497
, 65833.91, 104419.92, 154165.34, 137518.95, 97573.41, 67098.08, 99849.35, 99811.04, 0.000, 0.000, 0.000,5.0086465,8.1292715,8.586024,15.169939,8.909341, 21:48:01.497
, 65780.78, 104364.02, 154113.17, 137624.94, 97512.88, 67187.30, 99797.65, 99939.67, 0.000, 0.000, 0.000,5.0086465,8.1292715,8.586024,15.169939,8.909341, 21:48:01.497
, 65804.30, 104389.82, 154139.84, 137600.94, 97523.79, 67141.30, 99780.80, 99935.45, 0.000, 0.000, 0.000,5.0086465,8.1292715,8.586024,15.169939,8.909341, 21:48:01.497
, 65871.20, 104461.90, 154213.78, 137469.89, 97601.39, 67021.68, 99841.84, 99771.57, 0.322, 0.370, 0.864,5.0086465,8.1292715,8.586024,15.169939,8.909341, 21:48:01.497
, 65852.80, 104436.09, 154191.88, 137495.66, 97593.95, 67076.45, 99861.76, 99782.95, 0.000, 0.000, 0.000,5.0086465,8.1292715,8.586024,15.169939,8.909341, 21:48:01.498
, 65784.69, 104361.01, 154118.48, 137613.25, 97521.10, 67178.63, 99811.31, 99916.70, 0.000, 0.000, 0.000,5.0086465,8.1292715,8.586024,15.169939,8.909341, 21:48:01.498
, 65787.04, 104370.22, 154126.78, 137622.61, 97515.27, 67164.80, 99789.92, 99952.51, 0.000, 0.000, 0.000,5.0086465,8.1292715,8.586024,15.169939,8.909341, 21:48:01.498
, 65863.01, 104452.63, 154205.03, 137479.78, 97593.39, 67033.86, 99840.32, 99784.66, 0.000, 0.000, 0.000,5.0086465,8.1292715,8.586024,15.169939,8.909341, 21:48:01.498
, 65868.42, 104449.30, 154199.73, 137474.56, 97604.16, 67064.15, 99870.48, 99760.50, 0.000, 0.000, 0.000,5.0086465,8.1292715,8.586024,15.169939,8.909341, 21:48:01.498
, 65800.90, 104374.40, 154127.86, 137585.75, 97533.84, 67168.63, 99824.56, 99881.94, 0.000, 0.000, 0.000,5.0086465,8.1292715,8.586024,15.169939,8.909341, 21:48:01.498
, 65773.76, 104345.20, 154103.41, 137640.30, 97502.20, 67191.69, 99786.66, 99969.41, 0.000, 0.000, 0.000,5.0086465,8.1292715,8.586024,15.169939,8.909341, 21:48:01.499
, 65855.75, 104437.13, 154195.81, 137496.66, 97581.50, 67048.81, 99813.12, 99809.16, 0.000, 0.000, 0.000,5.0086465,8.1292715,8.586024,15.169939,8.909341, 21:48:01.499
, 65873.72, 104447.33, 154205.44, 137462.39, 97603.27, 67048.39, 99858.63, 99751.38, 0.000, 0.000, 0.000,5.0086465,8.1292715,8.586024,15.169939,8.909341, 21:48:01.499
, 65814.30, 104385.75, 154142.63, 137565.33, 97542.09, 67147.30, 99825.68, 99858.34, 0.318, 0.368, 0.866,5.0086465,8.1292715,8.586024,15.169939,8.909341, 21:48:01.499
, 65784.06, 104359.46, 154114.42, 137637.75, 97508.54, 67189.37, 99790.34, 99952.46, 0.000, 0.000, 0.000,5.0086465,8.1292715,8.586024,15.169939,8.909341, 21:48:01.500
, 65845.02, 104428.71, 154187.30, 137518.33, 97573.20, 67059.95, 99820.65, 99820.45, 0.000, 0.000, 0.000,5.0086465,8.1292715,8.586024,15.169939,8.909341, 21:48:01.500
, 65874.23, 104448.54, 154212.14, 137456.94, 97614.76, 67027.88, 99883.26, 99727.29, 0.000, 0.000, 0.000,5.0086465,8.1292715,8.586024,15.169939,8.909341, 21:48:01.500
, 65819.70, 104391.07, 154155.50, 137543.89, 97554.19, 67123.90, 99850.63, 99821.57, 0.000, 0.000, 0.000,5.0086465,8.1292715,8.586024,15.169939,8.909341, 21:48:01.500
, 65788.96, 104359.38, 154126.38, 137629.13, 97515.83, 67186.64, 99809.52, 99924.74, 0.000, 0.000, 0.000,5.0086465,8.1292715,8.586024,15.169939,8.909341, 21:48:01.500
, 65835.77, 104413.17, 154179.78, 137552.67, 97556.11, 67090.63, 99808.11, 99842.53, 0.000, 0.000, 0.000,5.0086465,8.1292715,8.586024,15.169939,8.909341, 21:48:01.501
, 65881.59, 104458.21, 154225.25, 137463.02, 97614.60, 67024.30, 99864.77, 99717.92, 0.000, 0.000, 0.000,5.0086465,8.1292715,8.586024,15.169939,8.909341, 21:48:01.501
, 65845.87, 104417.16, 154187.41, 137526.13, 97586.46, 67108.49, 99863.99, 99771.84, 0.000, 0.000, 0.000,5.0086465,8.1292715,8.586024,15.169939,8.909341, 21:48:01.501
, 65771.88, 104336.35, 154110.59, 137638.75, 97511.98, 67196.67, 99803.35, 99909.43, 0.308, 0.370, 0.866,5.0086465,8.1292715,8.586024,15.169939,8.909341, 21:48:01.501
, 65795.80, 104369.99, 154141.61, 137582.97, 97528.75, 67120.63, 99782.16, 99877.02, 0.000, 0.000, 0.000,5.0086465,8.1292715,8.586024,15.169939,8.909341, 21:48:01.502
, 65857.65, 104434.68, 154203.77, 137456.67, 97601.84, 67013.68, 99851.07, 99716.80, 0.000, 0.000, 0.000,5.0086465,8.1292715,8.586024,15.169939,8.909341, 21:48:01.502
, 65830.71, 104401.33, 154170.17, 137503.17, 97575.29, 67081.72, 99853.94, 99757.20, 0.000, 0.000, 0.000,5.0086465,8.1292715,8.586024,15.169939,8.909341, 21:48:01.502
, 65781.16, 104350.73, 154115.36, 137610.91, 97518.45, 67177.77, 99806.05, 99876.91, 0.000, 0.000, 0.000,5.0086465,8.1292715,8.586024,15.169939,8.909341, 21:48:01.502
, 65800.25, 104377.77, 154139.22, 137596.06, 97533.51, 67144.68, 99786.43, 99874.38, 0.000, 0.000, 0.000,5.0086465,8.1292715,8.586024,15.169939,8.909341, 21:48:01.502
, 65885.20, 104466.35, 154228.63, 137457.72, 97632.44, 67028.50, 99857.42, 99689.78, 0.000, 0.000, 0.000,5.0086465,8.1292715,8.586024,15.169939,8.909341, 21:48:01.503
, 65863.59, 104435.37, 154201.48, 137483.27, 97614.73, 67085.41, 99873.16, 99690.48, 0.000, 0.000, 0.000,5.0086465,8.1292715,8.586024,15.169939,8.909341, 21:48:01.503
, 65790.03, 104355.80, 154125.80, 137602.86, 97538.00, 67191.38, 99815.11, 99816.67, 0.000, 0.000, 0.000,5.0086465,8.1292715,8.586024,15.169939,8.909341, 21:48:01.503
, 65771.68, 104333.34, 154106.33, 137637.34, 97511.05, 67193.39, 99769.73, 99880.42, 0.000, 0.000, 0.000,5.0086465,8.1292715,8.586024,15.169939,8.909341, 21:48:01.503
, 65849.55, 104421.47, 154194.63, 137491.70, 97597.84, 67054.05, 99821.13, 99709.88, 0.306, 0.370, 0.862,5.0086465,8.1292715,8.586024,15.169939,8.909341, 21:48:01.504
, 65856.75, 104419.21, 154194.58, 137483.42, 97620.52, 67079.88, 99866.23, 99677.29, 0.000, 0.000, 0.000,5.0086465,8.1292715,8.586024,15.169939,8.909341, 21:48:01.504
, 65782.91, 104339.57, 154116.55, 137597.52, 97547.48, 67185.67, 99811.98, 99806.26, 0.000, 0.000, 0.000,5.0086465,8.1292715,8.586024,15.169939,8.909341, 21:48:01.504
, 65770.99, 104327.97, 154108.59, 137638.48, 97532.08, 67208.16, 99774.54, 99874.79, 0.000, 0.000, 0.000,5.0086465,8.1292715,8.586024,15.169939,8.909341, 21:48:01.504
, 65846.83, 104414.67, 154193.84, 137500.53, 97614.63, 67078.50, 99818.23, 99712.38, 0.000, 0.000, 0.000,5.0086465,8.1292715,8.586024,15.169939,8.909341, 21:48:01.504
, 65865.29, 104425.65, 154205.06, 137460.91, 97645.76, 67071.23, 99865.87, 99634.35, 0.000, 0.000, 0.000,5.0086465,8.1292715,8.586024,15.169939,8.909341, 21:48:01.505
, 65804.14, 104357.43, 154141.33, 137563.31, 97589.21, 67171.35, 99831.47, 99733.39, 0.000, 0.000, 0.000,5.0086465,8.1292715,8.586024,15.169939,8.909341, 21:48:01.505
, 65772.82, 104320.66, 154108.59, 137646.00, 97552.11, 67224.45, 99795.33, 99835.13, 0.000, 0.000, 0.000,5.0086465,8.1292715,8.586024,15.169939,8.909341, 21:48:01.505
, 65828.81, 104385.26, 154174.34, 137540.20, 97607.70, 67108.25, 99818.33, 99712.23, 0.000, 0.000, 0.000,5.0086465,8.1292715,8.586024,15.169939,8.909341, 21:48:01.505
, 65846.67, 104394.83, 154186.83, 137479.56, 97634.00, 67073.73, 99854.20, 99626.66, 0.312, 0.360, 0.868,5.0086465,8.1292715,8.586024,15.169939,8.909341, 21:48:01.505
, 65804.07, 104346.41, 154141.56, 137561.39, 97593.50, 67169.59, 99841.75, 99715.53, 0.000, 0.000, 0.000,5.0086465,8.1292715,8.586024,15.169939,8.909341, 21:48:01.506
, 65754.12, 104294.66, 154093.64, 137656.81, 97545.65, 67241.64, 99797.34, 99840.81, 0.000, 0.000, 0.000,5.0086465,8.1292715,8.586024,15.169939,8.909341, 21:48:01.506
, 65813.23, 104362.86, 154161.14, 137572.05, 97602.91, 67142.89, 99810.62, 99756.80, 0.000, 0.000, 0.000,5.0086465,8.1292715,8.586024,15.169939,8.909341, 21:48:01.506
, 65878.45, 104423.93, 154221.59, 137463.84, 97674.35, 67063.79, 99871.79, 99605.38, 0.000, 0.000, 0.000,5.0086465,8.1292715,8.586024,15.169939,8.909341, 21:48:01.506
, 65838.55, 104376.50, 154179.52, 137526.05, 97641.49, 67147.48, 99873.24, 99654.40, 0.000, 0.000, 0.000,5.0086465,8.1292715,8.586024,15.169939,8.909341, 21:48:01.507
, 65777.60, 104314.63, 154120.91, 137635.83, 97588.41, 67235.12, 99831.02, 99774.88, 0.000, 0.000, 0.000,5.0086465,8.1292715,8.586024,15.169939,8.909341, 21:48:01.507
, 65786.84, 104328.84, 154137.47, 137611.11, 97593.13, 67184.54, 99811.17, 99766.43, 0.000, 0.000, 0.000,5.0086465,8.1292715,8.586024,15.169939,8.909341, 21:48:01.507
, 65857.36, 104402.80, 154209.98, 137474.98, 97668.49, 67073.41, 99877.83, 99599.41, 0.000, 0.000, 0.000,5.0086465,8.1292715,8.586024,15.169939,8.909341, 21:48:01.507
, 65818.60, 104362.68, 154168.98, 137520.13, 97635.66, 67140.41, 99875.93, 99639.27, 0.000, 0.000, 0.000,5.0086465,8.1292715,8.586024,15.169939,8.909341, 21:48:01.507
, 65761.09, 104311.54, 154120.44, 137627.48, 97585.27, 67233.28, 99840.16, 99761.60, 0.316, 0.360, 0.862,5.0086465,8.1292715,8.586024,15.169939,8.909341, 21:48:01.508
, 65769.58, 104329.91, 154140.47, 137623.69, 97599.96, 67206.77, 99826.89, 99774.20, 0.000, 0.000, 0.000,5.0086465,8.1292715,8.586024,15.169939,8.909341, 21:48:01.508
, 65830.49, 104399.95, 154208.97, 137490.16, 97672.65, 67079.05, 99870.02, 99610.19, 0.000, 0.000, 0.000,5.0086465,8.1292715,8.586024,15.169939,8.909341, 21:48:01.508
, 65814.42, 104381.68, 154190.47, 137509.56, 97666.30, 67120.07, 99895.11, 99615.77, 0.000, 0.000, 0.000,5.0086465,8.1292715,8.586024,15.169939,8.909341, 21:48:01.508
, 65752.70, 104320.10, 154129.72, 137617.30, 97603.94, 67213.50, 99852.75, 99732.85, 0.000, 0.000, 0.000,5.0086465,8.1292715,8.586024,15.169939,8.909341, 21:48:01.508
, 65727.60, 104295.13, 154106.48, 137656.39, 97570.93, 67218.76, 99803.48, 99802.84, 0.000, 0.000, 0.000,5.0086465,8.1292715,8.586024,15.169939,8.909341, 21:48:01.509
, 65803.31, 104379.54, 154193.59, 137511.28, 97652.11, 67075.48, 99840.45, 99642.40, 0.000, 0.000, 0.000,5.0086465,8.1292715,8.586024,15.169939,8.909341, 21:48:01.509
, 65802.95, 104372.43, 154192.81, 137496.39, 97667.28, 67092.58, 99878.19, 99610.79, 0.000, 0.000, 0.000,5.0086465,8.1292715,8.586024,15.169939,8.909341, 21:48:01.509
, 65741.22, 104303.61, 154133.91, 137601.38, 97607.88, 67197.55, 99846.54, 99731.02, 0.000, 0.000, 0.000,5.0086465,8.1292715,8.586024,15.169939,8.909341, 21:48:01.509
, 65727.83, 104285.66, 154113.39, 137656.31, 97589.21, 67228.39, 99820.14, 99816.54, 0.324, 0.364, 0.856,5.0086465,8.1292715,8.586024,15.169939,8.909341, 21:48:01.509
, 65799.76, 104366.04, 154186.28, 137528.69, 97659.64, 67095.17, 99845.64, 99674.31, 0.000, 0.000, 0.000,5.0086465,8.1292715,8.586024,15.169939,8.909341, 21:48:01.509
, 65812.92, 104369.52, 154188.16, 137488.58, 97674.48, 67079.20, 99876.06, 99612.91, 0.000, 0.000, 0.000,5.0086465,8.1292715,8.586024,15.169939,8.909341, 21:48:01.509
, 65771.81, 104322.54, 154144.00, 137578.78, 97631.59, 67174.73, 99856.95, 99707.69, 0.000, 0.000, 0.000,5.0086465,8.1292715,8.586024,15.169939,8.909341, 21:48:01.509
, 65734.45, 104279.91, 154102.64, 137663.97, 97583.04, 67230.29, 99806.73, 99819.45, 0.000, 0.000, 0.000,5.0086465,8.1292715,8.586024,15.169939,8.909341, 21:48:01.510
, 65796.85, 104347.13, 154173.56, 137559.84, 97640.30, 67119.20, 99825.19, 99716.02, 0.000, 0.000, 0.000,5.0086465,8.1292715,8.586024,15.169939,8.909341, 21:48:01.510
, 65846.47, 104390.17, 154223.23, 137471.72, 97703.98, 67067.21, 99896.96, 99595.86, 0.000, 0.000, 0.000,5.0086465,8.1292715,8.586024,15.169939,8.909341, 21:48:01.510
, 65803.98, 104339.82, 154179.73, 137554.70, 97664.42, 67160.82, 99882.84, 99674.12, 0.000, 0.000, 0.000,5.0086465,8.1292715,8.586024,15.169939,8.909341, 21:48:01.510
, 65756.08, 104286.89, 154129.67, 137658.67, 97611.67, 67238.83, 99837.15, 99793.05, 0.000, 0.000, 0.000,5.0086465,8.1292715,8.586024,15.169939,8.909341, 21:48:01.510
, 65783.06, 104320.48, 154165.70, 137600.31, 97635.95, 67155.91, 99826.77, 99743.45, 0.000, 0.000, 0.000,5.0086465,8.1292715,8.586024,15.169939,8.909341, 21:48:01.510
, 65839.25, 104376.36, 154222.63, 137491.25, 97701.73, 67069.52, 99889.59, 99601.74, 0.324, 0.370, 0.862,5.0086465,8.1292715,8.586024,15.169939,8.909341, 21:48:01.511
, 65812.16, 104342.72, 154187.72, 137546.73, 97674.48, 67148.20, 99891.89, 99655.79, 0.000, 0.000, 0.000,5.0086465,8.1292715,8.586024,15.169939,8.909341, 21:48:01.511
, 65755.27, 104281.37, 154122.11, 137657.55, 97613.06, 67241.04, 99844.59, 99789.52, 0.000, 0.000, 0.000,5.0086465,8.1292715,8.586024,15.169939,8.909341, 21:48:01.511
, 65776.63, 104307.07, 154146.66, 137625.94, 97623.68, 67190.21, 99825.37, 99778.67, 0.000, 0.000, 0.000,5.0086465,8.1292715,8.586024,15.169939,8.909341, 21:48:01.511
, 65853.58, 104387.54, 154222.92, 137491.66, 97705.15, 67076.78, 99889.54, 99606.34, 0.000, 0.000, 0.000,5.0086465,8.1292715,8.586024,15.169939,8.909341, 21:48:01.511
, 65826.53, 104355.40, 154190.38, 137529.55, 97680.25, 67139.70, 99893.05, 99632.45, 0.000, 0.000, 0.000,5.0086465,8.1292715,8.586024,15.169939,8.909341, 21:48:01.511
, 65773.05, 104297.20, 154137.33, 137636.47, 97630.38, 67239.55, 99862.16, 99749.66, 0.000, 0.000, 0.000,5.0086465,8.1292715,8.586024,15.169939,8.909341, 21:48:01.511
, 65767.59, 104293.10, 154139.41, 137649.55, 97620.10, 67225.82, 99830.87, 99785.91, 0.000, 0.000, 0.000,5.0086465,8.1292715,8.586024,15.169939,8.909341, 21:48:01.512
, 65840.59, 104373.52, 154221.16, 137507.41, 97695.72, 67092.02, 99871.66, 99614.70, 0.000, 0.000, 0.000,5.0086465,8.1292715,8.586024,15.169939,8.909341, 21:48:01.512
, 65836.59, 104362.57, 154211.20, 137512.55, 97695.91, 67132.66, 99891.89, 99604.53, 0.000, 0.000, 0.000,5.0086465,8.1292715,8.586024,15.169939,8.909341, 21:48:01.512
, 65780.09, 104301.04, 154151.61, 137619.64, 97635.77, 67237.42, 99852.19, 99723.06, 0.318, 0.380, 0.860,5.0086465,8.1292715,8.586024,15.169939,8.909341, 21:48:01.512
, 65762.18, 104281.79, 154133.78, 137668.22, 97610.89, 67252.55, 99814.82, 99794.32, 0.000, 0.000, 0.000,5.0086465,8.1292715,8.586024,15.169939,8.909341, 21:48:01.512
, 65825.51, 104348.45, 154203.70, 137536.30, 97674.05, 67119.42, 99848.30, 99643.54, 0.000, 0.000, 0.000,5.0086465,8.1292715,8.586024,15.169939,8.909341, 21:48:01.512
, 65833.69, 104352.11, 154204.70, 137512.17, 97684.98, 67126.91, 99884.22, 99602.86, 0.000, 0.000, 0.000,5.0086465,8.1292715,8.586024,15.169939,8.909341, 21:48:01.513
, 65781.49, 104297.23, 154154.52, 137603.25, 97641.16, 67225.64, 99866.27, 99702.66, 0.000, 0.000, 0.000,5.0086465,8.1292715,8.586024,15.169939,8.909341, 21:48:01.513
, 65744.95, 104264.05, 154123.19, 137667.63, 97606.53, 67266.08, 99818.80, 99790.99, 0.000, 0.000, 0.000,5.0086465,8.1292715,8.586024,15.169939,8.909341, 21:48:01.513
, 65811.89, 104342.79, 154203.83, 137544.50, 97672.60, 67142.47, 99847.52, 99652.05, 0.000, 0.000, 0.000,5.0086465,8.1292715,8.586024,15.169939,8.909341, 21:48:01.513
, 65830.34, 104354.05, 154220.19, 137492.81, 97700.01, 67120.14, 99894.84, 99571.74, 0.000, 0.000, 0.000,5.0086465,8.1292715,8.586024,15.169939,8.909341, 21:48:01.513
, 65771.64, 104290.76, 154159.66, 137585.08, 97643.41, 67218.60, 99861.98, 99672.13, 0.000, 0.000, 0.000,5.0086465,8.1292715,8.586024,15.169939,8.909341, 21:48:01.513
, 65755.70, 104275.49, 154147.34, 137655.53, 97627.30, 67276.38, 99840.21, 99756.15, 0.310, 0.374, 0.864,5.0086465,8.1292715,8.586024,15.169939,8.909341, 21:48:01.513
, 65802.73, 104328.77, 154200.91, 137565.91, 97672.98, 67178.41, 99854.70, 99653.38, 0.000, 0.000, 0.000,5.0086465,8.1292715,8.586024,15.169939,8.909341, 21:48:01.514
, 65841.89, 104365.08, 154238.52, 137479.23, 97725.42, 67123.43, 99920.01, 99530.75, 0.000, 0.000, 0.000,5.0086465,8.1292715,8.586024,15.169939,8.909341, 21:48:01.514
, 65807.65, 104325.22, 154197.69, 137546.66, 97686.93, 67210.89, 99896.20, 99593.34, 0.000, 0.000, 0.000,5.0086465,8.1292715,8.586024,15.169939,8.909341, 21:48:01.514
, 65757.47, 104267.60, 154141.14, 137650.13, 97627.39, 67290.57, 99836.39, 99710.97, 0.000, 0.000, 0.000,5.0086465,8.1292715,8.586024,15.169939,8.909341, 21:48:01.514
, 65793.36, 104309.04, 154183.53, 137596.59, 97654.12, 67211.56, 99825.70, 99657.30, 0.000, 0.000, 0.000,5.0086465,8.1292715,8.586024,15.169939,8.909341, 21:48:01.514
, 65854.49, 104369.81, 154244.59, 137482.27, 97723.52, 67114.84, 99890.79, 99498.72, 0.000, 0.000, 0.000,5.0086465,8.1292715,8.586024,15.169939,8.909341, 21:48:01.514
, 65807.67, 104313.62, 154191.98, 137544.06, 97676.85, 67193.56, 99879.80, 99553.86, 0.000, 0.000, 0.000,5.0086465,8.1292715,8.586024,15.169939,8.909341, 21:48:01.514
, 65740.48, 104245.36, 154124.95, 137652.86, 97609.33, 67282.52, 99819.49, 99685.31, 0.000, 0.000, 0.000,5.0086465,8.1292715,8.586024,15.169939,8.909341, 21:48:01.515
, 65779.62, 104292.88, 154171.94, 137620.11, 97636.24, 67232.50, 99814.04, 99667.25, 0.000, 0.000, 0.000,5.0086465,8.1292715,8.586024,15.169939,8.909341, 21:48:01.515
, 65864.13, 104379.49, 154260.36, 137477.11, 97732.42, 67112.45, 99892.42, 99475.36, 0.306, 0.372, 0.858,5.0086465,8.1292715,8.586024,15.169939,8.909341, 21:48:01.515
, 65825.10, 104328.87, 154211.52, 137518.67, 97703.92, 67175.17, 99903.60, 99499.48, 0.000, 0.000, 0.000,5.0086465,8.1292715,8.586024,15.169939,8.909341, 21:48:01.515
, 65741.59, 104242.30, 154126.05, 137641.36, 97615.74, 67280.36, 99835.16, 99646.60, 0.000, 0.000, 0.000,5.0086465,8.1292715,8.586024,15.169939,8.909341, 21:48:01.515
, 65733.91, 104237.52, 154121.47, 137656.31, 97599.16, 67267.88, 99795.20, 99699.75, 0.000, 0.000, 0.000,5.0086465,8.1292715,8.586024,15.169939,8.909341, 21:48:01.516
, 65801.43, 104315.61, 154196.45, 137509.64, 97669.16, 67129.93, 99832.41, 99539.42, 0.000, 0.000, 0.000,5.0086465,8.1292715,8.586024,15.169939,8.909341, 21:48:01.516
, 65816.97, 104323.12, 154206.13, 137493.69, 97686.09, 67157.31, 99878.05, 99509.20, 0.000, 0.000, 0.000,5.0086465,8.1292715,8.586024,15.169939,8.909341, 21:48:01.516
, 65771.50, 104275.53, 154158.88, 137589.56, 97635.05, 67257.83, 99846.22, 99610.81, 0.000, 0.000, 0.000,5.0086465,8.1292715,8.586024,15.169939,8.909341, 21:48:01.516
, 65746.56, 104248.78, 154133.80, 137647.56, 97607.77, 67286.10, 99811.17, 99689.23, 0.000, 0.000, 0.000,5.0086465,8.1292715,8.586024,15.169939,8.909341, 21:48:01.516
, 65805.45, 104317.78, 154203.36, 137520.09, 97669.54, 67154.34, 99839.83, 99549.66, 0.000, 0.000, 0.000,5.0086465,8.1292715,8.586024,15.169939,8.909341, 21:48:01.517
, 65819.96, 104329.63, 154212.92, 137480.38, 97684.48, 67150.43, 99869.58, 99491.45, 0.310, 0.368, 0.868,5.0086465,8.1292715,8.586024,15.169939,8.909341, 21:48:01.517
, 65755.52, 104258.01, 154144.23, 137583.97, 97617.33, 67255.23, 99831.42, 99606.70, 0.000, 0.000, 0.000,5.0086465,8.1292715,8.586024,15.169939,8.909341, 21:48:01.517
, 65739.63, 104242.74, 154129.22, 137648.56, 97593.32, 67299.67, 99798.05, 99698.55, 0.000, 0.000, 0.000,5.0086465,8.1292715,8.586024,15.169939,8.909341, 21:48:01.517
, 65820.99, 104335.34, 154219.45, 137522.33, 97671.71, 67176.98, 99831.80, 99551.96, 0.000, 0.000, 0.000,5.0086465,8.1292715,8.586024,15.169939,8.909341, 21:48:01.517
, 65845.71, 104350.55, 154234.67, 137462.11, 97705.82, 67147.92, 99882.73, 99453.46, 0.000, 0.000, 0.000,5.0086465,8.1292715,8.586024,15.169939,8.909341, 21:48:01.518
, 65784.67, 104284.18, 154167.69, 137553.17, 97644.27, 67247.95, 99852.44, 99553.52, 0.000, 0.000, 0.000,5.0086465,8.1292715,8.586024,15.169939,8.909341, 21:48:01.518
, 65733.38, 104230.07, 154113.34, 137647.67, 97588.12, 67317.26, 99798.26, 99679.75, 0.000, 0.000, 0.000,5.0086465,8.1292715,8.586024,15.169939,8.909341, 21:48:01.518
, 65775.51, 104283.76, 154166.61, 137562.20, 97631.68, 67217.75, 99802.91, 99605.12, 0.000, 0.000, 0.000,5.0086465,8.1292715,8.586024,15.169939,8.909341, 21:48:01.518
, 65834.29, 104339.19, 154226.16, 137459.11, 97700.63, 67146.13, 99879.91, 99470.20, 0.000, 0.000, 0.000,5.0086465,8.1292715,8.586024,15.169939,8.909341, 21:48:01.518
, 65800.56, 104302.20, 154188.92, 137523.03, 97669.09, 67232.15, 99884.98, 99528.07, 0.000, 0.000, 0.000,5.0086465,8.1292715,8.586024,15.169939,8.909341, 21:48:01.519
, 65726.76, 104225.02, 154110.53, 137639.94, 97585.97, 67322.40, 99813.09, 99671.52, 0.318, 0.364, 0.864,5.0086465,8.1292715,8.586024,15.169939,8.909341, 21:48:01.519
, 65767.23, 104274.77, 154157.50, 137584.50, 97614.49, 67253.65, 99796.18, 99637.13, 0.000, 0.000, 0.000,1.8428677,2.8660307,2.7067795,5.276699,3.689993, 21:48:01.976
, 65844.02, 104350.79, 154234.31, 137453.92, 97700.16, 67150.70, 99871.30, 99466.20, 0.000, 0.000, 0.000,1.8428677,2.8660307,2.7067795,5.276699,3.689993, 21:48:01.976
, 65800.83, 104299.43, 154185.97, 137514.59, 97655.91, 67224.05, 99868.35, 99518.14, 0.000, 0.000, 0.000,1.8428677,2.8660307,2.7067795,5.276699,3.689993, 21:48:01.976
, 65750.72, 104246.92, 154135.72, 137622.56, 97600.52, 67313.57, 99823.58, 99646.33, 0.000, 0.000, 0.000,1.8428677,2.8660307,2.7067795,5.276699,3.689993, 21:48:01.976
, 65776.51, 104275.31, 154167.52, 137602.30, 97623.03, 67273.83, 99811.98, 99641.84, 0.000, 0.000, 0.000,1.8428677,2.8660307,2.7067795,5.276699,3.689993, 21:48:01.977
, 65859.91, 104357.66, 154251.19, 137461.13, 97715.52, 67147.12, 99882.48, 99458.15, 0.000, 0.000, 0.000,1.8428677,2.8660307,2.7067795,5.276699,3.689993, 21:48:01.977
, 65852.53, 104346.30, 154237.22, 137484.02, 97711.36, 67195.51, 99908.59, 99456.12, 0.000, 0.000, 0.000,1.8428677,2.8660307,2.7067795,5.276699,3.689993, 21:48:01.977
, 65777.41, 104269.55, 154161.36, 137610.31, 97637.76, 67302.42, 99869.31, 99586.72, 0.000, 0.000, 0.000,1.8428677,2.8660307,2.7067795,5.276699,3.689993, 21:48:01.977
, 65759.95, 104254.39, 154146.72, 137643.53, 97609.17, 67303.13, 99827.23, 99647.96, 0.324, 0.368, 0.860,1.8428677,2.8660307,2.7067795,5.276699,3.689993, 21:48:01.977
, 65831.61, 104337.91, 154227.95, 137500.47, 97682.24, 67166.07, 99858.45, 99484.34, 0.000, 0.000, 0.000,1.8428677,2.8660307,2.7067795,5.276699,3.689993, 21:48:01.977
, 65835.92, 104333.07, 154228.59, 137490.97, 97692.99, 67190.21, 99892.70, 99458.06, 0.000, 0.000, 0.000,1.8428677,2.8660307,2.7067795,5.276699,3.689993, 21:48:01.977
, 65779.17, 104275.71, 154170.58, 137594.23, 97632.06, 67289.45, 99852.88, 99568.37, 0.000, 0.000, 0.000,1.8428677,2.8660307,2.7067795,5.276699,3.689993, 21:48:01.978
, 65753.51, 104243.99, 154140.19, 137657.73, 97598.93, 67321.33, 99808.05, 99660.86, 0.000, 0.000, 0.000,1.8428677,2.8660307,2.7067795,5.276699,3.689993, 21:48:01.978
, 65809.68, 104307.07, 154203.73, 137531.19, 97653.45, 67186.48, 99824.27, 99528.58, 0.000, 0.000, 0.000,1.8428677,2.8660307,2.7067795,5.276699,3.689993, 21:48:01.978
, 65831.27, 104324.80, 154221.84, 137477.39, 97687.76, 67165.38, 99880.60, 99452.59, 0.000, 0.000, 0.000,1.8428677,2.8660307,2.7067795,5.276699,3.689993, 21:48:01.978
, 65774.74, 104265.95, 154165.19, 137568.98, 97633.89, 67262.12, 99856.33, 99548.90, 0.000, 0.000, 0.000,1.8428677,2.8660307,2.7067795,5.276699,3.689993, 21:48:01.978
, 65734.55, 104225.20, 154124.75, 137653.08, 97585.99, 67318.96, 99807.33, 99663.16, 0.000, 0.000, 0.000,1.8428677,2.8660307,2.7067795,5.276699,3.689993, 21:48:01.978
, 65800.02, 104301.17, 154202.05, 137541.14, 97647.26, 67202.64, 99822.24, 99547.49, 0.000, 0.000, 0.000,1.8428677,2.8660307,2.7067795,5.276699,3.689993, 21:48:01.978
, 65843.21, 104340.55, 154240.31, 137460.27, 97697.41, 67154.98, 99886.45, 99430.93, 0.328, 0.368, 0.862,1.8428677,2.8660307,2.7067795,5.276699,3.689993, 21:48:01.978
, 65777.34, 104265.50, 154168.36, 137549.53, 97629.63, 67253.13, 99853.42, 99529.41, 0.000, 0.000, 0.000,1.8428677,2.8660307,2.7067795,5.276699,3.689993, 21:48:01.979
, 65724.23, 104209.28, 154114.02, 137648.52, 97573.23, 67332.37, 99803.59, 99661.53, 0.000, 0.000, 0.000,1.8428677,2.8660307,2.7067795,5.276699,3.689993, 21:48:01.979
, 65772.29, 104267.29, 154170.84, 137573.78, 97616.30, 67247.77, 99806.48, 99596.69, 0.000, 0.000, 0.000,1.8428677,2.8660307,2.7067795,5.276699,3.689993, 21:48:01.979
, 65838.80, 104335.88, 154239.30, 137458.91, 97694.98, 67166.70, 99877.27, 99441.50, 0.000, 0.000, 0.000,1.8428677,2.8660307,2.7067795,5.276699,3.689993, 21:48:01.979
, 65793.23, 104283.76, 154188.08, 137531.08, 97654.52, 67252.89, 99877.29, 99502.38, 0.000, 0.000, 0.000,1.8428677,2.8660307,2.7067795,5.276699,3.689993, 21:48:01.979
, 65741.41, 104229.76, 154135.77, 137637.66, 97599.91, 67338.95, 99830.40, 99626.17, 0.000, 0.000, 0.000,1.8428677,2.8660307,2.7067795,5.276699,3.689993, 21:48:01.979
, 65771.52, 104263.46, 154166.91, 137598.47, 97618.85, 67281.30, 99808.00, 99594.99, 0.000, 0.000, 0.000,1.8428677,2.8660307,2.7067795,5.276699,3.689993, 21:48:01.979
, 65818.53, 104310.88, 154212.23, 137484.23, 97666.88, 67178.41, 99842.22, 99450.82, 0.000, 0.000, 0.000,1.8428677,2.8660307,2.7067795,5.276699,3.689993, 21:48:01.980
, 65799.53, 104287.91, 154192.63, 137519.94, 97648.48, 67241.51, 99853.87, 99483.34, 0.000, 0.000, 0.000,1.8428677,2.8660307,2.7067795,5.276699,3.689993, 21:48:01.980
, 65749.76, 104232.69, 154139.19, 137626.38, 97596.59, 67335.84, 99822.75, 99602.21, 0.318, 0.366, 0.862,1.8428677,2.8660307,2.7067795,5.276699,3.689993, 21:48:01.980
, 65746.47, 104232.35, 154138.05, 137633.36, 97582.93, 67314.65, 99791.41, 99634.10, 0.000, 0.000, 0.000,1.8428677,2.8660307,2.7067795,5.276699,3.689993, 21:48:01.980
, 65814.98, 104310.58, 154211.88, 137495.86, 97660.42, 67185.34, 99839.98, 99473.40, 0.000, 0.000, 0.000,1.8428677,2.8660307,2.7067795,5.276699,3.689993, 21:48:01.980
, 65815.49, 104306.73, 154208.14, 137502.61, 97668.76, 67224.19, 99870.92, 99463.20, 0.000, 0.000, 0.000,1.8428677,2.8660307,2.7067795,5.276699,3.689993, 21:48:01.980
, 65748.10, 104232.53, 154136.11, 137620.17, 97598.82, 67327.48, 99826.44, 99589.11, 0.000, 0.000, 0.000,1.8428677,2.8660307,2.7067795,5.276699,3.689993, 21:48:01.980
, 65736.70, 104226.16, 154130.16, 137653.23, 97575.95, 67329.62, 99789.23, 99649.93, 0.000, 0.000, 0.000,1.8428677,2.8660307,2.7067795,5.276699,3.689993, 21:48:01.980
, 65814.53, 104317.38, 154219.81, 137506.97, 97658.41, 67188.72, 99834.11, 99475.07, 0.000, 0.000, 0.000,1.8428677,2.8660307,2.7067795,5.276699,3.689993, 21:48:01.981
, 65832.37, 104325.60, 154230.58, 137487.19, 97682.10, 67202.22, 99883.70, 99422.84, 0.000, 0.000, 0.000,1.8428677,2.8660307,2.7067795,5.276699,3.689993, 21:48:01.981
, 65767.01, 104254.75, 154159.66, 137603.84, 97607.07, 67309.03, 99834.45, 99541.92, 0.000, 0.000, 0.000,1.8428677,2.8660307,2.7067795,5.276699,3.689993, 21:48:01.981
, 65738.02, 104223.99, 154135.08, 137669.23, 97571.87, 67342.85, 99786.88, 99631.00, 0.316, 0.364, 0.860,1.8428677,2.8660307,2.7067795,5.276699,3.689993, 21:48:01.981
, 65811.11, 104306.65, 154219.36, 137539.75, 97647.08, 67209.26, 99824.05, 99481.40, 0.000, 0.000, 0.000,1.8428677,2.8660307,2.7067795,5.276699,3.689993, 21:48:01.981
, 65841.20, 104330.81, 154240.08, 137485.47, 97689.30, 67186.10, 99884.60, 99389.78, 0.000, 0.000, 0.000,1.8428677,2.8660307,2.7067795,5.276699,3.689993, 21:48:01.982
, 65789.50, 104276.34, 154184.88, 137578.72, 97636.93, 67285.99, 99866.00, 99475.92, 0.000, 0.000, 0.000,1.8428677,2.8660307,2.7067795,5.276699,3.689993, 21:48:01.982
, 65737.02, 104216.84, 154124.14, 137680.48, 97575.73, 67359.41, 99808.47, 99599.80, 0.000, 0.000, 0.000,1.8428677,2.8660307,2.7067795,5.276699,3.689993, 21:48:01.982
, 65769.76, 104257.38, 154167.28, 137594.78, 97606.04, 67254.97, 99798.23, 99526.03, 0.000, 0.000, 0.000,1.8428677,2.8660307,2.7067795,5.276699,3.689993, 21:48:01.982
, 65830.49, 104320.62, 154232.78, 137491.52, 97680.45, 67189.16, 99871.26, 99394.13, 0.000, 0.000, 0.000,1.8428677,2.8660307,2.7067795,5.276699,3.689993, 21:48:01.982
, 65799.60, 104284.34, 154196.09, 137562.83, 97651.44, 67279.58, 99871.28, 99453.05, 0.000, 0.000, 0.000,1.8428677,2.8660307,2.7067795,5.276699,3.689993, 21:48:01.982
, 65737.46, 104217.66, 154131.02, 137674.27, 97585.59, 67365.00, 99817.91, 99583.30, 0.000, 0.000, 0.000,1.8428677,2.8660307,2.7067795,5.276699,3.689993, 21:48:01.982
, 65774.12, 104267.62, 154177.55, 137608.27, 97608.86, 67278.26, 99807.71, 99523.30, 0.000, 0.000, 0.000,1.8428677,2.8660307,2.7067795,5.276699,3.689993, 21:48:01.983
, 65838.09, 104332.04, 154241.81, 137488.73, 97677.32, 67180.94, 99863.95, 99364.09, 0.318, 0.368, 0.864,1.8428677,2.8660307,2.7067795,5.276699,3.689993, 21:48:01.983
, 65803.47, 104291.41, 154200.05, 137548.50, 97645.02, 67261.11, 99857.66, 99414.55, 0.000, 0.000, 0.000,1.8428677,2.8660307,2.7067795,5.276699,3.689993, 21:48:01.983
, 65734.96, 104218.40, 154127.23, 137669.16, 97570.48, 67358.32, 99801.02, 99558.45, 0.000, 0.000, 0.000,1.8428677,2.8660307,2.7067795,5.276699,3.689993, 21:48:01.983
, 65751.25, 104240.27, 154154.39, 137644.00, 97582.98, 67308.43, 99784.45, 99560.61, 0.000, 0.000, 0.000,1.8428677,2.8660307,2.7067795,5.276699,3.689993, 21:48:01.983
, 65835.50, 104330.59, 154248.80, 137501.58, 97677.48, 67188.09, 99863.95, 99385.15, 0.000, 0.000, 0.000,1.8428677,2.8660307,2.7067795,5.276699,3.689993, 21:48:01.983
, 65807.80, 104296.16, 154214.41, 137537.97, 97655.15, 67249.60, 99878.30, 99406.98, 0.000, 0.000, 0.000,1.8428677,2.8660307,2.7067795,5.276699,3.689993, 21:48:01.983
, 65733.73, 104217.87, 154136.17, 137657.44, 97573.43, 67351.98, 99807.45, 99547.24, 0.000, 0.000, 0.000,1.8428677,2.8660307,2.7067795,5.276699,3.689993, 21:48:01.985
, 65736.19, 104222.42, 154141.98, 137670.77, 97563.80, 67333.98, 99775.91, 99591.62, 0.000, 0.000, 0.000,1.8428677,2.8660307,2.7067795,5.276699,3.689993, 21:48:01.985
, 65816.32, 104306.47, 154225.00, 137522.36, 97655.10, 67191.40, 99832.88, 99416.66, 0.000, 0.000, 0.000,1.8428677,2.8660307,2.7067795,5.276699,3.689993, 21:48:01.985
, 65816.48, 104298.66, 154217.13, 137521.70, 97661.90, 67223.31, 99874.90, 99396.95, 0.316, 0.368, 0.864,1.8428677,2.8660307,2.7067795,5.276699,3.689993, 21:48:01.986
, 65740.30, 104219.23, 154136.27, 137639.59, 97584.45, 67327.12, 99825.21, 99529.43, 0.000, 0.000, 0.000,1.8428677,2.8660307,2.7067795,5.276699,3.689993, 21:48:01.986
, 65719.67, 104202.11, 154119.45, 137684.19, 97558.81, 67337.84, 99781.09, 99608.06, 0.000, 0.000, 0.000,1.8428677,2.8660307,2.7067795,5.276699,3.689993, 21:48:01.986
, 65800.92, 104294.55, 154210.95, 137540.98, 97635.86, 67199.89, 99823.42, 99449.48, 0.000, 0.000, 0.000,1.8428677,2.8660307,2.7067795,5.276699,3.689993, 21:48:01.986
, 65829.20, 104312.81, 154230.97, 137505.36, 97666.91, 67200.30, 99884.06, 99384.05, 0.000, 0.000, 0.000,1.8428677,2.8660307,2.7067795,5.276699,3.689993, 21:48:01.986
, 65766.07, 104243.03, 154161.52, 137612.69, 97602.24, 67302.27, 99840.45, 99495.19, 0.000, 0.000, 0.000,1.8428677,2.8660307,2.7067795,5.276699,3.689993, 21:48:01.986
, 65735.16, 104211.80, 154129.53, 137687.91, 97558.25, 67346.02, 99785.25, 99598.32, 0.000, 0.000, 0.000,1.8428677,2.8660307,2.7067795,5.276699,3.689993, 21:48:01.986
, 65795.64, 104285.62, 154201.27, 137571.61, 97615.88, 67218.27, 99803.17, 99476.97, 0.000, 0.000, 0.000,1.8428677,2.8660307,2.7067795,5.276699,3.689993, 21:48:01.986
, 65832.28, 104321.82, 154234.23, 137500.75, 97666.44, 67183.33, 99867.21, 99378.80, 0.000, 0.000, 0.000,1.8428677,2.8660307,2.7067795,5.276699,3.689993, 21:48:01.986
, 65774.41, 104256.13, 154168.61, 137593.00, 97606.04, 67283.30, 99839.83, 99477.93, 0.000, 0.000, 0.000,1.8428677,2.8660307,2.7067795,5.276699,3.689993, 21:48:01.987
, 65726.51, 104204.61, 154120.69, 137684.55, 97557.11, 67350.23, 99792.45, 99599.30, 0.310, 0.364, 0.862,1.8428677,2.8660307,2.7067795,5.276699,3.689993, 21:48:01.987
, 65782.70, 104268.02, 154187.17, 137595.97, 97611.14, 67247.32, 99802.86, 99513.30, 0.000, 0.000, 0.000,1.8428677,2.8660307,2.7067795,5.276699,3.689993, 21:48:01.987
, 65845.47, 104323.23, 154245.16, 137498.31, 97685.41, 67178.59, 99877.56, 99376.61, 0.000, 0.000, 0.000,1.8428677,2.8660307,2.7067795,5.276699,3.689993, 21:48:01.987
, 65784.91, 104254.84, 154176.66, 137581.05, 97620.48, 67272.29, 99848.91, 99462.24, 0.000, 0.000, 0.000,1.8428677,2.8660307,2.7067795,5.276699,3.689993, 21:48:01.987
, 65724.20, 104194.59, 154118.45, 137682.69, 97554.37, 67350.48, 99788.40, 99595.66, 0.000, 0.000, 0.000,1.8428677,2.8660307,2.7067795,5.276699,3.689993, 21:48:01.987
, 65769.09, 104250.92, 154177.09, 137615.89, 97597.70, 67270.19, 99800.00, 99541.41, 0.000, 0.000, 0.000,1.8428677,2.8660307,2.7067795,5.276699,3.689993, 21:48:01.987
, 65827.20, 104310.09, 154238.78, 137495.59, 97673.61, 67176.69, 99873.09, 99383.50, 0.000, 0.000, 0.000,1.8428677,2.8660307,2.7067795,5.276699,3.689993, 21:48:01.987
, 65778.39, 104253.80, 154184.31, 137557.48, 97632.57, 67253.47, 99861.09, 99443.73, 0.000, 0.000, 0.000,1.8428677,2.8660307,2.7067795,5.276699,3.689993, 21:48:01.987
, 65723.98, 104202.47, 154130.94, 137658.41, 97574.64, 67341.38, 99813.88, 99567.54, 0.000, 0.000, 0.000,1.8428677,2.8660307,2.7067795,5.276699,3.689993, 21:48:01.988
, 65742.38, 104225.24, 154159.02, 137646.22, 97586.46, 67305.95, 99801.77, 99570.67, 0.000, 0.000, 0.000,1.8428677,2.8660307,2.7067795,5.276699,3.689993, 21:48:01.988
, 65816.07, 104303.32, 154238.61, 137511.25, 97666.19, 67181.32, 99861.24, 99400.02, 0.314, 0.364, 0.856,1.8428677,2.8660307,2.7067795,5.276699,3.689993, 21:48:01.988
, 65784.73, 104260.34, 154198.22, 137542.77, 97635.14, 67234.05, 99868.13, 99422.12, 0.000, 0.000, 0.000,1.8428677,2.8660307,2.7067795,5.276699,3.689993, 21:48:01.988
, 65717.23, 104191.38, 154128.73, 137654.75, 97564.94, 67329.87, 99811.29, 99556.70, 0.000, 0.000, 0.000,1.8428677,2.8660307,2.7067795,5.276699,3.689993, 21:48:01.988
, 65724.09, 104204.63, 154141.56, 137664.48, 97567.66, 67317.51, 99782.03, 99593.83, 0.000, 0.000, 0.000,1.8428677,2.8660307,2.7067795,5.276699,3.689993, 21:48:01.988
, 65783.59, 104269.23, 154206.88, 137533.09, 97632.59, 67184.91, 99825.26, 99438.70, 0.000, 0.000, 0.000,1.8428677,2.8660307,2.7067795,5.276699,3.689993, 21:48:01.989
, 65781.45, 104265.25, 154198.80, 137525.81, 97634.30, 67208.01, 99851.48, 99419.86, 0.000, 0.000, 0.000,1.8428677,2.8660307,2.7067795,5.276699,3.689993, 21:48:01.989
, 65731.34, 104214.20, 154145.98, 137626.66, 97582.28, 67306.27, 99810.37, 99528.05, 0.000, 0.000, 0.000,1.8428677,2.8660307,2.7067795,5.276699,3.689993, 21:48:01.989
, 65706.84, 104184.85, 154121.42, 137685.05, 97553.31, 67333.45, 99770.05, 99611.73, 0.000, 0.000, 0.000,1.8428677,2.8660307,2.7067795,5.276699,3.689993, 21:48:01.989
, 65780.04, 104266.80, 154205.75, 137547.52, 97631.50, 67194.30, 99811.78, 99457.88, 0.000, 0.000, 0.000,1.8428677,2.8660307,2.7067795,5.276699,3.689993, 21:48:01.990
, 65807.20, 104286.44, 154228.03, 137501.53, 97674.21, 67183.27, 99873.49, 99378.53, 0.312, 0.364, 0.860,1.8428677,2.8660307,2.7067795,5.276699,3.689993, 21:48:01.990
, 65750.60, 104225.91, 154171.83, 137600.31, 97623.30, 67285.34, 99845.55, 99472.70, 0.000, 0.000, 0.000,1.7609777,2.738466,2.4975438,4.9658837,3.5604525, 21:48:01.990
, 65710.84, 104183.02, 154131.34, 137681.36, 97582.82, 67338.12, 99794.88, 99571.95, 0.000, 0.000, 0.000,1.7609777,2.738466,2.4975438,4.9658837,3.5604525, 21:48:01.990
, 65778.05, 104259.35, 154209.34, 137566.22, 97654.63, 67216.70, 99828.23, 99438.75, 0.000, 0.000, 0.000,1.7609777,2.738466,2.4975438,4.9658837,3.5604525, 21:48:01.990
, 65793.12, 104263.42, 154214.88, 137507.97, 97682.24, 67183.22, 99865.58, 99348.85, 0.000, 0.000, 0.000,1.7609777,2.738466,2.4975438,4.9658837,3.5604525, 21:48:01.990
, 65745.22, 104208.01, 154163.03, 137592.86, 97634.74, 67277.01, 99842.31, 99443.06, 0.000, 0.000, 0.000,1.7609777,2.738466,2.4975438,4.9658837,3.5604525, 21:48:01.990
, 65710.70, 104169.74, 154127.34, 137680.13, 97599.42, 67344.62, 99805.81, 99553.99, 0.000, 0.000, 0.000,1.7609777,2.738466,2.4975438,4.9658837,3.5604525, 21:48:01.990
, 65749.73, 104217.55, 154178.27, 137602.39, 97641.11, 67247.19, 99803.87, 99474.16, 0.000, 0.000, 0.000,1.7609777,2.738466,2.4975438,4.9658837,3.5604525, 21:48:01.990
, 65813.59, 104281.68, 154240.08, 137494.42, 97717.33, 67166.30, 99876.94, 99325.00, 0.000, 0.000, 0.000,1.7609777,2.738466,2.4975438,4.9658837,3.5604525, 21:48:01.990
, 65765.96, 104222.80, 154184.83, 137567.92, 97672.09, 67254.05, 99861.94, 99392.98, 0.000, 0.000, 0.000,1.7609777,2.738466,2.4975438,4.9658837,3.5604525, 21:48:01.990
, 65712.49, 104162.91, 154129.78, 137672.72, 97615.85, 67337.47, 99813.09, 99518.95, 0.314, 0.368, 0.862,1.7609777,2.738466,2.4975438,4.9658837,3.5604525, 21:48:01.990
, 65741.98, 104194.73, 154164.64, 137627.33, 97636.20, 67272.27, 99802.41, 99488.15, 0.000, 0.000, 0.000,1.7609777,2.738466,2.4975438,4.9658837,3.5604525, 21:48:01.990
, 65796.91, 104250.01, 154219.25, 137501.09, 97705.15, 67167.86, 99861.63, 99330.97, 0.000, 0.000, 0.000,1.7609777,2.738466,2.4975438,4.9658837,3.5604525, 21:48:01.991
, 65781.52, 104225.40, 154198.67, 137538.14, 97698.06, 67232.62, 99874.05, 99355.24, 0.000, 0.000, 0.000,1.7609777,2.738466,2.4975438,4.9658837,3.5604525, 21:48:01.991
, 65725.68, 104162.45, 154140.00, 137656.30, 97637.29, 67331.63, 99830.02, 99481.20, 0.000, 0.000, 0.000,1.7609777,2.738466,2.4975438,4.9658837,3.5604525, 21:48:01.991
, 65731.36, 104172.58, 154151.53, 137651.41, 97638.61, 67302.53, 99812.60, 99492.39, 0.000, 0.000, 0.000,1.7609777,2.738466,2.4975438,4.9658837,3.5604525, 21:48:01.991
, 65800.76, 104243.95, 154224.73, 137511.91, 97713.46, 67173.49, 99863.99, 99316.09, 0.000, 0.000, 0.000,1.7609777,2.738466,2.4975438,4.9658837,3.5604525, 21:48:01.991
, 65784.91, 104214.83, 154199.20, 137533.47, 97700.27, 67219.29, 99879.80, 99318.63, 0.000, 0.000, 0.000,1.7609777,2.738466,2.4975438,4.9658837,3.5604525, 21:48:01.991
, 65716.45, 104142.90, 154129.75, 137647.30, 97635.41, 67320.59, 99838.00, 99441.74, 0.000, 0.000, 0.000,1.7609777,2.738466,2.4975438,4.9658837,3.5604525, 21:48:01.992
, 65697.30, 104124.21, 154113.31, 137684.89, 97608.81, 67329.17, 99798.39, 99512.89, 0.316, 0.370, 0.864,1.7609777,2.738466,2.4975438,4.9658837,3.5604525, 21:48:01.992
, 65773.83, 104207.59, 154197.61, 137539.38, 97694.15, 67187.73, 99842.87, 99348.77, 0.000, 0.000, 0.000,1.7609777,2.738466,2.4975438,4.9658837,3.5604525, 21:48:01.992
, 65778.86, 104205.77, 154197.84, 137522.56, 97710.02, 67203.06, 99881.12, 99313.00, 0.000, 0.000, 0.000,1.7609777,2.738466,2.4975438,4.9658837,3.5604525, 21:48:01.993
, 65721.68, 104145.06, 154140.91, 137625.50, 97651.33, 67303.02, 99844.88, 99425.00, 0.000, 0.000, 0.000,1.7609777,2.738466,2.4975438,4.9658837,3.5604525, 21:48:01.993
, 65702.01, 104122.36, 154122.41, 137688.38, 97624.17, 67335.55, 99810.84, 99513.30, 0.000, 0.000, 0.000,1.7609777,2.738466,2.4975438,4.9658837,3.5604525, 21:48:01.993
, 65773.83, 104198.66, 154199.97, 137559.92, 97697.84, 67200.36, 99840.03, 99370.11, 0.000, 0.000, 0.000,1.7609777,2.738466,2.4975438,4.9658837,3.5604525, 21:48:01.993
, 65813.16, 104225.71, 154228.23, 137501.02, 97744.47, 67180.20, 99896.07, 99278.00, 0.000, 0.000, 0.000,1.7609777,2.738466,2.4975438,4.9658837,3.5604525, 21:48:01.993
, 65749.13, 104154.14, 154158.67, 137600.34, 97680.16, 67283.09, 99859.16, 99377.53, 0.000, 0.000, 0.000,1.7609777,2.738466,2.4975438,4.9658837,3.5604525, 21:48:01.993
, 65706.77, 104111.31, 154119.34, 137688.80, 97633.40, 67340.51, 99818.22, 99498.90, 0.000, 0.000, 0.000,1.7609777,2.738466,2.4975438,4.9658837,3.5604525, 21:48:01.993
, 65773.98, 104188.25, 154201.17, 137576.70, 97704.12, 67219.38, 99851.25, 99376.30, 0.000, 0.000, 0.000,1.7609777,2.738466,2.4975438,4.9658837,3.5604525, 21:48:01.993
, 65808.00, 104216.68, 154231.14, 137499.34, 97750.99, 67167.30, 99900.80, 99262.17, 0.316, 0.370, 0.862,1.7609777,2.738466,2.4975438,4.9658837,3.5604525, 21:48:01.993
, 65756.44, 104158.12, 154171.98, 137586.34, 97693.64, 67263.80, 99862.80, 99346.66, 0.000, 0.000, 0.000,1.7609777,2.738466,2.4975438,4.9658837,3.5604525, 21:48:01.994
, 65701.12, 104099.94, 154116.38, 137688.58, 97632.39, 67338.30, 99806.34, 99472.99, 0.000, 0.000, 0.000,1.7609777,2.738466,2.4975438,4.9658837,3.5604525, 21:48:01.994
, 65760.80, 104166.63, 154184.41, 137605.56, 97690.53, 67243.90, 99827.85, 99388.23, 0.000, 0.000, 0.000,1.7609777,2.738466,2.4975438,4.9658837,3.5604525, 21:48:01.994
, 65813.23, 104211.97, 154229.77, 137502.94, 97751.95, 67162.81, 99889.92, 99243.55, 0.000, 0.000, 0.000,1.7609777,2.738466,2.4975438,4.9658837,3.5604525, 21:48:01.994
, 65779.70, 104170.62, 154191.42, 137564.50, 97718.45, 67243.03, 99884.80, 99299.25, 0.000, 0.000, 0.000,1.7609777,2.738466,2.4975438,4.9658837,3.5604525, 21:48:01.994
, 65711.94, 104097.37, 154124.28, 137681.05, 97654.92, 67334.20, 99836.68, 99436.16, 0.000, 0.000, 0.000,1.8488557,2.921648,2.5219429,3.8766022,3.3078685, 21:48:02.456
, 65738.34, 104126.13, 154157.00, 137646.75, 97673.68, 67275.98, 99824.50, 99421.31, 0.000, 0.000, 0.000,1.8488557,2.921648,2.5219429,3.8766022,3.3078685, 21:48:02.456
, 65791.91, 104177.88, 154207.39, 137518.88, 97730.72, 67163.16, 99868.98, 99268.81, 0.000, 0.000, 0.000,1.8488557,2.921648,2.5219429,3.8766022,3.3078685, 21:48:02.456
, 65769.02, 104145.02, 154176.34, 137552.20, 97711.56, 67225.26, 99871.48, 99303.09, 0.320, 0.368, 0.864,1.8488557,2.921648,2.5219429,3.8766022,3.3078685, 21:48:02.456
, 65716.72, 104086.70, 154121.89, 137660.33, 97657.80, 67324.05, 99826.38, 99427.82, 0.000, 0.000, 0.000,1.8488557,2.921648,2.5219429,3.8766022,3.3078685, 21:48:02.457
, 65730.04, 104102.02, 154138.58, 137662.44, 97657.41, 67306.06, 99804.65, 99448.83, 0.000, 0.000, 0.000,1.8488557,2.921648,2.5219429,3.8766022,3.3078685, 21:48:02.457
, 65793.05, 104169.95, 154206.72, 137526.75, 97728.80, 67181.52, 99853.51, 99285.30, 0.000, 0.000, 0.000,1.8488557,2.921648,2.5219429,3.8766022,3.3078685, 21:48:02.457
, 65790.23, 104159.64, 154202.59, 137531.28, 97734.01, 67219.77, 99886.21, 99273.84, 0.000, 0.000, 0.000,1.8488557,2.921648,2.5219429,3.8766022,3.3078685, 21:48:02.457
, 65740.61, 104107.91, 154152.36, 137636.00, 97679.83, 67325.46, 99857.29, 99380.23, 0.000, 0.000, 0.000,1.8488557,2.921648,2.5219429,3.8766022,3.3078685, 21:48:02.457
, 65714.73, 104080.42, 154124.27, 137687.39, 97644.53, 67348.11, 99812.59, 99455.65, 0.000, 0.000, 0.000,1.8488557,2.921648,2.5219429,3.8766022,3.3078685, 21:48:02.457
, 65776.51, 104149.72, 154194.22, 137554.38, 97704.70, 67213.86, 99845.38, 99309.00, 0.000, 0.000, 0.000,1.8488557,2.921648,2.5219429,3.8766022,3.3078685, 21:48:02.457
, 65794.62, 104163.28, 154209.73, 137525.94, 97731.93, 67216.92, 99889.20, 99263.20, 0.000, 0.000, 0.000,1.8488557,2.921648,2.5219429,3.8766022,3.3078685, 21:48:02.457
, 65744.28, 104103.29, 154155.38, 137627.89, 97681.12, 67317.88, 99856.26, 99371.23, 0.000, 0.000, 0.000,1.8488557,2.921648,2.5219429,3.8766022,3.3078685, 21:48:02.457
, 65721.15, 104078.80, 154132.38, 137693.77, 97648.45, 67359.91, 99816.67, 99462.91, 0.322, 0.370, 0.860,1.8488557,2.921648,2.5219429,3.8766022,3.3078685, 21:48:02.458
, 65783.46, 104150.90, 154207.27, 137576.41, 97710.70, 67236.57, 99841.57, 99334.99, 0.000, 0.000, 0.000,1.8488557,2.921648,2.5219429,3.8766022,3.3078685, 21:48:02.458
, 65816.59, 104175.29, 154234.08, 137521.06, 97752.52, 67208.30, 99901.70, 99247.89, 0.000, 0.000, 0.000,1.8488557,2.921648,2.5219429,3.8766022,3.3078685, 21:48:02.458
, 65752.82, 104104.41, 154162.77, 137616.52, 97681.61, 67306.78, 99857.45, 99351.53, 0.000, 0.000, 0.000,1.8488557,2.921648,2.5219429,3.8766022,3.3078685, 21:48:02.458
, 65705.61, 104055.34, 154113.42, 137709.52, 97627.14, 67371.09, 99806.48, 99477.87, 0.000, 0.000, 0.000,1.8488557,2.921648,2.5219429,3.8766022,3.3078685, 21:48:02.458
, 65764.66, 104120.93, 154180.97, 137615.91, 97682.91, 67261.85, 99823.36, 99392.26, 0.000, 0.000, 0.000,1.8488557,2.921648,2.5219429,3.8766022,3.3078685, 21:48:02.458
, 65829.28, 104179.11, 154249.41, 137516.91, 97764.20, 67196.41, 99908.30, 99256.74, 0.000, 0.000, 0.000,1.8488557,2.921648,2.5219429,3.8766022,3.3078685, 21:48:02.458
, 65765.47, 104110.16, 154181.55, 137603.34, 97702.29, 67291.55, 99881.72, 99344.70, 0.000, 0.000, 0.000,1.8488557,2.921648,2.5219429,3.8766022,3.3078685, 21:48:02.458
, 65710.95, 104052.77, 154114.36, 137709.11, 97627.92, 67367.17, 99814.33, 99481.55, 0.000, 0.000, 0.000,1.8488557,2.921648,2.5219429,3.8766022,3.3078685, 21:48:02.459
, 65777.41, 104129.33, 154182.66, 137633.03, 97678.41, 67280.13, 99804.18, 99413.56, 0.000, 0.000, 0.000,1.8488557,2.921648,2.5219429,3.8766022,3.3078685, 21:48:02.459
, 65841.76, 104194.62, 154237.56, 137514.41, 97741.96, 67188.70, 99866.95, 99254.35, 0.312, 0.368, 0.866,1.8488557,2.921648,2.5219429,3.8766022,3.3078685, 21:48:02.459
, 65817.03, 104167.53, 154203.06, 137565.86, 97710.71, 67264.16, 99865.73, 99295.92, 0.000, 0.000, 0.000,1.8488557,2.921648,2.5219429,3.8766022,3.3078685, 21:48:02.459
, 65760.71, 104109.70, 154142.67, 137687.84, 97652.13, 67364.13, 99827.76, 99431.89, 0.000, 0.000, 0.000,1.8488557,2.921648,2.5219429,3.8766022,3.3078685, 21:48:02.459
, 65783.41, 104144.13, 154169.30, 137666.27, 97665.70, 67314.98, 99805.52, 99425.07, 0.000, 0.000, 0.000,1.8488557,2.921648,2.5219429,3.8766022,3.3078685, 21:48:02.459
, 65860.35, 104223.59, 154241.56, 137534.70, 97744.09, 67194.28, 99866.61, 99258.98, 0.000, 0.000, 0.000,1.8488557,2.921648,2.5219429,3.8766022,3.3078685, 21:48:02.459
, 65846.94, 104204.23, 154223.25, 137567.45, 97730.61, 67252.02, 99885.67, 99279.70, 0.000, 0.000, 0.000,1.8488557,2.921648,2.5219429,3.8766022,3.3078685, 21:48:02.459
, 65788.38, 104148.04, 154161.88, 137677.53, 97669.45, 67348.87, 99840.50, 99401.02, 0.000, 0.000, 0.000,1.8488557,2.921648,2.5219429,3.8766022,3.3078685, 21:48:02.459
, 65781.77, 104141.52, 154157.72, 137690.86, 97652.80, 67339.75, 99804.13, 99436.67, 0.000, 0.000, 0.000,1.8488557,2.921648,2.5219429,3.8766022,3.3078685, 21:48:02.460
, 65857.76, 104226.59, 154242.72, 137549.13, 97734.05, 67207.13, 99856.91, 99262.46, 0.000, 0.000, 0.000,1.8488557,2.921648,2.5219429,3.8766022,3.3078685, 21:48:02.460
, 65852.13, 104213.59, 154228.86, 137553.22, 97734.25, 67238.56, 99889.16, 99240.49, 0.312, 0.362, 0.872,1.8488557,2.921648,2.5219429,3.8766022,3.3078685, 21:48:02.460
, 65770.72, 104128.33, 154147.38, 137666.64, 97651.68, 67335.61, 99829.17, 99368.81, 0.000, 0.000, 0.000,1.8488557,2.921648,2.5219429,3.8766022,3.3078685, 21:48:02.460
, 65761.78, 104117.51, 154141.89, 137715.38, 97640.69, 67356.89, 99808.18, 99448.59, 0.000, 0.000, 0.000,1.8488557,2.921648,2.5219429,3.8766022,3.3078685, 21:48:02.460
, 65820.30, 104185.79, 154214.00, 137583.75, 97710.06, 67225.91, 99842.20, 99305.09, 0.000, 0.000, 0.000,1.8488557,2.921648,2.5219429,3.8766022,3.3078685, 21:48:02.460
, 65823.92, 104180.94, 154215.36, 137550.48, 97728.35, 67224.19, 99884.27, 99255.13, 0.000, 0.000, 0.000,1.8488557,2.921648,2.5219429,3.8766022,3.3078685, 21:48:02.460
, 65770.37, 104121.26, 154158.55, 137649.09, 97670.68, 67324.55, 99852.70, 99364.23, 0.000, 0.000, 0.000,1.8488557,2.921648,2.5219429,3.8766022,3.3078685, 21:48:02.460
, 65734.78, 104084.74, 154126.58, 137718.91, 97630.54, 67370.08, 99805.20, 99467.12, 0.000, 0.000, 0.000,1.8488557,2.921648,2.5219429,3.8766022,3.3078685, 21:48:02.460
, 65807.69, 104166.23, 154211.81, 137591.39, 97702.51, 67240.64, 99827.58, 99328.63, 0.000, 0.000, 0.000,1.8488557,2.921648,2.5219429,3.8766022,3.3078685, 21:48:02.461
, 65849.58, 104200.01, 154243.02, 137537.55, 97743.66, 67215.02, 99890.10, 99239.84, 0.000, 0.000, 0.000,1.8488557,2.921648,2.5219429,3.8766022,3.3078685, 21:48:02.461
, 65795.48, 104143.21, 154182.48, 137630.11, 97687.31, 67311.29, 99864.38, 99338.57, 0.000, 0.000, 0.000,1.8488557,2.921648,2.5219429,3.8766022,3.3078685, 21:48:02.461
, 65754.00, 104099.70, 154139.50, 137722.84, 97639.50, 67378.37, 99821.41, 99458.09, 0.316, 0.362, 0.872,1.8488557,2.921648,2.5219429,3.8766022,3.3078685, 21:48:02.461
, 65822.84, 104180.60, 154216.95, 137630.77, 97700.59, 67277.38, 99842.38, 99361.26, 0.000, 0.000, 0.000,1.8488557,2.921648,2.5219429,3.8766022,3.3078685, 21:48:02.461
, 65878.84, 104235.68, 154268.69, 137531.67, 97761.70, 67205.39, 99903.40, 99217.34, 0.000, 0.000, 0.000,1.8488557,2.921648,2.5219429,3.8766022,3.3078685, 21:48:02.461
, 65831.56, 104181.74, 154212.30, 137608.88, 97707.43, 67292.83, 99878.12, 99289.51, 0.000, 0.000, 0.000,1.8488557,2.921648,2.5219429,3.8766022,3.3078685, 21:48:02.462
, 65768.87, 104114.02, 154143.48, 137721.75, 97633.11, 67379.35, 99807.94, 99429.66, 0.000, 0.000, 0.000,1.8488557,2.921648,2.5219429,3.8766022,3.3078685, 21:48:02.462
, 65803.24, 104157.29, 154188.94, 137666.05, 97660.34, 67306.55, 99807.22, 99387.84, 0.000, 0.000, 0.000,1.8488557,2.921648,2.5219429,3.8766022,3.3078685, 21:48:02.462
, 65869.56, 104225.04, 154258.08, 137550.06, 97736.51, 67209.75, 99882.37, 99237.90, 0.000, 0.000, 0.000,1.8488557,2.921648,2.5219429,3.8766022,3.3078685, 21:48:02.462
, 65842.05, 104189.97, 154222.92, 137605.63, 97703.79, 67282.95, 99877.74, 99290.34, 0.000, 0.000, 0.000,1.8488557,2.921648,2.5219429,3.8766022,3.3078685, 21:48:02.462
, 65781.85, 104127.38, 154161.36, 137719.20, 97637.96, 67381.08, 99823.94, 99421.59, 0.000, 0.000, 0.000,1.8488557,2.921648,2.5219429,3.8766022,3.3078685, 21:48:02.463
, 65794.16, 104145.55, 154180.14, 137712.02, 97643.16, 67352.09, 99811.48, 99439.64, 0.316, 0.356, 0.864,1.8488557,2.921648,2.5219429,3.8766022,3.3078685, 21:48:02.463
, 65862.32, 104216.46, 154249.81, 137569.55, 97719.74, 67229.95, 99869.89, 99266.69, 0.000, 0.000, 0.000,1.8488557,2.921648,2.5219429,3.8766022,3.3078685, 21:48:02.463
, 65846.20, 104192.25, 154223.92, 137595.41, 97703.98, 67282.57, 99884.06, 99282.96, 0.000, 0.000, 0.000,1.8488557,2.921648,2.5219429,3.8766022,3.3078685, 21:48:02.463
, 65805.66, 104153.45, 154182.42, 137699.48, 97657.47, 67381.99, 99856.26, 99397.29, 0.000, 0.000, 0.000,1.8488557,2.921648,2.5219429,3.8766022,3.3078685, 21:48:02.463
, 65798.66, 104154.99, 154181.97, 137720.36, 97644.24, 67381.39, 99825.44, 99435.11, 0.000, 0.000, 0.000,1.8488557,2.921648,2.5219429,3.8766022,3.3078685, 21:48:02.463
, 65859.62, 104222.09, 154248.33, 137591.09, 97703.47, 67252.91, 99856.82, 99282.18, 0.000, 0.000, 0.000,1.8488557,2.921648,2.5219429,3.8766022,3.3078685, 21:48:02.463
