%OpenBCI Raw EEG Data
%
%Sample Rate = 250.0 Hz
%First Column = SampleIndex
%5 Columns before Timestamp are Frequency Power factors DELTA THETA ALPHA BETA GAMMA
%Last Column = Timestamp 
%Other Columns = EEG data in microvolts followed by Accel Data (in G) interleaved with Aux Data
0.000000, 0.000000, 0.000000, 0.000000, 0.000000, 0.000000, 0.000000, 0.000000, 0.000, 0.000, 0.000,0.0,0.0,0.0,0.0,0.0, 13:25:51.509
65949.625000, 92103.531250, 144977.906250, 117116.835938, 131456.750000, 121790.382813, 117155.164063, 124758.539063, 0.000, 0.000, 0.000,0.0,0.0,0.0,0.0,0.0, 13:25:51.993
65995.468750, 92155.929688, 144924.921875, 117013.320313, 131461.125000, 121741.273438, 117109.007813, 124746.468750, 0.000, 0.000, 0.000,0.0,0.0,0.0,0.0,0.0, 13:25:51.993
66044.015625, 92208.007813, 144901.593750, 116967.500000, 131496.359375, 121742.953125, 117067.656250, 124771.812500, 0.000, 0.000, 0.000,0.0,0.0,0.0,0.0,0.0, 13:25:51.994
66002.125000, 92162.562500, 144947.734375, 117065.718750, 131494.125000, 121793.914063, 117110.265625, 124786.343750, 0.000, 0.000, 0.000,0.0,0.0,0.0,0.0,0.0, 13:25:51.995
65959.929688, 92108.718750, 144977.125000, 117125.953125, 131460.937500, 121799.679688, 117152.195313, 124765.734375, 0.000, 0.000, 0.000,0.0,0.0,0.0,0.0,0.0, 13:25:51.995
65994.437500, 92151.812500, 144936.031250, 117040.414063, 131462.421875, 121753.992188, 117125.351563, 124751.585938, 0.000, 0.000, 0.000,0.0,0.0,0.0,0.0,0.0, 13:25:51.996
66046.226563, 92207.875000, 144899.812500, 116965.062500, 131486.078125, 121733.968750, 117068.687500, 124763.562500, 0.000, 0.000, 0.000,0.0,0.0,0.0,0.0,0.0, 13:25:51.997
66013.773438, 92173.156250, 144935.968750, 117047.789063, 131489.296875, 121782.312500, 117094.703125, 124782.898438, 0.000, 0.000, 0.000,0.0,0.0,0.0,0.0,0.0, 13:25:51.997
65957.781250, 92110.171875, 144982.437500, 117133.195313, 131456.453125, 121798.429688, 117148.976563, 124763.835938, 0.000, 0.000, 0.000,0.0,0.0,0.0,0.0,0.0, 13:25:51.998
65976.914063, 92135.476563, 144946.828125, 117060.820313, 131449.859375, 121756.359375, 117132.031250, 124745.328125, 0.000, 0.000, 0.000,0.0,0.0,0.0,0.0,0.0, 13:25:51.999
66028.546875, 92196.023438, 144897.718750, 116961.445313, 131476.640625, 121727.726563, 117073.156250, 124754.734375, 0.000, 0.000, 0.000,0.0,0.0,0.0,0.0,0.0, 13:25:51.999
66016.593750, 92175.664063, 144923.984375, 117019.671875, 131487.796875, 121770.625000, 117085.476563, 124778.140625, 0.000, 0.000, 0.000,0.0,0.0,0.0,0.0,0.0, 13:25:52.000
65958.523438, 92107.062500, 144973.968750, 117118.148438, 131458.000000, 121798.984375, 117140.617188, 124766.921875, 0.000, 0.000, 0.000,0.0,0.0,0.0,0.0,0.0, 13:25:52.001
65958.187500, 92108.585938, 144955.796875, 117069.156250, 131437.843750, 121758.421875, 117135.476563, 124737.664063, 0.000, 0.000, 0.000,0.0,0.0,0.0,0.0,0.0, 13:25:52.001
66028.210938, 92186.812500, 144896.593750, 116960.304688, 131470.281250, 121725.718750, 117076.648438, 124747.453125, 0.000, 0.000, 0.000,0.0,0.0,0.0,0.0,0.0, 13:25:52.002
66036.507813, 92193.968750, 144914.453125, 116998.484375, 131498.843750, 121765.953125, 117079.664063, 124780.484375, 0.000, 0.000, 0.000,0.0,0.0,0.0,0.0,0.0, 13:25:52.003
65985.742188, 92130.445313, 144979.484375, 117112.562500, 131481.812500, 121806.968750, 117142.960938, 124778.695313, 0.000, 0.000, 0.000,0.0,0.0,0.0,0.0,0.0, 13:25:52.003
65968.375000, 92112.007813, 144975.875000, 117094.414063, 131454.625000, 121776.453125, 117151.609375, 124749.304688, 0.000, 0.000, 0.000,0.0,0.0,0.0,0.0,0.0, 13:25:52.004
66023.609375, 92174.859375, 144914.828125, 116981.250000, 131468.515625, 121730.546875, 117091.773438, 124745.171875, 0.000, 0.000, 0.000,0.0,0.0,0.0,0.0,0.0, 13:25:52.004
66048.867188, 92203.421875, 144911.562500, 116985.984375, 131495.234375, 121755.242188, 117067.953125, 124775.078125, 0.000, 0.000, 0.000,0.0,0.0,0.0,0.0,0.0, 13:25:52.005
65988.718750, 92137.843750, 144966.406250, 117100.492188, 131481.000000, 121800.398438, 117125.906250, 124779.414063, 0.000, 0.000, 0.000,0.0,0.0,0.0,0.0,0.0, 13:25:52.006
65959.015625, 92104.742188, 144980.546875, 117115.156250, 131457.750000, 121784.593750, 117162.812500, 124755.500000, 0.000, 0.000, 0.000,0.0,0.0,0.0,0.0,0.0, 13:25:52.006
66008.859375, 92162.367188, 144921.062500, 116998.992188, 131471.140625, 121738.031250, 117111.828125, 124749.531250, 0.000, 0.000, 0.000,0.0,0.0,0.0,0.0,0.0, 13:25:52.007
66045.046875, 92202.906250, 144899.140625, 116964.906250, 131495.734375, 121747.398438, 117068.617188, 124774.382813, 0.000, 0.000, 0.000,0.0,0.0,0.0,0.0,0.0, 13:25:52.007
65995.625000, 92147.570313, 144955.015625, 117077.718750, 131486.968750, 121798.164063, 117119.335938, 124786.406250, 0.000, 0.000, 0.000,0.0,0.0,0.0,0.0,0.0, 13:25:52.008
65954.656250, 92098.015625, 144979.015625, 117116.585938, 131451.359375, 121788.953125, 117153.937500, 124757.289063, 0.000, 0.000, 0.000,0.0,0.0,0.0,0.0,0.0, 13:25:52.008
66000.226563, 92151.726563, 144924.140625, 117014.281250, 131456.171875, 121739.375000, 117109.257813, 124745.125000, 0.000, 0.000, 0.000,0.0,0.0,0.0,0.0,0.0, 13:25:52.009
66048.265625, 92205.367188, 144893.328125, 116959.789063, 131489.765625, 121735.421875, 117062.812500, 124767.054688, 0.000, 0.000, 0.000,0.0,0.0,0.0,0.0,0.0, 13:25:52.010
66010.664063, 92158.046875, 144944.109375, 117060.593750, 131488.046875, 121787.117188, 117101.765625, 124781.984375, 0.000, 0.000, 0.000,0.0,0.0,0.0,0.0,0.0, 13:25:52.010
65958.007813, 92097.765625, 144986.546875, 117131.046875, 131460.187500, 121796.867188, 117157.359375, 124763.562500, 0.000, 0.000, 0.000,0.0,0.0,0.0,0.0,0.0, 13:25:52.011
65984.515625, 92130.960938, 144948.156250, 117043.320313, 131455.093750, 121748.648438, 117129.890625, 124744.992188, 0.000, 0.000, 0.000,0.0,0.0,0.0,0.0,0.0, 13:25:52.011
66044.796875, 92202.328125, 144897.796875, 116958.804688, 131483.968750, 121731.101563, 117066.632813, 124760.460938, 0.000, 0.000, 0.000,0.0,0.0,0.0,0.0,0.0, 13:25:52.011
66024.031250, 92178.125000, 144934.031250, 117039.476563, 131494.921875, 121784.640625, 117094.882813, 124787.101563, 0.000, 0.000, 0.000,0.0,0.0,0.0,0.0,0.0, 13:25:52.012
65963.882813, 92112.117188, 144982.625000, 117131.046875, 131467.390625, 121804.398438, 117153.265625, 124773.734375, 0.000, 0.000, 0.000,0.0,0.0,0.0,0.0,0.0, 13:25:52.012
65979.976563, 92126.984375, 144951.968750, 117064.593750, 131450.562500, 121759.359375, 117133.953125, 124747.609375, 0.000, 0.000, 0.000,0.0,0.0,0.0,0.0,0.0, 13:25:52.013
66044.593750, 92205.343750, 144898.390625, 116966.476563, 131479.812500, 121733.875000, 117073.937500, 124761.132813, 0.000, 0.000, 0.000,0.0,0.0,0.0,0.0,0.0, 13:25:52.013
66038.609375, 92198.015625, 144922.140625, 117022.578125, 131498.421875, 121780.812500, 117086.859375, 124791.953125, 0.000, 0.000, 0.000,0.0,0.0,0.0,0.0,0.0, 13:25:52.014
65975.328125, 92120.406250, 144975.515625, 117125.750000, 131470.968750, 121809.937500, 117148.546875, 124781.781250, 0.000, 0.000, 0.000,0.0,0.0,0.0,0.0,0.0, 13:25:52.014
65971.015625, 92117.015625, 144964.203125, 117086.835938, 131447.296875, 121770.531250, 117146.585938, 124749.710938, 0.000, 0.000, 0.000,0.0,0.0,0.0,0.0,0.0, 13:25:52.015
66033.218750, 92187.398438, 144901.125000, 116971.007813, 131473.093750, 121730.632813, 117083.281250, 124752.367188, 0.000, 0.000, 0.000,0.0,0.0,0.0,0.0,0.0, 13:25:52.015
66042.273438, 92200.203125, 144914.484375, 116998.679688, 131498.484375, 121765.679688, 117077.382813, 124784.796875, 0.000, 0.000, 0.000,0.0,0.0,0.0,0.0,0.0, 13:25:52.015
65979.531250, 92130.289063, 144969.984375, 117108.765625, 131475.140625, 121801.960938, 117136.835938, 124779.968750, 0.000, 0.000, 0.000,0.0,0.0,0.0,0.0,0.0, 13:25:52.015
65961.492188, 92110.242188, 144967.015625, 117098.328125, 131452.218750, 121774.671875, 117154.226563, 124753.843750, 0.000, 0.000, 0.000,0.0,0.0,0.0,0.0,0.0, 13:25:52.016
66013.015625, 92175.773438, 144906.781250, 116982.140625, 131470.437500, 121730.726563, 117095.171875, 124751.828125, 0.000, 0.000, 0.000,0.0,0.0,0.0,0.0,0.0, 13:25:52.016
66034.203125, 92202.750000, 144905.375000, 116981.429688, 131501.921875, 121752.851563, 117075.101563, 124780.085938, 0.000, 0.000, 0.000,0.0,0.0,0.0,0.0,0.0, 13:25:52.016
65978.007813, 92129.531250, 144955.578125, 117091.171875, 131478.906250, 121798.382813, 117121.906250, 124782.117188, 0.000, 0.000, 0.000,0.0,0.0,0.0,0.0,0.0, 13:25:52.017
65949.023438, 92090.882813, 144967.828125, 117106.062500, 131450.515625, 121783.453125, 117151.812500, 124755.296875, 0.000, 0.000, 0.000,0.0,0.0,0.0,0.0,0.0, 13:25:52.017
66001.500000, 92158.828125, 144908.093750, 116995.375000, 131468.750000, 121741.343750, 117106.867188, 124753.507813, 0.000, 0.000, 0.000,0.0,0.0,0.0,0.0,0.0, 13:25:52.024
66040.554688, 92203.312500, 144890.062500, 116963.593750, 131501.171875, 121750.437500, 117075.843750, 124781.156250, 0.000, 0.000, 0.000,0.0,0.0,0.0,0.0,0.0, 13:25:52.024
65992.828125, 92149.734375, 144941.921875, 117071.187500, 131496.468750, 121800.820313, 117131.898438, 124793.960938, 0.000, 0.000, 0.000,0.0,0.0,0.0,0.0,0.0, 13:25:52.025
65953.648438, 92102.351563, 144967.671875, 117114.289063, 131463.687500, 121801.398438, 117169.046875, 124772.773438, 0.000, 0.000, 0.000,0.0,0.0,0.0,0.0,0.0, 13:25:52.025
65989.898438, 92145.914063, 144921.046875, 117012.875000, 131455.609375, 121747.867188, 117116.742188, 124752.281250, 0.000, 0.000, 0.000,0.0,0.0,0.0,0.0,0.0, 13:25:52.026
66040.351563, 92201.859375, 144884.421875, 116948.257813, 131483.062500, 121734.125000, 117065.109375, 124767.679688, 0.000, 0.000, 0.000,0.0,0.0,0.0,0.0,0.0, 13:25:52.026
66010.781250, 92168.687500, 144931.609375, 117048.570313, 131486.687500, 121784.640625, 117101.117188, 124784.937500, 0.000, 0.000, 0.000,0.0,0.0,0.0,0.0,0.0, 13:25:52.027
65960.890625, 92108.226563, 144977.640625, 117126.843750, 131454.203125, 121793.242188, 117151.343750, 124761.601563, 0.000, 0.000, 0.000,0.0,0.0,0.0,0.0,0.0, 13:25:52.027
65986.796875, 92138.179688, 144937.921875, 117043.921875, 131450.984375, 121746.234375, 117122.312500, 124741.125000, 0.000, 0.000, 0.000,0.0,0.0,0.0,0.0,0.0, 13:25:52.027
66045.382813, 92206.507813, 144893.546875, 116959.546875, 131483.156250, 121728.000000, 117067.523438, 124759.539063, 0.000, 0.000, 0.000,0.0,0.0,0.0,0.0,0.0, 13:25:52.028
66027.585938, 92183.062500, 144929.843750, 117036.906250, 131503.421875, 121781.843750, 117102.726563, 124789.960938, 0.000, 0.000, 0.000,5.8336345E-6,7.727453E-6,9.498529E-6,2.9882081E-5,3.795004E-5, 13:25:52.028
65971.148438, 92119.000000, 144975.843750, 117128.476563, 131477.203125, 121809.828125, 117161.601563, 124781.046875, 0.000, 0.000, 0.000,5.8336345E-6,7.727453E-6,9.498529E-6,2.9882081E-5,3.795004E-5, 13:25:52.028
65977.632813, 92128.453125, 144948.578125, 117066.875000, 131459.671875, 121767.046875, 117142.492188, 124754.445313, 0.000, 0.000, 0.000,5.8336345E-6,7.727453E-6,9.498529E-6,2.9882081E-5,3.795004E-5, 13:25:52.029
66038.203125, 92198.351563, 144897.484375, 116962.828125, 131488.515625, 121737.429688, 117083.242188, 124765.781250, 0.000, 0.000, 0.000,5.8336345E-6,7.727453E-6,9.498529E-6,2.9882081E-5,3.795004E-5, 13:25:52.030
66032.570313, 92192.046875, 144920.078125, 117010.125000, 131513.062500, 121783.656250, 117094.460938, 124799.171875, 0.000, 0.000, 0.000,5.8336345E-6,7.727453E-6,9.498529E-6,2.9882081E-5,3.795004E-5, 13:25:52.030
65975.710938, 92124.476563, 144975.828125, 117117.414063, 131483.578125, 121818.320313, 117151.656250, 124793.453125, 0.000, 0.000, 0.000,5.8336345E-6,7.727453E-6,9.498529E-6,2.9882081E-5,3.795004E-5, 13:25:52.031
65975.015625, 92125.953125, 144968.484375, 117086.859375, 131464.125000, 121782.179688, 117154.296875, 124764.210938, 0.000, 0.000, 0.000,5.8336345E-6,7.727453E-6,9.498529E-6,2.9882081E-5,3.795004E-5, 13:25:52.031
66029.218750, 92189.875000, 144915.515625, 116976.148438, 131487.421875, 121741.164063, 117096.132813, 124765.445313, 0.000, 0.000, 0.000,5.8336345E-6,7.727453E-6,9.498529E-6,2.9882081E-5,3.795004E-5, 13:25:52.032
66044.953125, 92202.929688, 144924.890625, 116995.843750, 131512.156250, 121769.218750, 117090.523438, 124792.937500, 0.000, 0.000, 0.000,5.8336345E-6,7.727453E-6,9.498529E-6,2.9882081E-5,3.795004E-5, 13:25:52.032
65988.226563, 92134.601563, 144982.437500, 117111.937500, 131490.906250, 121809.718750, 117149.671875, 124791.148438, 0.000, 0.000, 0.000,5.8336345E-6,7.727453E-6,9.498529E-6,2.9882081E-5,3.795004E-5, 13:25:52.032
65967.039063, 92109.992188, 144984.734375, 117107.359375, 131460.218750, 121783.406250, 117164.914063, 124761.109375, 0.000, 0.000, 0.000,5.8336345E-6,7.727453E-6,9.498529E-6,2.9882081E-5,3.795004E-5, 13:25:52.033
66017.640625, 92173.203125, 144920.484375, 116992.468750, 131472.828125, 121736.226563, 117104.875000, 124754.601563, 0.000, 0.000, 0.000,5.8336345E-6,7.727453E-6,9.498529E-6,2.9882081E-5,3.795004E-5, 13:25:52.033
66047.078125, 92209.546875, 144907.937500, 116981.742188, 131503.328125, 121753.945313, 117080.914063, 124782.187500, 0.000, 0.000, 0.000,5.8336345E-6,7.727453E-6,9.498529E-6,2.9882081E-5,3.795004E-5, 13:25:52.033
66000.320313, 92152.039063, 144963.625000, 117094.703125, 131489.546875, 121802.812500, 117130.398438, 124788.312500, 0.000, 0.000, 0.000,5.8336345E-6,7.727453E-6,9.498529E-6,2.9882081E-5,3.795004E-5, 13:25:52.034
65968.109375, 92112.226563, 144984.046875, 117119.695313, 131459.453125, 121789.937500, 117160.710938, 124763.429688, 0.000, 0.000, 0.000,5.8336345E-6,7.727453E-6,9.498529E-6,2.9882081E-5,3.795004E-5, 13:25:52.034
66005.234375, 92159.906250, 144932.015625, 117009.968750, 131469.578125, 121738.976563, 117115.335938, 124752.101563, 0.000, 0.000, 0.000,5.8336345E-6,7.727453E-6,9.498529E-6,2.9882081E-5,3.795004E-5, 13:25:52.035
66051.101563, 92210.664063, 144903.734375, 116964.710938, 131498.375000, 121741.562500, 117067.835938, 124771.367188, 0.000, 0.000, 0.000,5.8336345E-6,7.727453E-6,9.498529E-6,2.9882081E-5,3.795004E-5, 13:25:52.035
66014.781250, 92168.132813, 144956.796875, 117070.656250, 131497.234375, 121798.046875, 117116.273438, 124789.515625, 0.000, 0.000, 0.000,5.8336345E-6,7.727453E-6,9.498529E-6,2.9882081E-5,3.795004E-5, 13:25:52.036
65968.687500, 92116.296875, 144989.078125, 117127.046875, 131467.015625, 121802.609375, 117160.085938, 124770.609375, 0.000, 0.000, 0.000,5.8336345E-6,7.727453E-6,9.498529E-6,2.9882081E-5,3.795004E-5, 13:25:52.036
66002.554688, 92158.812500, 144945.109375, 117034.375000, 131464.781250, 121753.835938, 117119.273438, 124752.437500, 0.000, 0.000, 0.000,5.8336345E-6,7.727453E-6,9.498529E-6,2.9882081E-5,3.795004E-5, 13:25:52.036
66054.453125, 92219.781250, 144905.109375, 116966.226563, 131499.828125, 121743.062500, 117070.054688, 124772.593750, 0.000, 0.000, 0.000,5.8336345E-6,7.727453E-6,9.498529E-6,2.9882081E-5,3.795004E-5, 13:25:52.037
66025.242188, 92186.812500, 144949.046875, 117058.179688, 131510.265625, 121796.531250, 117109.437500, 124793.789063, 0.000, 0.000, 0.000,5.8336345E-6,7.727453E-6,9.498529E-6,2.9882081E-5,3.795004E-5, 13:25:52.037
65972.468750, 92124.742188, 144993.171875, 117135.679688, 131481.156250, 121810.226563, 117165.781250, 124775.437500, 0.000, 0.000, 0.000,5.8336345E-6,7.727453E-6,9.498529E-6,2.9882081E-5,3.795004E-5, 13:25:52.038
65998.398438, 92151.257813, 144958.812500, 117059.750000, 131472.937500, 121765.570313, 117144.640625, 124756.328125, 0.000, 0.000, 0.000,5.8336345E-6,7.727453E-6,9.498529E-6,2.9882081E-5,3.795004E-5, 13:25:52.038
66060.625000, 92218.531250, 144913.265625, 116972.125000, 131500.984375, 121743.960938, 117083.953125, 124771.968750, 0.000, 0.000, 0.000,5.8336345E-6,7.727453E-6,9.498529E-6,2.9882081E-5,3.795004E-5, 13:25:52.039
66041.828125, 92195.289063, 144948.843750, 117043.320313, 131509.812500, 121791.570313, 117102.773438, 124798.343750, 0.000, 0.000, 0.000,5.8336345E-6,7.727453E-6,9.498529E-6,2.9882081E-5,3.795004E-5, 13:25:52.039
65984.109375, 92134.515625, 144995.515625, 117138.757813, 131479.015625, 121818.031250, 117157.085938, 124787.015625, 0.000, 0.000, 0.000,5.8336345E-6,7.727453E-6,9.498529E-6,2.9882081E-5,3.795004E-5, 13:25:52.040
65984.335938, 92136.367188, 144973.656250, 117082.609375, 131462.265625, 121771.140625, 117148.218750, 124756.460938, 0.000, 0.000, 0.000,5.8336345E-6,7.727453E-6,9.498529E-6,2.9882081E-5,3.795004E-5, 13:25:52.040
66040.484375, 92204.718750, 144914.109375, 116972.484375, 131487.171875, 121730.945313, 117086.414063, 124758.984375, 0.000, 0.000, 0.000,5.8336345E-6,7.727453E-6,9.498529E-6,2.9882081E-5,3.795004E-5, 13:25:52.041
66044.351563, 92206.015625, 144932.906250, 117015.695313, 131508.921875, 121767.765625, 117090.007813, 124783.617188, 0.000, 0.000, 0.000,5.8336345E-6,7.727453E-6,9.498529E-6,2.9882081E-5,3.795004E-5, 13:25:52.041
65979.265625, 92130.578125, 144982.703125, 117117.796875, 131482.203125, 121799.101563, 117146.492188, 124773.914063, 0.000, 0.000, 0.000,5.8336345E-6,7.727453E-6,9.498529E-6,2.9882081E-5,3.795004E-5, 13:25:52.042
65966.343750, 92117.031250, 144966.812500, 117085.851563, 131459.906250, 121763.429688, 117150.875000, 124745.546875, 0.000, 0.000, 0.000,5.8336345E-6,7.727453E-6,9.498529E-6,2.9882081E-5,3.795004E-5, 13:25:52.042
66025.281250, 92185.296875, 144910.171875, 116972.914063, 131479.531250, 121722.570313, 117090.882813, 124747.406250, 0.000, 0.000, 0.000,5.8336345E-6,7.727453E-6,9.498529E-6,2.9882081E-5,3.795004E-5, 13:25:52.042
66050.789063, 92211.000000, 144913.000000, 116985.250000, 131512.609375, 121758.890625, 117081.632813, 124785.695313, 0.000, 0.000, 0.000,5.8336345E-6,7.727453E-6,9.498529E-6,2.9882081E-5,3.795004E-5, 13:25:52.043
65993.546875, 92139.656250, 144977.953125, 117104.648438, 131495.937500, 121806.765625, 117143.562500, 124789.781250, 0.000, 0.000, 0.000,5.8336345E-6,7.727453E-6,9.498529E-6,2.9882081E-5,3.795004E-5, 13:25:52.043
65969.960938, 92109.656250, 144981.843750, 117107.648438, 131463.046875, 121786.625000, 117162.070313, 124763.500000, 0.000, 0.000, 0.000,5.8336345E-6,7.727453E-6,9.498529E-6,2.9882081E-5,3.795004E-5, 13:25:52.044
66018.046875, 92169.070313, 144925.890625, 116996.335938, 131477.093750, 121741.210938, 117109.414063, 124761.109375, 0.000, 0.000, 0.000,5.8336345E-6,7.727453E-6,9.498529E-6,2.9882081E-5,3.795004E-5, 13:25:52.044
66059.773438, 92211.937500, 144921.937500, 116986.031250, 131517.406250, 121763.406250, 117090.640625, 124798.523438, 0.000, 0.000, 0.000,5.8336345E-6,7.727453E-6,9.498529E-6,2.9882081E-5,3.795004E-5, 13:25:52.045
66008.273438, 92154.179688, 144979.890625, 117100.851563, 131512.718750, 121818.656250, 117148.039063, 124813.007813, 0.000, 0.000, 0.000,5.8336345E-6,7.727453E-6,9.498529E-6,2.9882081E-5,3.795004E-5, 13:25:52.045
65960.328125, 92109.343750, 144999.828125, 117129.867188, 131479.031250, 121806.187500, 117180.734375, 124782.406250, 0.000, 0.000, 0.000,5.8336345E-6,7.727453E-6,9.498529E-6,2.9882081E-5,3.795004E-5, 13:25:52.045
66003.960938, 92164.820313, 144931.281250, 117016.406250, 131473.000000, 121751.000000, 117118.085938, 124763.453125, 0.000, 0.000, 0.000,5.8336345E-6,7.727453E-6,9.498529E-6,2.9882081E-5,3.795004E-5, 13:25:52.046
66049.000000, 92218.601563, 144903.718750, 116970.671875, 131504.890625, 121747.648438, 117076.062500, 124783.906250, 0.000, 0.000, 0.000,5.8336345E-6,7.727453E-6,9.498529E-6,2.9882081E-5,3.795004E-5, 13:25:52.046
66007.875000, 92171.414063, 144946.625000, 117070.921875, 131504.343750, 121796.640625, 117121.570313, 124796.757813, 0.000, 0.000, 0.000,5.8336345E-6,7.727453E-6,9.498529E-6,2.9882081E-5,3.795004E-5, 13:25:52.047
65958.187500, 92116.945313, 144978.390625, 117127.203125, 131467.375000, 121797.156250, 117164.312500, 124770.023438, 0.000, 0.000, 0.000,5.8336345E-6,7.727453E-6,9.498529E-6,2.9882081E-5,3.795004E-5, 13:25:52.047
65990.953125, 92160.843750, 144930.031250, 117034.648438, 131462.343750, 121748.023438, 117124.570313, 124750.156250, 0.000, 0.000, 0.000,5.8336345E-6,7.727453E-6,9.498529E-6,2.9882081E-5,3.795004E-5, 13:25:52.047
66048.640625, 92230.156250, 144893.609375, 116967.367188, 131497.093750, 121738.328125, 117073.781250, 124772.101563, 0.000, 0.000, 0.000,5.8336345E-6,7.727453E-6,9.498529E-6,2.9882081E-5,3.795004E-5, 13:25:52.048
66016.031250, 92193.093750, 144944.953125, 117057.132813, 131502.375000, 121787.835938, 117103.843750, 124791.257813, 0.000, 0.000, 0.000,5.8336345E-6,7.727453E-6,9.498529E-6,2.9882081E-5,3.795004E-5, 13:25:52.048
65956.062500, 92123.429688, 144993.078125, 117136.750000, 131469.062500, 121801.203125, 117161.382813, 124774.500000, 0.000, 0.000, 0.000,5.8336345E-6,7.727453E-6,9.498529E-6,2.9882081E-5,3.795004E-5, 13:25:52.048
65977.343750, 92145.289063, 144954.921875, 117061.960938, 131461.156250, 121759.421875, 117139.765625, 124757.015625, 0.000, 0.000, 0.000,5.8336345E-6,7.727453E-6,9.498529E-6,2.9882081E-5,3.795004E-5, 13:25:52.049
66032.101563, 92209.484375, 144904.765625, 116963.570313, 131487.953125, 121733.875000, 117077.585938, 124767.789063, 0.000, 0.000, 0.000,5.8336345E-6,7.727453E-6,9.498529E-6,2.9882081E-5,3.795004E-5, 13:25:52.050
66018.804688, 92196.140625, 144936.281250, 117026.109375, 131501.000000, 121779.812500, 117091.039063, 124794.593750, 0.000, 0.000, 0.000,5.8336345E-6,7.727453E-6,9.498529E-6,2.9882081E-5,3.795004E-5, 13:25:52.050
65951.460938, 92117.101563, 144990.984375, 117125.507813, 131477.687500, 121806.851563, 117154.585938, 124782.562500, 0.000, 0.000, 0.000,5.8336345E-6,7.727453E-6,9.498529E-6,2.9882081E-5,3.795004E-5, 13:25:52.051
65949.132813, 92115.648438, 144966.140625, 117074.726563, 131459.656250, 121765.750000, 117153.554688, 124754.132813, 0.000, 0.000, 0.000,5.8336345E-6,7.727453E-6,9.498529E-6,2.9882081E-5,3.795004E-5, 13:25:52.051
66012.187500, 92192.539063, 144900.781250, 116964.796875, 131482.343750, 121732.492188, 117088.804688, 124762.625000, 0.000, 0.000, 0.000,5.8336345E-6,7.727453E-6,9.498529E-6,2.9882081E-5,3.795004E-5, 13:25:52.051
66013.281250, 92193.390625, 144916.687500, 117000.156250, 131507.109375, 121772.679688, 117090.992188, 124792.648438, 0.000, 0.000, 0.000,5.8336345E-6,7.727453E-6,9.498529E-6,2.9882081E-5,3.795004E-5, 13:25:52.052
65950.765625, 92121.304688, 144970.812500, 117109.859375, 131485.734375, 121811.328125, 117155.031250, 124789.492188, 0.000, 0.000, 0.000,5.8336345E-6,7.727453E-6,9.498529E-6,2.9882081E-5,3.795004E-5, 13:25:52.052
65940.976563, 92115.984375, 144964.953125, 117094.125000, 131462.312500, 121784.171875, 117166.296875, 124764.617188, 0.000, 0.000, 0.000,5.8336345E-6,7.727453E-6,9.498529E-6,2.9882081E-5,3.795004E-5, 13:25:52.053
65993.320313, 92178.632813, 144901.578125, 116977.601563, 131474.203125, 121735.554688, 117102.554688, 124757.507813, 0.000, 0.000, 0.000,5.8336345E-6,7.727453E-6,9.498529E-6,2.9882081E-5,3.795004E-5, 13:25:52.053
66015.117188, 92199.734375, 144908.328125, 116981.781250, 131504.156250, 121758.531250, 117089.898438, 124785.179688, 0.000, 0.000, 0.000,5.8336345E-6,7.727453E-6,9.498529E-6,2.9882081E-5,3.795004E-5, 13:25:52.053
65960.015625, 92136.210938, 144959.968750, 117093.187500, 131489.515625, 121804.460938, 117147.570313, 124790.273438, 0.000, 0.000, 0.000,5.8336345E-6,7.727453E-6,9.498529E-6,2.9882081E-5,3.795004E-5, 13:25:52.054
65937.687500, 92110.843750, 144966.234375, 117101.992188, 131459.718750, 121784.976563, 117165.625000, 124762.093750, 0.000, 0.000, 0.000,5.8336345E-6,7.727453E-6,9.498529E-6,2.9882081E-5,3.795004E-5, 13:25:52.054
65987.648438, 92166.679688, 144916.031250, 116990.343750, 131471.406250, 121734.656250, 117112.562500, 124753.171875, 0.000, 0.000, 0.000,5.8336345E-6,7.727453E-6,9.498529E-6,2.9882081E-5,3.795004E-5, 13:25:52.054
66025.125000, 92204.250000, 144906.531250, 116966.539063, 131502.390625, 121743.625000, 117081.140625, 124779.523438, 0.000, 0.000, 0.000,5.8336345E-6,7.727453E-6,9.498529E-6,2.9882081E-5,3.795004E-5, 13:25:52.054
65968.601563, 92142.781250, 144951.265625, 117070.382813, 131489.875000, 121793.132813, 117125.195313, 124788.312500, 0.000, 0.000, 0.000,0.0,0.0,0.0,0.0,0.0, 13:25:52.472
65929.351563, 92097.992188, 144974.187500, 117112.117188, 131464.031250, 121791.453125, 117164.109375, 124766.742188, 0.000, 0.000, 0.000,0.0,0.0,0.0,0.0,0.0, 13:25:52.472
65970.054688, 92146.562500, 144927.296875, 117014.593750, 131464.281250, 121743.328125, 117118.265625, 124752.726563, 0.000, 0.000, 0.000,0.0,0.0,0.0,0.0,0.0, 13:25:52.472
66016.679688, 92201.007813, 144898.234375, 116959.546875, 131494.921875, 121740.492188, 117073.781250, 124774.828125, 0.000, 0.000, 0.000,0.0,0.0,0.0,0.0,0.0, 13:25:52.473
65978.304688, 92151.453125, 144945.093750, 117055.835938, 131493.093750, 121789.687500, 117115.515625, 124790.140625, 0.000, 0.000, 0.000,0.0,0.0,0.0,0.0,0.0, 13:25:52.473
65932.656250, 92097.164063, 144984.500000, 117125.593750, 131462.921875, 121797.578125, 117165.203125, 124770.492188, 0.000, 0.000, 0.000,0.0,0.0,0.0,0.0,0.0, 13:25:52.473
65960.664063, 92135.343750, 144940.906250, 117037.796875, 131455.453125, 121749.992188, 117133.195313, 124752.257813, 0.000, 0.000, 0.000,0.0,0.0,0.0,0.0,0.0, 13:25:52.474
66017.640625, 92207.914063, 144894.000000, 116960.390625, 131489.750000, 121738.460938, 117079.234375, 124775.187500, 0.000, 0.000, 0.000,0.0,0.0,0.0,0.0,0.0, 13:25:52.475
65991.601563, 92177.453125, 144934.359375, 117045.375000, 131498.750000, 121788.523438, 117106.195313, 124797.382813, 0.000, 0.000, 0.000,0.0,0.0,0.0,0.0,0.0, 13:25:52.475
65933.148438, 92104.945313, 144986.906250, 117132.882813, 131466.109375, 121806.476563, 117162.789063, 124779.726563, 0.000, 0.000, 0.000,0.0,0.0,0.0,0.0,0.0, 13:25:52.475
65948.085938, 92121.257813, 144954.281250, 117058.046875, 131454.109375, 121759.492188, 117143.679688, 124753.281250, 0.000, 0.000, 0.000,0.0,0.0,0.0,0.0,0.0, 13:25:52.475
66004.835938, 92187.445313, 144888.000000, 116950.648438, 131479.640625, 121728.960938, 117074.656250, 124763.765625, 0.000, 0.000, 0.000,0.0,0.0,0.0,0.0,0.0, 13:25:52.476
65996.335938, 92174.500000, 144910.718750, 117007.781250, 131501.953125, 121778.960938, 117087.125000, 124796.375000, 0.000, 0.000, 0.000,0.0,0.0,0.0,0.0,0.0, 13:25:52.476
65932.953125, 92099.484375, 144971.421875, 117112.203125, 131472.984375, 121807.882813, 117149.937500, 124785.226563, 0.000, 0.000, 0.000,0.0,0.0,0.0,0.0,0.0, 13:25:52.476
65931.296875, 92103.804688, 144953.531250, 117070.210938, 131459.703125, 121773.101563, 117153.671875, 124762.539063, 0.000, 0.000, 0.000,0.0,0.0,0.0,0.0,0.0, 13:25:52.476
65992.070313, 92172.578125, 144898.218750, 116961.156250, 131485.562500, 121737.031250, 117096.335938, 124769.445313, 0.000, 0.000, 0.000,0.0,0.0,0.0,0.0,0.0, 13:25:52.476
66006.351563, 92187.554688, 144911.453125, 116991.281250, 131512.656250, 121776.546875, 117095.398438, 124803.710938, 0.000, 0.000, 0.000,0.0,0.0,0.0,0.0,0.0, 13:25:52.477
65943.273438, 92114.265625, 144971.671875, 117104.000000, 131492.640625, 121816.468750, 117158.500000, 124800.265625, 0.000, 0.000, 0.000,0.0,0.0,0.0,0.0,0.0, 13:25:52.477
65929.507813, 92096.070313, 144975.171875, 117091.445313, 131468.109375, 121788.640625, 117171.906250, 124772.171875, 0.000, 0.000, 0.000,0.0,0.0,0.0,0.0,0.0, 13:25:52.477
65992.648438, 92166.703125, 144918.687500, 116981.648438, 131484.781250, 121745.234375, 117113.210938, 124770.140625, 0.000, 0.000, 0.000,0.0,0.0,0.0,0.0,0.0, 13:25:52.477
66022.671875, 92199.289063, 144914.765625, 116981.671875, 131513.125000, 121768.546875, 117085.656250, 124798.906250, 0.000, 0.000, 0.000,0.0,0.0,0.0,0.0,0.0, 13:25:52.477
65965.625000, 92132.078125, 144979.093750, 117101.921875, 131498.343750, 121814.789063, 117147.117188, 124803.171875, 0.000, 0.000, 0.000,0.0,0.0,0.0,0.0,0.0, 13:25:52.477
65932.257813, 92095.687500, 144989.656250, 117115.132813, 131465.875000, 121797.359375, 117174.968750, 124774.632813, 0.000, 0.000, 0.000,0.0,0.0,0.0,0.0,0.0, 13:25:52.478
65981.585938, 92155.101563, 144929.734375, 117002.773438, 131477.250000, 121746.859375, 117120.140625, 124761.148438, 0.000, 0.000, 0.000,0.0,0.0,0.0,0.0,0.0, 13:25:52.478
66019.695313, 92198.906250, 144910.640625, 116970.515625, 131510.062500, 121751.757813, 117081.382813, 124783.546875, 0.000, 0.000, 0.000,0.0,0.0,0.0,0.0,0.0, 13:25:52.478
65969.179688, 92148.664063, 144959.031250, 117077.765625, 131506.218750, 121801.554688, 117131.851563, 124795.890625, 0.000, 0.000, 0.000,0.0,0.0,0.0,0.0,0.0, 13:25:52.478
65927.515625, 92097.210938, 144983.281250, 117122.820313, 131468.031250, 121797.289063, 117169.335938, 124769.914063, 0.000, 0.000, 0.000,0.0,0.0,0.0,0.0,0.0, 13:25:52.478
65966.296875, 92139.523438, 144930.687500, 117019.851563, 131464.937500, 121746.304688, 117127.070313, 124752.812500, 0.000, 0.000, 0.000,0.0,0.0,0.0,0.0,0.0, 13:25:52.479
66011.695313, 92193.835938, 144894.640625, 116957.687500, 131500.656250, 121740.562500, 117084.937500, 124777.382813, 0.000, 0.000, 0.000,0.0,0.0,0.0,0.0,0.0, 13:25:52.479
65970.570313, 92147.500000, 144934.093750, 117051.921875, 131497.453125, 121793.109375, 117115.382813, 124796.218750, 0.000, 0.000, 0.000,0.0,0.0,0.0,0.0,0.0, 13:25:52.479
65912.632813, 92078.367188, 144974.109375, 117119.625000, 131467.140625, 121804.351563, 117163.882813, 124776.687500, 0.000, 0.000, 0.000,0.0,0.0,0.0,0.0,0.0, 13:25:52.479
65938.492188, 92109.187500, 144933.937500, 117033.328125, 131465.468750, 121758.015625, 117138.515625, 124758.359375, 0.000, 0.000, 0.000,0.0,0.0,0.0,0.0,0.0, 13:25:52.479
66001.460938, 92180.851563, 144888.312500, 116947.968750, 131493.093750, 121737.562500, 117074.390625, 124770.140625, 0.000, 0.000, 0.000,0.0,0.0,0.0,0.0,0.0, 13:25:52.480
65986.726563, 92161.781250, 144931.984375, 117026.640625, 131510.171875, 121785.375000, 117107.710938, 124797.812500, 0.000, 0.000, 0.000,0.0,0.0,0.0,0.0,0.0, 13:25:52.481
65931.875000, 92096.046875, 144985.562500, 117119.382813, 131484.828125, 121806.187500, 117170.453125, 124782.835938, 0.000, 0.000, 0.000,0.0,0.0,0.0,0.0,0.0, 13:25:52.481
65941.914063, 92107.828125, 144959.109375, 117053.421875, 131468.703125, 121759.000000, 117153.000000, 124753.820313, 0.000, 0.000, 0.000,0.0,0.0,0.0,0.0,0.0, 13:25:52.482
66007.445313, 92181.539063, 144902.640625, 116949.375000, 131496.109375, 121727.437500, 117093.609375, 124762.828125, 0.000, 0.000, 0.000,0.0,0.0,0.0,0.0,0.0, 13:25:52.482
66007.851563, 92179.062500, 144923.046875, 117003.601563, 131518.359375, 121772.390625, 117100.492188, 124792.039063, 0.000, 0.000, 0.000,0.0,0.0,0.0,0.0,0.0, 13:25:52.482
65948.125000, 92107.578125, 144979.515625, 117113.906250, 131496.109375, 121806.609375, 117162.382813, 124786.007813, 0.000, 0.000, 0.000,0.0,0.0,0.0,0.0,0.0, 13:25:52.483
65940.078125, 92104.921875, 144966.968750, 117081.718750, 131471.328125, 121768.789063, 117160.554688, 124756.484375, 0.000, 0.000, 0.000,0.0,0.0,0.0,0.0,0.0, 13:25:52.483
65998.906250, 92176.578125, 144903.562500, 116969.867188, 131488.921875, 121729.695313, 117093.007813, 124758.695313, 0.000, 0.000, 0.000,0.0,0.0,0.0,0.0,0.0, 13:25:52.483
66013.546875, 92190.031250, 144909.171875, 116991.578125, 131514.437500, 121765.640625, 117088.445313, 124792.781250, 0.000, 0.000, 0.000,0.0,0.0,0.0,0.0,0.0, 13:25:52.483
65954.500000, 92119.109375, 144969.234375, 117105.437500, 131497.078125, 121810.187500, 117153.156250, 124796.937500, 0.000, 0.000, 0.000,0.0,0.0,0.0,0.0,0.0, 13:25:52.484
65932.148438, 92096.492188, 144972.968750, 117098.304688, 131473.312500, 121788.367188, 117172.984375, 124770.296875, 0.000, 0.000, 0.000,0.0,0.0,0.0,0.0,0.0, 13:25:52.484
65990.546875, 92167.570313, 144910.359375, 116979.773438, 131486.859375, 121742.640625, 117110.914063, 124764.929688, 0.000, 0.000, 0.000,0.0,0.0,0.0,0.0,0.0, 13:25:52.484
66017.125000, 92197.632813, 144913.390625, 116976.039063, 131515.468750, 121759.132813, 117087.281250, 124790.882813, 0.000, 0.000, 0.000,0.0,0.0,0.0,0.0,0.0, 13:25:52.484
65968.132813, 92137.531250, 144965.828125, 117089.632813, 131501.906250, 121805.648438, 117141.148438, 124795.617188, 0.000, 0.000, 0.000,0.0,0.0,0.0,0.0,0.0, 13:25:52.484
65932.773438, 92094.953125, 144976.937500, 117112.273438, 131466.500000, 121790.742188, 117166.273438, 124765.015625, 0.000, 0.000, 0.000,0.0,0.0,0.0,0.0,0.0, 13:25:52.484
65978.906250, 92151.390625, 144922.578125, 117003.710938, 131475.015625, 121743.421875, 117117.906250, 124757.484375, 0.000, 0.000, 0.000,0.0,0.0,0.0,0.0,0.0, 13:25:52.485
66025.578125, 92204.296875, 144900.343750, 116969.625000, 131507.062500, 121753.054688, 117075.953125, 124787.484375, 0.000, 0.000, 0.000,0.0,0.0,0.0,0.0,0.0, 13:25:52.485
65979.039063, 92145.640625, 144955.187500, 117077.851563, 131500.203125, 121802.226563, 117123.648438, 124798.210938, 0.000, 0.000, 0.000,0.0,0.0,0.0,0.0,0.0, 13:25:52.485
65926.179688, 92090.281250, 144977.562500, 117120.656250, 131467.281250, 121798.695313, 117163.617188, 124772.281250, 0.000, 0.000, 0.000,0.0,0.0,0.0,0.0,0.0, 13:25:52.485
65968.531250, 92139.851563, 144937.000000, 117025.031250, 131474.140625, 121748.671875, 117128.726563, 124758.226563, 0.000, 0.000, 0.000,0.0,0.0,0.0,0.0,0.0, 13:25:52.486
66023.273438, 92202.375000, 144907.734375, 116957.531250, 131508.984375, 121740.093750, 117082.835938, 124778.320313, 0.000, 0.000, 0.000,0.0,0.0,0.0,0.0,0.0, 13:25:52.486
65993.656250, 92166.945313, 144956.468750, 117051.320313, 131518.375000, 121792.210938, 117126.710938, 124800.226563, 0.000, 0.000, 0.000,0.0,0.0,0.0,0.0,0.0, 13:25:52.487
65940.820313, 92104.742188, 144995.515625, 117127.695313, 131483.312500, 121805.960938, 117171.078125, 124781.312500, 0.000, 0.000, 0.000,0.0,0.0,0.0,0.0,0.0, 13:25:52.487
65960.664063, 92129.570313, 144958.765625, 117051.453125, 131474.781250, 121759.359375, 117143.210938, 124759.742188, 0.000, 0.000, 0.000,0.0,0.0,0.0,0.0,0.0, 13:25:52.487
66024.414063, 92202.750000, 144907.687500, 116965.687500, 131506.750000, 121741.585938, 117086.281250, 124779.187500, 0.000, 0.000, 0.000,0.0,0.0,0.0,0.0,0.0, 13:25:52.488
66010.664063, 92184.085938, 144939.484375, 117038.265625, 131521.968750, 121795.414063, 117111.695313, 124811.687500, 0.000, 0.000, 0.000,0.0,0.0,0.0,0.0,0.0, 13:25:52.488
65944.820313, 92113.234375, 144996.078125, 117137.710938, 131488.250000, 121814.945313, 117168.398438, 124792.984375, 0.000, 0.000, 0.000,0.0,0.0,0.0,0.0,0.0, 13:25:52.488
65953.312500, 92125.640625, 144968.468750, 117083.484375, 131471.031250, 121773.882813, 117154.273438, 124765.937500, 0.000, 0.000, 0.000,0.0,0.0,0.0,0.0,0.0, 13:25:52.489
66011.046875, 92194.726563, 144913.468750, 116978.859375, 131494.906250, 121742.281250, 117092.335938, 124773.156250, 0.000, 0.000, 0.000,0.0,0.0,0.0,0.0,0.0, 13:25:52.489
66013.617188, 92195.648438, 144933.203125, 117019.960938, 131507.109375, 121778.914063, 117093.835938, 124796.695313, 0.000, 0.000, 0.000,0.0,0.0,0.0,0.0,0.0, 13:25:52.489
65954.031250, 92125.906250, 144991.375000, 117127.671875, 131482.250000, 121812.171875, 117154.609375, 124786.921875, 0.000, 0.000, 0.000,0.0,0.0,0.0,0.0,0.0, 13:25:52.490
65946.632813, 92119.203125, 144978.140625, 117097.078125, 131460.796875, 121777.906250, 117160.820313, 124759.007813, 0.000, 0.000, 0.000,0.0,0.0,0.0,0.0,0.0, 13:25:52.490
66005.859375, 92189.320313, 144917.890625, 116986.593750, 131481.703125, 121738.414063, 117100.382813, 124762.492188, 0.000, 0.000, 0.000,0.0,0.0,0.0,0.0,0.0, 13:25:52.490
66017.171875, 92203.851563, 144924.953125, 117003.867188, 131511.718750, 121769.843750, 117092.406250, 124794.750000, 0.000, 0.000, 0.000,0.0,0.0,0.0,0.0,0.0, 13:25:52.490
65961.984375, 92138.109375, 144980.046875, 117119.828125, 131491.671875, 121815.953125, 117146.609375, 124797.453125, 0.000, 0.000, 0.000,0.0,0.0,0.0,0.0,0.0, 13:25:52.491
65939.742188, 92111.695313, 144994.687500, 117123.671875, 131464.687500, 121792.703125, 117168.937500, 124767.632813, 0.000, 0.000, 0.000,0.0,0.0,0.0,0.0,0.0, 13:25:52.491
65982.054688, 92163.078125, 144929.359375, 116997.695313, 131468.796875, 121739.578125, 117103.398438, 124755.500000, 0.000, 0.000, 0.000,0.0,0.0,0.0,0.0,0.0, 13:25:52.491
66013.593750, 92198.304688, 144916.406250, 116981.960938, 131501.984375, 121755.648438, 117078.453125, 124786.429688, 0.000, 0.000, 0.000,0.0,0.0,0.0,0.0,0.0, 13:25:52.491
65966.187500, 92141.421875, 144976.453125, 117096.539063, 131490.765625, 121803.367188, 117135.812500, 124792.734375, 0.000, 0.000, 0.000,0.0,0.0,0.0,0.0,0.0, 13:25:52.492
65927.742188, 92093.656250, 144994.281250, 117124.726563, 131459.406250, 121792.234375, 117167.437500, 124763.632813, 0.000, 0.000, 0.000,0.0,0.0,0.0,0.0,0.0, 13:25:52.492
65971.531250, 92146.312500, 144939.140625, 117015.398438, 131463.546875, 121744.179688, 117120.882813, 124751.945313, 0.000, 0.000, 0.000,0.0,0.0,0.0,0.0,0.0, 13:25:52.492
66023.632813, 92208.164063, 144910.515625, 116972.328125, 131494.765625, 121746.507813, 117073.093750, 124776.351563, 0.000, 0.000, 0.000,0.0,0.0,0.0,0.0,0.0, 13:25:52.493
65988.515625, 92160.617188, 144966.640625, 117084.203125, 131493.390625, 121799.968750, 117119.382813, 124794.945313, 0.000, 0.000, 0.000,0.0,0.0,0.0,0.0,0.0, 13:25:52.493
65946.023438, 92107.242188, 145002.406250, 117143.367188, 131465.468750, 121804.890625, 117166.476563, 124773.734375, 0.000, 0.000, 0.000,0.0,0.0,0.0,0.0,0.0, 13:25:52.493
65979.421875, 92149.890625, 144962.750000, 117053.687500, 131469.406250, 121754.843750, 117135.117188, 124756.835938, 0.000, 0.000, 0.000,0.0,0.0,0.0,0.0,0.0, 13:25:52.493
66037.085938, 92215.250000, 144927.750000, 116982.187500, 131504.406250, 121743.960938, 117083.328125, 124778.523438, 0.000, 0.000, 0.000,0.0,0.0,0.0,0.0,0.0, 13:25:52.493
66013.687500, 92183.531250, 144966.218750, 117066.382813, 131507.578125, 121797.375000, 117108.250000, 124801.875000, 0.000, 0.000, 0.000,0.0,0.0,0.0,0.0,0.0, 13:25:52.494
65954.835938, 92115.492188, 145008.968750, 117145.554688, 131474.859375, 121812.914063, 117162.367188, 124780.953125, 0.000, 0.000, 0.000,0.0,0.0,0.0,0.0,0.0, 13:25:52.494
65970.343750, 92137.218750, 144974.890625, 117066.742188, 131458.812500, 121762.484375, 117140.304688, 124751.093750, 0.000, 0.000, 0.000,0.0,0.0,0.0,0.0,0.0, 13:25:52.494
66029.601563, 92209.859375, 144920.609375, 116973.203125, 131486.187500, 121739.484375, 117080.023438, 124766.046875, 0.000, 0.000, 0.000,0.0,0.0,0.0,0.0,0.0, 13:25:52.494
66011.648438, 92185.539063, 144949.031250, 117036.968750, 131494.234375, 121784.125000, 117096.117188, 124792.625000, 0.000, 0.000, 0.000,0.0,0.0,0.0,0.0,0.0, 13:25:52.494
65955.546875, 92117.031250, 144998.734375, 117136.929688, 131466.406250, 121810.835938, 117155.992188, 124782.835938, 0.000, 0.000, 0.000,0.0,0.0,0.0,0.0,0.0, 13:25:52.495
65964.843750, 92131.429688, 144976.140625, 117088.984375, 131451.203125, 121772.054688, 117150.984375, 124757.132813, 0.000, 0.000, 0.000,0.0,0.0,0.0,0.0,0.0, 13:25:52.495
66031.234375, 92209.929688, 144915.890625, 116981.359375, 131475.921875, 121738.367188, 117089.523438, 124765.664063, 0.000, 0.000, 0.000,0.0,0.0,0.0,0.0,0.0, 13:25:52.495
66043.632813, 92223.179688, 144926.453125, 117021.593750, 131502.546875, 121781.554688, 117091.890625, 124797.406250, 0.000, 0.000, 0.000,0.0,0.0,0.0,0.0,0.0, 13:25:52.495
65987.312500, 92153.492188, 144992.000000, 117138.265625, 131482.093750, 121818.593750, 117154.453125, 124788.820313, 0.000, 0.000, 0.000,0.0,0.0,0.0,0.0,0.0, 13:25:52.495
65983.062500, 92147.343750, 144988.406250, 117115.070313, 131452.109375, 121783.718750, 117153.781250, 124755.453125, 0.000, 0.000, 0.000,0.0,0.0,0.0,0.0,0.0, 13:25:52.495
66050.320313, 92222.781250, 144929.828125, 117000.648438, 131470.390625, 121741.250000, 117093.898438, 124753.953125, 0.000, 0.000, 0.000,0.0,0.0,0.0,0.0,0.0, 13:25:52.496
66080.609375, 92254.898438, 144936.781250, 117012.742188, 131498.953125, 121767.406250, 117081.093750, 124783.593750, 0.000, 0.000, 0.000,0.0,0.0,0.0,0.0,0.0, 13:25:52.496
66031.679688, 92198.976563, 144997.812500, 117131.828125, 131475.437500, 121812.804688, 117135.476563, 124788.265625, 0.000, 0.000, 0.000,0.0,0.0,0.0,0.0,0.0, 13:25:52.496
66008.187500, 92171.796875, 145008.125000, 117139.429688, 131452.437500, 121797.937500, 117162.945313, 124765.039063, 0.000, 0.000, 0.000,0.0,0.0,0.0,0.0,0.0, 13:25:52.496
66065.718750, 92241.531250, 144946.875000, 117024.632813, 131463.593750, 121751.000000, 117105.835938, 124759.742188, 0.000, 0.000, 0.000,0.0,0.0,0.0,0.0,0.0, 13:25:52.496
66105.531250, 92286.148438, 144932.296875, 117001.140625, 131492.171875, 121759.757813, 117072.328125, 124783.820313, 0.000, 0.000, 0.000,0.0,0.0,0.0,0.0,0.0, 13:25:52.497
66061.718750, 92227.515625, 144986.859375, 117112.296875, 131485.859375, 121810.546875, 117128.343750, 124794.906250, 0.000, 0.000, 0.000,0.0,0.0,0.0,0.0,0.0, 13:25:52.497
66025.554688, 92187.617188, 145010.203125, 117147.765625, 131454.421875, 121802.585938, 117165.781250, 124768.351563, 0.000, 0.000, 0.000,0.0,0.0,0.0,0.0,0.0, 13:25:52.497
66074.593750, 92252.039063, 144955.968750, 117043.945313, 131460.625000, 121757.304688, 117121.234375, 124760.257813, 0.000, 0.000, 0.000,0.0,0.0,0.0,0.0,0.0, 13:25:52.497
66135.210938, 92321.148438, 144933.171875, 116998.882813, 131498.609375, 121762.937500, 117081.718750, 124790.585938, 0.000, 0.000, 0.000,0.0,0.0,0.0,0.0,0.0, 13:25:52.497
66101.281250, 92281.898438, 144989.375000, 117103.804688, 131496.375000, 121812.265625, 117126.531250, 124806.015625, 0.000, 0.000, 0.000,0.0,0.0,0.0,0.0,0.0, 13:25:52.497
66059.390625, 92228.343750, 145023.406250, 117165.539063, 131460.750000, 121814.742188, 117174.765625, 124781.781250, 0.000, 0.000, 0.000,0.0,0.0,0.0,0.0,0.0, 13:25:52.498
66090.148438, 92257.914063, 144975.531250, 117070.609375, 131453.640625, 121764.117188, 117139.382813, 124760.101563, 0.000, 0.000, 0.000,0.0,0.0,0.0,0.0,0.0, 13:25:52.498
66150.406250, 92335.164063, 144933.890625, 116992.289063, 131485.093750, 121750.843750, 117086.078125, 124779.320313, 0.000, 0.000, 0.000,0.0,0.0,0.0,0.0,0.0, 13:25:52.498
66127.117188, 92307.539063, 144971.375000, 117072.109375, 131490.250000, 121802.296875, 117109.476563, 124803.218750, 0.000, 0.000, 0.000,0.0,0.0,0.0,0.0,0.0, 13:25:52.499
66078.617188, 92245.867188, 145021.203125, 117159.414063, 131464.218750, 121819.078125, 117167.882813, 124788.687500, 0.000, 0.000, 0.000,0.0,0.0,0.0,0.0,0.0, 13:25:52.499
66093.414063, 92264.218750, 144992.234375, 117091.953125, 131454.218750, 121772.609375, 117150.429688, 124763.320313, 0.000, 0.000, 0.000,0.0,0.0,0.0,0.0,0.0, 13:25:52.500
66147.906250, 92324.484375, 144941.687500, 116992.156250, 131482.593750, 121741.812500, 117090.367188, 124771.101563, 0.000, 0.000, 0.000,0.0,0.0,0.0,0.0,0.0, 13:25:52.500
66132.257813, 92309.617188, 144965.234375, 117049.976563, 131503.328125, 121789.757813, 117106.710938, 124798.906250, 0.000, 0.000, 0.000,0.0,0.0,0.0,0.0,0.0, 13:25:52.500
66067.664063, 92239.765625, 145020.593750, 117154.632813, 131474.609375, 121821.000000, 117167.593750, 124791.773438, 0.000, 0.000, 0.000,0.0,0.0,0.0,0.0,0.0, 13:25:52.501
66058.585938, 92234.718750, 145002.625000, 117111.515625, 131450.921875, 121777.734375, 117161.625000, 124763.234375, 0.000, 0.000, 0.000,0.0,0.0,0.0,0.0,0.0, 13:25:52.501
66118.562500, 92299.109375, 144939.015625, 116996.757813, 131474.625000, 121741.718750, 117096.273438, 124767.992188, 0.000, 0.000, 0.000,0.0,0.0,0.0,0.0,0.0, 13:25:52.501
66117.757813, 92300.406250, 144958.234375, 117028.859375, 131501.296875, 121778.468750, 117097.703125, 124797.742188, 0.000, 0.000, 0.000,0.0,0.0,0.0,0.0,0.0, 13:25:52.502
66046.203125, 92225.328125, 145008.875000, 117136.882813, 131480.062500, 121816.937500, 117154.585938, 124792.085938, 0.000, 0.000, 0.000,0.0,0.0,0.0,0.0,0.0, 13:25:52.502
66024.546875, 92195.781250, 144996.906250, 117117.304688, 131457.125000, 121788.484375, 117162.898438, 124764.617188, 0.000, 0.000, 0.000,0.0,0.0,0.0,0.0,0.0, 13:25:52.502
66078.234375, 92256.796875, 144936.656250, 117003.734375, 131474.703125, 121746.015625, 117106.171875, 124765.242188, 0.000, 0.000, 0.000,0.0,0.0,0.0,0.0,0.0, 13:25:52.503
66095.734375, 92278.546875, 144942.828125, 117008.492188, 131499.015625, 121765.906250, 117086.859375, 124789.984375, 0.000, 0.000, 0.000,0.0,0.0,0.0,0.0,0.0, 13:25:52.503
66031.921875, 92207.718750, 144996.750000, 117121.726563, 131485.187500, 121812.625000, 117142.781250, 124796.421875, 0.000, 0.000, 0.000,0.0,0.0,0.0,0.0,0.0, 13:25:52.503
65994.906250, 92168.781250, 145006.531250, 117136.343750, 131454.109375, 121797.515625, 117165.875000, 124769.578125, 0.000, 0.000, 0.000,0.0,0.0,0.0,0.0,0.0, 13:25:52.503
66036.390625, 92218.578125, 144951.859375, 117023.421875, 131462.921875, 121746.281250, 117111.875000, 124757.953125, 0.000, 0.000, 0.000,0.0,0.0,0.0,0.0,0.0, 13:25:52.504
66066.882813, 92253.156250, 144929.062500, 116990.125000, 131492.640625, 121754.593750, 117079.195313, 124782.539063, 0.000, 0.000, 0.000,0.0,0.0,0.0,0.0,0.0, 13:25:52.953
66020.054688, 92195.062500, 144977.968750, 117096.742188, 131482.765625, 121805.671875, 117129.304688, 124794.945313, 0.000, 0.000, 0.000,0.0,0.0,0.0,0.0,0.0, 13:25:52.953
65977.898438, 92150.000000, 145003.453125, 117140.101563, 131453.937500, 121804.125000, 117167.039063, 124773.781250, 0.000, 0.000, 0.000,0.0,0.0,0.0,0.0,0.0, 13:25:52.954
66016.632813, 92199.242188, 144952.078125, 117038.804688, 131463.375000, 121759.070313, 117127.382813, 124763.898438, 0.000, 0.000, 0.000,0.0,0.0,0.0,0.0,0.0, 13:25:52.954
66062.140625, 92251.054688, 144917.906250, 116974.742188, 131490.375000, 121751.421875, 117075.843750, 124781.625000, 0.000, 0.000, 0.000,0.0,0.0,0.0,0.0,0.0, 13:25:52.954
66023.742188, 92200.609375, 144968.765625, 117072.937500, 131494.734375, 121803.257813, 117121.125000, 124801.515625, 0.000, 0.000, 0.000,0.0,0.0,0.0,0.0,0.0, 13:25:52.954
65972.804688, 92138.875000, 145015.187500, 117145.195313, 131465.109375, 121812.015625, 117175.906250, 124782.226563, 0.000, 0.000, 0.000,0.0,0.0,0.0,0.0,0.0, 13:25:52.955
66004.679688, 92175.750000, 144975.468750, 117062.656250, 131465.562500, 121766.578125, 117149.132813, 124765.554688, 0.000, 0.000, 0.000,0.0,0.0,0.0,0.0,0.0, 13:25:52.955
66057.875000, 92242.492188, 144931.546875, 116981.851563, 131496.890625, 121747.914063, 117094.437500, 124781.601563, 0.000, 0.000, 0.000,0.0,0.0,0.0,0.0,0.0, 13:25:52.955
66031.429688, 92212.812500, 144969.078125, 117061.203125, 131502.890625, 121797.890625, 117117.187500, 124803.304688, 0.000, 0.000, 0.000,0.0,0.0,0.0,0.0,0.0, 13:25:52.955
65974.320313, 92143.210938, 145020.687500, 117153.734375, 131462.703125, 121817.695313, 117164.085938, 124784.148438, 0.000, 0.000, 0.000,0.0,0.0,0.0,0.0,0.0, 13:25:52.955
65986.843750, 92161.937500, 144980.656250, 117088.734375, 131449.218750, 121776.812500, 117142.156250, 124763.546875, 0.000, 0.000, 0.000,0.0,0.0,0.0,0.0,0.0, 13:25:52.956
66043.945313, 92226.000000, 144931.750000, 116991.640625, 131480.734375, 121748.695313, 117083.687500, 124773.671875, 0.000, 0.000, 0.000,0.0,0.0,0.0,0.0,0.0, 13:25:52.956
66034.468750, 92211.445313, 144964.062500, 117043.539063, 131495.218750, 121784.750000, 117097.476563, 124792.804688, 0.000, 0.000, 0.000,0.0,0.0,0.0,0.0,0.0, 13:25:52.956
65970.593750, 92138.960938, 145011.046875, 117141.039063, 131467.796875, 121813.359375, 117158.656250, 124781.828125, 0.000, 0.000, 0.000,0.0,0.0,0.0,0.0,0.0, 13:25:52.956
65968.507813, 92140.640625, 144986.375000, 117100.070313, 131453.171875, 121779.742188, 117157.625000, 124759.632813, 0.000, 0.000, 0.000,0.0,0.0,0.0,0.0,0.0, 13:25:52.956
66031.859375, 92212.367188, 144925.375000, 116987.664063, 131477.921875, 121745.742188, 117100.695313, 124769.625000, 0.000, 0.000, 0.000,0.0,0.0,0.0,0.0,0.0, 13:25:52.957
66035.656250, 92214.601563, 144936.656250, 117014.593750, 131503.328125, 121778.601563, 117099.960938, 124800.890625, 0.000, 0.000, 0.000,0.0,0.0,0.0,0.0,0.0, 13:25:52.957
65964.109375, 92134.242188, 144992.234375, 117124.273438, 131475.531250, 121815.039063, 117153.554688, 124795.710938, 0.000, 0.000, 0.000,0.0,0.0,0.0,0.0,0.0, 13:25:52.957
65946.335938, 92119.851563, 144986.750000, 117114.484375, 131445.843750, 121789.312500, 117159.703125, 124769.195313, 0.000, 0.000, 0.000,0.0,0.0,0.0,0.0,0.0, 13:25:52.957
66001.320313, 92187.687500, 144923.703125, 116999.937500, 131461.937500, 121746.664063, 117104.804688, 124769.375000, 0.000, 0.000, 0.000,0.0,0.0,0.0,0.0,0.0, 13:25:52.957
66029.507813, 92214.820313, 144915.625000, 116990.453125, 131490.703125, 121766.757813, 117081.921875, 124795.617188, 0.000, 0.000, 0.000,0.0,0.0,0.0,0.0,0.0, 13:25:52.957
65977.187500, 92152.796875, 144975.906250, 117109.304688, 131481.718750, 121816.421875, 117141.484375, 124801.320313, 0.000, 0.000, 0.000,0.0,0.0,0.0,0.0,0.0, 13:25:52.958
65940.593750, 92114.531250, 144996.453125, 117131.609375, 131452.812500, 121802.046875, 117172.109375, 124772.125000, 0.000, 0.000, 0.000,0.0,0.0,0.0,0.0,0.0, 13:25:52.958
65991.937500, 92173.625000, 144941.312500, 117020.406250, 131464.281250, 121749.882813, 117123.625000, 124760.304688, 0.000, 0.000, 0.000,0.0,0.0,0.0,0.0,0.0, 13:25:52.958
66035.234375, 92222.710938, 144920.453125, 116983.820313, 131499.593750, 121754.554688, 117083.867188, 124784.289063, 0.000, 0.000, 0.000,0.0,0.0,0.0,0.0,0.0, 13:25:52.958
65989.476563, 92168.062500, 144976.218750, 117092.492188, 131498.328125, 121806.656250, 117134.671875, 124798.304688, 0.000, 0.000, 0.000,0.0,0.0,0.0,0.0,0.0, 13:25:52.959
65944.507813, 92115.382813, 145005.500000, 117141.507813, 131466.750000, 121808.953125, 117176.960938, 124776.640625, 0.000, 0.000, 0.000,0.0,0.0,0.0,0.0,0.0, 13:25:52.959
65987.820313, 92161.359375, 144959.968750, 117045.734375, 131471.968750, 121765.195313, 117141.914063, 124768.546875, 0.000, 0.000, 0.000,0.0,0.0,0.0,0.0,0.0, 13:25:52.959
66034.117188, 92214.484375, 144929.203125, 116978.429688, 131497.406250, 121756.226563, 117089.406250, 124787.859375, 0.000, 0.000, 0.000,0.0,0.0,0.0,0.0,0.0, 13:25:52.960
66004.140625, 92178.968750, 144963.187500, 117066.585938, 131503.828125, 121810.835938, 117125.351563, 124812.273438, 0.000, 0.000, 0.000,0.0,0.0,0.0,0.0,0.0, 13:25:52.960
65951.125000, 92116.718750, 145005.421875, 117140.773438, 131475.546875, 121822.679688, 117175.593750, 124794.546875, 0.000, 0.000, 0.000,0.0,0.0,0.0,0.0,0.0, 13:25:52.960
65971.710938, 92143.187500, 144961.828125, 117053.664063, 131461.843750, 121774.062500, 117142.625000, 124769.468750, 0.000, 0.000, 0.000,0.0,0.0,0.0,0.0,0.0, 13:25:52.961
66027.992188, 92206.171875, 144916.656250, 116967.929688, 131488.453125, 121753.476563, 117083.507813, 124780.773438, 0.000, 0.000, 0.000,0.0,0.0,0.0,0.0,0.0, 13:25:52.961
66012.250000, 92184.070313, 144945.890625, 117038.781250, 131500.468750, 121798.140625, 117105.593750, 124802.617188, 0.000, 0.000, 0.000,0.0,0.0,0.0,0.0,0.0, 13:25:52.961
65950.320313, 92117.171875, 144992.125000, 117130.937500, 131470.546875, 121820.445313, 117162.968750, 124788.132813, 0.000, 0.000, 0.000,0.0,0.0,0.0,0.0,0.0, 13:25:52.962
65956.953125, 92131.296875, 144970.890625, 117075.929688, 131454.671875, 121775.968750, 117151.390625, 124760.750000, 0.000, 0.000, 0.000,0.0,0.0,0.0,0.0,0.0, 13:25:52.962
66018.804688, 92203.671875, 144924.296875, 116977.585938, 131479.546875, 121743.265625, 117092.335938, 124767.523438, 0.000, 0.000, 0.000,0.0,0.0,0.0,0.0,0.0, 13:25:52.962
66009.796875, 92189.164063, 144945.718750, 117023.585938, 131489.546875, 121777.484375, 117088.562500, 124786.078125, 0.000, 0.000, 0.000,0.0,0.0,0.0,0.0,0.0, 13:25:52.963
65948.750000, 92116.945313, 144990.890625, 117125.843750, 131463.656250, 121811.460938, 117146.851563, 124780.929688, 0.000, 0.000, 0.000,0.0,0.0,0.0,0.0,0.0, 13:25:52.963
65943.609375, 92111.000000, 144975.437500, 117092.562500, 131448.968750, 121782.289063, 117155.703125, 124761.445313, 0.000, 0.000, 0.000,0.0,0.0,0.0,0.0,0.0, 13:25:52.963
66009.484375, 92183.460938, 144923.546875, 116985.718750, 131473.875000, 121745.273438, 117098.570313, 124767.546875, 0.000, 0.000, 0.000,0.0,0.0,0.0,0.0,0.0, 13:25:52.963
66024.281250, 92202.375000, 144931.750000, 117006.664063, 131505.609375, 121779.539063, 117094.906250, 124801.453125, 0.000, 0.000, 0.000,0.0,0.0,0.0,0.0,0.0, 13:25:52.963
65961.671875, 92134.539063, 144987.093750, 117119.179688, 131488.421875, 121823.281250, 117154.945313, 124801.500000, 0.000, 0.000, 0.000,0.0,0.0,0.0,0.0,0.0, 13:25:52.964
65934.875000, 92105.054688, 144993.578125, 117119.757813, 131458.765625, 121795.968750, 117172.960938, 124770.023438, 0.000, 0.000, 0.000,0.0,0.0,0.0,0.0,0.0, 13:25:52.964
65986.078125, 92166.679688, 144932.421875, 117005.093750, 131472.531250, 121747.960938, 117116.343750, 124766.046875, 0.000, 0.000, 0.000,0.0,0.0,0.0,0.0,0.0, 13:25:52.964
66021.929688, 92209.078125, 144922.406250, 116994.164063, 131503.890625, 121767.226563, 117088.203125, 124795.195313, 0.000, 0.000, 0.000,0.0,0.0,0.0,0.0,0.0, 13:25:52.964
65965.273438, 92140.234375, 144981.703125, 117106.750000, 131484.984375, 121810.429688, 117134.445313, 124795.015625, 0.000, 0.000, 0.000,0.0,0.0,0.0,0.0,0.0, 13:25:52.964
65933.109375, 92099.804688, 144992.828125, 117126.890625, 131449.984375, 121798.429688, 117164.914063, 124769.085938, 0.000, 0.000, 0.000,0.0,0.0,0.0,0.0,0.0, 13:25:52.965
65976.265625, 92152.304688, 144940.781250, 117018.531250, 131456.234375, 121747.062500, 117116.523438, 124755.835938, 0.000, 0.000, 0.000,0.0,0.0,0.0,0.0,0.0, 13:25:52.965
66016.117188, 92196.023438, 144916.906250, 116973.960938, 131490.093750, 121744.898438, 117078.031250, 124778.875000, 0.000, 0.000, 0.000,0.0,0.0,0.0,0.0,0.0, 13:25:52.966
65969.515625, 92144.484375, 144965.609375, 117077.023438, 131486.328125, 121796.687500, 117125.664063, 124794.296875, 0.000, 0.000, 0.000,0.0,0.0,0.0,0.0,0.0, 13:25:52.966
65923.921875, 92092.000000, 144990.937500, 117130.515625, 131457.750000, 121802.007813, 117170.835938, 124775.078125, 0.000, 0.000, 0.000,0.0,0.0,0.0,0.0,0.0, 13:25:52.966
65954.343750, 92127.140625, 144945.968750, 117034.781250, 131459.234375, 121751.132813, 117134.382813, 124756.234375, 0.000, 0.000, 0.000,0.0,0.0,0.0,0.0,0.0, 13:25:52.966
66000.812500, 92186.007813, 144914.828125, 116965.914063, 131493.812500, 121740.562500, 117088.398438, 124776.109375, 0.000, 0.000, 0.000,0.0,0.0,0.0,0.0,0.0, 13:25:52.967
65977.539063, 92153.085938, 144962.921875, 117056.304688, 131495.468750, 121791.546875, 117122.421875, 124795.570313, 0.000, 0.000, 0.000,0.0,0.0,0.0,0.0,0.0, 13:25:52.967
65931.656250, 92099.000000, 145003.500000, 117137.773438, 131471.953125, 121812.914063, 117177.562500, 124786.187500, 0.000, 0.000, 0.000,0.0,0.0,0.0,0.0,0.0, 13:25:52.968
65955.703125, 92129.773438, 144972.765625, 117069.312500, 131465.734375, 121767.359375, 117155.812500, 124766.898438, 0.000, 0.000, 0.000,0.0,0.0,0.0,0.0,0.0, 13:25:52.968
66022.445313, 92204.968750, 144925.906250, 116982.968750, 131503.281250, 121748.898438, 117097.585938, 124786.367188, 0.000, 0.000, 0.000,0.0,0.0,0.0,0.0,0.0, 13:25:52.968
66003.250000, 92179.976563, 144963.531250, 117050.070313, 131511.484375, 121796.640625, 117115.132813, 124810.546875, 0.000, 0.000, 0.000,0.0,0.0,0.0,0.0,0.0, 13:25:52.969
65944.726563, 92112.968750, 145023.390625, 117151.101563, 131478.046875, 121823.617188, 117172.468750, 124797.320313, 0.000, 0.000, 0.000,0.0,0.0,0.0,0.0,0.0, 13:25:52.969
65941.625000, 92110.820313, 145002.093750, 117099.039063, 131466.296875, 121785.796875, 117169.960938, 124773.531250, 0.000, 0.000, 0.000,0.0,0.0,0.0,0.0,0.0, 13:25:52.969
66003.000000, 92179.796875, 144938.187500, 116985.875000, 131490.593750, 121748.429688, 117104.140625, 124778.992188, 0.000, 0.000, 0.000,0.0,0.0,0.0,0.0,0.0, 13:25:52.969
66020.726563, 92197.523438, 144958.250000, 117026.289063, 131512.234375, 121783.695313, 117107.046875, 124804.515625, 0.000, 0.000, 0.000,0.0,0.0,0.0,0.0,0.0, 13:25:52.970
65970.703125, 92136.750000, 145012.906250, 117139.187500, 131493.671875, 121823.414063, 117171.882813, 124802.953125, 0.000, 0.000, 0.000,0.0,0.0,0.0,0.0,0.0, 13:25:52.970
65970.187500, 92133.195313, 145013.468750, 117120.945313, 131467.562500, 121793.000000, 117178.679688, 124777.070313, 0.000, 0.000, 0.000,0.0,0.0,0.0,0.0,0.0, 13:25:52.970
66032.773438, 92208.031250, 144952.203125, 117006.546875, 131487.859375, 121753.007813, 117118.195313, 124779.437500, 0.000, 0.000, 0.000,0.0,0.0,0.0,0.0,0.0, 13:25:52.970
66054.117188, 92230.312500, 144950.984375, 117016.273438, 131513.906250, 121779.250000, 117097.523438, 124808.757813, 0.000, 0.000, 0.000,0.0,0.0,0.0,0.0,0.0, 13:25:52.971
65997.968750, 92158.476563, 145013.843750, 117132.789063, 131499.734375, 121822.750000, 117158.851563, 124810.617188, 0.000, 0.000, 0.000,0.0,0.0,0.0,0.0,0.0, 13:25:52.971
65962.500000, 92120.632813, 145014.296875, 117131.273438, 131474.343750, 121801.218750, 117184.312500, 124781.898438, 0.000, 0.000, 0.000,0.0,0.0,0.0,0.0,0.0, 13:25:52.971
66010.265625, 92182.281250, 144947.296875, 117014.640625, 131482.484375, 121752.648438, 117123.335938, 124772.101563, 0.000, 0.000, 0.000,0.0,0.0,0.0,0.0,0.0, 13:25:52.972
66038.296875, 92215.046875, 144941.828125, 116996.890625, 131505.859375, 121764.070313, 117089.187500, 124795.085938, 0.000, 0.000, 0.000,0.0,0.0,0.0,0.0,0.0, 13:25:52.972
65988.562500, 92155.054688, 144997.859375, 117107.914063, 131498.687500, 121814.546875, 117147.367188, 124807.015625, 0.000, 0.000, 0.000,0.0,0.0,0.0,0.0,0.0, 13:25:52.972
65952.375000, 92109.929688, 145013.937500, 117142.156250, 131469.984375, 121806.320313, 117184.851563, 124783.390625, 0.000, 0.000, 0.000,0.0,0.0,0.0,0.0,0.0, 13:25:52.972
66003.515625, 92172.421875, 144960.921875, 117042.023438, 131480.437500, 121760.835938, 117140.726563, 124775.367188, 0.000, 0.000, 0.000,0.0,0.0,0.0,0.0,0.0, 13:25:52.973
66048.664063, 92223.765625, 144939.609375, 116997.164063, 131509.546875, 121760.320313, 117098.570313, 124797.117188, 0.000, 0.000, 0.000,0.0,0.0,0.0,0.0,0.0, 13:25:52.973
65999.421875, 92169.898438, 144984.984375, 117094.906250, 131508.250000, 121810.187500, 117142.335938, 124812.562500, 0.000, 0.000, 0.000,0.0,0.0,0.0,0.0,0.0, 13:25:52.974
65949.734375, 92113.234375, 145020.078125, 117156.687500, 131481.859375, 121817.070313, 117194.593750, 124795.640625, 0.000, 0.000, 0.000,0.0,0.0,0.0,0.0,0.0, 13:25:52.974
65988.718750, 92157.539063, 144970.093750, 117063.726563, 131485.968750, 121772.414063, 117161.601563, 124783.570313, 0.000, 0.000, 0.000,0.0,0.0,0.0,0.0,0.0, 13:25:52.974
66047.437500, 92221.171875, 144933.531250, 116990.570313, 131516.562500, 121758.507813, 117107.265625, 124799.640625, 0.000, 0.000, 0.000,0.0,0.0,0.0,0.0,0.0, 13:25:52.974
66019.671875, 92186.031250, 144974.343750, 117071.953125, 131519.578125, 121806.406250, 117136.281250, 124818.257813, 0.000, 0.000, 0.000,0.0,0.0,0.0,0.0,0.0, 13:25:52.974
65963.039063, 92119.742188, 145011.312500, 117150.671875, 131487.953125, 121823.617188, 117192.453125, 124801.992188, 0.000, 0.000, 0.000,0.0,0.0,0.0,0.0,0.0, 13:25:52.975
65974.101563, 92132.390625, 144979.171875, 117075.351563, 131471.578125, 121772.656250, 117171.171875, 124772.148438, 0.000, 0.000, 0.000,0.0,0.0,0.0,0.0,0.0, 13:25:52.975
66039.101563, 92215.179688, 144920.843750, 116977.156250, 131500.609375, 121748.585938, 117109.101563, 124786.093750, 0.000, 0.000, 0.000,0.0,0.0,0.0,0.0,0.0, 13:25:52.975
66024.078125, 92198.101563, 144952.015625, 117040.234375, 131517.765625, 121793.648438, 117127.093750, 124812.296875, 0.000, 0.000, 0.000,0.0,0.0,0.0,0.0,0.0, 13:25:52.975
65951.343750, 92114.148438, 144994.796875, 117127.875000, 131483.531250, 121813.937500, 117176.156250, 124792.890625, 0.000, 0.000, 0.000,0.0,0.0,0.0,0.0,0.0, 13:25:52.975
65958.679688, 92124.296875, 144974.265625, 117081.804688, 131472.546875, 121777.304688, 117173.648438, 124770.539063, 0.000, 0.000, 0.000,0.0,0.0,0.0,0.0,0.0, 13:25:52.975
66021.398438, 92197.054688, 144923.390625, 116977.359375, 131504.546875, 121741.390625, 117122.171875, 124780.484375, 0.000, 0.000, 0.000,0.0,0.0,0.0,0.0,0.0, 13:25:52.975
66022.335938, 92204.429688, 144938.000000, 117012.585938, 131520.437500, 121779.476563, 117118.757813, 124808.515625, 0.000, 0.000, 0.000,0.0,0.0,0.0,0.0,0.0, 13:25:52.976
65952.085938, 92123.960938, 144994.890625, 117125.351563, 131486.281250, 121816.687500, 117169.070313, 124800.710938, 0.000, 0.000, 0.000,0.0,0.0,0.0,0.0,0.0, 13:25:52.976
65942.515625, 92109.812500, 144990.125000, 117108.117188, 131458.406250, 121790.156250, 117176.515625, 124774.828125, 0.000, 0.000, 0.000,0.0,0.0,0.0,0.0,0.0, 13:25:52.976
66005.234375, 92184.265625, 144930.203125, 116994.007813, 131479.062500, 121751.578125, 117116.945313, 124778.500000, 0.000, 0.000, 0.000,0.0,0.0,0.0,0.0,0.0, 13:25:52.976
66028.437500, 92207.851563, 144932.781250, 117001.968750, 131511.312500, 121779.992188, 117100.875000, 124811.554688, 0.000, 0.000, 0.000,0.0,0.0,0.0,0.0,0.0, 13:25:52.976
65976.421875, 92145.109375, 144985.796875, 117118.242188, 131499.281250, 121827.195313, 117155.789063, 124817.164063, 0.000, 0.000, 0.000,0.0,0.0,0.0,0.0,0.0, 13:25:52.976
65944.664063, 92107.000000, 144998.015625, 117130.539063, 131473.218750, 121810.679688, 117183.664063, 124790.257813, 0.000, 0.000, 0.000,0.0,0.0,0.0,0.0,0.0, 13:25:52.977
65994.507813, 92165.070313, 144942.468750, 117014.773438, 131482.546875, 121763.742188, 117127.648438, 124783.281250, 0.000, 0.000, 0.000,0.0,0.0,0.0,0.0,0.0, 13:25:52.977
66029.304688, 92208.453125, 144923.593750, 116985.359375, 131515.687500, 121773.570313, 117094.210938, 124810.593750, 0.000, 0.000, 0.000,0.0,0.0,0.0,0.0,0.0, 13:25:52.978
65981.210938, 92152.484375, 144977.656250, 117096.445313, 131501.921875, 121820.242188, 117137.015625, 124815.937500, 0.000, 0.000, 0.000,0.0,0.0,0.0,0.0,0.0, 13:25:52.978
65938.445313, 92104.382813, 145009.000000, 117142.515625, 131467.078125, 121815.257813, 117172.421875, 124789.046875, 0.000, 0.000, 0.000,0.0,0.0,0.0,0.0,0.0, 13:25:52.978
65977.921875, 92148.906250, 144953.578125, 117034.335938, 131467.140625, 121758.914063, 117123.984375, 124767.031250, 0.000, 0.000, 0.000,0.0,0.0,0.0,0.0,0.0, 13:25:52.978
66033.664063, 92214.781250, 144916.843750, 116975.304688, 131499.796875, 121756.945313, 117071.664063, 124790.812500, 0.000, 0.000, 0.000,0.0,0.0,0.0,0.0,0.0, 13:25:52.978
65990.171875, 92168.445313, 144968.718750, 117075.859375, 131503.750000, 121807.750000, 117117.992188, 124807.304688, 0.000, 0.000, 0.000,0.0,0.0,0.0,0.0,0.0, 13:25:52.978
65941.445313, 92109.773438, 145005.015625, 117143.296875, 131472.781250, 121813.601563, 117172.351563, 124786.703125, 0.000, 0.000, 0.000,0.0,0.0,0.0,0.0,0.0, 13:25:52.979
65976.695313, 92145.000000, 144963.171875, 117057.625000, 131465.515625, 121764.070313, 117140.507813, 124765.625000, 0.000, 0.000, 0.000,0.0,0.0,0.0,0.0,0.0, 13:25:52.979
66033.109375, 92205.007813, 144918.921875, 116973.226563, 131489.921875, 121743.351563, 117077.781250, 124776.171875, 0.000, 0.000, 0.000,0.0,0.0,0.0,0.0,0.0, 13:25:52.979
66010.648438, 92181.320313, 144952.937500, 117053.664063, 131502.890625, 121796.328125, 117109.812500, 124804.250000, 0.000, 0.000, 0.000,0.0,0.0,0.0,0.0,0.0, 13:25:52.980
65954.968750, 92119.828125, 144996.140625, 117142.921875, 131475.578125, 121819.640625, 117168.843750, 124795.085938, 0.000, 0.000, 0.000,0.0,0.0,0.0,0.0,0.0, 13:25:52.980
65968.085938, 92134.710938, 144969.359375, 117079.750000, 131461.015625, 121775.898438, 117152.750000, 124772.148438, 0.000, 0.000, 0.000,0.0,0.0,0.0,0.0,0.0, 13:25:52.980
66021.734375, 92194.507813, 144922.937500, 116981.695313, 131489.765625, 121746.796875, 117097.406250, 124783.054688, 0.000, 0.000, 0.000,0.0,0.0,0.0,0.0,0.0, 13:25:52.981
66013.906250, 92186.500000, 144948.859375, 117038.804688, 131511.468750, 121794.335938, 117114.843750, 124814.640625, 0.000, 0.000, 0.000,0.0,0.0,0.0,0.0,0.0, 13:25:52.981
65950.875000, 92108.875000, 145004.093750, 117140.390625, 131489.750000, 121826.007813, 117179.507813, 124807.132813, 0.000, 0.000, 0.000,0.0,0.0,0.0,0.0,0.0, 13:25:52.981
65950.093750, 92112.851563, 144986.171875, 117100.921875, 131473.515625, 121792.078125, 117176.781250, 124781.132813, 0.000, 0.000, 0.000,0.0,0.0,0.0,0.0,0.0, 13:25:52.982
66001.882813, 92179.195313, 144929.687500, 116986.726563, 131489.203125, 121749.390625, 117109.476563, 124780.710938, 0.000, 0.000, 0.000,0.0,0.0,0.0,0.0,0.0, 13:25:52.982
66015.312500, 92194.507813, 144938.921875, 117010.843750, 131513.328125, 121782.242188, 117105.281250, 124810.039063, 0.000, 0.000, 0.000,0.0,0.0,0.0,0.0,0.0, 13:25:52.982
65959.437500, 92124.093750, 145002.046875, 117125.726563, 131493.453125, 121820.625000, 117169.093750, 124807.265625, 0.000, 0.000, 0.000,0.0,0.0,0.0,0.0,0.0, 13:25:52.983
65946.671875, 92108.539063, 144999.187500, 117112.500000, 131462.453125, 121786.742188, 117177.945313, 124772.375000, 0.000, 0.000, 0.000,0.0,0.0,0.0,0.0,0.0, 13:25:52.983
66005.726563, 92181.742188, 144933.359375, 116997.007813, 131477.406250, 121744.289063, 117112.718750, 124769.468750, 0.000, 0.000, 0.000,0.0,0.0,0.0,0.0,0.0, 13:25:52.983
66033.578125, 92214.328125, 144931.406250, 116995.507813, 131509.281250, 121768.273438, 117094.507813, 124803.328125, 0.000, 0.000, 0.000,0.0,0.0,0.0,0.0,0.0, 13:25:52.984
65974.882813, 92144.078125, 144995.656250, 117115.578125, 131496.343750, 121811.148438, 117154.296875, 124805.343750, 0.000, 0.000, 0.000,0.0,0.0,0.0,0.0,0.0, 13:25:52.984
65942.960938, 92108.226563, 145009.843750, 117134.179688, 131470.078125, 121797.890625, 117186.703125, 124779.953125, 0.000, 0.000, 0.000,0.0,0.0,0.0,0.0,0.0, 13:25:52.984
65991.781250, 92169.445313, 144947.656250, 117019.671875, 131479.578125, 121749.429688, 117131.226563, 124770.070313, 0.000, 0.000, 0.000,0.0,0.0,0.0,0.0,0.0, 13:25:53.432
66030.492188, 92211.851563, 144928.859375, 116984.648438, 131506.218750, 121755.359375, 117089.789063, 124794.765625, 0.000, 0.000, 0.000,0.0,0.0,0.0,0.0,0.0, 13:25:53.432
65980.359375, 92152.796875, 144988.453125, 117094.679688, 131497.203125, 121806.226563, 117136.859375, 124805.273438, 0.000, 0.000, 0.000,0.0,0.0,0.0,0.0,0.0, 13:25:53.432
65941.820313, 92111.023438, 145011.984375, 117143.390625, 131469.140625, 121809.781250, 117178.281250, 124786.187500, 0.000, 0.000, 0.000,0.0,0.0,0.0,0.0,0.0, 13:25:53.432
65977.031250, 92149.109375, 144958.031250, 117039.898438, 131467.078125, 121758.687500, 117134.132813, 124769.156250, 0.000, 0.000, 0.000,0.0,0.0,0.0,0.0,0.0, 13:25:53.432
66034.312500, 92213.882813, 144916.609375, 116977.109375, 131502.031250, 121754.867188, 117086.125000, 124794.234375, 0.000, 0.000, 0.000,0.0,0.0,0.0,0.0,0.0, 13:25:53.433
66002.507813, 92181.164063, 144961.078125, 117075.125000, 131512.781250, 121810.453125, 117131.453125, 124817.414063, 0.000, 0.000, 0.000,0.0,0.0,0.0,0.0,0.0, 13:25:53.433
65950.968750, 92117.054688, 145012.953125, 117153.554688, 131481.031250, 121821.382813, 117183.617188, 124796.445313, 0.000, 0.000, 0.000,0.0,0.0,0.0,0.0,0.0, 13:25:53.433
65982.210938, 92151.234375, 144977.968750, 117073.671875, 131470.875000, 121773.617188, 117156.593750, 124775.367188, 0.000, 0.000, 0.000,0.0,0.0,0.0,0.0,0.0, 13:25:53.433
66036.640625, 92217.125000, 144933.156250, 116987.351563, 131508.609375, 121755.625000, 117108.671875, 124794.968750, 0.000, 0.000, 0.000,0.0,0.0,0.0,0.0,0.0, 13:25:53.433
66018.937500, 92189.523438, 144961.187500, 117054.609375, 131518.687500, 121804.796875, 117124.726563, 124820.382813, 0.000, 0.000, 0.000,0.0,0.0,0.0,0.0,0.0, 13:25:53.433
65956.039063, 92118.843750, 145014.625000, 117149.492188, 131483.218750, 121821.453125, 117174.679688, 124797.500000, 0.000, 0.000, 0.000,0.0,0.0,0.0,0.0,0.0, 13:25:53.434
65962.718750, 92130.804688, 144983.468750, 117087.265625, 131468.484375, 121775.898438, 117160.445313, 124772.460938, 0.000, 0.000, 0.000,0.0,0.0,0.0,0.0,0.0, 13:25:53.434
66023.789063, 92203.695313, 144930.375000, 116987.398438, 131491.828125, 121744.179688, 117094.796875, 124781.406250, 0.000, 0.000, 0.000,0.0,0.0,0.0,0.0,0.0, 13:25:53.434
66025.914063, 92201.343750, 144955.656250, 117039.851563, 131517.406250, 121788.437500, 117107.781250, 124812.492188, 0.000, 0.000, 0.000,0.0,0.0,0.0,0.0,0.0, 13:25:53.434
65965.718750, 92127.804688, 145010.046875, 117145.710938, 131494.125000, 121822.281250, 117171.820313, 124804.406250, 0.000, 0.000, 0.000,0.0,0.0,0.0,0.0,0.0, 13:25:53.434
65959.125000, 92117.460938, 144991.562500, 117107.265625, 131466.156250, 121785.531250, 117167.328125, 124774.828125, 0.000, 0.000, 0.000,0.0,0.0,0.0,0.0,0.0, 13:25:53.434
66022.554688, 92193.234375, 144933.000000, 116994.031250, 131488.093750, 121747.984375, 117110.554688, 124780.578125, 0.000, 0.000, 0.000,0.0,0.0,0.0,0.0,0.0, 13:25:53.435
66035.296875, 92213.101563, 144945.515625, 117016.898438, 131517.609375, 121779.453125, 117104.406250, 124810.281250, 0.000, 0.000, 0.000,0.0,0.0,0.0,0.0,0.0, 13:25:53.435
65967.531250, 92132.234375, 144995.734375, 117122.218750, 131488.953125, 121816.398438, 117153.515625, 124802.054688, 0.000, 0.000, 0.000,0.0,0.0,0.0,0.0,0.0, 13:25:53.435
65947.500000, 92107.468750, 144997.687500, 117117.281250, 131466.031250, 121792.234375, 117172.687500, 124774.117188, 0.000, 0.000, 0.000,0.0,0.0,0.0,0.0,0.0, 13:25:53.435
65999.601563, 92175.507813, 144941.796875, 117006.195313, 131481.500000, 121744.562500, 117120.390625, 124769.265625, 0.000, 0.000, 0.000,0.0,0.0,0.0,0.0,0.0, 13:25:53.435
66033.843750, 92214.171875, 144926.875000, 116992.335938, 131512.671875, 121764.210938, 117092.914063, 124799.015625, 0.000, 0.000, 0.000,0.0,0.0,0.0,0.0,0.0, 13:25:53.435
65984.492188, 92152.929688, 144984.000000, 117106.015625, 131495.781250, 121812.242188, 117141.554688, 124803.304688, 0.000, 0.000, 0.000,0.0,0.0,0.0,0.0,0.0, 13:25:53.436
65952.125000, 92116.046875, 145004.203125, 117133.039063, 131467.453125, 121802.632813, 117174.921875, 124778.812500, 0.000, 0.000, 0.000,0.0,0.0,0.0,0.0,0.0, 13:25:53.436
65995.781250, 92169.250000, 144955.656250, 117025.773438, 131477.968750, 121753.343750, 117131.500000, 124769.351563, 0.000, 0.000, 0.000,0.0,0.0,0.0,0.0,0.0, 13:25:53.436
66048.265625, 92224.656250, 144931.593750, 116985.140625, 131516.906250, 121761.328125, 117095.796875, 124801.007813, 0.000, 0.000, 0.000,0.0,0.0,0.0,0.0,0.0, 13:25:53.436
66008.945313, 92175.617188, 144987.250000, 117094.507813, 131513.765625, 121814.742188, 117143.343750, 124815.710938, 0.000, 0.000, 0.000,0.0,0.0,0.0,0.0,0.0, 13:25:53.436
65955.460938, 92120.476563, 145020.546875, 117148.843750, 131482.765625, 121819.398438, 117189.390625, 124793.632813, 0.000, 0.000, 0.000,0.0,0.0,0.0,0.0,0.0, 13:25:53.436
65976.515625, 92147.812500, 144970.250000, 117048.281250, 131483.625000, 121767.804688, 117156.148438, 124775.257813, 0.000, 0.000, 0.000,0.0,0.0,0.0,0.0,0.0, 13:25:53.437
66032.234375, 92210.937500, 144926.890625, 116977.781250, 131513.687500, 121757.632813, 117101.210938, 124795.171875, 0.000, 0.000, 0.000,0.0,0.0,0.0,0.0,0.0, 13:25:53.437
66003.109375, 92178.125000, 144969.750000, 117068.062500, 131510.437500, 121803.679688, 117131.382813, 124809.718750, 0.000, 0.000, 0.000,0.0,0.0,0.0,0.0,0.0, 13:25:53.437
65939.234375, 92105.140625, 145012.546875, 117143.234375, 131475.125000, 121812.375000, 117182.796875, 124784.914063, 0.000, 0.000, 0.000,0.0,0.0,0.0,0.0,0.0, 13:25:53.437
65956.976563, 92129.375000, 144973.828125, 117066.851563, 131467.531250, 121770.648438, 117155.859375, 124767.140625, 0.000, 0.000, 0.000,0.0,0.0,0.0,0.0,0.0, 13:25:53.437
66020.882813, 92198.617188, 144922.046875, 116976.085938, 131495.046875, 121746.773438, 117088.828125, 124778.765625, 0.000, 0.000, 0.000,0.0,0.0,0.0,0.0,0.0, 13:25:53.437
66005.148438, 92179.953125, 144948.203125, 117039.406250, 131503.484375, 121790.023438, 117101.500000, 124801.164063, 0.000, 0.000, 0.000,0.0,0.0,0.0,0.0,0.0, 13:25:53.437
65937.195313, 92099.843750, 145005.843750, 117136.523438, 131470.406250, 121812.000000, 117160.304688, 124785.515625, 0.000, 0.000, 0.000,0.0,0.0,0.0,0.0,0.0, 13:25:53.438
65950.539063, 92118.039063, 144983.718750, 117086.343750, 131458.218750, 121773.507813, 117154.695313, 124761.312500, 0.000, 0.000, 0.000,0.0,0.0,0.0,0.0,0.0, 13:25:53.438
66009.750000, 92185.031250, 144927.640625, 116977.718750, 131483.390625, 121737.851563, 117093.500000, 124766.695313, 0.000, 0.000, 0.000,0.0,0.0,0.0,0.0,0.0, 13:25:53.438
66000.695313, 92177.164063, 144946.046875, 117014.257813, 131496.171875, 121772.500000, 117094.437500, 124790.546875, 0.000, 0.000, 0.000,0.0,0.0,0.0,0.0,0.0, 13:25:53.438
65938.781250, 92106.867188, 144994.468750, 117120.031250, 131463.843750, 121807.929688, 117146.203125, 124783.054688, 0.000, 0.000, 0.000,0.0,0.0,0.0,0.0,0.0, 13:25:53.438
65931.679688, 92099.171875, 144985.953125, 117095.156250, 131444.234375, 121776.632813, 117156.125000, 124751.695313, 0.000, 0.000, 0.000,0.0,0.0,0.0,0.0,0.0, 13:25:53.438
65991.335938, 92168.578125, 144928.343750, 116982.210938, 131461.734375, 121731.375000, 117095.109375, 124753.710938, 0.000, 0.000, 0.000,0.0,0.0,0.0,0.0,0.0, 13:25:53.438
66009.593750, 92189.632813, 144927.515625, 116994.882813, 131489.312500, 121766.312500, 117079.375000, 124790.429688, 0.000, 0.000, 0.000,0.0,0.0,0.0,0.0,0.0, 13:25:53.439
65949.960938, 92123.539063, 144985.234375, 117109.726563, 131471.187500, 121809.851563, 117138.648438, 124791.148438, 0.000, 0.000, 0.000,0.0,0.0,0.0,0.0,0.0, 13:25:53.439
65927.515625, 92097.898438, 144987.312500, 117111.382813, 131445.625000, 121788.820313, 117157.875000, 124764.171875, 0.000, 0.000, 0.000,0.0,0.0,0.0,0.0,0.0, 13:25:53.439
65979.484375, 92158.742188, 144937.109375, 117001.789063, 131454.359375, 121741.656250, 117106.687500, 124758.093750, 0.000, 0.000, 0.000,0.0,0.0,0.0,0.0,0.0, 13:25:53.439
66012.765625, 92197.007813, 144929.109375, 116984.601563, 131482.656250, 121756.789063, 117078.476563, 124784.843750, 0.000, 0.000, 0.000,0.0,0.0,0.0,0.0,0.0, 13:25:53.440
65960.687500, 92133.195313, 144975.000000, 117091.289063, 131473.296875, 121806.992188, 117128.453125, 124791.328125, 0.000, 0.000, 0.000,0.0,0.0,0.0,0.0,0.0, 13:25:53.440
65927.945313, 92092.242188, 144994.546875, 117125.437500, 131442.984375, 121800.843750, 117164.531250, 124769.132813, 0.000, 0.000, 0.000,0.0,0.0,0.0,0.0,0.0, 13:25:53.440
65975.593750, 92146.781250, 144950.546875, 117025.703125, 131449.468750, 121752.609375, 117123.179688, 124759.031250, 0.000, 0.000, 0.000,0.0,0.0,0.0,0.0,0.0, 13:25:53.440
66020.101563, 92200.765625, 144921.468750, 116976.890625, 131486.812500, 121756.476563, 117082.906250, 124786.250000, 0.000, 0.000, 0.000,0.0,0.0,0.0,0.0,0.0, 13:25:53.441
65969.851563, 92139.632813, 144976.265625, 117077.468750, 131478.343750, 121803.054688, 117126.468750, 124796.914063, 0.000, 0.000, 0.000,0.0,0.0,0.0,0.0,0.0, 13:25:53.441
65915.781250, 92078.679688, 145008.296875, 117133.437500, 131446.609375, 121805.312500, 117174.453125, 124771.835938, 0.000, 0.000, 0.000,0.0,0.0,0.0,0.0,0.0, 13:25:53.442
65947.835938, 92119.335938, 144956.718750, 117037.281250, 131445.953125, 121757.007813, 117138.046875, 124753.617188, 0.000, 0.000, 0.000,0.0,0.0,0.0,0.0,0.0, 13:25:53.443
66005.617188, 92187.109375, 144916.375000, 116962.406250, 131478.796875, 121746.437500, 117083.304688, 124775.007813, 0.000, 0.000, 0.000,0.0,0.0,0.0,0.0,0.0, 13:25:53.444
65968.507813, 92150.296875, 144960.796875, 117051.453125, 131482.984375, 121796.125000, 117119.250000, 124797.851563, 0.000, 0.000, 0.000,0.0,0.0,0.0,0.0,0.0, 13:25:53.444
65915.335938, 92090.570313, 144999.656250, 117136.343750, 131454.265625, 121818.031250, 117175.328125, 124785.742188, 0.000, 0.000, 0.000,0.0,0.0,0.0,0.0,0.0, 13:25:53.444
65933.976563, 92108.492188, 144961.656250, 117062.117188, 131442.687500, 121771.898438, 117153.023438, 124761.085938, 0.000, 0.000, 0.000,0.0,0.0,0.0,0.0,0.0, 13:25:53.445
65995.625000, 92178.257813, 144913.640625, 116967.031250, 131467.562500, 121742.796875, 117087.171875, 124770.140625, 0.000, 0.000, 0.000,0.0,0.0,0.0,0.0,0.0, 13:25:53.445
65987.554688, 92172.421875, 144951.640625, 117036.570313, 131485.093750, 121794.406250, 117109.835938, 124803.218750, 0.000, 0.000, 0.000,0.0,0.0,0.0,0.0,0.0, 13:25:53.445
65917.882813, 92094.343750, 145008.171875, 117134.000000, 131455.562500, 121817.875000, 117169.250000, 124787.929688, 0.000, 0.000, 0.000,0.0,0.0,0.0,0.0,0.0, 13:25:53.445
65917.507813, 92090.523438, 144982.109375, 117079.906250, 131436.015625, 121777.578125, 117161.156250, 124762.273438, 0.000, 0.000, 0.000,0.0,0.0,0.0,0.0,0.0, 13:25:53.446
65984.070313, 92165.312500, 144924.703125, 116975.257813, 131463.656250, 121748.312500, 117101.234375, 124774.476563, 0.000, 0.000, 0.000,0.0,0.0,0.0,0.0,0.0, 13:25:53.446
65988.804688, 92166.992188, 144937.359375, 117009.476563, 131486.609375, 121786.601563, 117102.531250, 124803.460938, 0.000, 0.000, 0.000,0.0,0.0,0.0,0.0,0.0, 13:25:53.446
65927.070313, 92097.429688, 144989.640625, 117118.796875, 131462.781250, 121823.242188, 117160.531250, 124797.539063, 0.000, 0.000, 0.000,0.0,0.0,0.0,0.0,0.0, 13:25:53.446
65910.664063, 92081.046875, 144984.234375, 117096.000000, 131435.937500, 121790.828125, 117167.257813, 124768.234375, 0.000, 0.000, 0.000,0.0,0.0,0.0,0.0,0.0, 13:25:53.446
65972.179688, 92150.117188, 144924.140625, 116979.210938, 131458.734375, 121750.148438, 117110.843750, 124770.203125, 0.000, 0.000, 0.000,0.0,0.0,0.0,0.0,0.0, 13:25:53.447
65990.593750, 92169.671875, 144922.484375, 116984.914063, 131490.078125, 121778.492188, 117098.078125, 124801.226563, 0.000, 0.000, 0.000,0.0,0.0,0.0,0.0,0.0, 13:25:53.447
65934.601563, 92105.476563, 144981.093750, 117103.351563, 131474.500000, 121824.914063, 117153.179688, 124806.234375, 0.000, 0.000, 0.000,0.0,0.0,0.0,0.0,0.0, 13:25:53.447
65904.921875, 92075.039063, 144994.000000, 117115.562500, 131448.406250, 121804.304688, 117179.125000, 124777.468750, 0.000, 0.000, 0.000,0.0,0.0,0.0,0.0,0.0, 13:25:53.447
65960.195313, 92138.578125, 144942.859375, 117006.304688, 131460.578125, 121753.859375, 117125.460938, 124766.179688, 0.000, 0.000, 0.000,0.0,0.0,0.0,0.0,0.0, 13:25:53.448
66002.710938, 92184.382813, 144930.968750, 116981.000000, 131483.015625, 121762.554688, 117085.789063, 124789.359375, 0.000, 0.000, 0.000,0.0,0.0,0.0,0.0,0.0, 13:25:53.448
65956.445313, 92125.484375, 144987.062500, 117090.679688, 131476.718750, 121813.937500, 117138.601563, 124802.257813, 0.000, 0.000, 0.000,0.0,0.0,0.0,0.0,0.0, 13:25:53.448
65914.710938, 92074.875000, 145009.546875, 117126.265625, 131445.734375, 121807.546875, 117178.789063, 124777.179688, 0.000, 0.000, 0.000,0.0,0.0,0.0,0.0,0.0, 13:25:53.448
65966.453125, 92135.718750, 144956.734375, 117026.914063, 131456.953125, 121764.453125, 117139.992188, 124771.765625, 0.000, 0.000, 0.000,0.0,0.0,0.0,0.0,0.0, 13:25:53.449
66009.882813, 92187.937500, 144933.984375, 116975.750000, 131486.406250, 121762.484375, 117093.367188, 124794.609375, 0.000, 0.000, 0.000,0.0,0.0,0.0,0.0,0.0, 13:25:53.449
65964.734375, 92136.054688, 144978.234375, 117067.617188, 131481.765625, 121810.562500, 117134.445313, 124807.976563, 0.000, 0.000, 0.000,0.0,0.0,0.0,0.0,0.0, 13:25:53.449
65913.257813, 92077.445313, 145010.062500, 117131.500000, 131448.953125, 121817.875000, 117179.265625, 124785.851563, 0.000, 0.000, 0.000,0.0,0.0,0.0,0.0,0.0, 13:25:53.449
65945.890625, 92115.601563, 144965.343750, 117043.164063, 131445.703125, 121772.390625, 117140.367188, 124767.476563, 0.000, 0.000, 0.000,0.0,0.0,0.0,0.0,0.0, 13:25:53.450
65996.898438, 92175.882813, 144925.125000, 116963.812500, 131475.750000, 121753.992188, 117087.929688, 124783.234375, 0.000, 0.000, 0.000,0.0,0.0,0.0,0.0,0.0, 13:25:53.450
65971.304688, 92142.335938, 144964.531250, 117041.976563, 131478.296875, 121797.960938, 117116.117188, 124799.554688, 0.000, 0.000, 0.000,0.0,0.0,0.0,0.0,0.0, 13:25:53.450
65924.726563, 92088.203125, 145009.578125, 117130.539063, 131448.640625, 121816.218750, 117172.062500, 124782.210938, 0.000, 0.000, 0.000,0.0,0.0,0.0,0.0,0.0, 13:25:53.450
65944.773438, 92114.015625, 144969.656250, 117061.359375, 131436.671875, 121776.125000, 117140.835938, 124762.046875, 0.000, 0.000, 0.000,0.0,0.0,0.0,0.0,0.0, 13:25:53.451
66007.625000, 92184.468750, 144925.781250, 116968.039063, 131468.625000, 121751.218750, 117085.179688, 124776.265625, 0.000, 0.000, 0.000,0.0,0.0,0.0,0.0,0.0, 13:25:53.451
65999.398438, 92174.429688, 144956.781250, 117029.054688, 131488.140625, 121794.742188, 117102.437500, 124804.289063, 0.000, 0.000, 0.000,0.0,0.0,0.0,0.0,0.0, 13:25:53.451
65933.148438, 92097.718750, 145008.375000, 117129.414063, 131457.015625, 121820.757813, 117160.734375, 124791.929688, 0.000, 0.000, 0.000,0.0,0.0,0.0,0.0,0.0, 13:25:53.451
65928.945313, 92095.757813, 144988.093750, 117083.929688, 131436.484375, 121781.398438, 117154.671875, 124763.429688, 0.000, 0.000, 0.000,0.0,0.0,0.0,0.0,0.0, 13:25:53.452
65980.804688, 92161.382813, 144935.234375, 116973.046875, 131455.953125, 121741.992188, 117091.304688, 124764.210938, 0.000, 0.000, 0.000,0.0,0.0,0.0,0.0,0.0, 13:25:53.452
65995.000000, 92177.609375, 144948.125000, 117004.289063, 131486.171875, 121780.726563, 117094.078125, 124799.171875, 0.000, 0.000, 0.000,0.0,0.0,0.0,0.0,0.0, 13:25:53.452
65942.765625, 92114.015625, 145003.359375, 117117.460938, 131467.484375, 121822.281250, 117155.859375, 124798.414063, 0.000, 0.000, 0.000,0.0,0.0,0.0,0.0,0.0, 13:25:53.452
65931.851563, 92091.890625, 145003.578125, 117106.953125, 131441.468750, 121793.132813, 117168.195313, 124767.187500, 0.000, 0.000, 0.000,0.0,0.0,0.0,0.0,0.0, 13:25:53.452
65986.171875, 92158.742188, 144949.578125, 116996.625000, 131458.359375, 121747.625000, 117107.335938, 124764.257813, 0.000, 0.000, 0.000,0.0,0.0,0.0,0.0,0.0, 13:25:53.453
66006.460938, 92187.734375, 144944.703125, 116993.187500, 131488.250000, 121768.968750, 117088.445313, 124793.140625, 0.000, 0.000, 0.000,0.0,0.0,0.0,0.0,0.0, 13:25:53.453
65950.476563, 92128.101563, 145000.203125, 117108.742188, 131474.500000, 121815.906250, 117149.781250, 124798.125000, 0.000, 0.000, 0.000,0.0,0.0,0.0,0.0,0.0, 13:25:53.453
65916.320313, 92087.773438, 145010.203125, 117121.906250, 131443.390625, 121797.203125, 117175.507813, 124767.968750, 0.000, 0.000, 0.000,0.0,0.0,0.0,0.0,0.0, 13:25:53.453
65959.367188, 92142.937500, 144945.109375, 117005.812500, 131451.921875, 121750.750000, 117118.015625, 124759.500000, 0.000, 0.000, 0.000,0.0,0.0,0.0,0.0,0.0, 13:25:53.454
65995.109375, 92184.312500, 144927.359375, 116975.148438, 131481.359375, 121759.734375, 117082.390625, 124786.367188, 0.000, 0.000, 0.000,0.0,0.0,0.0,0.0,0.0, 13:25:53.454
65948.085938, 92123.804688, 144981.546875, 117082.656250, 131479.531250, 121809.203125, 117142.359375, 124800.492188, 0.000, 0.000, 0.000,0.0,0.0,0.0,0.0,0.0, 13:25:53.454
65907.554688, 92078.765625, 145007.625000, 117127.093750, 131444.093750, 121806.382813, 117177.695313, 124776.796875, 0.000, 0.000, 0.000,0.0,0.0,0.0,0.0,0.0, 13:25:53.454
65943.140625, 92122.601563, 144957.343750, 117023.781250, 131439.734375, 121754.929688, 117129.195313, 124756.750000, 0.000, 0.000, 0.000,0.0,0.0,0.0,0.0,0.0, 13:25:53.455
65999.132813, 92184.085938, 144922.312500, 116965.515625, 131471.968750, 121750.593750, 117078.296875, 124779.460938, 0.000, 0.000, 0.000,0.0,0.0,0.0,0.0,0.0, 13:25:53.455
65970.187500, 92146.492188, 144968.156250, 117060.906250, 131476.562500, 121801.781250, 117118.640625, 124800.382813, 0.000, 0.000, 0.000,0.0,0.0,0.0,0.0,0.0, 13:25:53.455
65919.000000, 92082.945313, 145012.218750, 117133.687500, 131447.625000, 121814.093750, 117171.460938, 124781.781250, 0.000, 0.000, 0.000,0.0,0.0,0.0,0.0,0.0, 13:25:53.455
65936.835938, 92106.882813, 144964.484375, 117042.085938, 131435.203125, 121760.562500, 117131.656250, 124751.500000, 0.000, 0.000, 0.000,0.0,0.0,0.0,0.0,0.0, 13:25:53.455
66001.437500, 92183.507813, 144909.531250, 116953.757813, 131468.906250, 121744.742188, 117071.281250, 124773.218750, 0.000, 0.000, 0.000,0.0,0.0,0.0,0.0,0.0, 13:25:53.455
65981.140625, 92157.421875, 144945.828125, 117029.617188, 131483.734375, 121794.453125, 117102.929688, 124800.492188, 0.000, 0.000, 0.000,0.0,0.0,0.0,0.0,0.0, 13:25:53.456
65919.296875, 92084.984375, 144999.156250, 117124.656250, 131453.437500, 121817.382813, 117165.226563, 124786.007813, 0.000, 0.000, 0.000,0.0,0.0,0.0,0.0,0.0, 13:25:53.456
65923.117188, 92095.304688, 144971.781250, 117062.828125, 131433.890625, 121772.500000, 117153.179688, 124760.664063, 0.000, 0.000, 0.000,0.0,0.0,0.0,0.0,0.0, 13:25:53.456
65980.804688, 92165.648438, 144916.031250, 116958.203125, 131460.906250, 121743.640625, 117088.132813, 124773.710938, 0.000, 0.000, 0.000,0.0,0.0,0.0,0.0,0.0, 13:25:53.456
65981.031250, 92162.093750, 144941.359375, 117009.117188, 131480.015625, 121785.289063, 117093.656250, 124805.656250, 0.000, 0.000, 0.000,0.0,0.0,0.0,0.0,0.0, 13:25:53.456
65927.335938, 92097.476563, 144989.375000, 117117.593750, 131458.562500, 121820.468750, 117153.218750, 124801.562500, 0.000, 0.000, 0.000,0.0,0.0,0.0,0.0,0.0, 13:25:53.456
65915.132813, 92080.265625, 144980.296875, 117079.929688, 131434.093750, 121780.101563, 117157.960938, 124767.742188, 0.000, 0.000, 0.000,0.0,0.0,0.0,0.0,0.0, 13:25:53.457
65971.078125, 92144.195313, 144920.593750, 116961.914063, 131452.078125, 121737.789063, 117094.593750, 124765.132813, 0.000, 0.000, 0.000,0.0,0.0,0.0,0.0,0.0, 13:25:53.457
65987.039063, 92163.953125, 144922.140625, 116981.625000, 131478.500000, 121771.226563, 117082.054688, 124795.148438, 0.000, 0.000, 0.000,0.0,0.0,0.0,0.0,0.0, 13:25:53.457
65929.531250, 92094.640625, 144976.109375, 117095.734375, 131448.328125, 121810.187500, 117130.710938, 124788.312500, 0.000, 0.000, 0.000,0.0,0.0,0.0,0.0,0.0, 13:25:53.457
65912.250000, 92074.921875, 144979.640625, 117095.468750, 131421.234375, 121789.085938, 117149.601563, 124761.664063, 0.000, 0.000, 0.000,0.0,0.0,0.0,0.0,0.0, 13:25:53.457
65967.125000, 92143.992188, 144923.437500, 116984.960938, 131439.781250, 121745.500000, 117099.375000, 124759.523438, 0.000, 0.000, 0.000,0.0,0.0,0.0,0.0,0.0, 13:25:53.457
65989.835938, 92174.726563, 144923.250000, 116976.937500, 131462.937500, 121760.679688, 117071.882813, 124783.546875, 0.000, 0.000, 0.000,0.0,0.0,0.0,0.0,0.0, 13:25:53.458
65942.312500, 92120.140625, 144971.843750, 117088.695313, 131454.093750, 121811.437500, 117126.062500, 124793.453125, 0.000, 0.000, 0.000,0.0,0.0,0.0,0.0,0.0, 13:25:53.458
65913.726563, 92086.726563, 144990.265625, 117117.820313, 131434.156250, 121803.164063, 117162.539063, 124771.546875, 0.000, 0.000, 0.000,0.058196157,0.13904397,0.050841693,0.09014483,0.023447013, 13:25:53.912
65961.109375, 92137.039063, 144938.921875, 117007.062500, 131442.484375, 121750.640625, 117112.585938, 124757.734375, 0.000, 0.000, 0.000,0.058196157,0.13904397,0.050841693,0.09014483,0.023447013, 13:25:53.913
66006.242188, 92186.679688, 144920.437500, 116968.773438, 131469.250000, 121751.359375, 117072.312500, 124780.820313, 0.000, 0.000, 0.000,0.058196157,0.13904397,0.050841693,0.09014483,0.023447013, 13:25:53.913
65964.625000, 92136.617188, 144975.828125, 117080.781250, 131467.140625, 121804.195313, 117119.070313, 124796.132813, 0.000, 0.000, 0.000,0.058196157,0.13904397,0.050841693,0.09014483,0.023447013, 13:25:53.913
65911.421875, 92071.773438, 145008.968750, 117128.656250, 131426.953125, 121797.804688, 117158.273438, 124765.734375, 0.000, 0.000, 0.000,0.058196157,0.13904397,0.050841693,0.09014483,0.023447013, 13:25:53.913
65948.507813, 92117.484375, 144957.890625, 117028.703125, 131427.109375, 121748.609375, 117120.273438, 124750.203125, 0.000, 0.000, 0.000,0.058196157,0.13904397,0.050841693,0.09014483,0.023447013, 13:25:53.914
66002.843750, 92178.390625, 144917.843750, 116959.429688, 131465.140625, 121741.718750, 117070.898438, 124772.039063, 0.000, 0.000, 0.000,0.058196157,0.13904397,0.050841693,0.09014483,0.023447013, 13:25:53.914
65972.554688, 92146.937500, 144957.734375, 117051.187500, 131478.234375, 121797.492188, 117111.984375, 124799.085938, 0.000, 0.000, 0.000,0.058196157,0.13904397,0.050841693,0.09014483,0.023447013, 13:25:53.914
65915.203125, 92085.406250, 144999.312500, 117128.835938, 131448.484375, 121809.757813, 117163.773438, 124779.078125, 0.000, 0.000, 0.000,0.058196157,0.13904397,0.050841693,0.09014483,0.023447013, 13:25:53.914
65936.101563, 92112.632813, 144961.984375, 117047.898438, 131441.796875, 121763.515625, 117141.265625, 124761.445313, 0.000, 0.000, 0.000,0.058196157,0.13904397,0.050841693,0.09014483,0.023447013, 13:25:53.914
65997.296875, 92184.023438, 144921.156250, 116966.585938, 131475.734375, 121743.625000, 117089.453125, 124775.773438, 0.000, 0.000, 0.000,0.058196157,0.13904397,0.050841693,0.09014483,0.023447013, 13:25:53.914
65989.585938, 92168.312500, 144957.109375, 117042.421875, 131490.687500, 121794.250000, 117113.570313, 124802.593750, 0.000, 0.000, 0.000,0.058196157,0.13904397,0.050841693,0.09014483,0.023447013, 13:25:53.915
65923.585938, 92093.117188, 145006.015625, 117134.695313, 131449.906250, 121811.617188, 117164.085938, 124781.734375, 0.000, 0.000, 0.000,0.058196157,0.13904397,0.050841693,0.09014483,0.023447013, 13:25:53.915
65934.718750, 92107.062500, 144976.296875, 117076.554688, 131433.750000, 121773.078125, 117148.460938, 124758.468750, 0.000, 0.000, 0.000,0.058196157,0.13904397,0.050841693,0.09014483,0.023447013, 13:25:53.915
65997.140625, 92180.421875, 144925.281250, 116976.351563, 131464.281250, 121742.484375, 117088.757813, 124769.914063, 0.000, 0.000, 0.000,0.058196157,0.13904397,0.050841693,0.09014483,0.023447013, 13:25:53.916
65995.468750, 92178.609375, 144940.468750, 117017.281250, 131483.812500, 121782.070313, 117091.773438, 124799.976563, 0.000, 0.000, 0.000,0.058196157,0.13904397,0.050841693,0.09014483,0.023447013, 13:25:53.916
65936.125000, 92107.265625, 144993.906250, 117123.960938, 131457.843750, 121818.031250, 117149.312500, 124794.164063, 0.000, 0.000, 0.000,0.058196157,0.13904397,0.050841693,0.09014483,0.023447013, 13:25:53.916
65927.492188, 92097.835938, 144992.390625, 117100.945313, 131436.812500, 121786.093750, 117158.539063, 124767.367188, 0.000, 0.000, 0.000,0.058196157,0.13904397,0.050841693,0.09014483,0.023447013, 13:25:53.916
65984.203125, 92163.328125, 144940.328125, 116990.835938, 131458.062500, 121741.093750, 117103.218750, 124766.179688, 0.000, 0.000, 0.000,0.058196157,0.13904397,0.050841693,0.09014483,0.023447013, 13:25:53.917
66003.312500, 92183.328125, 144937.265625, 117001.343750, 131487.125000, 121770.757813, 117089.007813, 124798.414063, 0.000, 0.000, 0.000,0.058196157,0.13904397,0.050841693,0.09014483,0.023447013, 13:25:53.917
65944.882813, 92116.656250, 144997.062500, 117116.406250, 131469.000000, 121814.882813, 117147.257813, 124800.445313, 0.000, 0.000, 0.000,0.058196157,0.13904397,0.050841693,0.09014483,0.023447013, 13:25:53.917
65922.984375, 92094.484375, 145003.296875, 117122.625000, 131438.468750, 121791.726563, 117166.453125, 124770.695313, 0.000, 0.000, 0.000,0.058196157,0.13904397,0.050841693,0.09014483,0.023447013, 13:25:53.917
65981.140625, 92155.437500, 144940.625000, 117005.343750, 131452.218750, 121745.726563, 117108.070313, 124763.500000, 0.000, 0.000, 0.000,0.058196157,0.13904397,0.050841693,0.09014483,0.023447013, 13:25:53.917
66013.328125, 92193.476563, 144930.671875, 116991.218750, 131489.421875, 121765.437500, 117084.671875, 124793.851563, 0.000, 0.000, 0.000,0.058196157,0.13904397,0.050841693,0.09014483,0.023447013, 13:25:53.917
65956.640625, 92129.882813, 144987.359375, 117103.937500, 131480.593750, 121814.476563, 117143.210938, 124800.445313, 0.000, 0.000, 0.000,0.058196157,0.13904397,0.050841693,0.09014483,0.023447013, 13:25:53.918
65918.664063, 92083.570313, 145006.468750, 117133.734375, 131438.625000, 121803.679688, 117171.664063, 124771.726563, 0.000, 0.000, 0.000,0.058196157,0.13904397,0.050841693,0.09014483,0.023447013, 13:25:53.918
65964.289063, 92140.390625, 144950.343750, 117020.429688, 131441.328125, 121753.125000, 117113.906250, 124759.703125, 0.000, 0.000, 0.000,0.058196157,0.13904397,0.050841693,0.09014483,0.023447013, 13:25:53.918
66008.992188, 92192.382813, 144925.546875, 116972.578125, 131474.281250, 121754.062500, 117067.187500, 124781.781250, 0.000, 0.000, 0.000,0.058196157,0.13904397,0.050841693,0.09014483,0.023447013, 13:25:53.918
65975.148438, 92146.492188, 144974.453125, 117077.875000, 131480.578125, 121806.046875, 117120.898438, 124799.929688, 0.000, 0.000, 0.000,0.058196157,0.13904397,0.050841693,0.09014483,0.023447013, 13:25:53.918
65925.414063, 92089.226563, 145010.406250, 117136.750000, 131445.625000, 121806.476563, 117168.937500, 124778.835938, 0.000, 0.000, 0.000,0.058196157,0.13904397,0.050841693,0.09014483,0.023447013, 13:25:53.918
65957.578125, 92127.789063, 144965.046875, 117041.351563, 131444.328125, 121758.242188, 117133.773438, 124762.648438, 0.000, 0.000, 0.000,0.058196157,0.13904397,0.050841693,0.09014483,0.023447013, 13:25:53.918
66010.890625, 92192.804688, 144919.437500, 116967.453125, 131476.125000, 121747.312500, 117078.835938, 124783.703125, 0.000, 0.000, 0.000,0.058196157,0.13904397,0.050841693,0.09014483,0.023447013, 13:25:53.919
65986.906250, 92162.968750, 144963.328125, 117057.804688, 131487.703125, 121801.539063, 117115.742188, 124807.148438, 0.000, 0.000, 0.000,0.058196157,0.13904397,0.050841693,0.09014483,0.023447013, 13:25:53.919
65938.226563, 92097.523438, 145005.859375, 117140.148438, 131459.796875, 121818.101563, 117168.890625, 124789.468750, 0.000, 0.000, 0.000,0.058196157,0.13904397,0.050841693,0.09014483,0.023447013, 13:25:53.919
65948.062500, 92112.695313, 144964.734375, 117058.515625, 131445.859375, 121768.765625, 117141.734375, 124761.015625, 0.000, 0.000, 0.000,0.058196157,0.13904397,0.050841693,0.09014483,0.023447013, 13:25:53.919
66006.554688, 92181.828125, 144922.484375, 116967.031250, 131474.187500, 121741.875000, 117087.218750, 124773.156250, 0.000, 0.000, 0.000,0.058196157,0.13904397,0.050841693,0.09014483,0.023447013, 13:25:53.919
65995.046875, 92167.078125, 144960.562500, 117036.906250, 131484.093750, 121786.421875, 117105.765625, 124800.046875, 0.000, 0.000, 0.000,0.058196157,0.13904397,0.050841693,0.09014483,0.023447013, 13:25:53.919
65937.421875, 92103.445313, 145008.171875, 117135.851563, 131461.734375, 121816.421875, 117166.992188, 124792.109375, 0.000, 0.000, 0.000,0.058196157,0.13904397,0.050841693,0.09014483,0.023447013, 13:25:53.920
65942.429688, 92115.695313, 144984.187500, 117085.515625, 131448.375000, 121778.804688, 117159.929688, 124767.273438, 0.000, 0.000, 0.000,0.058196157,0.13904397,0.050841693,0.09014483,0.023447013, 13:25:53.920
66002.039063, 92182.992188, 144926.343750, 116976.304688, 131472.906250, 121744.382813, 117095.578125, 124775.546875, 0.000, 0.000, 0.000,0.058196157,0.13904397,0.050841693,0.09014483,0.023447013, 13:25:53.920
65999.023438, 92181.476563, 144949.093750, 117017.750000, 131490.171875, 121780.726563, 117098.234375, 124802.210938, 0.000, 0.000, 0.000,0.058196157,0.13904397,0.050841693,0.09014483,0.023447013, 13:25:53.920
65943.140625, 92117.187500, 145006.218750, 117133.843750, 131471.375000, 121823.460938, 117163.976563, 124803.914063, 0.000, 0.000, 0.000,0.058196157,0.13904397,0.050841693,0.09014483,0.023447013, 13:25:53.920
65932.617188, 92103.687500, 144994.687500, 117112.007813, 131447.656250, 121791.210938, 117170.031250, 124775.437500, 0.000, 0.000, 0.000,0.058196157,0.13904397,0.050841693,0.09014483,0.023447013, 13:25:53.921
65995.023438, 92171.148438, 144935.484375, 116995.375000, 131465.015625, 121746.882813, 117106.281250, 124771.726563, 0.000, 0.000, 0.000,0.058196157,0.13904397,0.050841693,0.09014483,0.023447013, 13:25:53.921
66011.718750, 92189.273438, 144941.062500, 116999.554688, 131488.765625, 121769.859375, 117088.156250, 124796.312500, 0.000, 0.000, 0.000,0.058196157,0.13904397,0.050841693,0.09014483,0.023447013, 13:25:53.921
65957.179688, 92128.453125, 144996.453125, 117113.617188, 131476.906250, 121816.890625, 117148.843750, 124801.320313, 0.000, 0.000, 0.000,0.058196157,0.13904397,0.050841693,0.09014483,0.023447013, 13:25:53.922
65932.078125, 92100.335938, 145007.406250, 117127.515625, 131449.781250, 121798.250000, 117175.750000, 124775.703125, 0.000, 0.000, 0.000,0.058196157,0.13904397,0.050841693,0.09014483,0.023447013, 13:25:53.922
65990.773438, 92165.000000, 144958.031250, 117017.835938, 131467.125000, 121752.093750, 117127.406250, 124771.414063, 0.000, 0.000, 0.000,0.058196157,0.13904397,0.050841693,0.09014483,0.023447013, 13:25:53.922
66026.000000, 92203.867188, 144943.218750, 116991.843750, 131495.890625, 121763.070313, 117091.328125, 124798.140625, 0.000, 0.000, 0.000,0.058196157,0.13904397,0.050841693,0.09014483,0.023447013, 13:25:53.922
65980.757813, 92151.187500, 144993.140625, 117104.789063, 131488.015625, 121816.867188, 117141.289063, 124810.570313, 0.000, 0.000, 0.000,0.058196157,0.13904397,0.050841693,0.09014483,0.023447013, 13:25:53.923
65940.171875, 92103.601563, 145020.703125, 117143.320313, 131458.968750, 121811.304688, 117181.789063, 124785.226563, 0.000, 0.000, 0.000,0.058196157,0.13904397,0.050841693,0.09014483,0.023447013, 13:25:53.923
65979.531250, 92153.531250, 144967.468750, 117036.726563, 131463.875000, 121761.484375, 117137.507813, 124772.507813, 0.000, 0.000, 0.000,0.058196157,0.13904397,0.050841693,0.09014483,0.023447013, 13:25:53.923
66025.171875, 92202.351563, 144936.796875, 116982.476563, 131493.609375, 121756.656250, 117091.445313, 124793.000000, 0.000, 0.000, 0.000,0.058196157,0.13904397,0.050841693,0.09014483,0.023447013, 13:25:53.923
65988.023438, 92162.765625, 144979.718750, 117080.984375, 131492.453125, 121807.812500, 117129.242188, 124809.812500, 0.000, 0.000, 0.000,0.058196157,0.13904397,0.050841693,0.09014483,0.023447013, 13:25:53.923
65938.406250, 92103.648438, 145018.578125, 117143.007813, 131458.859375, 121811.929688, 117174.679688, 124787.976563, 0.000, 0.000, 0.000,0.058196157,0.13904397,0.050841693,0.09014483,0.023447013, 13:25:53.924
65969.765625, 92136.304688, 144973.828125, 117055.812500, 131458.140625, 121763.984375, 117146.562500, 124770.093750, 0.000, 0.000, 0.000,0.058196157,0.13904397,0.050841693,0.09014483,0.023447013, 13:25:53.924
66022.445313, 92199.335938, 144935.140625, 116982.250000, 131488.609375, 121745.789063, 117094.593750, 124783.101563, 0.000, 0.000, 0.000,0.058196157,0.13904397,0.050841693,0.09014483,0.023447013, 13:25:53.924
65994.726563, 92167.281250, 144970.250000, 117058.453125, 131489.250000, 121793.468750, 117114.617188, 124803.820313, 0.000, 0.000, 0.000,0.058196157,0.13904397,0.050841693,0.09014483,0.023447013, 13:25:53.924
65939.367188, 92103.578125, 145013.593750, 117140.593750, 131453.468750, 121814.945313, 117161.156250, 124789.625000, 0.000, 0.000, 0.000,0.058196157,0.13904397,0.050841693,0.09014483,0.023447013, 13:25:53.924
65945.781250, 92116.140625, 144972.531250, 117065.109375, 131440.812500, 121767.695313, 117138.468750, 124764.367188, 0.000, 0.000, 0.000,0.058196157,0.13904397,0.050841693,0.09014483,0.023447013, 13:25:53.924
66004.523438, 92187.062500, 144921.703125, 116968.953125, 131470.437500, 121739.421875, 117083.796875, 124777.242188, 0.000, 0.000, 0.000,0.058196157,0.13904397,0.050841693,0.09014483,0.023447013, 13:25:53.924
65997.343750, 92172.218750, 144944.671875, 117023.562500, 131493.281250, 121786.406250, 117102.148438, 124807.507813, 0.000, 0.000, 0.000,0.058196157,0.13904397,0.050841693,0.09014483,0.023447013, 13:25:53.925
65934.203125, 92099.265625, 144994.796875, 117124.390625, 131464.078125, 121815.148438, 117157.914063, 124795.351563, 0.000, 0.000, 0.000,0.058196157,0.13904397,0.050841693,0.09014483,0.023447013, 13:25:53.925
65929.843750, 92097.875000, 144977.875000, 117078.343750, 131443.593750, 121775.968750, 117153.179688, 124766.070313, 0.000, 0.000, 0.000,0.058196157,0.13904397,0.050841693,0.09014483,0.023447013, 13:25:53.925
65992.898438, 92169.625000, 144918.000000, 116966.023438, 131466.421875, 121737.523438, 117091.195313, 124769.828125, 0.000, 0.000, 0.000,0.058196157,0.13904397,0.050841693,0.09014483,0.023447013, 13:25:53.925
66012.210938, 92187.640625, 144934.093750, 117002.484375, 131496.625000, 121776.164063, 117096.289063, 124804.671875, 0.000, 0.000, 0.000,0.058196157,0.13904397,0.050841693,0.09014483,0.023447013, 13:25:53.925
65953.804688, 92115.132813, 145000.390625, 117122.398438, 131473.500000, 121816.578125, 117157.226563, 124800.960938, 0.000, 0.000, 0.000,0.058196157,0.13904397,0.050841693,0.09014483,0.023447013, 13:25:53.925
65938.156250, 92096.468750, 144993.703125, 117103.085938, 131442.468750, 121785.242188, 117162.703125, 124769.578125, 0.000, 0.000, 0.000,0.058196157,0.13904397,0.050841693,0.09014483,0.023447013, 13:25:53.925
65994.015625, 92168.687500, 144933.984375, 116989.406250, 131464.906250, 121743.554688, 117109.210938, 124772.148438, 0.000, 0.000, 0.000,0.058196157,0.13904397,0.050841693,0.09014483,0.023447013, 13:25:53.926
66012.546875, 92191.640625, 144930.296875, 116986.078125, 131489.812500, 121763.781250, 117087.398438, 124797.921875, 0.000, 0.000, 0.000,0.058196157,0.13904397,0.050841693,0.09014483,0.023447013, 13:25:53.926
65956.554688, 92124.429688, 144991.718750, 117102.062500, 131476.203125, 121809.828125, 117145.648438, 124802.726563, 0.000, 0.000, 0.000,0.058196157,0.13904397,0.050841693,0.09014483,0.023447013, 13:25:53.926
65932.054688, 92091.265625, 145007.031250, 117118.914063, 131450.468750, 121794.468750, 117175.976563, 124776.554688, 0.000, 0.000, 0.000,0.058196157,0.13904397,0.050841693,0.09014483,0.023447013, 13:25:53.926
65978.320313, 92144.679688, 144946.593750, 117004.429688, 131457.906250, 121743.242188, 117116.296875, 124763.476563, 0.000, 0.000, 0.000,0.058196157,0.13904397,0.050841693,0.09014483,0.023447013, 13:25:53.927
66016.812500, 92190.976563, 144930.828125, 116975.953125, 131488.406250, 121752.718750, 117080.648438, 124790.835938, 0.000, 0.000, 0.000,0.058196157,0.13904397,0.050841693,0.09014483,0.023447013, 13:25:53.927
65972.468750, 92139.164063, 144984.828125, 117086.859375, 131486.234375, 121804.796875, 117133.617188, 124805.296875, 0.000, 0.000, 0.000,0.058196157,0.13904397,0.050841693,0.09014483,0.023447013, 13:25:53.927
65928.882813, 92088.671875, 145006.734375, 117130.218750, 131452.546875, 121798.539063, 117169.156250, 124775.812500, 0.000, 0.000, 0.000,0.058196157,0.13904397,0.050841693,0.09014483,0.023447013, 13:25:53.928
65973.023438, 92143.679688, 144954.750000, 117030.351563, 131455.984375, 121750.039063, 117128.679688, 124762.406250, 0.000, 0.000, 0.000,0.058196157,0.13904397,0.050841693,0.09014483,0.023447013, 13:25:53.929
66028.484375, 92208.203125, 144924.906250, 116975.593750, 131489.000000, 121750.953125, 117083.734375, 124790.585938, 0.000, 0.000, 0.000,0.058196157,0.13904397,0.050841693,0.09014483,0.023447013, 13:25:53.929
65997.570313, 92165.156250, 144981.281250, 117073.695313, 131489.187500, 121800.843750, 117124.320313, 124808.601563, 0.000, 0.000, 0.000,0.058196157,0.13904397,0.050841693,0.09014483,0.023447013, 13:25:53.929
65939.898438, 92103.179688, 145018.203125, 117142.289063, 131462.078125, 121813.695313, 117180.335938, 124791.687500, 0.000, 0.000, 0.000,0.058196157,0.13904397,0.050841693,0.09014483,0.023447013, 13:25:53.929
65960.242188, 92129.460938, 144972.609375, 117053.757813, 131463.718750, 121769.687500, 117156.218750, 124778.164063, 0.000, 0.000, 0.000,0.058196157,0.13904397,0.050841693,0.09014483,0.023447013, 13:25:53.929
66024.460938, 92198.015625, 144939.187500, 116976.687500, 131497.515625, 121754.062500, 117099.781250, 124797.335938, 0.000, 0.000, 0.000,0.058196157,0.13904397,0.050841693,0.09014483,0.023447013, 13:25:53.929
66004.382813, 92173.468750, 144981.187500, 117056.773438, 131504.968750, 121801.781250, 117123.898438, 124820.046875, 0.000, 0.000, 0.000,0.058196157,0.13904397,0.050841693,0.09014483,0.023447013, 13:25:53.929
65942.875000, 92107.000000, 145024.015625, 117143.812500, 131472.109375, 121819.460938, 117176.312500, 124799.867188, 0.000, 0.000, 0.000,0.058196157,0.13904397,0.050841693,0.09014483,0.023447013, 13:25:53.930
65950.765625, 92118.640625, 144990.593750, 117077.898438, 131461.046875, 121776.789063, 117159.726563, 124775.859375, 0.000, 0.000, 0.000,0.058196157,0.13904397,0.050841693,0.09014483,0.023447013, 13:25:53.930
66011.875000, 92191.351563, 144933.000000, 116973.804688, 131488.843750, 121743.554688, 117097.703125, 124784.757813, 0.000, 0.000, 0.000,0.058196157,0.13904397,0.050841693,0.09014483,0.023447013, 13:25:53.930
66005.343750, 92179.085938, 144959.750000, 117025.546875, 131500.921875, 121782.671875, 117104.070313, 124806.015625, 0.000, 0.000, 0.000,0.058196157,0.13904397,0.050841693,0.09014483,0.023447013, 13:25:53.930
65945.937500, 92108.335938, 145013.281250, 117128.750000, 131466.921875, 121812.132813, 117159.679688, 124791.843750, 0.000, 0.000, 0.000,0.058196157,0.13904397,0.050841693,0.09014483,0.023447013, 13:25:53.930
65944.039063, 92111.359375, 144987.843750, 117088.156250, 131448.234375, 121777.085938, 117157.914063, 124765.757813, 0.000, 0.000, 0.000,0.058196157,0.13904397,0.050841693,0.09014483,0.023447013, 13:25:53.930
66004.007813, 92182.726563, 144933.359375, 116978.765625, 131474.984375, 121739.460938, 117100.828125, 124773.265625, 0.000, 0.000, 0.000,0.058196157,0.13904397,0.050841693,0.09014483,0.023447013, 13:25:53.930
66016.117188, 92194.328125, 144943.812500, 117002.593750, 131503.515625, 121772.523438, 117099.335938, 124806.343750, 0.000, 0.000, 0.000,0.058196157,0.13904397,0.050841693,0.09014483,0.023447013, 13:25:53.931
65951.593750, 92119.562500, 144994.828125, 117111.000000, 131479.296875, 121813.156250, 117158.164063, 124805.031250, 0.000, 0.000, 0.000,0.058196157,0.13904397,0.050841693,0.09014483,0.023447013, 13:25:53.931
65938.406250, 92106.148438, 144995.187500, 117109.414063, 131458.828125, 121791.742188, 117178.593750, 124783.343750, 0.000, 0.000, 0.000,0.058196157,0.13904397,0.050841693,0.09014483,0.023447013, 13:25:53.931
65990.617188, 92170.187500, 144938.562500, 116996.406250, 131473.781250, 121747.085938, 117117.171875, 124780.773438, 0.000, 0.000, 0.000,0.058196157,0.13904397,0.050841693,0.09014483,0.023447013, 13:25:53.931
66015.023438, 92198.148438, 144939.796875, 116988.843750, 131500.968750, 121766.171875, 117096.156250, 124805.703125, 0.000, 0.000, 0.000,0.058196157,0.13904397,0.050841693,0.09014483,0.023447013, 13:25:53.931
65965.289063, 92137.843750, 144990.781250, 117100.468750, 131487.687500, 121814.367188, 117150.632813, 124810.687500, 0.000, 0.000, 0.000,0.058196157,0.13904397,0.050841693,0.09014483,0.023447013, 13:25:53.931
65926.828125, 92097.992188, 145002.328125, 117121.859375, 131457.265625, 121798.695313, 117174.117188, 124781.468750, 0.000, 0.000, 0.000,0.058196157,0.13904397,0.050841693,0.09014483,0.023447013, 13:25:53.932
65975.617188, 92148.304688, 144948.359375, 117011.335938, 131460.125000, 121746.976563, 117118.468750, 124768.773438, 0.000, 0.000, 0.000,0.058196157,0.13904397,0.050841693,0.09014483,0.023447013, 13:25:53.932
66028.210938, 92203.445313, 144931.718750, 116975.992188, 131498.296875, 121757.343750, 117087.820313, 124800.734375, 0.000, 0.000, 0.000,0.058196157,0.13904397,0.050841693,0.09014483,0.023447013, 13:25:53.932
65981.476563, 92150.296875, 144982.812500, 117085.046875, 131499.171875, 121813.117188, 117139.539063, 124818.531250, 0.000, 0.000, 0.000,0.058196157,0.13904397,0.050841693,0.09014483,0.023447013, 13:25:53.932
65935.296875, 92098.437500, 145012.687500, 117139.031250, 131469.765625, 121814.406250, 117183.351563, 124795.843750, 0.000, 0.000, 0.000,0.058196157,0.13904397,0.050841693,0.09014483,0.023447013, 13:25:53.932
65974.007813, 92147.210938, 144966.609375, 117042.312500, 131472.937500, 121765.328125, 117146.625000, 124781.804688, 0.000, 0.000, 0.000,0.058196157,0.13904397,0.050841693,0.09014483,0.023447013, 13:25:53.932
66019.921875, 92201.140625, 144934.234375, 116978.007813, 131506.906250, 121755.226563, 117098.460938, 124801.203125, 0.000, 0.000, 0.000,0.058196157,0.13904397,0.050841693,0.09014483,0.023447013, 13:25:53.933
65986.640625, 92158.382813, 144974.656250, 117069.179688, 131511.828125, 121805.242188, 117137.820313, 124820.406250, 0.000, 0.000, 0.000,0.058196157,0.13904397,0.050841693,0.09014483,0.023447013, 13:25:53.933
65930.828125, 92098.054688, 145015.968750, 117143.742188, 131483.062500, 121819.882813, 117188.875000, 124802.992188, 0.000, 0.000, 0.000,0.058196157,0.13904397,0.050841693,0.09014483,0.023447013, 13:25:53.933
65951.726563, 92121.859375, 144972.453125, 117059.906250, 131470.859375, 121771.382813, 117153.375000, 124778.476563, 0.000, 0.000, 0.000,0.058196157,0.13904397,0.050841693,0.09014483,0.023447013, 13:25:53.933
66006.937500, 92190.367188, 144925.750000, 116974.117188, 131496.421875, 121750.328125, 117092.578125, 124791.593750, 0.000, 0.000, 0.000,0.058196157,0.13904397,0.050841693,0.09014483,0.023447013, 13:25:53.934
65991.648438, 92169.429688, 144965.718750, 117047.210938, 131513.687500, 121797.578125, 117124.054688, 124818.351563, 0.000, 0.000, 0.000,0.058196157,0.13904397,0.050841693,0.09014483,0.023447013, 13:25:53.934
65935.875000, 92102.234375, 145010.984375, 117139.320313, 131477.609375, 121821.335938, 117173.000000, 124804.156250, 0.000, 0.000, 0.000,0.058196157,0.13904397,0.050841693,0.09014483,0.023447013, 13:25:53.935
65935.093750, 92104.453125, 144982.890625, 117078.632813, 131456.593750, 121776.054688, 117156.242188, 124774.335938, 0.000, 0.000, 0.000,0.058196157,0.13904397,0.050841693,0.09014483,0.023447013, 13:25:53.935
66002.218750, 92182.992188, 144927.156250, 116977.539063, 131484.578125, 121747.179688, 117099.085938, 124788.710938, 0.000, 0.000, 0.000,0.058196157,0.13904397,0.050841693,0.09014483,0.023447013, 13:25:53.935
66004.382813, 92180.203125, 144951.656250, 117029.726563, 131509.656250, 121787.656250, 117113.210938, 124819.554688, 0.000, 0.000, 0.000,0.058196157,0.13904397,0.050841693,0.09014483,0.023447013, 13:25:53.935
65937.468750, 92102.437500, 145008.531250, 117137.039063, 131477.406250, 121816.984375, 117170.921875, 124807.687500, 0.000, 0.000, 0.000,0.058196157,0.13904397,0.050841693,0.09014483,0.023447013, 13:25:53.935
65929.218750, 92098.101563, 144998.125000, 117106.351563, 131450.812500, 121781.734375, 117163.414063, 124776.640625, 0.000, 0.000, 0.000,0.058196157,0.13904397,0.050841693,0.09014483,0.023447013, 13:25:53.935
65988.960938, 92165.695313, 144935.015625, 116985.695313, 131468.906250, 121738.437500, 117095.796875, 124775.617188, 0.000, 0.000, 0.000,0.058196157,0.13904397,0.050841693,0.09014483,0.023447013, 13:25:53.936
66011.312500, 92191.156250, 144944.640625, 117006.375000, 131505.671875, 121773.234375, 117094.328125, 124810.703125, 0.000, 0.000, 0.000,0.058196157,0.13904397,0.050841693,0.09014483,0.023447013, 13:25:53.936
65952.039063, 92116.789063, 144996.562500, 117114.578125, 131489.234375, 121815.304688, 117155.632813, 124809.703125, 0.000, 0.000, 0.000,0.058196157,0.13904397,0.050841693,0.09014483,0.023447013, 13:25:53.936
65929.976563, 92090.148438, 144997.015625, 117109.656250, 131454.828125, 121786.492188, 117168.398438, 124776.218750, 0.000, 0.000, 0.000,0.058196157,0.13904397,0.050841693,0.09014483,0.023447013, 13:25:53.936
65986.640625, 92156.101563, 144943.812500, 117000.781250, 131474.187500, 121743.328125, 117118.085938, 124773.804688, 0.000, 0.000, 0.000,0.058196157,0.13904397,0.050841693,0.09014483,0.023447013, 13:25:53.936
66015.804688, 92191.914063, 144936.812500, 116987.398438, 131509.046875, 121761.953125, 117094.773438, 124802.054688, 0.000, 0.000, 0.000,0.058196157,0.13904397,0.050841693,0.09014483,0.023447013, 13:25:53.936
65961.828125, 92133.148438, 144992.203125, 117099.554688, 131498.296875, 121811.570313, 117150.562500, 124809.164063, 0.000, 0.000, 0.000,0.058196157,0.13904397,0.050841693,0.09014483,0.023447013, 13:25:53.936
65927.539063, 92094.640625, 145008.546875, 117127.671875, 131460.937500, 121804.890625, 117179.484375, 124785.804688, 0.000, 0.000, 0.000,0.010636041,0.016478218,0.010843258,0.018629374,0.00668166, 13:25:54.392
65969.851563, 92149.132813, 144950.593750, 117018.125000, 131470.562500, 121759.445313, 117132.320313, 124779.500000, 0.000, 0.000, 0.000,0.010636041,0.016478218,0.010843258,0.018629374,0.00668166, 13:25:54.392
66012.414063, 92198.257813, 144930.734375, 116974.921875, 131497.609375, 121758.914063, 117089.945313, 124799.890625, 0.000, 0.000, 0.000,0.010636041,0.016478218,0.010843258,0.018629374,0.00668166, 13:25:54.392
65974.773438, 92147.390625, 144983.484375, 117078.921875, 131492.218750, 121805.828125, 117132.125000, 124810.148438, 0.000, 0.000, 0.000,0.010636041,0.016478218,0.010843258,0.018629374,0.00668166, 13:25:54.392
65928.054688, 92090.367188, 145015.000000, 117132.054688, 131452.171875, 121805.421875, 117171.484375, 124783.593750, 0.000, 0.000, 0.000,0.010636041,0.016478218,0.010843258,0.018629374,0.00668166, 13:25:54.393
65957.578125, 92127.492188, 144965.500000, 117033.929688, 131444.531250, 121755.890625, 117129.796875, 124763.546875, 0.000, 0.000, 0.000,0.010636041,0.016478218,0.010843258,0.018629374,0.00668166, 13:25:54.393
66014.242188, 92195.039063, 144922.781250, 116964.843750, 131480.000000, 121746.437500, 117078.585938, 124786.031250, 0.000, 0.000, 0.000,0.010636041,0.016478218,0.010843258,0.018629374,0.00668166, 13:25:54.393
65988.828125, 92162.921875, 144968.812500, 117059.078125, 131491.031250, 121801.289063, 117118.640625, 124811.601563, 0.000, 0.000, 0.000,0.010636041,0.016478218,0.010843258,0.018629374,0.00668166, 13:25:54.393
65930.937500, 92092.625000, 145013.953125, 117136.234375, 131448.734375, 121812.062500, 117161.695313, 124787.328125, 0.000, 0.000, 0.000,0.010636041,0.016478218,0.010843258,0.018629374,0.00668166, 13:25:54.393
65949.179688, 92120.070313, 144981.906250, 117061.515625, 131438.890625, 121761.328125, 117137.601563, 124761.937500, 0.000, 0.000, 0.000,0.010636041,0.016478218,0.010843258,0.018629374,0.00668166, 13:25:54.393
66014.023438, 92192.648438, 144929.718750, 116971.414063, 131472.750000, 121739.265625, 117077.781250, 124777.289063, 0.000, 0.000, 0.000,0.010636041,0.016478218,0.010843258,0.018629374,0.00668166, 13:25:54.393
65998.242188, 92168.085938, 144960.687500, 117038.421875, 131490.437500, 121786.781250, 117098.976563, 124804.023438, 0.000, 0.000, 0.000,0.010636041,0.016478218,0.010843258,0.018629374,0.00668166, 13:25:54.394
65932.210938, 92100.562500, 145015.562500, 117139.031250, 131459.093750, 121816.265625, 117158.718750, 124793.718750, 0.000, 0.000, 0.000,0.010636041,0.016478218,0.010843258,0.018629374,0.00668166, 13:25:54.394
65936.460938, 92107.132813, 144991.890625, 117088.695313, 131443.921875, 121777.257813, 117154.898438, 124768.484375, 0.000, 0.000, 0.000,0.010636041,0.016478218,0.010843258,0.018629374,0.00668166, 13:25:54.394
65999.023438, 92175.664063, 144932.421875, 116983.546875, 131473.046875, 121744.921875, 117099.195313, 124778.250000, 0.000, 0.000, 0.000,0.010636041,0.016478218,0.010843258,0.018629374,0.00668166, 13:25:54.394
66003.421875, 92174.703125, 144947.250000, 117018.085938, 131494.453125, 121784.171875, 117099.351563, 124807.757813, 0.000, 0.000, 0.000,0.010636041,0.016478218,0.010843258,0.018629374,0.00668166, 13:25:54.394
65944.507813, 92104.335938, 145001.500000, 117122.710938, 131466.140625, 121818.187500, 117150.718750, 124798.414063, 0.000, 0.000, 0.000,0.010636041,0.016478218,0.010843258,0.018629374,0.00668166, 13:25:54.394
65930.937500, 92091.109375, 144988.625000, 117097.234375, 131439.734375, 121787.523438, 117154.695313, 124769.492188, 0.000, 0.000, 0.000,0.010636041,0.016478218,0.010843258,0.018629374,0.00668166, 13:25:54.395
65985.500000, 92156.640625, 144934.937500, 116983.210938, 131456.437500, 121742.664063, 117094.210938, 124765.781250, 0.000, 0.000, 0.000,0.010636041,0.016478218,0.010843258,0.018629374,0.00668166, 13:25:54.395
66006.625000, 92182.414063, 144939.687500, 116992.914063, 131485.562500, 121766.578125, 117083.734375, 124794.523438, 0.000, 0.000, 0.000,0.010636041,0.016478218,0.010843258,0.018629374,0.00668166, 13:25:54.395
65952.976563, 92121.617188, 144992.562500, 117105.632813, 131469.796875, 121812.601563, 117142.984375, 124799.148438, 0.000, 0.000, 0.000,0.010636041,0.016478218,0.010843258,0.018629374,0.00668166, 13:25:54.395
65922.156250, 92086.523438, 145003.406250, 117110.375000, 131437.000000, 121789.445313, 117159.484375, 124766.781250, 0.000, 0.000, 0.000,0.010636041,0.016478218,0.010843258,0.018629374,0.00668166, 13:25:54.395
65979.867188, 92149.265625, 144945.406250, 116998.835938, 131450.578125, 121745.679688, 117106.484375, 124762.359375, 0.000, 0.000, 0.000,0.010636041,0.016478218,0.010843258,0.018629374,0.00668166, 13:25:54.395
66016.078125, 92189.789063, 144934.312500, 116980.445313, 131483.218750, 121760.718750, 117078.031250, 124791.617188, 0.000, 0.000, 0.000,0.010636041,0.016478218,0.010843258,0.018629374,0.00668166, 13:25:54.395
65972.046875, 92135.164063, 144991.671875, 117094.281250, 131475.796875, 121810.406250, 117131.789063, 124802.031250, 0.000, 0.000, 0.000,0.010636041,0.016478218,0.010843258,0.018629374,0.00668166, 13:25:54.396
65939.234375, 92098.820313, 145018.968750, 117134.539063, 131450.531250, 121807.992188, 117176.960938, 124781.000000, 0.000, 0.000, 0.000,0.010636041,0.016478218,0.010843258,0.018629374,0.00668166, 13:25:54.396
65990.390625, 92162.968750, 144964.515625, 117029.437500, 131455.000000, 121760.367188, 117129.062500, 124768.304688, 0.000, 0.000, 0.000,0.010636041,0.016478218,0.010843258,0.018629374,0.00668166, 13:25:54.396
66037.757813, 92214.265625, 144940.218750, 116980.484375, 131486.203125, 121756.187500, 117083.085938, 124787.570313, 0.000, 0.000, 0.000,0.010636041,0.016478218,0.010843258,0.018629374,0.00668166, 13:25:54.396
66006.867188, 92174.273438, 144992.046875, 117084.156250, 131476.359375, 121806.250000, 117122.710938, 124802.234375, 0.000, 0.000, 0.000,0.010636041,0.016478218,0.010843258,0.018629374,0.00668166, 13:25:54.396
65965.359375, 92125.218750, 145033.640625, 117150.960938, 131445.062500, 121810.742188, 117170.882813, 124780.328125, 0.000, 0.000, 0.000,0.010636041,0.016478218,0.010843258,0.018629374,0.00668166, 13:25:54.396
66007.757813, 92171.304688, 144992.125000, 117064.554688, 131445.218750, 121762.734375, 117137.531250, 124762.742188, 0.000, 0.000, 0.000,0.010636041,0.016478218,0.010843258,0.018629374,0.00668166, 13:25:54.396
66076.539063, 92252.554688, 144955.140625, 116996.601563, 131483.156250, 121753.125000, 117089.273438, 124785.585938, 0.000, 0.000, 0.000,0.010636041,0.016478218,0.010843258,0.018629374,0.00668166, 13:25:54.396
66061.250000, 92226.242188, 144999.218750, 117083.460938, 131483.703125, 121802.742188, 117114.242188, 124805.968750, 0.000, 0.000, 0.000,0.010636041,0.016478218,0.010843258,0.018629374,0.00668166, 13:25:54.397
66016.968750, 92167.664063, 145047.187500, 117167.351563, 131456.453125, 121822.210938, 117173.789063, 124791.953125, 0.000, 0.000, 0.000,0.010636041,0.016478218,0.010843258,0.018629374,0.00668166, 13:25:54.397
66041.289063, 92193.210938, 145011.546875, 117092.828125, 131443.968750, 121776.031250, 117152.281250, 124764.171875, 0.000, 0.000, 0.000,0.010636041,0.016478218,0.010843258,0.018629374,0.00668166, 13:25:54.397
66113.062500, 92275.531250, 144956.953125, 116995.125000, 131471.656250, 121751.312500, 117089.406250, 124776.687500, 0.000, 0.000, 0.000,0.010636041,0.016478218,0.010843258,0.018629374,0.00668166, 13:25:54.397
66114.984375, 92276.109375, 144986.578125, 117059.296875, 131492.968750, 121799.054688, 117106.617188, 124807.421875, 0.000, 0.000, 0.000,0.010636041,0.016478218,0.010843258,0.018629374,0.00668166, 13:25:54.397
66066.773438, 92219.625000, 145047.609375, 117169.117188, 131468.484375, 121832.226563, 117174.593750, 124802.617188, 0.000, 0.000, 0.000,0.010636041,0.016478218,0.010843258,0.018629374,0.00668166, 13:25:54.397
66078.257813, 92226.554688, 145037.156250, 117126.601563, 131446.062500, 121793.625000, 117169.625000, 124776.664063, 0.000, 0.000, 0.000,0.010636041,0.016478218,0.010843258,0.018629374,0.00668166, 13:25:54.397
66156.445313, 92315.320313, 144983.250000, 117021.210938, 131475.578125, 121760.210938, 117113.523438, 124787.234375, 0.000, 0.000, 0.000,0.010636041,0.016478218,0.010843258,0.018629374,0.00668166, 13:25:54.398
66169.117188, 92334.429688, 144993.765625, 117054.335938, 131500.453125, 121797.828125, 117113.968750, 124818.640625, 0.000, 0.000, 0.000,0.010636041,0.016478218,0.010843258,0.018629374,0.00668166, 13:25:54.398
66105.078125, 92258.476563, 145043.500000, 117162.187500, 131473.781250, 121832.898438, 117169.804688, 124810.281250, 0.000, 0.000, 0.000,0.010636041,0.016478218,0.010843258,0.018629374,0.00668166, 13:25:54.398
