%OpenBCI Raw EEG Data
%
%Sample Rate = 250.0 Hz
%First Column = SampleIndex
%5 Columns before Timestamp are Frequency Power factors DELTA THETA ALPHA BETA GAMMA
%Last Column = Timestamp 
%Other Columns = EEG data in microvolts followed by Accel Data (in G) interleaved with Aux Data
, 0.000000, 0.000000, 0.000000, 0.000000, 0.000000, 0.000000, 0.000000, 0.000000, 0.000, 0.000, 0.000,0.0,0.0,0.0,0.0,0.0, 22:38:07.097
, 75212.296875, 86570.312500, 152458.500000, 154437.718750, 113198.437500, 93294.101563, 96736.578125, 114790.867188, 0.312, 0.240, 0.906,0.0,0.0,0.0,0.0,0.0, 22:38:07.576
, 75199.132813, 86554.085938, 152439.156250, 154604.421875, 113174.859375, 93294.343750, 96790.132813, 114773.945313, 0.000, 0.000, 0.000,0.0,0.0,0.0,0.0,0.0, 22:38:07.576
, 75216.390625, 86582.023438, 152390.718750, 154497.171875, 113178.750000, 93250.156250, 96662.976563, 114743.031250, 0.000, 0.000, 0.000,0.0,0.0,0.0,0.0,0.0, 22:38:07.576
, 75240.867188, 86608.398438, 152425.390625, 154308.750000, 113210.062500, 93252.679688, 96594.109375, 114765.070313, 0.000, 0.000, 0.000,0.0,0.0,0.0,0.0,0.0, 22:38:07.576
, 75223.140625, 86585.492188, 152464.687500, 154393.812500, 113194.976563, 93291.460938, 96702.828125, 114789.523438, 0.000, 0.000, 0.000,0.0,0.0,0.0,0.0,0.0, 22:38:07.576
, 75203.406250, 86561.929688, 152463.234375, 154601.578125, 113182.101563, 93308.515625, 96802.453125, 114784.226563, 0.000, 0.000, 0.000,0.0,0.0,0.0,0.0,0.0, 22:38:07.576
, 75219.515625, 86579.164063, 152417.718750, 154555.828125, 113192.695313, 93272.062500, 96710.335938, 114759.796875, 0.320, 0.218, 0.908,0.0,0.0,0.0,0.0,0.0, 22:38:07.576
, 75245.710938, 86602.140625, 152432.609375, 154364.156250, 113217.546875, 93257.531250, 96612.687500, 114769.835938, 0.000, 0.000, 0.000,0.0,0.0,0.0,0.0,0.0, 22:38:07.576
, 75238.539063, 86583.476563, 152474.859375, 154424.234375, 113212.789063, 93294.593750, 96710.539063, 114797.664063, 0.000, 0.000, 0.000,0.0,0.0,0.0,0.0,0.0, 22:38:07.577
, 75217.640625, 86561.617188, 152471.375000, 154625.656250, 113192.382813, 93315.937500, 96810.562500, 114792.140625, 0.000, 0.000, 0.000,0.0,0.0,0.0,0.0,0.0, 22:38:07.577
, 75215.851563, 86570.273438, 152416.468750, 154624.421875, 113183.507813, 93278.500000, 96740.406250, 114752.554688, 0.000, 0.000, 0.000,0.0,0.0,0.0,0.0,0.0, 22:38:07.577
, 75245.156250, 86599.687500, 152407.531250, 154388.546875, 113206.062500, 93253.578125, 96597.617188, 114751.328125, 0.000, 0.000, 0.000,0.0,0.0,0.0,0.0,0.0, 22:38:07.577
, 75237.914063, 86584.757813, 152460.484375, 154394.921875, 113206.531250, 93282.679688, 96675.718750, 114779.039063, 0.000, 0.000, 0.000,0.0,0.0,0.0,0.0,0.0, 22:38:07.579
, 75200.515625, 86546.109375, 152458.890625, 154612.218750, 113174.789063, 93300.937500, 96801.734375, 114773.320313, 0.000, 0.000, 0.000,0.0,0.0,0.0,0.0,0.0, 22:38:07.579
, 75203.578125, 86552.007813, 152412.093750, 154699.875000, 113163.703125, 93282.343750, 96783.765625, 114753.539063, 0.000, 0.000, 0.000,0.0,0.0,0.0,0.0,0.0, 22:38:07.579
, 75243.703125, 86592.265625, 152391.078125, 154492.703125, 113195.171875, 93253.710938, 96630.765625, 114751.906250, 0.000, 0.000, 0.000,0.0,0.0,0.0,0.0,0.0, 22:38:07.580
, 75257.117188, 86600.625000, 152449.671875, 154444.640625, 113212.523438, 93288.937500, 96670.757813, 114789.656250, 0.322, 0.202, 0.908,0.0,0.0,0.0,0.0,0.0, 22:38:07.580
, 75220.929688, 86567.835938, 152460.218750, 154641.500000, 113176.132813, 93312.023438, 96799.164063, 114789.750000, 0.000, 0.000, 0.000,0.0,0.0,0.0,0.0,0.0, 22:38:07.580
, 75215.046875, 86562.960938, 152422.343750, 154755.359375, 113147.031250, 93290.835938, 96800.304688, 114761.875000, 0.000, 0.000, 0.000,0.0,0.0,0.0,0.0,0.0, 22:38:07.580
, 75238.632813, 86591.750000, 152382.390625, 154566.546875, 113160.398438, 93243.789063, 96641.140625, 114738.515625, 0.000, 0.000, 0.000,0.0,0.0,0.0,0.0,0.0, 22:38:07.580
, 75245.156250, 86596.375000, 152432.000000, 154466.625000, 113189.585938, 93258.914063, 96644.851563, 114770.234375, 0.000, 0.000, 0.000,0.0,0.0,0.0,0.0,0.0, 22:38:07.580
, 75221.460938, 86570.093750, 152460.390625, 154623.125000, 113172.062500, 93293.585938, 96767.671875, 114781.414063, 0.000, 0.000, 0.000,0.0,0.0,0.0,0.0,0.0, 22:38:07.580
, 75202.578125, 86550.398438, 152434.281250, 154785.625000, 113148.507813, 93290.164063, 96809.718750, 114760.960938, 0.000, 0.000, 0.000,0.0,0.0,0.0,0.0,0.0, 22:38:07.580
, 75210.015625, 86560.343750, 152374.203125, 154636.875000, 113153.335938, 93239.359375, 96658.218750, 114730.226563, 0.000, 0.000, 0.000,0.0,0.0,0.0,0.0,0.0, 22:38:07.580
, 75235.250000, 86582.382813, 152420.343750, 154488.546875, 113187.148438, 93255.992188, 96624.484375, 114764.000000, 0.000, 0.000, 0.000,0.0,0.0,0.0,0.0,0.0, 22:38:07.581
, 75213.820313, 86553.726563, 152459.203125, 154632.359375, 113172.218750, 93297.320313, 96758.484375, 114790.554688, 0.000, 0.000, 0.000,0.0,0.0,0.0,0.0,0.0, 22:38:07.581
, 75203.625000, 86541.187500, 152440.484375, 154812.828125, 113150.156250, 93305.921875, 96820.023438, 114782.640625, 0.324, 0.190, 0.916,0.0,0.0,0.0,0.0,0.0, 22:38:07.581
, 75221.664063, 86567.718750, 152390.296875, 154702.859375, 113157.203125, 93263.234375, 96689.062500, 114749.757813, 0.000, 0.000, 0.000,0.0,0.0,0.0,0.0,0.0, 22:38:07.581
, 75247.617188, 86594.765625, 152413.390625, 154504.750000, 113190.304688, 93262.273438, 96612.414063, 114769.500000, 0.000, 0.000, 0.000,0.0,0.0,0.0,0.0,0.0, 22:38:07.581
, 75242.984375, 86584.375000, 152466.968750, 154581.843750, 113196.296875, 93314.437500, 96732.062500, 114814.875000, 0.000, 0.000, 0.000,0.0,0.0,0.0,0.0,0.0, 22:38:07.581
, 75216.273438, 86551.851563, 152456.812500, 154811.625000, 113164.734375, 93320.359375, 96843.421875, 114794.867188, 0.000, 0.000, 0.000,0.0,0.0,0.0,0.0,0.0, 22:38:07.581
, 75231.632813, 86570.445313, 152398.796875, 154757.140625, 113164.242188, 93275.640625, 96737.851563, 114756.179688, 0.000, 0.000, 0.000,0.0,0.0,0.0,0.0,0.0, 22:38:07.581
, 75253.875000, 86595.820313, 152417.359375, 154552.781250, 113190.484375, 93257.601563, 96633.070313, 114764.421875, 0.000, 0.000, 0.000,0.0,0.0,0.0,0.0,0.0, 22:38:07.582
, 75249.757813, 86586.382813, 152460.265625, 154577.375000, 113187.578125, 93289.453125, 96705.492188, 114789.992188, 0.000, 0.000, 0.000,0.0,0.0,0.0,0.0,0.0, 22:38:07.582
, 75229.328125, 86562.203125, 152469.359375, 154769.312500, 113170.453125, 93308.289063, 96809.359375, 114787.804688, 0.000, 0.000, 0.000,0.0,0.0,0.0,0.0,0.0, 22:38:07.582
, 75237.000000, 86574.453125, 152425.531250, 154798.625000, 113164.460938, 93275.882813, 96761.570313, 114753.203125, 0.334, 0.200, 0.912,0.0,0.0,0.0,0.0,0.0, 22:38:07.582
, 75262.679688, 86605.898438, 152412.921875, 154561.250000, 113190.976563, 93245.304688, 96612.039063, 114748.625000, 0.000, 0.000, 0.000,0.0,0.0,0.0,0.0,0.0, 22:38:07.582
, 75259.218750, 86588.062500, 152464.078125, 154550.437500, 113191.218750, 93275.101563, 96680.078125, 114775.445313, 0.000, 0.000, 0.000,0.0,0.0,0.0,0.0,0.0, 22:38:07.582
, 75234.765625, 86558.851563, 152474.562500, 154755.828125, 113160.507813, 93300.406250, 96803.882813, 114775.734375, 0.000, 0.000, 0.000,0.0,0.0,0.0,0.0,0.0, 22:38:07.582
, 75218.601563, 86552.210938, 152425.078125, 154853.078125, 113145.710938, 93272.398438, 96788.101563, 114743.656250, 0.000, 0.000, 0.000,0.0,0.0,0.0,0.0,0.0, 22:38:07.582
, 75253.804688, 86592.578125, 152397.968750, 154619.437500, 113177.804688, 93239.429688, 96621.421875, 114737.062500, 0.000, 0.000, 0.000,0.0,0.0,0.0,0.0,0.0, 22:38:07.583
, 75266.414063, 86597.781250, 152462.625000, 154540.203125, 113204.515625, 93276.062500, 96656.070313, 114778.101563, 0.000, 0.000, 0.000,0.0,0.0,0.0,0.0,0.0, 22:38:07.583
, 75233.601563, 86558.601563, 152485.468750, 154738.234375, 113181.656250, 93304.359375, 96800.710938, 114787.554688, 0.000, 0.000, 0.000,0.0,0.0,0.0,0.0,0.0, 22:38:07.583
, 75218.578125, 86542.820313, 152443.093750, 154872.109375, 113147.945313, 93285.804688, 96818.273438, 114755.218750, 0.000, 0.000, 0.000,0.0,0.0,0.0,0.0,0.0, 22:38:07.583
, 75240.570313, 86571.343750, 152401.828125, 154687.171875, 113157.710938, 93240.835938, 96659.531250, 114735.789063, 0.000, 0.000, 0.000,0.0,0.0,0.0,0.0,0.0, 22:38:07.583
, 75251.929688, 86579.476563, 152449.671875, 154564.359375, 113180.710938, 93254.914063, 96647.578125, 114763.328125, 0.338, 0.198, 0.904,0.0,0.0,0.0,0.0,0.0, 22:38:07.583
, 75233.687500, 86556.992188, 152479.921875, 154720.687500, 113168.781250, 93294.859375, 96777.890625, 114781.812500, 0.000, 0.000, 0.000,0.0,0.0,0.0,0.0,0.0, 22:38:07.583
, 75215.742188, 86541.812500, 152451.437500, 154884.156250, 113138.914063, 93291.257813, 96824.312500, 114761.945313, 0.000, 0.000, 0.000,0.0,0.0,0.0,0.0,0.0, 22:38:07.590
, 75229.351563, 86563.187500, 152395.187500, 154743.984375, 113138.179688, 93239.718750, 96679.468750, 114729.398438, 0.000, 0.000, 0.000,0.0,0.0,0.0,0.0,0.0, 22:38:07.590
, 75254.765625, 86588.781250, 152437.734375, 154583.859375, 113177.742188, 93253.398438, 96638.968750, 114763.148438, 0.000, 0.000, 0.000,0.0,0.0,0.0,0.0,0.0, 22:38:07.590
, 75248.976563, 86580.328125, 152481.359375, 154685.171875, 113185.835938, 93298.992188, 96757.257813, 114794.867188, 0.000, 0.000, 0.000,0.0,0.0,0.0,0.0,0.0, 22:38:07.590
, 75228.679688, 86558.671875, 152476.796875, 154869.937500, 113164.218750, 93310.304688, 96834.617188, 114787.492188, 0.000, 0.000, 0.000,0.0,0.0,0.0,0.0,0.0, 22:38:07.590
, 75235.812500, 86573.242188, 152417.656250, 154787.078125, 113151.632813, 93262.070313, 96718.054688, 114748.218750, 0.000, 0.000, 0.000,0.0,0.0,0.0,0.0,0.0, 22:38:07.590
, 75254.406250, 86587.234375, 152429.328125, 154587.765625, 113173.960938, 93246.914063, 96628.062500, 114752.734375, 0.000, 0.000, 0.000,0.0,0.0,0.0,0.0,0.0, 22:38:07.590
, 75244.796875, 86573.132813, 152473.843750, 154639.578125, 113167.234375, 93284.734375, 96717.851563, 114779.914063, 0.340, 0.198, 0.902,0.0,0.0,0.0,0.0,0.0, 22:38:07.591
, 75217.125000, 86540.945313, 152470.906250, 154852.234375, 113130.023438, 93299.015625, 96818.296875, 114771.710938, 0.000, 0.000, 0.000,0.0,0.0,0.0,0.0,0.0, 22:38:07.591
, 75220.906250, 86552.429688, 152407.578125, 154814.859375, 113115.890625, 93257.039063, 96718.718750, 114737.000000, 0.000, 0.000, 0.000,0.0,0.0,0.0,0.0,0.0, 22:38:07.591
, 75243.617188, 86577.335938, 152412.656250, 154585.218750, 113145.085938, 93238.171875, 96594.421875, 114745.265625, 0.000, 0.000, 0.000,0.0,0.0,0.0,0.0,0.0, 22:38:07.591
, 75238.632813, 86561.531250, 152461.843750, 154610.656250, 113155.679688, 93276.218750, 96686.203125, 114778.039063, 0.000, 0.000, 0.000,0.0,0.0,0.0,0.0,0.0, 22:38:07.591
, 75215.648438, 86534.351563, 152469.515625, 154821.156250, 113142.421875, 93298.343750, 96808.085938, 114777.992188, 0.000, 0.000, 0.000,0.0,0.0,0.0,0.0,0.0, 22:38:07.591
, 75213.125000, 86544.054688, 152418.156250, 154851.656250, 113125.773438, 93265.867188, 96751.937500, 114742.250000, 0.000, 0.000, 0.000,0.0,0.0,0.0,0.0,0.0, 22:38:07.592
, 75249.085938, 86581.515625, 152406.390625, 154606.765625, 113152.125000, 93236.765625, 96595.984375, 114741.492188, 0.000, 0.000, 0.000,0.0,0.0,0.0,0.0,0.0, 22:38:07.592
, 75244.437500, 86573.820313, 152461.093750, 154576.359375, 113164.125000, 93268.906250, 96657.390625, 114773.609375, 0.000, 0.000, 0.000,0.0,0.0,0.0,0.0,0.0, 22:38:07.592
, 75222.492188, 86551.156250, 152479.031250, 154773.234375, 113146.937500, 93301.500000, 96787.007813, 114784.695313, 0.000, 0.000, 0.000,0.0,0.0,0.0,0.0,0.0, 22:38:07.592
, 75215.945313, 86547.671875, 152435.578125, 154868.343750, 113121.820313, 93280.218750, 96776.859375, 114756.671875, 0.336, 0.198, 0.908,0.0,0.0,0.0,0.0,0.0, 22:38:07.592
, 75239.945313, 86574.250000, 152406.968750, 154660.703125, 113147.609375, 93236.992188, 96622.093750, 114738.828125, 0.000, 0.000, 0.000,0.0,0.0,0.0,0.0,0.0, 22:38:07.592
, 75242.406250, 86571.476563, 152446.875000, 154568.984375, 113163.007813, 93256.125000, 96638.281250, 114763.734375, 0.000, 0.000, 0.000,0.0,0.0,0.0,0.0,0.0, 22:38:07.592
, 75227.500000, 86547.359375, 152483.640625, 154732.218750, 113146.601563, 93296.085938, 96764.296875, 114785.367188, 0.000, 0.000, 0.000,0.0,0.0,0.0,0.0,0.0, 22:38:07.592
, 75214.421875, 86536.359375, 152456.296875, 154890.453125, 113128.367188, 93288.687500, 96804.890625, 114766.414063, 0.000, 0.000, 0.000,0.0,0.0,0.0,0.0,0.0, 22:38:07.592
, 75243.007813, 86571.835938, 152406.546875, 154688.531250, 113146.132813, 93241.414063, 96636.625000, 114739.343750, 0.000, 0.000, 0.000,0.0,0.0,0.0,0.0,0.0, 22:38:07.593
, 75252.265625, 86579.906250, 152452.609375, 154546.812500, 113174.343750, 93253.242188, 96622.539063, 114766.703125, 0.000, 0.000, 0.000,0.0,0.0,0.0,0.0,0.0, 22:38:07.593
, 75228.570313, 86552.789063, 152481.296875, 154684.218750, 113160.750000, 93288.531250, 96754.375000, 114786.460938, 0.000, 0.000, 0.000,0.0,0.0,0.0,0.0,0.0, 22:38:07.593
, 75213.218750, 86535.625000, 152456.578125, 154857.218750, 113136.703125, 93288.781250, 96815.906250, 114770.796875, 0.000, 0.000, 0.000,0.0,0.0,0.0,0.0,0.0, 22:38:07.593
, 75229.171875, 86559.500000, 152401.921875, 154727.312500, 113138.109375, 93244.078125, 96678.578125, 114740.687500, 0.338, 0.192, 0.906,0.0,0.0,0.0,0.0,0.0, 22:38:07.593
, 75242.273438, 86574.468750, 152437.750000, 154551.468750, 113164.484375, 93240.812500, 96622.453125, 114758.992188, 0.000, 0.000, 0.000,0.0,0.0,0.0,0.0,0.0, 22:38:07.593
, 75227.296875, 86554.039063, 152471.640625, 154652.265625, 113162.046875, 93279.679688, 96742.726563, 114782.554688, 0.000, 0.000, 0.000,0.0,0.0,0.0,0.0,0.0, 22:38:07.593
, 75207.000000, 86535.468750, 152459.437500, 154845.031250, 113129.640625, 93292.515625, 96827.843750, 114772.179688, 0.000, 0.000, 0.000,0.0,0.0,0.0,0.0,0.0, 22:38:07.593
, 75217.125000, 86553.078125, 152396.890625, 154751.656250, 113120.007813, 93252.054688, 96698.875000, 114738.695313, 0.000, 0.000, 0.000,0.0,0.0,0.0,0.0,0.0, 22:38:07.593
, 75244.062500, 86578.000000, 152419.312500, 154518.546875, 113154.851563, 93241.218750, 96593.101563, 114751.546875, 0.000, 0.000, 0.000,0.0,0.0,0.0,0.0,0.0, 22:38:07.593
, 75233.171875, 86560.210938, 152472.390625, 154580.250000, 113158.515625, 93282.656250, 96708.710938, 114784.070313, 0.000, 0.000, 0.000,0.0,0.0,0.0,0.0,0.0, 22:38:07.594
, 75203.671875, 86525.945313, 152469.734375, 154791.343750, 113118.757813, 93294.617188, 96821.875000, 114776.453125, 0.000, 0.000, 0.000,0.0,0.0,0.0,0.0,0.0, 22:38:07.594
, 75198.867188, 86526.148438, 152411.328125, 154796.484375, 113111.000000, 93248.078125, 96755.445313, 114729.937500, 0.000, 0.000, 0.000,0.0,0.0,0.0,0.0,0.0, 22:38:07.594
, 75224.835938, 86553.882813, 152399.781250, 154566.125000, 113139.789063, 93220.359375, 96621.718750, 114726.648438, 0.000, 0.000, 0.000,0.0,0.0,0.0,0.0,0.0, 22:38:07.594
, 75225.062500, 86550.398438, 152450.515625, 154553.406250, 113153.984375, 93258.539063, 96689.867188, 114764.578125, 0.342, 0.198, 0.904,0.0,0.0,0.0,0.0,0.0, 22:38:07.594
, 75203.781250, 86527.062500, 152467.921875, 154760.281250, 113133.507813, 93286.945313, 96817.023438, 114771.937500, 0.000, 0.000, 0.000,0.0,0.0,0.0,0.0,0.0, 22:38:07.594
, 75207.757813, 86530.257813, 152421.500000, 154817.093750, 113116.742188, 93259.070313, 96780.750000, 114738.585938, 0.000, 0.000, 0.000,0.0,0.0,0.0,0.0,0.0, 22:38:07.594
, 75236.437500, 86563.679688, 152402.843750, 154587.000000, 113135.828125, 93225.078125, 96626.429688, 114731.742188, 0.000, 0.000, 0.000,0.0,0.0,0.0,0.0,0.0, 22:38:07.594
, 75245.914063, 86572.414063, 152456.375000, 154514.281250, 113162.898438, 93258.625000, 96660.492188, 114769.562500, 0.000, 0.000, 0.000,0.0,0.0,0.0,0.0,0.0, 22:38:07.594
, 75219.851563, 86543.742188, 152491.015625, 154714.437500, 113141.421875, 93295.304688, 96807.234375, 114783.914063, 0.000, 0.000, 0.000,0.0,0.0,0.0,0.0,0.0, 22:38:07.595
, 75204.453125, 86523.976563, 152446.250000, 154839.406250, 113112.585938, 93273.984375, 96819.953125, 114752.421875, 0.000, 0.000, 0.000,0.0,0.0,0.0,0.0,0.0, 22:38:07.595
, 75237.687500, 86558.312500, 152399.906250, 154618.828125, 113130.710938, 93231.046875, 96646.125000, 114732.015625, 0.000, 0.000, 0.000,0.0,0.0,0.0,0.0,0.0, 22:38:07.595
, 75248.953125, 86568.570313, 152455.000000, 154516.046875, 113153.445313, 93257.242188, 96662.820313, 114770.148438, 0.000, 0.000, 0.000,0.0,0.0,0.0,0.0,0.0, 22:38:07.595
, 75221.242188, 86538.890625, 152475.812500, 154666.015625, 113136.187500, 93294.101563, 96791.882813, 114787.085938, 0.000, 0.000, 0.000,0.0,0.0,0.0,0.0,0.0, 22:38:07.595
, 75209.796875, 86524.781250, 152448.296875, 154816.687500, 113118.531250, 93282.187500, 96836.539063, 114761.500000, 0.348, 0.202, 0.908,0.0,0.0,0.0,0.0,0.0, 22:38:07.595
, 75237.156250, 86561.015625, 152405.625000, 154639.125000, 113135.828125, 93237.570313, 96679.875000, 114736.375000, 0.000, 0.000, 0.000,0.0,0.0,0.0,0.0,0.0, 22:38:07.595
, 75250.382813, 86571.585938, 152451.437500, 154503.640625, 113151.210938, 93247.539063, 96653.406250, 114760.984375, 0.000, 0.000, 0.000,0.0,0.0,0.0,0.0,0.0, 22:38:07.595
, 75235.414063, 86548.609375, 152485.515625, 154642.578125, 113143.703125, 93285.937500, 96780.164063, 114781.906250, 0.000, 0.000, 0.000,0.0,0.0,0.0,0.0,0.0, 22:38:07.596
, 75211.132813, 86522.976563, 152458.296875, 154814.859375, 113117.593750, 93284.757813, 96836.250000, 114760.710938, 0.000, 0.000, 0.000,0.0,0.0,0.0,0.0,0.0, 22:38:07.596
, 75238.468750, 86559.585938, 152412.109375, 154667.343750, 113131.960938, 93247.164063, 96690.937500, 114741.203125, 0.000, 0.000, 0.000,0.0,0.0,0.0,0.0,0.0, 22:38:07.596
, 75255.414063, 86576.726563, 152449.281250, 154489.937500, 113158.406250, 93248.140625, 96633.226563, 114763.125000, 0.000, 0.000, 0.000,0.0,0.0,0.0,0.0,0.0, 22:38:07.596
, 75239.882813, 86553.484375, 152485.468750, 154560.437500, 113147.250000, 93285.132813, 96734.101563, 114787.179688, 0.000, 0.000, 0.000,0.0,0.0,0.0,0.0,0.0, 22:38:07.596
, 75214.781250, 86524.937500, 152477.531250, 154771.515625, 113128.140625, 93299.171875, 96835.351563, 114778.234375, 0.000, 0.000, 0.000,0.0,0.0,0.0,0.0,0.0, 22:38:07.596
, 75226.156250, 86544.789063, 152417.562500, 154714.046875, 113124.812500, 93256.484375, 96726.632813, 114743.593750, 0.348, 0.200, 0.904,0.0,0.0,0.0,0.0,0.0, 22:38:07.596
, 75235.835938, 86560.570313, 152422.156250, 154496.281250, 113142.000000, 93236.921875, 96611.031250, 114746.296875, 0.000, 0.000, 0.000,0.0,0.0,0.0,0.0,0.0, 22:38:07.596
, 75220.031250, 86542.531250, 152461.843750, 154531.531250, 113147.031250, 93272.351563, 96695.812500, 114771.195313, 0.000, 0.000, 0.000,0.0,0.0,0.0,0.0,0.0, 22:38:07.596
, 75199.851563, 86522.054688, 152468.015625, 154730.437500, 113125.687500, 93294.296875, 96802.695313, 114772.539063, 0.000, 0.000, 0.000,0.0,0.0,0.0,0.0,0.0, 22:38:07.596
, 75206.757813, 86533.101563, 152422.671875, 154749.750000, 113111.335938, 93260.460938, 96745.140625, 114741.648438, 0.000, 0.000, 0.000,0.0,0.0,0.0,0.0,0.0, 22:38:07.597
, 75231.117188, 86559.382813, 152414.140625, 154536.796875, 113130.601563, 93231.851563, 96605.937500, 114737.671875, 0.000, 0.000, 0.000,0.0,0.0,0.0,0.0,0.0, 22:38:07.597
, 75238.226563, 86563.718750, 152466.968750, 154503.515625, 113150.203125, 93267.921875, 96652.601563, 114772.492188, 0.000, 0.000, 0.000,0.0,0.0,0.0,0.0,0.0, 22:38:07.597
, 75219.070313, 86537.968750, 152487.421875, 154693.406250, 113131.273438, 93296.382813, 96772.632813, 114780.515625, 0.000, 0.000, 0.000,0.0,0.0,0.0,0.0,0.0, 22:38:07.597
, 75212.210938, 86532.046875, 152445.750000, 154779.562500, 113106.882813, 93268.507813, 96759.781250, 114750.093750, 0.000, 0.000, 0.000,0.0,0.0,0.0,0.0,0.0, 22:38:07.597
, 75231.500000, 86557.281250, 152409.484375, 154552.156250, 113121.078125, 93225.234375, 96593.531250, 114729.171875, 0.000, 0.000, 0.000,0.0,0.0,0.0,0.0,0.0, 22:38:07.597
, 75229.640625, 86555.382813, 152459.406250, 154482.093750, 113143.476563, 93259.390625, 96622.765625, 114768.156250, 0.338, 0.206, 0.900,0.0,0.0,0.0,0.0,0.0, 22:38:07.597
, 75207.781250, 86528.140625, 152488.156250, 154677.984375, 113126.289063, 93295.375000, 96758.890625, 114781.140625, 0.000, 0.000, 0.000,0.0,0.0,0.0,0.0,0.0, 22:38:07.597
, 75199.914063, 86518.234375, 152452.593750, 154816.203125, 113108.296875, 93275.523438, 96776.546875, 114748.867188, 0.000, 0.000, 0.000,0.0,0.0,0.0,0.0,0.0, 22:38:07.597
, 75232.257813, 86556.906250, 152408.359375, 154603.437500, 113126.625000, 93232.945313, 96599.367188, 114730.312500, 0.000, 0.000, 0.000,0.0,0.0,0.0,0.0,0.0, 22:38:07.598
, 75255.664063, 86575.726563, 152458.140625, 154445.312500, 113157.312500, 93258.203125, 96571.179688, 114770.906250, 0.000, 0.000, 0.000,0.0,0.0,0.0,0.0,0.0, 22:38:07.598
, 75230.539063, 86545.859375, 152491.015625, 154583.093750, 113135.359375, 93295.750000, 96695.789063, 114789.570313, 0.000, 0.000, 0.000,0.0,0.0,0.0,0.0,0.0, 22:38:07.598
, 75208.500000, 86521.226563, 152464.625000, 154760.859375, 113102.640625, 93287.171875, 96751.335938, 114763.617188, 0.000, 0.000, 0.000,0.0,0.0,0.0,0.0,0.0, 22:38:07.598
, 75222.890625, 86543.718750, 152403.359375, 154614.562500, 113099.820313, 93235.468750, 96600.593750, 114726.757813, 0.000, 0.000, 0.000,0.0,0.0,0.0,0.0,0.0, 22:38:07.598
, 75246.007813, 86559.382813, 152442.093750, 154443.375000, 113131.742188, 93243.117188, 96547.617188, 114752.937500, 0.000, 0.000, 0.000,0.0,0.0,0.0,0.0,0.0, 22:38:08.055
, 75231.429688, 86536.476563, 152478.640625, 154559.156250, 113130.421875, 93283.015625, 96663.539063, 114781.367188, 0.348, 0.208, 0.902,0.0,0.0,0.0,0.0,0.0, 22:38:08.055
, 75214.757813, 86517.695313, 152465.875000, 154748.250000, 113107.625000, 93287.171875, 96738.078125, 114768.046875, 0.000, 0.000, 0.000,0.0,0.0,0.0,0.0,0.0, 22:38:08.055
, 75232.054688, 86541.343750, 152414.812500, 154660.406250, 113111.890625, 93239.562500, 96623.390625, 114732.484375, 0.000, 0.000, 0.000,0.0,0.0,0.0,0.0,0.0, 22:38:08.055
, 75254.117188, 86561.484375, 152435.703125, 154465.609375, 113134.648438, 93231.671875, 96544.062500, 114744.015625, 0.000, 0.000, 0.000,0.0,0.0,0.0,0.0,0.0, 22:38:08.055
, 75239.476563, 86541.078125, 152479.843750, 154550.140625, 113130.734375, 93270.179688, 96655.867188, 114769.382813, 0.000, 0.000, 0.000,0.0,0.0,0.0,0.0,0.0, 22:38:08.056
, 75221.640625, 86519.015625, 152480.375000, 154777.593750, 113109.453125, 93287.437500, 96766.781250, 114765.382813, 0.000, 0.000, 0.000,0.0,0.0,0.0,0.0,0.0, 22:38:08.056
, 75234.406250, 86535.601563, 152423.406250, 154740.515625, 113108.250000, 93251.046875, 96671.578125, 114735.656250, 0.000, 0.000, 0.000,0.0,0.0,0.0,0.0,0.0, 22:38:08.056
, 75259.570313, 86563.921875, 152429.453125, 154521.203125, 113135.539063, 93230.929688, 96550.304688, 114740.687500, 0.000, 0.000, 0.000,0.0,0.0,0.0,0.0,0.0, 22:38:08.056
, 75248.640625, 86549.664063, 152479.265625, 154561.703125, 113135.023438, 93264.328125, 96638.101563, 114766.953125, 0.000, 0.000, 0.000,0.0,0.0,0.0,0.0,0.0, 22:38:08.056
, 75235.882813, 86529.117188, 152477.718750, 154764.609375, 113110.257813, 93285.937500, 96741.164063, 114768.132813, 0.000, 0.000, 0.000,0.0,0.0,0.0,0.0,0.0, 22:38:08.056
, 75239.750000, 86531.984375, 152428.812500, 154793.765625, 113097.742188, 93253.796875, 96683.320313, 114734.828125, 0.348, 0.204, 0.908,0.0,0.0,0.0,0.0,0.0, 22:38:08.056
, 75272.671875, 86566.984375, 152433.281250, 154581.937500, 113131.156250, 93236.296875, 96550.679688, 114743.929688, 0.000, 0.000, 0.000,0.0,0.0,0.0,0.0,0.0, 22:38:08.056
, 75269.945313, 86562.960938, 152483.578125, 154557.375000, 113140.164063, 93272.015625, 96607.164063, 114781.453125, 0.000, 0.000, 0.000,0.0,0.0,0.0,0.0,0.0, 22:38:08.056
, 75235.320313, 86525.632813, 152486.656250, 154757.593750, 113095.640625, 93290.414063, 96725.453125, 114775.289063, 0.000, 0.000, 0.000,0.0,0.0,0.0,0.0,0.0, 22:38:08.057
, 75220.593750, 86515.421875, 152431.984375, 154852.046875, 113074.429688, 93264.531250, 96706.335938, 114742.453125, 0.000, 0.000, 0.000,0.0,0.0,0.0,0.0,0.0, 22:38:08.057
, 75244.039063, 86545.640625, 152403.437500, 154633.656250, 113102.570313, 93224.335938, 96544.218750, 114727.390625, 0.000, 0.000, 0.000,0.0,0.0,0.0,0.0,0.0, 22:38:08.057
, 75240.125000, 86539.601563, 152454.625000, 154566.125000, 113117.460938, 93247.742188, 96576.656250, 114759.773438, 0.000, 0.000, 0.000,0.0,0.0,0.0,0.0,0.0, 22:38:08.057
, 75226.851563, 86521.875000, 152470.390625, 154731.828125, 113103.351563, 93285.093750, 96696.523438, 114777.320313, 0.000, 0.000, 0.000,0.0,0.0,0.0,0.0,0.0, 22:38:08.057
, 75219.851563, 86514.750000, 152448.640625, 154875.171875, 113086.187500, 93278.117188, 96727.710938, 114760.710938, 0.000, 0.000, 0.000,0.0,0.0,0.0,0.0,0.0, 22:38:08.057
, 75241.648438, 86542.109375, 152406.015625, 154702.625000, 113103.171875, 93232.585938, 96579.179688, 114735.726563, 0.348, 0.198, 0.906,0.0,0.0,0.0,0.0,0.0, 22:38:08.057
, 75250.273438, 86548.054688, 152445.062500, 154572.515625, 113120.812500, 93240.968750, 96560.046875, 114754.390625, 0.000, 0.000, 0.000,0.0,0.0,0.0,0.0,0.0, 22:38:08.057
, 75231.859375, 86521.500000, 152477.625000, 154716.484375, 113107.242188, 93279.328125, 96686.734375, 114773.250000, 0.000, 0.000, 0.000,0.0,0.0,0.0,0.0,0.0, 22:38:08.058
, 75220.187500, 86507.460938, 152456.343750, 154899.390625, 113082.906250, 93278.679688, 96747.445313, 114753.429688, 0.000, 0.000, 0.000,0.0,0.0,0.0,0.0,0.0, 22:38:08.058
, 75237.781250, 86529.117188, 152402.812500, 154761.015625, 113082.789063, 93230.265625, 96601.937500, 114721.304688, 0.000, 0.000, 0.000,0.0,0.0,0.0,0.0,0.0, 22:38:08.058
, 75259.773438, 86549.234375, 152440.609375, 154583.109375, 113117.640625, 93242.710938, 96547.171875, 114754.343750, 0.000, 0.000, 0.000,0.0,0.0,0.0,0.0,0.0, 22:38:08.058
, 75245.156250, 86529.296875, 152479.906250, 154681.328125, 113108.117188, 93280.867188, 96665.992188, 114779.578125, 0.000, 0.000, 0.000,0.0,0.0,0.0,0.0,0.0, 22:38:08.058
, 75215.515625, 86498.523438, 152468.593750, 154892.531250, 113071.007813, 93277.468750, 96762.914063, 114756.132813, 0.000, 0.000, 0.000,0.0,0.0,0.0,0.0,0.0, 22:38:08.058
, 75227.539063, 86517.539063, 152408.093750, 154834.546875, 113062.296875, 93232.609375, 96659.265625, 114722.625000, 0.000, 0.000, 0.000,0.0,0.0,0.0,0.0,0.0, 22:38:08.058
, 75255.210938, 86544.945313, 152428.984375, 154637.875000, 113097.609375, 93224.828125, 96574.664063, 114738.250000, 0.000, 0.000, 0.000,0.0,0.0,0.0,0.0,0.0, 22:38:08.059
, 75252.554688, 86534.531250, 152484.843750, 154706.562500, 113103.937500, 93267.437500, 96686.867188, 114772.781250, 0.350, 0.198, 0.902,0.0,0.0,0.0,0.0,0.0, 22:38:08.059
, 75235.585938, 86511.906250, 152480.671875, 154926.265625, 113070.500000, 93282.273438, 96798.945313, 114767.125000, 0.000, 0.000, 0.000,0.0,0.0,0.0,0.0,0.0, 22:38:08.059
, 75242.070313, 86528.695313, 152428.140625, 154899.484375, 113072.039063, 93247.296875, 96714.812500, 114736.664063, 0.000, 0.000, 0.000,0.0,0.0,0.0,0.0,0.0, 22:38:08.059
, 75261.335938, 86550.781250, 152437.640625, 154697.453125, 113104.562500, 93227.804688, 96611.187500, 114743.906250, 0.000, 0.000, 0.000,0.0,0.0,0.0,0.0,0.0, 22:38:08.059
, 75247.796875, 86531.468750, 152473.812500, 154724.000000, 113104.046875, 93260.546875, 96696.882813, 114775.398438, 0.000, 0.000, 0.000,0.0,0.0,0.0,0.0,0.0, 22:38:08.059
, 75225.554688, 86503.929688, 152476.890625, 154933.250000, 113077.851563, 93281.359375, 96813.070313, 114770.187500, 0.000, 0.000, 0.000,0.0,0.0,0.0,0.0,0.0, 22:38:08.059
, 75233.242188, 86512.578125, 152437.578125, 154984.109375, 113074.382813, 93252.679688, 96775.156250, 114735.187500, 0.000, 0.000, 0.000,0.0,0.0,0.0,0.0,0.0, 22:38:08.059
, 75253.312500, 86538.843750, 152417.078125, 154765.750000, 113093.992188, 93216.851563, 96628.890625, 114724.992188, 0.000, 0.000, 0.000,0.0,0.0,0.0,0.0,0.0, 22:38:08.059
, 75264.757813, 86542.640625, 152471.062500, 154726.328125, 113110.750000, 93252.523438, 96678.492188, 114764.851563, 0.000, 0.000, 0.000,0.0,0.0,0.0,0.0,0.0, 22:38:08.059
, 75241.890625, 86513.320313, 152492.984375, 154936.046875, 113086.992188, 93283.750000, 96814.765625, 114772.875000, 0.000, 0.000, 0.000,0.0,0.0,0.0,0.0,0.0, 22:38:08.060
, 75233.664063, 86508.781250, 152441.593750, 155031.218750, 113064.843750, 93263.296875, 96801.398438, 114744.757813, 0.354, 0.194, 0.900,0.0,0.0,0.0,0.0,0.0, 22:38:08.060
, 75260.734375, 86541.148438, 152414.859375, 154822.750000, 113091.593750, 93224.945313, 96646.414063, 114733.960938, 0.000, 0.000, 0.000,0.0,0.0,0.0,0.0,0.0, 22:38:08.060
, 75263.101563, 86539.960938, 152462.453125, 154740.765625, 113107.312500, 93244.437500, 96669.750000, 114762.054688, 0.000, 0.000, 0.000,0.0,0.0,0.0,0.0,0.0, 22:38:08.060
, 75239.835938, 86511.773438, 152487.328125, 154911.000000, 113084.156250, 93277.226563, 96799.281250, 114776.515625, 0.000, 0.000, 0.000,0.0,0.0,0.0,0.0,0.0, 22:38:08.060
, 75243.320313, 86515.640625, 152465.765625, 155044.968750, 113077.828125, 93275.164063, 96829.851563, 114763.929688, 0.000, 0.000, 0.000,0.0,0.0,0.0,0.0,0.0, 22:38:08.060
, 75259.859375, 86536.851563, 152420.781250, 154884.859375, 113079.703125, 93227.804688, 96685.640625, 114737.914063, 0.000, 0.000, 0.000,0.0,0.0,0.0,0.0,0.0, 22:38:08.060
, 75271.554688, 86545.664063, 152461.890625, 154750.531250, 113101.390625, 93239.429688, 96664.117188, 114765.539063, 0.000, 0.000, 0.000,0.0,0.0,0.0,0.0,0.0, 22:38:08.060
, 75256.664063, 86524.585938, 152501.046875, 154895.031250, 113096.742188, 93281.070313, 96795.296875, 114788.007813, 0.000, 0.000, 0.000,0.0,0.0,0.0,0.0,0.0, 22:38:08.060
, 75237.468750, 86502.320313, 152481.687500, 155080.312500, 113075.976563, 93284.015625, 96862.265625, 114770.976563, 0.000, 0.000, 0.000,0.0,0.0,0.0,0.0,0.0, 22:38:08.061
, 75251.976563, 86525.429688, 152421.656250, 154952.546875, 113069.781250, 93234.421875, 96715.968750, 114733.335938, 0.348, 0.192, 0.900,0.0,0.0,0.0,0.0,0.0, 22:38:08.061
, 75279.218750, 86550.335938, 152461.062500, 154775.562500, 113104.609375, 93237.843750, 96655.445313, 114756.804688, 0.000, 0.000, 0.000,0.0,0.0,0.0,0.0,0.0, 22:38:08.061
, 75258.570313, 86523.554688, 152505.437500, 154885.953125, 113097.093750, 93278.226563, 96784.750000, 114784.898438, 0.000, 0.000, 0.000,0.0,0.0,0.0,0.0,0.0, 22:38:08.061
, 75238.312500, 86501.828125, 152489.453125, 155090.453125, 113075.976563, 93288.828125, 96875.812500, 114775.664063, 0.000, 0.000, 0.000,0.0,0.0,0.0,0.0,0.0, 22:38:08.061
, 75255.390625, 86523.687500, 152432.828125, 155009.437500, 113075.484375, 93246.085938, 96754.531250, 114743.992188, 0.000, 0.000, 0.000,0.0,0.0,0.0,0.0,0.0, 22:38:08.061
, 75282.726563, 86548.765625, 152451.406250, 154809.781250, 113108.804688, 93235.960938, 96660.359375, 114761.093750, 0.000, 0.000, 0.000,0.0,0.0,0.0,0.0,0.0, 22:38:08.061
, 75279.820313, 86537.320313, 152498.140625, 154853.968750, 113112.164063, 93269.445313, 96748.718750, 114783.531250, 0.000, 0.000, 0.000,0.0,0.0,0.0,0.0,0.0, 22:38:08.061
, 75251.367188, 86507.437500, 152502.187500, 155063.343750, 113084.375000, 93288.265625, 96857.570313, 114779.375000, 0.000, 0.000, 0.000,0.0,0.0,0.0,0.0,0.0, 22:38:08.061
, 75251.750000, 86516.046875, 152441.781250, 155067.437500, 113063.882813, 93247.828125, 96786.828125, 114744.484375, 0.000, 0.000, 0.000,0.0,0.0,0.0,0.0,0.0, 22:38:08.061
, 75280.429688, 86545.593750, 152432.281250, 154828.718750, 113088.695313, 93222.554688, 96642.523438, 114747.820313, 0.000, 0.000, 0.000,0.0,0.0,0.0,0.0,0.0, 22:38:08.062
, 75286.460938, 86538.062500, 152488.062500, 154830.687500, 113099.640625, 93264.796875, 96716.578125, 114790.328125, 0.344, 0.194, 0.906,0.0,0.0,0.0,0.0,0.0, 22:38:08.062
, 75268.156250, 86515.195313, 152500.562500, 155032.953125, 113079.906250, 93285.203125, 96838.703125, 114786.171875, 0.000, 0.000, 0.000,0.0,0.0,0.0,0.0,0.0, 22:38:08.062
, 75264.468750, 86514.992188, 152452.531250, 155084.046875, 113060.390625, 93254.226563, 96800.570313, 114749.179688, 0.000, 0.000, 0.000,0.0,0.0,0.0,0.0,0.0, 22:38:08.062
, 75284.789063, 86540.898438, 152431.109375, 154863.718750, 113077.695313, 93218.195313, 96648.742188, 114738.562500, 0.000, 0.000, 0.000,0.0,0.0,0.0,0.0,0.0, 22:38:08.062
, 75292.406250, 86547.562500, 152481.000000, 154804.328125, 113094.484375, 93250.289063, 96688.343750, 114772.671875, 0.000, 0.000, 0.000,0.0,0.0,0.0,0.0,0.0, 22:38:08.062
, 75265.335938, 86520.515625, 152507.984375, 154997.734375, 113078.007813, 93285.984375, 96826.500000, 114786.148438, 0.000, 0.000, 0.000,0.0,0.0,0.0,0.0,0.0, 22:38:08.062
, 75255.750000, 86506.343750, 152462.890625, 155104.093750, 113059.812500, 93267.859375, 96829.070313, 114757.453125, 0.000, 0.000, 0.000,0.0,0.0,0.0,0.0,0.0, 22:38:08.062
, 75279.960938, 86534.484375, 152424.609375, 154902.953125, 113073.492188, 93225.007813, 96674.781250, 114736.015625, 0.000, 0.000, 0.000,0.0,0.0,0.0,0.0,0.0, 22:38:08.063
, 75283.179688, 86535.179688, 152467.406250, 154792.593750, 113095.578125, 93242.648438, 96678.601563, 114762.992188, 0.000, 0.000, 0.000,0.0,0.0,0.0,0.0,0.0, 22:38:08.063
, 75272.468750, 86518.437500, 152500.109375, 154939.531250, 113087.796875, 93284.132813, 96805.671875, 114788.898438, 0.350, 0.194, 0.906,0.0,0.0,0.0,0.0,0.0, 22:38:08.063
, 75266.726563, 86512.359375, 152476.437500, 155067.921875, 113065.734375, 93279.773438, 96838.351563, 114770.031250, 0.000, 0.000, 0.000,0.0,0.0,0.0,0.0,0.0, 22:38:08.063
, 75287.625000, 86538.507813, 152430.984375, 154893.921875, 113074.343750, 93234.171875, 96690.960938, 114742.429688, 0.000, 0.000, 0.000,0.0,0.0,0.0,0.0,0.0, 22:38:08.063
, 75295.382813, 86544.703125, 152477.359375, 154765.750000, 113090.992188, 93243.023438, 96681.148438, 114765.500000, 0.000, 0.000, 0.000,0.0,0.0,0.0,0.0,0.0, 22:38:08.063
, 75276.625000, 86524.046875, 152502.843750, 154886.875000, 113085.585938, 93275.929688, 96801.179688, 114778.039063, 0.000, 0.000, 0.000,0.0,0.0,0.0,0.0,0.0, 22:38:08.063
, 75257.562500, 86502.523438, 152489.562500, 155067.453125, 113060.570313, 93276.398438, 96871.765625, 114760.156250, 0.000, 0.000, 0.000,0.0,0.0,0.0,0.0,0.0, 22:38:08.063
, 75276.960938, 86527.960938, 152431.046875, 154959.187500, 113063.187500, 93232.093750, 96744.406250, 114731.210938, 0.000, 0.000, 0.000,0.0,0.0,0.0,0.0,0.0, 22:38:08.063
, 75297.054688, 86550.156250, 152458.468750, 154752.593750, 113096.468750, 93233.234375, 96668.632813, 114753.937500, 0.000, 0.000, 0.000,0.0,0.0,0.0,0.0,0.0, 22:38:08.064
, 75273.921875, 86521.390625, 152503.171875, 154843.843750, 113088.085938, 93272.195313, 96793.914063, 114780.093750, 0.000, 0.000, 0.000,0.0,0.0,0.0,0.0,0.0, 22:38:08.064
, 75250.695313, 86496.820313, 152494.968750, 155066.250000, 113060.554688, 93284.132813, 96900.148438, 114769.875000, 0.000, 0.000, 0.000,0.0,0.0,0.0,0.0,0.0, 22:38:08.064
, 75258.250000, 86512.492188, 152429.531250, 155014.453125, 113054.406250, 93239.984375, 96792.351563, 114734.335938, 0.348, 0.200, 0.900,0.0,0.0,0.0,0.0,0.0, 22:38:08.064
, 75285.679688, 86544.250000, 152438.687500, 154770.328125, 113080.937500, 93228.250000, 96666.976563, 114751.437500, 0.000, 0.000, 0.000,0.0,0.0,0.0,0.0,0.0, 22:38:08.064
, 75276.757813, 86528.718750, 152491.187500, 154806.812500, 113085.875000, 93266.960938, 96768.632813, 114782.593750, 0.000, 0.000, 0.000,0.0,0.0,0.0,0.0,0.0, 22:38:08.064
, 75244.328125, 86492.554688, 152487.750000, 155013.609375, 113053.218750, 93281.585938, 96884.679688, 114771.554688, 0.000, 0.000, 0.000,0.0,0.0,0.0,0.0,0.0, 22:38:08.064
, 75250.742188, 86503.281250, 152438.203125, 155033.296875, 113044.210938, 93248.859375, 96830.125000, 114741.335938, 0.000, 0.000, 0.000,0.0,0.0,0.0,0.0,0.0, 22:38:08.064
, 75280.156250, 86532.648438, 152428.546875, 154793.062500, 113066.671875, 93217.765625, 96681.929688, 114738.179688, 0.000, 0.000, 0.000,0.0,0.0,0.0,0.0,0.0, 22:38:08.064
, 75284.515625, 86533.257813, 152489.109375, 154782.359375, 113084.132813, 93256.281250, 96755.734375, 114777.390625, 0.000, 0.000, 0.000,0.0,0.0,0.0,0.0,0.0, 22:38:08.065
, 75258.789063, 86503.281250, 152500.500000, 154972.734375, 113058.335938, 93279.992188, 96877.531250, 114780.453125, 0.000, 0.000, 0.000,0.0,0.0,0.0,0.0,0.0, 22:38:08.065
, 75256.820313, 86502.742188, 152459.078125, 155046.453125, 113046.648438, 93253.914063, 96863.093750, 114752.328125, 0.000, 0.000, 0.000,0.0,0.0,0.0,0.0,0.0, 22:38:08.065
, 75292.023438, 86540.679688, 152438.265625, 154811.234375, 113075.210938, 93219.781250, 96706.695313, 114744.867188, 0.342, 0.204, 0.896,0.0,0.0,0.0,0.0,0.0, 22:38:08.065
, 75295.648438, 86539.937500, 152498.453125, 154754.390625, 113090.679688, 93251.250000, 96749.234375, 114778.039063, 0.000, 0.000, 0.000,0.0,0.0,0.0,0.0,0.0, 22:38:08.065
, 75266.343750, 86509.562500, 152511.406250, 154918.859375, 113061.335938, 93277.265625, 96871.203125, 114778.062500, 0.000, 0.000, 0.000,0.0,0.0,0.0,0.0,0.0, 22:38:08.065
, 75250.046875, 86495.906250, 152473.500000, 155039.343750, 113032.117188, 93258.000000, 96887.835938, 114747.929688, 0.000, 0.000, 0.000,0.0,0.0,0.0,0.0,0.0, 22:38:08.065
, 75283.312500, 86533.257813, 152435.625000, 154841.437500, 113063.593750, 93219.195313, 96734.187500, 114734.250000, 0.000, 0.000, 0.000,0.0,0.0,0.0,0.0,0.0, 22:38:08.065
, 75297.796875, 86544.210938, 152492.109375, 154737.390625, 113087.015625, 93244.546875, 96748.156250, 114769.718750, 0.000, 0.000, 0.000,0.0,0.0,0.0,0.0,0.0, 22:38:08.065
, 75271.617188, 86513.343750, 152509.953125, 154881.937500, 113060.750000, 93276.710938, 96868.500000, 114780.140625, 0.000, 0.000, 0.000,0.0,0.0,0.0,0.0,0.0, 22:38:08.065
, 75259.640625, 86504.195313, 152483.015625, 155021.093750, 113041.734375, 93277.000000, 96905.359375, 114764.671875, 0.000, 0.000, 0.000,0.0,0.0,0.0,0.0,0.0, 22:38:08.066
, 75284.453125, 86534.976563, 152436.296875, 154850.468750, 113053.015625, 93231.671875, 96756.812500, 114738.539063, 0.000, 0.000, 0.000,0.0,0.0,0.0,0.0,0.0, 22:38:08.066
, 75307.718750, 86555.093750, 152475.375000, 154668.234375, 113087.531250, 93238.757813, 96712.617188, 114765.250000, 0.000, 0.000, 0.000,0.0,0.0,0.0,0.0,0.0, 22:38:08.066
, 75289.078125, 86530.773438, 152518.906250, 154775.718750, 113075.054688, 93278.007813, 96838.367188, 114790.328125, 0.344, 0.210, 0.902,0.0,0.0,0.0,0.0,0.0, 22:38:08.066
, 75257.562500, 86496.578125, 152500.890625, 154981.140625, 113038.937500, 93276.664063, 96928.937500, 114763.593750, 0.000, 0.000, 0.000,0.0,0.0,0.0,0.0,0.0, 22:38:08.066
, 75274.953125, 86518.953125, 152441.265625, 154887.562500, 113044.546875, 93235.445313, 96810.718750, 114733.492188, 0.000, 0.000, 0.000,0.0,0.0,0.0,0.0,0.0, 22:38:08.066
, 75306.843750, 86553.195313, 152470.828125, 154676.437500, 113081.406250, 93237.304688, 96725.875000, 114761.117188, 0.000, 0.000, 0.000,0.0,0.0,0.0,0.0,0.0, 22:38:08.066
, 75296.500000, 86533.773438, 152522.953125, 154752.203125, 113080.000000, 93278.320313, 96841.585938, 114792.476563, 0.000, 0.000, 0.000,0.0,0.0,0.0,0.0,0.0, 22:38:08.066
, 75276.757813, 86510.945313, 152517.406250, 154948.703125, 113054.070313, 93294.812500, 96941.390625, 114785.726563, 0.000, 0.000, 0.000,0.0,0.0,0.0,0.0,0.0, 22:38:08.066
, 75277.320313, 86517.210938, 152457.421875, 154919.750000, 113042.179688, 93250.062500, 96855.406250, 114748.265625, 0.000, 0.000, 0.000,0.0,0.0,0.0,0.0,0.0, 22:38:08.066
, 75298.867188, 86539.312500, 152454.968750, 154679.453125, 113065.335938, 93223.218750, 96724.734375, 114743.257813, 0.000, 0.000, 0.000,0.0,0.0,0.0,0.0,0.0, 22:38:08.067
, 75303.273438, 86538.820313, 152521.343750, 154714.343750, 113074.367188, 93266.359375, 96823.039063, 114782.507813, 0.000, 0.000, 0.000,0.0,0.0,0.0,0.0,0.0, 22:38:08.067
, 75281.921875, 86514.164063, 152524.656250, 154919.906250, 113051.406250, 93291.171875, 96937.789063, 114785.343750, 0.000, 0.000, 0.000,0.0,0.0,0.0,0.0,0.0, 22:38:08.067
, 75283.804688, 86517.656250, 152478.031250, 154940.859375, 113047.117188, 93261.781250, 96883.703125, 114757.960938, 0.350, 0.200, 0.908,0.0,0.0,0.0,0.0,0.0, 22:38:08.067
, 75305.375000, 86547.070313, 152463.187500, 154700.546875, 113067.632813, 93229.835938, 96730.882813, 114750.031250, 0.000, 0.000, 0.000,0.0,0.0,0.0,0.0,0.0, 22:38:08.067
, 75295.421875, 86541.343750, 152508.890625, 154661.750000, 113074.835938, 93258.695313, 96783.453125, 114780.273438, 0.000, 0.000, 0.000,0.0,0.0,0.0,0.0,0.0, 22:38:08.067
, 75269.812500, 86510.414063, 152525.031250, 154867.281250, 113051.546875, 93285.492188, 96923.531250, 114787.046875, 0.000, 0.000, 0.000,0.0,0.0,0.0,0.0,0.0, 22:38:08.067
, 75259.570313, 86502.390625, 152474.937500, 154969.171875, 113034.375000, 93263.742188, 96921.273438, 114757.203125, 0.000, 0.000, 0.000,0.0,0.0,0.0,0.0,0.0, 22:38:08.067
, 75279.171875, 86528.945313, 152433.687500, 154735.515625, 113037.507813, 93220.273438, 96742.328125, 114737.242188, 0.000, 0.000, 0.000,0.0,0.0,0.0,0.0,0.0, 22:38:08.067
, 75285.945313, 86531.804688, 152481.265625, 154637.359375, 113060.351563, 93243.898438, 96749.765625, 114770.078125, 0.000, 0.000, 0.000,0.0,0.0,0.0,0.0,0.0, 22:38:08.067
, 75272.242188, 86514.632813, 152516.562500, 154802.968750, 113050.156250, 93284.445313, 96880.210938, 114792.539063, 0.000, 0.000, 0.000,0.0,0.0,0.0,0.0,0.0, 22:38:08.068
, 75259.015625, 86504.062500, 152485.046875, 154950.453125, 113028.320313, 93273.539063, 96916.312500, 114768.937500, 0.000, 0.000, 0.000,0.0,0.0,0.0,0.0,0.0, 22:38:08.068
, 75289.632813, 86539.289063, 152442.171875, 154753.796875, 113048.570313, 93227.023438, 96756.609375, 114742.835938, 0.352, 0.198, 0.904,0.0,0.0,0.0,0.0,0.0, 22:38:08.068
, 75302.445313, 86547.359375, 152494.062500, 154620.109375, 113070.296875, 93240.007813, 96746.281250, 114769.367188, 0.000, 0.000, 0.000,0.0,0.0,0.0,0.0,0.0, 22:38:08.068
, 75273.140625, 86516.718750, 152523.734375, 154773.437500, 113043.742188, 93277.492188, 96881.820313, 114787.671875, 0.000, 0.000, 0.000,0.0,0.0,0.0,0.0,0.0, 22:38:08.068
, 75263.234375, 86505.625000, 152501.515625, 154955.828125, 113021.164063, 93275.546875, 96949.281250, 114769.093750, 0.000, 0.000, 0.000,0.0,0.0,0.0,0.0,0.0, 22:38:08.068
, 75282.328125, 86529.570313, 152441.593750, 154798.812500, 113023.851563, 93226.750000, 96795.500000, 114738.476563, 0.000, 0.000, 0.000,0.0,0.0,0.0,0.0,0.0, 22:38:08.535
, 75298.039063, 86541.640625, 152472.625000, 154604.265625, 113053.375000, 93230.617188, 96733.179688, 114762.859375, 0.000, 0.000, 0.000,0.0,0.0,0.0,0.0,0.0, 22:38:08.535
, 75279.710938, 86519.617188, 152511.156250, 154683.500000, 113052.820313, 93271.968750, 96842.703125, 114787.625000, 0.000, 0.000, 0.000,0.0,0.0,0.0,0.0,0.0, 22:38:08.535
, 75254.429688, 86491.617188, 152505.703125, 154895.281250, 113024.031250, 93284.351563, 96948.429688, 114779.710938, 0.000, 0.000, 0.000,0.0,0.0,0.0,0.0,0.0, 22:38:08.535
, 75259.234375, 86505.742188, 152433.062500, 154807.734375, 113019.289063, 93234.195313, 96831.929688, 114738.226563, 0.000, 0.000, 0.000,0.0,0.0,0.0,0.0,0.0, 22:38:08.535
, 75284.335938, 86532.695313, 152449.703125, 154579.546875, 113058.609375, 93228.343750, 96736.046875, 114754.273438, 0.000, 0.000, 0.000,0.0,0.0,0.0,0.0,0.0, 22:38:08.535
, 75276.445313, 86518.390625, 152498.953125, 154632.812500, 113058.718750, 93268.328125, 96846.375000, 114787.265625, 0.356, 0.196, 0.898,0.0,0.0,0.0,0.0,0.0, 22:38:08.535
, 75246.609375, 86485.554688, 152494.703125, 154839.890625, 113027.406250, 93279.328125, 96956.343750, 114775.171875, 0.000, 0.000, 0.000,0.0,0.0,0.0,0.0,0.0, 22:38:08.535
, 75250.500000, 86493.242188, 152443.296875, 154844.875000, 113014.593750, 93240.429688, 96893.109375, 114743.859375, 0.000, 0.000, 0.000,0.0,0.0,0.0,0.0,0.0, 22:38:08.536
, 75281.523438, 86527.421875, 152437.343750, 154616.750000, 113044.906250, 93221.593750, 96759.601563, 114753.273438, 0.000, 0.000, 0.000,0.0,0.0,0.0,0.0,0.0, 22:38:08.536
, 75283.289063, 86527.531250, 152497.312500, 154602.031250, 113061.039063, 93262.070313, 96822.320313, 114788.875000, 0.000, 0.000, 0.000,0.0,0.0,0.0,0.0,0.0, 22:38:08.536
, 75260.914063, 86497.093750, 152516.312500, 154794.031250, 113034.375000, 93284.914063, 96935.648438, 114786.617188, 0.000, 0.000, 0.000,0.0,0.0,0.0,0.0,0.0, 22:38:08.536
, 75262.296875, 86500.468750, 152471.703125, 154837.484375, 113026.039063, 93261.507813, 96894.070313, 114764.226563, 0.000, 0.000, 0.000,0.0,0.0,0.0,0.0,0.0, 22:38:08.536
, 75290.976563, 86535.468750, 152452.500000, 154593.281250, 113050.312500, 93228.539063, 96734.593750, 114756.671875, 0.000, 0.000, 0.000,0.0,0.0,0.0,0.0,0.0, 22:38:08.537
, 75292.320313, 86536.539063, 152512.046875, 154552.312500, 113066.789063, 93263.093750, 96788.343750, 114794.843750, 0.000, 0.000, 0.000,0.0,0.0,0.0,0.0,0.0, 22:38:08.537
, 75256.867188, 86498.945313, 152519.515625, 154743.781250, 113036.585938, 93284.625000, 96907.367188, 114796.007813, 0.354, 0.198, 0.900,0.0,0.0,0.0,0.0,0.0, 22:38:08.537
, 75243.546875, 86485.421875, 152471.062500, 154848.828125, 113014.351563, 93259.703125, 96899.726563, 114764.937500, 0.000, 0.000, 0.000,0.0,0.0,0.0,0.0,0.0, 22:38:08.537
, 75275.085938, 86519.617188, 152437.796875, 154644.578125, 113032.523438, 93221.164063, 96743.195313, 114748.710938, 0.000, 0.000, 0.000,0.0,0.0,0.0,0.0,0.0, 22:38:08.537
, 75284.359375, 86525.343750, 152491.062500, 154543.515625, 113058.406250, 93243.539063, 96758.843750, 114777.117188, 0.000, 0.000, 0.000,0.0,0.0,0.0,0.0,0.0, 22:38:08.537
, 75251.304688, 86492.710938, 152517.906250, 154726.234375, 113033.796875, 93276.351563, 96900.929688, 114788.585938, 0.000, 0.000, 0.000,0.0,0.0,0.0,0.0,0.0, 22:38:08.537
, 75250.070313, 86492.460938, 152487.703125, 154868.765625, 113021.437500, 93273.062500, 96933.898438, 114772.898438, 0.000, 0.000, 0.000,0.0,0.0,0.0,0.0,0.0, 22:38:08.537
, 75278.015625, 86526.304688, 152441.953125, 154684.484375, 113036.609375, 93227.335938, 96774.265625, 114746.296875, 0.000, 0.000, 0.000,0.0,0.0,0.0,0.0,0.0, 22:38:08.537
, 75290.257813, 86537.210938, 152484.734375, 154519.546875, 113059.609375, 93238.445313, 96735.750000, 114771.148438, 0.000, 0.000, 0.000,0.0,0.0,0.0,0.0,0.0, 22:38:08.537
, 75269.453125, 86509.382813, 152521.734375, 154652.656250, 113049.757813, 93279.148438, 96864.812500, 114792.093750, 0.000, 0.000, 0.000,0.0,0.0,0.0,0.0,0.0, 22:38:08.537
, 75252.148438, 86492.039063, 152493.875000, 154800.625000, 113019.421875, 93279.437500, 96910.632813, 114773.210938, 0.000, 0.000, 0.000,0.0,0.0,0.0,0.0,0.0, 22:38:08.537
, 75259.640625, 86509.007813, 152443.296875, 154680.328125, 113017.945313, 93230.773438, 96778.375000, 114741.156250, 0.356, 0.200, 0.904,0.0,0.0,0.0,0.0,0.0, 22:38:08.537
, 75280.335938, 86530.148438, 152471.328125, 154496.484375, 113045.929688, 93228.875000, 96710.093750, 114758.921875, 0.000, 0.000, 0.000,0.0,0.0,0.0,0.0,0.0, 22:38:08.538
, 75270.992188, 86514.367188, 152513.593750, 154583.140625, 113039.765625, 93267.765625, 96816.109375, 114781.921875, 0.000, 0.000, 0.000,0.0,0.0,0.0,0.0,0.0, 22:38:08.538
, 75257.875000, 86498.367188, 152513.343750, 154777.953125, 113019.710938, 93283.976563, 96908.398438, 114780.789063, 0.000, 0.000, 0.000,0.0,0.0,0.0,0.0,0.0, 22:38:08.538
, 75265.117188, 86514.859375, 152454.937500, 154709.921875, 113009.992188, 93237.976563, 96801.289063, 114743.906250, 0.000, 0.000, 0.000,0.0,0.0,0.0,0.0,0.0, 22:38:08.538
, 75288.875000, 86538.484375, 152468.171875, 154489.421875, 113041.195313, 93221.140625, 96697.664063, 114747.726563, 0.000, 0.000, 0.000,0.0,0.0,0.0,0.0,0.0, 22:38:08.538
, 75285.031250, 86527.601563, 152522.109375, 154524.578125, 113052.882813, 93265.265625, 96792.843750, 114787.203125, 0.000, 0.000, 0.000,0.0,0.0,0.0,0.0,0.0, 22:38:08.538
, 75252.445313, 86491.726563, 152513.171875, 154729.906250, 113021.835938, 93277.671875, 96898.117188, 114777.257813, 0.000, 0.000, 0.000,0.0,0.0,0.0,0.0,0.0, 22:38:08.538
, 75260.351563, 86507.375000, 152462.031250, 154715.859375, 113012.335938, 93241.664063, 96820.398438, 114742.718750, 0.000, 0.000, 0.000,0.0,0.0,0.0,0.0,0.0, 22:38:08.538
, 75280.273438, 86532.359375, 152460.234375, 154495.203125, 113033.234375, 93215.820313, 96691.226563, 114742.695313, 0.352, 0.204, 0.900,0.0,0.0,0.0,0.0,0.0, 22:38:08.538
, 75281.882813, 86527.890625, 152511.921875, 154479.828125, 113047.164063, 93250.398438, 96759.468750, 114778.820313, 0.000, 0.000, 0.000,0.0,0.0,0.0,0.0,0.0, 22:38:08.539
, 75259.859375, 86501.609375, 152523.531250, 154670.468750, 113023.421875, 93279.187500, 96881.328125, 114784.851563, 0.000, 0.000, 0.000,0.0,0.0,0.0,0.0,0.0, 22:38:08.539
, 75257.273438, 86500.531250, 152476.640625, 154720.765625, 113009.117188, 93254.000000, 96851.000000, 114755.710938, 0.000, 0.000, 0.000,0.0,0.0,0.0,0.0,0.0, 22:38:08.539
, 75278.593750, 86526.953125, 152452.593750, 154505.781250, 113029.460938, 93216.898438, 96709.578125, 114743.281250, 0.000, 0.000, 0.000,0.0,0.0,0.0,0.0,0.0, 22:38:08.539
, 75280.023438, 86524.492188, 152501.718750, 154447.796875, 113046.960938, 93247.476563, 96753.007813, 114776.179688, 0.000, 0.000, 0.000,0.0,0.0,0.0,0.0,0.0, 22:38:08.539
, 75259.906250, 86498.093750, 152523.421875, 154623.968750, 113029.953125, 93281.648438, 96880.078125, 114785.460938, 0.000, 0.000, 0.000,0.0,0.0,0.0,0.0,0.0, 22:38:08.539
, 75253.898438, 86490.945313, 152488.312500, 154723.984375, 113010.593750, 93266.226563, 96881.195313, 114757.117188, 0.000, 0.000, 0.000,0.0,0.0,0.0,0.0,0.0, 22:38:08.539
, 75273.429688, 86517.117188, 152452.734375, 154526.812500, 113021.343750, 93220.945313, 96723.328125, 114733.085938, 0.000, 0.000, 0.000,0.0,0.0,0.0,0.0,0.0, 22:38:08.540
, 75286.507813, 86527.195313, 152492.562500, 154408.687500, 113049.218750, 93244.140625, 96721.671875, 114768.382813, 0.000, 0.000, 0.000,0.0,0.0,0.0,0.0,0.0, 22:38:08.540
, 75264.218750, 86499.078125, 152525.500000, 154556.468750, 113036.921875, 93282.968750, 96849.078125, 114787.851563, 0.346, 0.210, 0.898,0.0,0.0,0.0,0.0,0.0, 22:38:08.540
, 75243.257813, 86481.554688, 152492.562500, 154712.359375, 113008.781250, 93275.390625, 96889.984375, 114765.875000, 0.000, 0.000, 0.000,0.0,0.0,0.0,0.0,0.0, 22:38:08.540
, 75265.742188, 86506.031250, 152441.375000, 154557.375000, 113018.710938, 93226.773438, 96747.195313, 114738.500000, 0.000, 0.000, 0.000,0.0,0.0,0.0,0.0,0.0, 22:38:08.540
, 75282.531250, 86521.898438, 152477.359375, 154397.734375, 113048.187500, 93234.625000, 96712.664063, 114761.500000, 0.000, 0.000, 0.000,0.0,0.0,0.0,0.0,0.0, 22:38:08.541
, 75264.601563, 86497.828125, 152517.859375, 154518.546875, 113034.156250, 93269.000000, 96838.843750, 114775.937500, 0.000, 0.000, 0.000,0.0,0.0,0.0,0.0,0.0, 22:38:08.541
, 75236.101563, 86467.695313, 152502.609375, 154720.625000, 113001.921875, 93269.046875, 96920.671875, 114758.523438, 0.000, 0.000, 0.000,0.0,0.0,0.0,0.0,0.0, 22:38:08.541
, 75250.273438, 86489.109375, 152439.343750, 154630.656250, 113001.296875, 93224.007813, 96795.054688, 114727.859375, 0.000, 0.000, 0.000,0.0,0.0,0.0,0.0,0.0, 22:38:08.541
, 75276.781250, 86515.640625, 152463.484375, 154425.453125, 113035.828125, 93221.320313, 96705.156250, 114743.929688, 0.000, 0.000, 0.000,0.0,0.0,0.0,0.0,0.0, 22:38:08.541
, 75265.984375, 86499.953125, 152513.656250, 154498.359375, 113033.390625, 93265.601563, 96809.875000, 114778.234375, 0.000, 0.000, 0.000,0.0,0.0,0.0,0.0,0.0, 22:38:08.541
, 75248.015625, 86477.554688, 152508.359375, 154699.015625, 113009.210938, 93280.507813, 96904.781250, 114769.921875, 0.000, 0.000, 0.000,0.0,0.0,0.0,0.0,0.0, 22:38:08.541
, 75254.789063, 86491.500000, 152450.500000, 154649.484375, 112993.804688, 93235.000000, 96805.914063, 114732.148438, 0.354, 0.212, 0.900,0.0,0.0,0.0,0.0,0.0, 22:38:08.541
, 75289.164063, 86527.000000, 152454.468750, 154408.171875, 113026.218750, 93220.000000, 96677.414063, 114742.656250, 0.000, 0.000, 0.000,0.0,0.0,0.0,0.0,0.0, 22:38:08.541
, 75284.671875, 86519.109375, 152514.640625, 154432.906250, 113039.609375, 93264.414063, 96763.648438, 114779.289063, 0.000, 0.000, 0.000,0.0,0.0,0.0,0.0,0.0, 22:38:08.542
, 75249.515625, 86478.718750, 152514.109375, 154645.078125, 113002.054688, 93279.796875, 96876.187500, 114771.328125, 0.000, 0.000, 0.000,0.0,0.0,0.0,0.0,0.0, 22:38:08.542
, 75245.492188, 86474.757813, 152453.796875, 154685.484375, 112984.195313, 93244.835938, 96823.773438, 114735.835938, 0.000, 0.000, 0.000,0.0,0.0,0.0,0.0,0.0, 22:38:08.542
, 75285.726563, 86516.445313, 152442.015625, 154445.718750, 113022.460938, 93223.398438, 96670.132813, 114741.023438, 0.000, 0.000, 0.000,0.0,0.0,0.0,0.0,0.0, 22:38:08.542
, 75282.351563, 86508.757813, 152501.750000, 154403.359375, 113035.359375, 93259.546875, 96724.398438, 114779.687500, 0.000, 0.000, 0.000,0.0,0.0,0.0,0.0,0.0, 22:38:08.542
, 75265.492188, 86490.164063, 152521.578125, 154602.078125, 113017.367188, 93289.359375, 96854.578125, 114786.554688, 0.000, 0.000, 0.000,0.0,0.0,0.0,0.0,0.0, 22:38:08.542
, 75258.007813, 86487.476563, 152474.437500, 154667.562500, 113000.265625, 93261.804688, 96831.601563, 114754.343750, 0.000, 0.000, 0.000,0.0,0.0,0.0,0.0,0.0, 22:38:08.543
, 75278.835938, 86507.796875, 152443.703125, 154453.312500, 113012.312500, 93219.445313, 96683.335938, 114735.320313, 0.360, 0.212, 0.896,0.0,0.0,0.0,0.0,0.0, 22:38:08.543
, 75280.468750, 86502.343750, 152489.671875, 154384.515625, 113022.421875, 93235.132813, 96712.460938, 114755.218750, 0.000, 0.000, 0.000,0.0,0.0,0.0,0.0,0.0, 22:38:08.543
, 75252.062500, 86470.648438, 152508.703125, 154565.187500, 113002.523438, 93262.093750, 96840.359375, 114765.117188, 0.000, 0.000, 0.000,0.0,0.0,0.0,0.0,0.0, 22:38:08.543
, 75255.101563, 86477.156250, 152480.171875, 154690.671875, 112988.890625, 93255.367188, 96859.757813, 114749.093750, 0.000, 0.000, 0.000,0.0,0.0,0.0,0.0,0.0, 22:38:08.543
, 75284.335938, 86513.406250, 152442.937500, 154494.828125, 113004.023438, 93216.468750, 96698.359375, 114733.937500, 0.000, 0.000, 0.000,0.0,0.0,0.0,0.0,0.0, 22:38:08.543
, 75297.343750, 86520.585938, 152491.125000, 154366.078125, 113024.539063, 93233.437500, 96678.375000, 114765.164063, 0.000, 0.000, 0.000,0.0,0.0,0.0,0.0,0.0, 22:38:08.543
, 75272.984375, 86490.812500, 152519.484375, 154511.343750, 113008.671875, 93267.593750, 96790.203125, 114780.406250, 0.000, 0.000, 0.000,0.0,0.0,0.0,0.0,0.0, 22:38:08.543
, 75251.703125, 86469.640625, 152489.343750, 154682.046875, 112983.101563, 93259.343750, 96832.085938, 114756.351563, 0.000, 0.000, 0.000,0.0,0.0,0.0,0.0,0.0, 22:38:08.543
, 75278.351563, 86501.937500, 152437.328125, 154530.187500, 112999.664063, 93213.250000, 96676.882813, 114726.445313, 0.000, 0.000, 0.000,0.0,0.0,0.0,0.0,0.0, 22:38:08.544
, 75299.109375, 86521.054688, 152482.140625, 154371.796875, 113025.882813, 93224.851563, 96631.703125, 114755.773438, 0.000, 0.000, 0.000,0.0,0.0,0.0,0.0,0.0, 22:38:08.544
, 75280.921875, 86492.242188, 152514.000000, 154500.656250, 113013.140625, 93259.320313, 96753.632813, 114775.000000, 0.354, 0.216, 0.904,0.0,0.0,0.0,0.0,0.0, 22:38:08.544
, 75258.234375, 86468.343750, 152495.781250, 154701.359375, 112982.765625, 93261.664063, 96830.460938, 114760.734375, 0.000, 0.000, 0.000,0.0,0.0,0.0,0.0,0.0, 22:38:08.544
, 75275.687500, 86492.039063, 152438.046875, 154604.078125, 112984.578125, 93217.992188, 96702.695313, 114733.421875, 0.000, 0.000, 0.000,0.0,0.0,0.0,0.0,0.0, 22:38:08.544
, 75300.054688, 86514.750000, 152464.812500, 154401.468750, 113009.320313, 93212.109375, 96614.179688, 114748.664063, 0.000, 0.000, 0.000,0.0,0.0,0.0,0.0,0.0, 22:38:08.544
, 75292.476563, 86499.437500, 152514.421875, 154484.843750, 113015.132813, 93253.617188, 96729.140625, 114781.140625, 0.000, 0.000, 0.000,0.0,0.0,0.0,0.0,0.0, 22:38:08.544
, 75274.125000, 86477.015625, 152512.625000, 154689.625000, 112996.937500, 93270.093750, 96830.750000, 114776.296875, 0.000, 0.000, 0.000,0.0,0.0,0.0,0.0,0.0, 22:38:08.544
, 75283.421875, 86488.843750, 152456.421875, 154678.671875, 112989.492188, 93231.562500, 96753.140625, 114741.085938, 0.000, 0.000, 0.000,0.0,0.0,0.0,0.0,0.0, 22:38:08.544
, 75301.835938, 86509.648438, 152453.640625, 154459.093750, 113015.492188, 93209.945313, 96628.507813, 114738.632813, 0.000, 0.000, 0.000,0.0,0.0,0.0,0.0,0.0, 22:38:08.544
, 75290.015625, 86494.226563, 152508.343750, 154506.343750, 113018.578125, 93251.718750, 96727.867188, 114777.164063, 0.000, 0.000, 0.000,0.0,0.0,0.0,0.0,0.0, 22:38:08.545
, 75261.140625, 86461.726563, 152499.781250, 154728.203125, 112986.742188, 93264.484375, 96841.992188, 114764.515625, 0.356, 0.214, 0.898,0.0,0.0,0.0,0.0,0.0, 22:38:08.545
, 75267.281250, 86471.875000, 152453.796875, 154768.281250, 112978.609375, 93234.914063, 96793.531250, 114734.921875, 0.000, 0.000, 0.000,0.0,0.0,0.0,0.0,0.0, 22:38:08.545
, 75295.179688, 86504.648438, 152443.765625, 154555.531250, 112997.789063, 93208.156250, 96652.203125, 114732.281250, 0.000, 0.000, 0.000,0.0,0.0,0.0,0.0,0.0, 22:38:08.545
, 75299.046875, 86503.484375, 152495.375000, 154526.296875, 113013.273438, 93242.734375, 96707.101563, 114769.367188, 0.000, 0.000, 0.000,0.0,0.0,0.0,0.0,0.0, 22:38:08.545
, 75270.929688, 86471.273438, 152508.421875, 154729.875000, 112983.679688, 93266.406250, 96835.148438, 114769.992188, 0.000, 0.000, 0.000,0.0,0.0,0.0,0.0,0.0, 22:38:08.545
, 75263.507813, 86466.984375, 152463.343750, 154828.703125, 112965.265625, 93244.296875, 96824.046875, 114741.695313, 0.000, 0.000, 0.000,0.0,0.0,0.0,0.0,0.0, 22:38:08.545
, 75296.765625, 86506.187500, 152440.484375, 154624.093750, 112994.476563, 93212.382813, 96671.382813, 114731.906250, 0.000, 0.000, 0.000,0.0,0.0,0.0,0.0,0.0, 22:38:08.545
, 75304.164063, 86511.906250, 152491.671875, 154561.234375, 113011.914063, 93237.679688, 96700.929688, 114764.734375, 0.000, 0.000, 0.000,0.0,0.0,0.0,0.0,0.0, 22:38:08.545
, 75282.148438, 86484.570313, 152512.562500, 154723.125000, 112991.554688, 93268.507813, 96818.031250, 114778.257813, 0.000, 0.000, 0.000,0.0,0.0,0.0,0.0,0.0, 22:38:08.545
, 75272.445313, 86471.789063, 152480.890625, 154870.406250, 112964.125000, 93254.914063, 96846.906250, 114750.882813, 0.000, 0.000, 0.000,0.0,0.0,0.0,0.0,0.0, 22:38:08.546
, 75302.625000, 86508.890625, 152436.593750, 154682.765625, 112974.539063, 93211.953125, 96684.187500, 114728.148438, 0.356, 0.206, 0.900,0.0,0.0,0.0,0.0,0.0, 22:38:08.546
, 75315.632813, 86521.093750, 152484.953125, 154562.218750, 113004.406250, 93229.726563, 96674.289063, 114758.453125, 0.000, 0.000, 0.000,0.0,0.0,0.0,0.0,0.0, 22:38:08.546
, 75291.265625, 86491.546875, 152517.953125, 154711.968750, 112991.929688, 93269.085938, 96804.734375, 114777.343750, 0.000, 0.000, 0.000,0.0,0.0,0.0,0.0,0.0, 22:38:08.546
, 75271.578125, 86468.859375, 152488.765625, 154899.125000, 112956.703125, 93268.062500, 96863.406250, 114758.570313, 0.000, 0.000, 0.000,0.0,0.0,0.0,0.0,0.0, 22:38:08.546
, 75295.335938, 86498.140625, 152436.671875, 154763.515625, 112970.117188, 93221.437500, 96717.804688, 114728.859375, 0.000, 0.000, 0.000,0.0,0.0,0.0,0.0,0.0, 22:38:08.546
, 75314.804688, 86517.093750, 152472.906250, 154590.000000, 112995.015625, 93218.929688, 96658.039063, 114744.015625, 0.000, 0.000, 0.000,0.0,0.0,0.0,0.0,0.0, 22:38:08.546
, 75289.992188, 86487.140625, 152513.484375, 154704.281250, 112988.710938, 93250.890625, 96779.164063, 114767.687500, 0.000, 0.000, 0.000,0.0,0.0,0.0,0.0,0.0, 22:38:08.546
, 75271.148438, 86463.789063, 152493.156250, 154897.453125, 112961.937500, 93256.148438, 96853.320313, 114755.593750, 0.000, 0.000, 0.000,0.0,0.0,0.0,0.0,0.0, 22:38:08.546
, 75289.320313, 86485.242188, 152445.390625, 154825.046875, 112958.250000, 93212.273438, 96742.015625, 114723.875000, 0.000, 0.000, 0.000,0.0,0.0,0.0,0.0,0.0, 22:38:08.547
, 75315.046875, 86508.375000, 152459.437500, 154613.625000, 112981.289063, 93198.453125, 96642.882813, 114731.140625, 0.348, 0.206, 0.900,0.0,0.0,0.0,0.0,0.0, 22:38:08.547
, 75301.210938, 86492.281250, 152503.312500, 154665.609375, 112984.843750, 93237.617188, 96739.867188, 114759.085938, 0.000, 0.000, 0.000,0.0,0.0,0.0,0.0,0.0, 22:38:08.547
, 75288.828125, 86478.273438, 152503.984375, 154854.578125, 112970.117188, 93256.148438, 96840.515625, 114758.546875, 0.000, 0.000, 0.000,0.0,0.0,0.0,0.0,0.0, 22:38:08.547
, 75289.234375, 86484.015625, 152450.453125, 154842.109375, 112955.765625, 93218.234375, 96767.156250, 114724.546875, 0.000, 0.000, 0.000,0.0,0.0,0.0,0.0,0.0, 22:38:08.547
, 75312.125000, 86510.164063, 152446.406250, 154617.718750, 112981.289063, 93196.867188, 96642.992188, 114729.156250, 0.000, 0.000, 0.000,0.0,0.0,0.0,0.0,0.0, 22:38:08.547
, 75309.195313, 86503.687500, 152500.500000, 154623.812500, 112990.945313, 93232.859375, 96723.570313, 114761.476563, 0.000, 0.000, 0.000,0.0,0.0,0.0,0.0,0.0, 22:38:08.548
, 75289.617188, 86479.210938, 152507.093750, 154823.906250, 112968.171875, 93260.304688, 96840.132813, 114766.234375, 0.000, 0.000, 0.000,0.0,0.0,0.0,0.0,0.0, 22:38:08.548
, 75283.664063, 86478.781250, 152465.125000, 154875.921875, 112953.039063, 93231.468750, 96806.117188, 114733.601563, 0.000, 0.000, 0.000,0.0,0.0,0.0,0.0,0.0, 22:38:08.548
, 75311.851563, 86505.648438, 152444.750000, 154665.687500, 112976.351563, 93196.023438, 96664.500000, 114723.210938, 0.000, 0.000, 0.000,0.0,0.0,0.0,0.0,0.0, 22:38:08.548
, 75316.617188, 86505.117188, 152493.468750, 154617.109375, 112996.601563, 93226.640625, 96706.789063, 114758.296875, 0.000, 0.000, 0.000,0.0,0.0,0.0,0.0,0.0, 22:38:08.548
, 75297.210938, 86483.140625, 152507.796875, 154773.906250, 112982.273438, 93260.328125, 96815.859375, 114770.679688, 0.346, 0.204, 0.904,0.0,0.0,0.0,0.0,0.0, 22:38:08.548
, 75279.914063, 86462.601563, 152475.812500, 154883.375000, 112963.968750, 93239.671875, 96825.718750, 114741.648438, 0.000, 0.000, 0.000,0.0,0.0,0.0,0.0,0.0, 22:38:08.548
, 75311.632813, 86498.390625, 152437.375000, 154700.281250, 112984.312500, 93197.875000, 96682.351563, 114711.203125, 0.000, 0.000, 0.000,0.0,0.0,0.0,0.0,0.0, 22:38:08.548
, 75320.929688, 86503.687500, 152488.984375, 154594.312500, 113004.289063, 93216.468750, 96686.648438, 114747.460938, 0.000, 0.000, 0.000,0.0,0.0,0.0,0.0,0.0, 22:38:08.548
, 75299.070313, 86474.179688, 152517.015625, 154768.125000, 112981.671875, 93251.117188, 96817.453125, 114771.976563, 0.000, 0.000, 0.000,0.0,0.0,0.0,0.0,0.0, 22:38:08.549
, 75300.406250, 86479.742188, 152492.515625, 154920.156250, 112966.625000, 93249.820313, 96850.039063, 114753.609375, 0.000, 0.000, 0.000,0.0,0.0,0.0,0.0,0.0, 22:38:08.549
, 75321.109375, 86506.164063, 152448.171875, 154745.281250, 112974.070313, 93200.179688, 96694.382813, 114727.562500, 0.000, 0.000, 0.000,0.0,0.0,0.0,0.0,0.0, 22:38:08.549
, 75321.265625, 86506.296875, 152481.671875, 154604.546875, 112986.320313, 93204.515625, 96665.437500, 114747.835938, 0.000, 0.000, 0.000,0.0,0.0,0.0,0.0,0.0, 22:38:08.551
, 75308.078125, 86488.101563, 152517.546875, 154738.328125, 112981.937500, 93249.820313, 96785.757813, 114773.945313, 0.000, 0.000, 0.000,0.0,0.0,0.0,0.0,0.0, 22:38:08.551
, 75294.554688, 86471.679688, 152500.109375, 154922.859375, 112958.156250, 93255.054688, 96852.875000, 114760.421875, 0.000, 0.000, 0.000,0.0,0.0,0.0,0.0,0.0, 22:38:09.015
, 75326.492188, 86502.882813, 152451.203125, 154789.218750, 112968.414063, 93213.140625, 96711.164063, 114736.734375, 0.350, 0.206, 0.902,0.0,0.0,0.0,0.0,0.0, 22:38:09.015
, 75343.750000, 86519.843750, 152488.375000, 154602.968750, 112996.648438, 93210.343750, 96645.164063, 114751.703125, 0.000, 0.000, 0.000,0.0,0.0,0.0,0.0,0.0, 22:38:09.015
, 75318.421875, 86491.835938, 152524.000000, 154695.859375, 112988.914063, 93247.945313, 96756.921875, 114774.703125, 0.000, 0.000, 0.000,0.0,0.0,0.0,0.0,0.0, 22:38:09.015
, 75301.390625, 86473.039063, 152516.500000, 154894.656250, 112964.703125, 93263.031250, 96845.789063, 114770.343750, 0.000, 0.000, 0.000,0.0,0.0,0.0,0.0,0.0, 22:38:09.015
, 75308.257813, 86486.429688, 152458.312500, 154837.843750, 112957.601563, 93216.562500, 96744.468750, 114731.523438, 0.000, 0.000, 0.000,0.0,0.0,0.0,0.0,0.0, 22:38:09.015
, 75330.273438, 86506.765625, 152459.500000, 154616.578125, 112976.015625, 93200.335938, 96630.882813, 114736.015625, 0.000, 0.000, 0.000,0.0,0.0,0.0,0.0,0.0, 22:38:09.016
, 75325.085938, 86500.601563, 152509.328125, 154645.703125, 112984.734375, 93239.539063, 96717.023438, 114767.773438, 0.000, 0.000, 0.000,0.0,0.0,0.0,0.0,0.0, 22:38:09.016
, 75293.570313, 86468.593750, 152509.906250, 154856.343750, 112956.929688, 93255.031250, 96830.703125, 114760.554688, 0.000, 0.000, 0.000,0.0,0.0,0.0,0.0,0.0, 22:38:09.016
, 75303.648438, 86479.429688, 152458.515625, 154847.265625, 112951.187500, 93220.093750, 96760.007813, 114726.781250, 0.000, 0.000, 0.000,0.0,0.0,0.0,0.0,0.0, 22:38:09.016
, 75335.101563, 86511.906250, 152460.968750, 154621.109375, 112979.257813, 93198.593750, 96629.250000, 114728.171875, 0.356, 0.216, 0.898,0.0,0.0,0.0,0.0,0.0, 22:38:09.016
, 75326.070313, 86505.875000, 152520.187500, 154628.828125, 112995.437500, 93233.679688, 96715.437500, 114762.054688, 0.000, 0.000, 0.000,0.0,0.0,0.0,0.0,0.0, 22:38:09.016
, 75296.945313, 86471.093750, 152524.125000, 154827.890625, 112964.054688, 93255.070313, 96838.523438, 114759.929688, 0.000, 0.000, 0.000,0.0,0.0,0.0,0.0,0.0, 22:38:09.016
, 75285.570313, 86460.320313, 152472.015625, 154907.015625, 112936.210938, 93226.906250, 96819.906250, 114726.921875, 0.000, 0.000, 0.000,0.0,0.0,0.0,0.0,0.0, 22:38:09.016
, 75328.687500, 86511.578125, 152447.656250, 154658.437500, 112971.859375, 93195.976563, 96650.281250, 114721.937500, 0.000, 0.000, 0.000,0.0,0.0,0.0,0.0,0.0, 22:38:09.016
, 75335.500000, 86515.351563, 152511.406250, 154575.609375, 112991.531250, 93226.773438, 96679.984375, 114754.187500, 0.000, 0.000, 0.000,0.0,0.0,0.0,0.0,0.0, 22:38:09.017
, 75306.179688, 86478.765625, 152536.812500, 154764.390625, 112966.296875, 93260.039063, 96821.156250, 114764.828125, 0.000, 0.000, 0.000,0.0,0.0,0.0,0.0,0.0, 22:38:09.017
, 75291.648438, 86466.625000, 152493.703125, 154899.500000, 112945.570313, 93242.312500, 96848.921875, 114735.234375, 0.000, 0.000, 0.000,0.0,0.0,0.0,0.0,0.0, 22:38:09.017
, 75324.195313, 86505.406250, 152459.703125, 154699.125000, 112976.328125, 93204.578125, 96692.523438, 114719.359375, 0.000, 0.000, 0.000,0.0,0.0,0.0,0.0,0.0, 22:38:09.017
, 75334.875000, 86510.945313, 152508.046875, 154570.953125, 113003.687500, 93226.507813, 96691.046875, 114755.171875, 0.000, 0.000, 0.000,0.0,0.0,0.0,0.0,0.0, 22:38:09.017
, 75314.984375, 86485.492188, 152531.515625, 154712.734375, 112985.000000, 93258.250000, 96820.062500, 114770.617188, 0.356, 0.222, 0.900,0.0,0.0,0.0,0.0,0.0, 22:38:09.017
, 75285.906250, 86460.523438, 152495.578125, 154877.093750, 112945.726563, 93244.054688, 96869.328125, 114740.531250, 0.000, 0.000, 0.000,0.0,0.0,0.0,0.0,0.0, 22:38:09.017
, 75307.695313, 86488.421875, 152439.515625, 154711.734375, 112957.195313, 93199.328125, 96712.375000, 114716.210938, 0.000, 0.000, 0.000,0.0,0.0,0.0,0.0,0.0, 22:38:09.018
, 75331.296875, 86504.398438, 152490.093750, 154554.421875, 112991.101563, 93211.218750, 96680.859375, 114743.187500, 0.000, 0.000, 0.000,0.0,0.0,0.0,0.0,0.0, 22:38:09.018
, 75307.921875, 86476.679688, 152520.468750, 154678.265625, 112974.023438, 93249.062500, 96805.578125, 114763.218750, 0.000, 0.000, 0.000,0.0,0.0,0.0,0.0,0.0, 22:38:09.018
, 75285.078125, 86453.953125, 152499.515625, 154855.265625, 112942.195313, 93255.140625, 96871.382813, 114749.382813, 0.000, 0.000, 0.000,0.0,0.0,0.0,0.0,0.0, 22:38:09.018
, 75305.210938, 86479.453125, 152452.125000, 154746.421875, 112945.078125, 93209.859375, 96745.882813, 114718.335938, 0.000, 0.000, 0.000,0.0,0.0,0.0,0.0,0.0, 22:38:09.018
, 75322.757813, 86495.367188, 152481.046875, 154576.234375, 112976.375000, 93205.679688, 96686.984375, 114736.953125, 0.000, 0.000, 0.000,0.0,0.0,0.0,0.0,0.0, 22:38:09.018
, 75311.164063, 86482.632813, 152514.937500, 154641.296875, 112972.507813, 93245.351563, 96786.984375, 114768.093750, 0.000, 0.000, 0.000,0.0,0.0,0.0,0.0,0.0, 22:38:09.018
, 75284.070313, 86456.632813, 152508.875000, 154822.609375, 112944.429688, 93257.976563, 96875.320313, 114766.390625, 0.360, 0.224, 0.894,0.0,0.0,0.0,0.0,0.0, 22:38:09.018
, 75288.093750, 86463.203125, 152447.921875, 154798.828125, 112936.429688, 93212.492188, 96791.968750, 114724.929688, 0.000, 0.000, 0.000,0.0,0.0,0.0,0.0,0.0, 22:38:09.019
, 75317.914063, 86492.437500, 152455.234375, 154570.828125, 112968.820313, 93192.000000, 96671.781250, 114724.304688, 0.000, 0.000, 0.000,0.0,0.0,0.0,0.0,0.0, 22:38:09.019
, 75304.570313, 86477.242188, 152501.156250, 154591.750000, 112968.976563, 93225.835938, 96758.617188, 114752.468750, 0.000, 0.000, 0.000,0.0,0.0,0.0,0.0,0.0, 22:38:09.019
, 75273.835938, 86445.726563, 152499.750000, 154791.171875, 112944.835938, 93249.531250, 96873.039063, 114752.531250, 0.000, 0.000, 0.000,0.0,0.0,0.0,0.0,0.0, 22:38:09.019
, 75273.789063, 86449.210938, 152447.921875, 154813.578125, 112931.695313, 93221.054688, 96817.609375, 114726.851563, 0.000, 0.000, 0.000,0.0,0.0,0.0,0.0,0.0, 22:38:09.019
, 75294.218750, 86472.304688, 152435.453125, 154573.968750, 112952.546875, 93187.304688, 96673.101563, 114721.578125, 0.000, 0.000, 0.000,0.0,0.0,0.0,0.0,0.0, 22:38:09.019
, 75295.335938, 86468.367188, 152492.453125, 154566.593750, 112965.507813, 93223.960938, 96749.906250, 114759.242188, 0.000, 0.000, 0.000,0.0,0.0,0.0,0.0,0.0, 22:38:09.019
, 75277.390625, 86447.250000, 152509.078125, 154765.531250, 112951.656250, 93254.539063, 96876.953125, 114769.070313, 0.000, 0.000, 0.000,0.0,0.0,0.0,0.0,0.0, 22:38:09.019
, 75269.359375, 86445.007813, 152464.656250, 154844.546875, 112932.656250, 93225.390625, 96859.226563, 114736.890625, 0.000, 0.000, 0.000,0.0,0.0,0.0,0.0,0.0, 22:38:09.019
, 75293.437500, 86477.265625, 152430.640625, 154609.156250, 112946.421875, 93184.710938, 96693.171875, 114723.945313, 0.350, 0.220, 0.892,0.0,0.0,0.0,0.0,0.0, 22:38:09.020
, 75298.351563, 86480.328125, 152483.015625, 154520.640625, 112964.796875, 93213.609375, 96715.992188, 114758.476563, 0.000, 0.000, 0.000,0.0,0.0,0.0,0.0,0.0, 22:38:09.020
, 75284.070313, 86455.718750, 152510.062500, 154684.437500, 112946.625000, 93247.812500, 96840.695313, 114769.992188, 0.000, 0.000, 0.000,0.0,0.0,0.0,0.0,0.0, 22:38:09.020
, 75271.328125, 86446.085938, 152476.578125, 154809.625000, 112923.492188, 93236.656250, 96858.507813, 114748.937500, 0.000, 0.000, 0.000,0.0,0.0,0.0,0.0,0.0, 22:38:09.020
, 75289.992188, 86470.289063, 152434.562500, 154634.593750, 112932.210938, 93191.171875, 96714.765625, 114723.679688, 0.000, 0.000, 0.000,0.0,0.0,0.0,0.0,0.0, 22:38:09.020
, 75300.429688, 86473.132813, 152472.125000, 154515.750000, 112949.328125, 93206.546875, 96710.656250, 114744.757813, 0.000, 0.000, 0.000,0.0,0.0,0.0,0.0,0.0, 22:38:09.020
, 75283.039063, 86448.968750, 152507.156250, 154655.781250, 112947.226563, 93247.945313, 96838.523438, 114765.789063, 0.000, 0.000, 0.000,0.0,0.0,0.0,0.0,0.0, 22:38:09.020
, 75264.734375, 86432.921875, 152480.843750, 154814.375000, 112932.609375, 93250.335938, 96890.023438, 114753.984375, 0.000, 0.000, 0.000,0.0,0.0,0.0,0.0,0.0, 22:38:09.020
, 75286.726563, 86463.671875, 152430.156250, 154669.000000, 112931.382813, 93203.953125, 96745.031250, 114726.335938, 0.000, 0.000, 0.000,0.0,0.0,0.0,0.0,0.0, 22:38:09.020
, 75307.140625, 86481.375000, 152468.750000, 154506.968750, 112953.734375, 93207.710938, 96700.726563, 114743.593750, 0.348, 0.220, 0.898,0.0,0.0,0.0,0.0,0.0, 22:38:09.021
, 75289.437500, 86462.218750, 152507.265625, 154607.609375, 112947.476563, 93245.062500, 96813.585938, 114763.976563, 0.000, 0.000, 0.000,0.0,0.0,0.0,0.0,0.0, 22:38:09.021
, 75259.328125, 86434.507813, 152497.406250, 154811.343750, 112921.632813, 93249.554688, 96902.945313, 114752.195313, 0.000, 0.000, 0.000,0.0,0.0,0.0,0.0,0.0, 22:38:09.021
, 75281.765625, 86463.539063, 152441.843750, 154715.531250, 112924.117188, 93207.039063, 96778.648438, 114720.546875, 0.000, 0.000, 0.000,0.0,0.0,0.0,0.0,0.0, 22:38:09.021
, 75312.812500, 86493.421875, 152475.609375, 154507.343750, 112956.234375, 93206.929688, 96695.898438, 114743.835938, 0.000, 0.000, 0.000,0.0,0.0,0.0,0.0,0.0, 22:38:09.021
, 75294.421875, 86463.359375, 152511.453125, 154570.578125, 112947.562500, 93240.390625, 96798.515625, 114761.562500, 0.000, 0.000, 0.000,0.0,0.0,0.0,0.0,0.0, 22:38:09.021
, 75270.773438, 86438.125000, 152509.765625, 154767.546875, 112923.625000, 93251.718750, 96894.968750, 114752.734375, 0.000, 0.000, 0.000,0.0,0.0,0.0,0.0,0.0, 22:38:09.021
, 75271.304688, 86444.945313, 152455.390625, 154756.953125, 112907.578125, 93207.281250, 96816.914063, 114714.781250, 0.000, 0.000, 0.000,0.0,0.0,0.0,0.0,0.0, 22:38:09.021
, 75300.210938, 86472.796875, 152460.640625, 154538.921875, 112942.554688, 93188.781250, 96699.585938, 114720.796875, 0.000, 0.000, 0.000,0.0,0.0,0.0,0.0,0.0, 22:38:09.021
, 75296.453125, 86465.460938, 152512.234375, 154553.437500, 112957.734375, 93228.921875, 96784.570313, 114752.960938, 0.000, 0.000, 0.000,0.0,0.0,0.0,0.0,0.0, 22:38:09.022
, 75273.046875, 86441.773438, 152518.062500, 154750.328125, 112929.234375, 93250.445313, 96898.656250, 114750.742188, 0.352, 0.214, 0.898,0.0,0.0,0.0,0.0,0.0, 22:38:09.022
, 75269.789063, 86447.578125, 152470.875000, 154788.890625, 112913.632813, 93220.453125, 96855.851563, 114721.195313, 0.000, 0.000, 0.000,0.0,0.0,0.0,0.0,0.0, 22:38:09.022
, 75305.328125, 86482.648438, 152456.062500, 154555.406250, 112938.734375, 93187.929688, 96709.710938, 114714.601563, 0.000, 0.000, 0.000,0.0,0.0,0.0,0.0,0.0, 22:38:09.022
, 75307.898438, 86476.281250, 152509.203125, 154522.640625, 112949.820313, 93222.507813, 96768.296875, 114751.976563, 0.000, 0.000, 0.000,0.0,0.0,0.0,0.0,0.0, 22:38:09.022
, 75276.335938, 86441.187500, 152523.312500, 154721.546875, 112925.281250, 93252.007813, 96897.289063, 114761.695313, 0.000, 0.000, 0.000,0.0,0.0,0.0,0.0,0.0, 22:38:09.022
, 75270.257813, 86437.367188, 152474.968750, 154799.531250, 112907.015625, 93222.664063, 96872.125000, 114723.718750, 0.000, 0.000, 0.000,0.0,0.0,0.0,0.0,0.0, 22:38:09.022
, 75303.406250, 86474.445313, 152453.625000, 154584.250000, 112931.070313, 93186.812500, 96716.507813, 114716.101563, 0.000, 0.000, 0.000,0.0,0.0,0.0,0.0,0.0, 22:38:09.022
, 75320.640625, 86487.078125, 152501.750000, 154475.812500, 112959.812500, 93216.132813, 96729.671875, 114755.710938, 0.000, 0.000, 0.000,0.0,0.0,0.0,0.0,0.0, 22:38:09.022
, 75292.562500, 86456.093750, 152533.906250, 154620.875000, 112945.906250, 93251.875000, 96856.921875, 114771.109375, 0.000, 0.000, 0.000,0.0,0.0,0.0,0.0,0.0, 22:38:09.022
, 75272.046875, 86431.015625, 152503.671875, 154786.984375, 112911.976563, 93236.367188, 96908.039063, 114741.601563, 0.000, 0.000, 0.000,0.0,0.0,0.0,0.0,0.0, 22:38:09.023
, 75305.726563, 86467.875000, 152449.437500, 154610.031250, 112922.328125, 93190.476563, 96752.742188, 114712.882813, 0.350, 0.216, 0.908,0.0,0.0,0.0,0.0,0.0, 22:38:09.023
, 75328.640625, 86487.523438, 152498.656250, 154462.421875, 112957.601563, 93210.304688, 96733.875000, 114747.726563, 0.000, 0.000, 0.000,0.0,0.0,0.0,0.0,0.0, 22:38:09.023
, 75302.734375, 86460.164063, 152533.125000, 154605.718750, 112945.171875, 93246.601563, 96871.359375, 114767.421875, 0.000, 0.000, 0.000,0.0,0.0,0.0,0.0,0.0, 22:38:09.023
, 75282.906250, 86442.554688, 152505.812500, 154771.812500, 112916.445313, 93244.140625, 96927.304688, 114748.351563, 0.000, 0.000, 0.000,0.0,0.0,0.0,0.0,0.0, 22:38:09.023
, 75295.070313, 86459.828125, 152450.781250, 154644.718750, 112914.328125, 93196.492188, 96791.078125, 114716.210938, 0.000, 0.000, 0.000,0.0,0.0,0.0,0.0,0.0, 22:38:09.023
, 75319.718750, 86484.726563, 152480.359375, 154445.609375, 112949.437500, 93202.500000, 96722.742188, 114741.601563, 0.000, 0.000, 0.000,0.0,0.0,0.0,0.0,0.0, 22:38:09.023
, 75307.625000, 86467.875000, 152535.421875, 154541.234375, 112943.273438, 93247.585938, 96844.429688, 114772.179688, 0.000, 0.000, 0.000,0.0,0.0,0.0,0.0,0.0, 22:38:09.023
, 75272.046875, 86431.648438, 152510.500000, 154738.187500, 112906.750000, 93248.632813, 96924.203125, 114754.273438, 0.000, 0.000, 0.000,0.0,0.0,0.0,0.0,0.0, 22:38:09.023
, 75293.546875, 86460.812500, 152451.984375, 154639.328125, 112914.171875, 93206.078125, 96801.757813, 114727.609375, 0.000, 0.000, 0.000,0.0,0.0,0.0,0.0,0.0, 22:38:09.023
, 75304.726563, 86474.226563, 152472.125000, 154441.765625, 112931.625000, 93191.257813, 96715.414063, 114732.039063, 0.362, 0.212, 0.902,0.0,0.0,0.0,0.0,0.0, 22:38:09.024
, 75292.992188, 86454.820313, 152514.390625, 154497.468750, 112936.945313, 93231.515625, 96816.648438, 114761.273438, 0.000, 0.000, 0.000,0.0,0.0,0.0,0.0,0.0, 22:38:09.024
, 75275.953125, 86434.125000, 152522.906250, 154706.703125, 112920.429688, 93252.906250, 96927.820313, 114759.929688, 0.000, 0.000, 0.000,0.0,0.0,0.0,0.0,0.0, 22:38:09.024
, 75284.226563, 86446.867188, 152471.328125, 154695.437500, 112912.179688, 93217.656250, 96852.875000, 114729.015625, 0.000, 0.000, 0.000,0.0,0.0,0.0,0.0,0.0, 22:38:09.024
, 75307.000000, 86471.046875, 152468.984375, 154483.265625, 112932.453125, 93187.343750, 96735.039063, 114722.179688, 0.000, 0.000, 0.000,0.0,0.0,0.0,0.0,0.0, 22:38:09.024
, 75295.070313, 86454.625000, 152515.250000, 154504.734375, 112930.890625, 93220.296875, 96813.781250, 114751.125000, 0.000, 0.000, 0.000,0.0,0.0,0.0,0.0,0.0, 22:38:09.024
, 75269.992188, 86426.976563, 152517.281250, 154701.718750, 112904.156250, 93248.164063, 96920.445313, 114754.007813, 0.000, 0.000, 0.000,0.0,0.0,0.0,0.0,0.0, 22:38:09.024
, 75275.328125, 86435.335938, 152476.484375, 154750.171875, 112898.367188, 93230.039063, 96884.281250, 114734.585938, 0.000, 0.000, 0.000,0.0,0.0,0.0,0.0,0.0, 22:38:09.024
, 75293.054688, 86458.179688, 152453.640625, 154520.937500, 112920.742188, 93192.289063, 96734.304688, 114722.578125, 0.000, 0.000, 0.000,0.0,0.0,0.0,0.0,0.0, 22:38:09.024
, 75292.539063, 86451.492188, 152502.687500, 154460.406250, 112931.804688, 93216.289063, 96771.984375, 114749.226563, 0.000, 0.000, 0.000,0.0,0.0,0.0,0.0,0.0, 22:38:09.025
, 75275.289063, 86429.921875, 152522.687500, 154644.203125, 112917.390625, 93250.890625, 96901.265625, 114759.867188, 0.354, 0.216, 0.906,0.0,0.0,0.0,0.0,0.0, 22:38:09.025
, 75269.453125, 86429.234375, 152482.390625, 154720.468750, 112899.398438, 93232.187500, 96889.195313, 114734.742188, 0.000, 0.000, 0.000,0.0,0.0,0.0,0.0,0.0, 22:38:09.025
, 75293.796875, 86462.046875, 152452.656250, 154509.156250, 112919.710938, 93190.765625, 96735.687500, 114716.656250, 0.000, 0.000, 0.000,0.0,0.0,0.0,0.0,0.0, 22:38:09.025
, 75300.476563, 86463.828125, 152499.531250, 154423.031250, 112939.609375, 93209.609375, 96758.820313, 114745.625000, 0.000, 0.000, 0.000,0.0,0.0,0.0,0.0,0.0, 22:38:09.025
, 75281.789063, 86437.812500, 152522.593750, 154578.562500, 112932.992188, 93242.335938, 96879.812500, 114760.710938, 0.000, 0.000, 0.000,0.0,0.0,0.0,0.0,0.0, 22:38:09.025
, 75264.132813, 86419.820313, 152491.437500, 154730.109375, 112904.226563, 93228.476563, 96914.679688, 114732.484375, 0.000, 0.000, 0.000,0.0,0.0,0.0,0.0,0.0, 22:38:09.025
, 75287.734375, 86451.757813, 152442.937500, 154568.609375, 112905.343750, 93181.265625, 96756.335938, 114704.296875, 0.000, 0.000, 0.000,0.0,0.0,0.0,0.0,0.0, 22:38:09.025
, 75300.585938, 86462.601563, 152481.296875, 154426.000000, 112931.382813, 93197.765625, 96724.648438, 114734.789063, 0.000, 0.000, 0.000,0.0,0.0,0.0,0.0,0.0, 22:38:09.025
, 75296.500000, 86445.906250, 152524.234375, 154538.921875, 112934.351563, 93247.273438, 96843.445313, 114770.414063, 0.000, 0.000, 0.000,0.0,0.0,0.0,0.0,0.0, 22:38:09.026
, 75267.531250, 86415.039063, 152503.281250, 154714.203125, 112901.539063, 93243.468750, 96908.757813, 114746.476563, 0.346, 0.220, 0.902,0.0,0.0,0.0,0.0,0.0, 22:38:09.026
, 75279.710938, 86442.890625, 152447.609375, 154605.000000, 112902.320313, 93194.789063, 96777.773438, 114709.750000, 0.000, 0.000, 0.000,0.0,0.0,0.0,0.0,0.0, 22:38:09.026
, 75300.093750, 86463.539063, 152475.078125, 154412.328125, 112931.984375, 93195.062500, 96702.335938, 114735.453125, 0.000, 0.000, 0.000,0.0,0.0,0.0,0.0,0.0, 22:38:09.026
, 75294.281250, 86446.796875, 152515.984375, 154482.375000, 112926.578125, 93232.875000, 96804.820313, 114760.648438, 0.000, 0.000, 0.000,0.0,0.0,0.0,0.0,0.0, 22:38:09.026
, 75280.023438, 86426.171875, 152515.796875, 154683.953125, 112897.515625, 93246.265625, 96901.781250, 114748.484375, 0.000, 0.000, 0.000,0.0,0.0,0.0,0.0,0.0, 22:38:09.026
, 75287.203125, 86439.000000, 152453.984375, 154629.859375, 112883.617188, 93208.289063, 96805.203125, 114716.835938, 0.000, 0.000, 0.000,0.0,0.0,0.0,0.0,0.0, 22:38:09.026
, 75308.031250, 86462.625000, 152462.234375, 154411.484375, 112921.632813, 93196.734375, 96703.296875, 114730.960938, 0.000, 0.000, 0.000,0.0,0.0,0.0,0.0,0.0, 22:38:09.026
, 75302.375000, 86451.937500, 152512.562500, 154439.687500, 112927.671875, 93232.054688, 96793.507813, 114760.492188, 0.000, 0.000, 0.000,0.0,0.0,0.0,0.0,0.0, 22:38:09.026
, 75282.726563, 86426.304688, 152517.609375, 154640.625000, 112896.218750, 93248.929688, 96903.570313, 114753.851563, 0.000, 0.000, 0.000,0.0,0.0,0.0,0.0,0.0, 22:38:09.026
, 75285.453125, 86433.273438, 152464.062500, 154635.640625, 112885.875000, 93213.296875, 96837.367188, 114721.218750, 0.000, 0.000, 0.000,0.0,0.0,0.0,0.0,0.0, 22:38:09.027
, 75308.296875, 86457.148438, 152460.484375, 154420.578125, 112911.062500, 93190.718750, 96717.421875, 114722.468750, 0.358, 0.222, 0.902,0.0,0.0,0.0,0.0,0.0, 22:38:09.027
, 75304.273438, 86448.031250, 152513.531250, 154417.046875, 112926.640625, 93228.695313, 96794.046875, 114756.218750, 0.000, 0.000, 0.000,0.0,0.0,0.0,0.0,0.0, 22:38:09.027
, 75279.960938, 86420.023438, 152528.984375, 154634.640625, 112900.937500, 93255.476563, 96928.046875, 114759.375000, 0.000, 0.000, 0.000,0.0,0.0,0.0,0.0,0.0, 22:38:09.027
, 75284.562500, 86425.226563, 152484.437500, 154682.875000, 112894.007813, 93227.109375, 96890.046875, 114718.421875, 0.000, 0.000, 0.000,0.0,0.0,0.0,0.0,0.0, 22:38:09.027
, 75307.296875, 86453.484375, 152470.703125, 154456.406250, 112923.492188, 93192.312500, 96739.710938, 114714.781250, 0.000, 0.000, 0.000,0.0,0.0,0.0,0.0,0.0, 22:38:09.027
, 75306.867188, 86451.804688, 152512.656250, 154383.843750, 112938.132813, 93221.835938, 96772.742188, 114763.890625, 0.000, 0.000, 0.000,0.0,0.0,0.0,0.0,0.0, 22:38:09.027
, 75284.609375, 86421.007813, 152527.093750, 154564.937500, 112901.046875, 93242.398438, 96905.250000, 114755.906250, 0.000, 0.000, 0.000,0.0,0.0,0.0,0.0,0.0, 22:38:09.027
, 75283.804688, 86422.210938, 152489.562500, 154683.515625, 112881.156250, 93226.578125, 96917.742188, 114731.523438, 0.000, 0.000, 0.000,0.0,0.0,0.0,0.0,0.0, 22:38:09.027
, 75319.945313, 86459.804688, 152462.140625, 154482.843750, 112904.289063, 93191.859375, 96763.289063, 114721.148438, 0.000, 0.000, 0.000,0.0,0.0,0.0,0.0,0.0, 22:38:09.028
, 75324.835938, 86461.484375, 152513.140625, 154378.062500, 112930.773438, 93212.648438, 96775.562500, 114751.687500, 0.358, 0.220, 0.896,0.0,0.0,0.0,0.0,0.0, 22:38:09.028
, 75296.140625, 86430.640625, 152540.453125, 154530.500000, 112913.835938, 93244.921875, 96902.851563, 114766.523438, 0.000, 0.000, 0.000,0.0,0.0,0.0,0.0,0.0, 22:38:09.028
, 75278.859375, 86412.984375, 152515.796875, 154701.718750, 112884.843750, 93241.531250, 96955.132813, 114751.820313, 0.000, 0.000, 0.000,0.0,0.0,0.0,0.0,0.0, 22:38:09.028
, 75300.453125, 86440.296875, 152455.812500, 154526.046875, 112892.890625, 93191.929688, 96792.546875, 114719.359375, 0.000, 0.000, 0.000,0.0,0.0,0.0,0.0,0.0, 22:38:09.028
, 75320.054688, 86459.828125, 152495.750000, 154351.187500, 112934.148438, 93202.187500, 96750.640625, 114746.296875, 0.000, 0.000, 0.000,0.0,0.0,0.0,0.0,0.0, 22:38:09.028
, 75307.250000, 86441.617188, 152540.375000, 154453.921875, 112932.609375, 93245.195313, 96872.320313, 114776.335938, 0.000, 0.000, 0.000,9.306732,19.346252,5.441479,9.615118,5.505815, 22:38:09.496
, 75274.617188, 86408.734375, 152518.484375, 154644.109375, 112895.570313, 93241.304688, 96947.937500, 114753.335938, 0.000, 0.000, 0.000,9.306732,19.346252,5.441479,9.615118,5.505815, 22:38:09.496
, 75288.898438, 86426.820313, 152458.250000, 154549.656250, 112887.523438, 93193.718750, 96825.117188, 114713.976563, 0.000, 0.000, 0.000,9.306732,19.346252,5.441479,9.615118,5.505815, 22:38:09.496
, 75321.062500, 86454.039063, 152480.640625, 154358.187500, 112919.554688, 93192.960938, 96748.382813, 114735.726563, 0.000, 0.000, 0.000,9.306732,19.346252,5.441479,9.615118,5.505815, 22:38:09.497
, 75311.273438, 86443.156250, 152527.000000, 154418.109375, 112926.125000, 93234.171875, 96850.242188, 114767.109375, 0.000, 0.000, 0.000,9.306732,19.346252,5.441479,9.615118,5.505815, 22:38:09.497
, 75287.625000, 86418.812500, 152529.953125, 154622.750000, 112900.687500, 93249.890625, 96956.234375, 114762.992188, 0.362, 0.214, 0.900,9.306732,19.346252,5.441479,9.615118,5.505815, 22:38:09.497
, 75280.828125, 86413.632813, 152462.296875, 154596.750000, 112878.984375, 93200.421875, 96868.679688, 114722.046875, 0.000, 0.000, 0.000,9.306732,19.346252,5.441479,9.615118,5.505815, 22:38:09.497
, 75298.937500, 86440.828125, 152460.125000, 154356.453125, 112908.804688, 93180.484375, 96743.398438, 114724.617188, 0.000, 0.000, 0.000,9.306732,19.346252,5.441479,9.615118,5.505815, 22:38:09.497
, 75300.054688, 86434.726563, 152517.140625, 154393.625000, 112913.367188, 93223.000000, 96840.226563, 114759.304688, 0.000, 0.000, 0.000,9.306732,19.346252,5.441479,9.615118,5.505815, 22:38:09.497
, 75278.054688, 86409.093750, 152523.687500, 154602.468750, 112891.859375, 93244.945313, 96955.406250, 114761.093750, 0.000, 0.000, 0.000,9.306732,19.346252,5.441479,9.615118,5.505815, 22:38:09.497
, 75267.242188, 86401.648438, 152459.250000, 154622.953125, 112864.414063, 93203.242188, 96898.320313, 114718.226563, 0.000, 0.000, 0.000,9.306732,19.346252,5.441479,9.615118,5.505815, 22:38:09.497
, 75299.382813, 86435.601563, 152448.968750, 154392.171875, 112887.484375, 93176.195313, 96758.867188, 114716.992188, 0.000, 0.000, 0.000,9.306732,19.346252,5.441479,9.615118,5.505815, 22:38:09.497
, 75306.687500, 86436.023438, 152502.171875, 154364.000000, 112901.898438, 93209.429688, 96818.570313, 114748.468750, 0.000, 0.000, 0.000,9.306732,19.346252,5.441479,9.615118,5.505815, 22:38:09.498
, 75280.695313, 86408.015625, 152518.828125, 154545.312500, 112885.578125, 93236.835938, 96940.898438, 114756.132813, 0.000, 0.000, 0.000,9.306732,19.346252,5.441479,9.615118,5.505815, 22:38:09.498
, 75270.953125, 86399.968750, 152467.703125, 154611.968750, 112860.257813, 93207.375000, 96916.000000, 114721.351563, 0.000, 0.000, 0.000,9.306732,19.346252,5.441479,9.615118,5.505815, 22:38:09.498
, 75311.789063, 86442.101563, 152448.062500, 154378.390625, 112896.843750, 93174.312500, 96758.328125, 114716.476563, 0.360, 0.224, 0.896,9.306732,19.346252,5.441479,9.615118,5.505815, 22:38:09.498
, 75312.453125, 86437.789063, 152500.781250, 154300.093750, 112919.648438, 93201.656250, 96793.265625, 114750.476563, 0.000, 0.000, 0.000,9.306732,19.346252,5.441479,9.615118,5.505815, 22:38:09.498
, 75294.398438, 86413.765625, 152522.421875, 154459.796875, 112898.296875, 93239.539063, 96919.085938, 114766.617188, 0.000, 0.000, 0.000,9.306732,19.346252,5.441479,9.615118,5.505815, 22:38:09.498
, 75288.898438, 86409.312500, 152500.109375, 154589.218750, 112884.039063, 93229.054688, 96951.382813, 114745.046875, 0.000, 0.000, 0.000,9.306732,19.346252,5.441479,9.615118,5.505815, 22:38:09.498
, 75307.070313, 86435.132813, 152450.000000, 154407.703125, 112894.054688, 93179.187500, 96800.148438, 114712.367188, 0.000, 0.000, 0.000,9.306732,19.346252,5.441479,9.615118,5.505815, 22:38:09.498
, 75334.898438, 86457.843750, 152501.656250, 154265.046875, 112928.007813, 93202.945313, 96788.390625, 114749.875000, 0.000, 0.000, 0.000,9.306732,19.346252,5.441479,9.615118,5.505815, 22:38:09.498
, 75297.304688, 86415.507813, 152529.625000, 154414.890625, 112901.609375, 93233.328125, 96920.492188, 114757.117188, 0.000, 0.000, 0.000,9.306732,19.346252,5.441479,9.615118,5.505815, 22:38:09.498
, 75281.414063, 86397.554688, 152496.062500, 154581.265625, 112879.789063, 93228.835938, 96969.437500, 114736.101563, 0.000, 0.000, 0.000,9.306732,19.346252,5.441479,9.615118,5.505815, 22:38:09.499
, 75313.820313, 86436.140625, 152459.718750, 154436.406250, 112901.828125, 93193.453125, 96836.250000, 114721.843750, 0.000, 0.000, 0.000,9.306732,19.346252,5.441479,9.615118,5.505815, 22:38:09.499
, 75327.429688, 86449.546875, 152491.953125, 154256.890625, 112926.398438, 93197.609375, 96785.062500, 114746.210938, 0.352, 0.222, 0.896,9.306732,19.346252,5.441479,9.615118,5.505815, 22:38:09.499
, 75305.078125, 86420.804688, 152530.328125, 154364.890625, 112918.773438, 93236.703125, 96907.125000, 114772.023438, 0.000, 0.000, 0.000,9.306732,19.346252,5.441479,9.615118,5.505815, 22:38:09.499
, 75289.546875, 86402.921875, 152522.437500, 154549.406250, 112889.914063, 93248.460938, 96983.500000, 114762.523438, 0.000, 0.000, 0.000,9.306732,19.346252,5.441479,9.615118,5.505815, 22:38:09.499
, 75297.343750, 86414.726563, 152467.406250, 154465.546875, 112884.484375, 93198.101563, 96869.148438, 114723.632813, 0.000, 0.000, 0.000,9.306732,19.346252,5.441479,9.615118,5.505815, 22:38:09.499
, 75319.992188, 86439.203125, 152488.796875, 154270.500000, 112912.585938, 93191.390625, 96793.015625, 114738.609375, 0.000, 0.000, 0.000,9.306732,19.346252,5.441479,9.615118,5.505815, 22:38:09.499
, 75316.187500, 86429.585938, 152538.718750, 154338.718750, 112913.765625, 93231.359375, 96906.679688, 114764.109375, 0.000, 0.000, 0.000,9.306732,19.346252,5.441479,9.615118,5.505815, 22:38:09.499
, 75286.820313, 86401.382813, 152537.390625, 154548.812500, 112883.390625, 93242.062500, 97015.437500, 114757.250000, 0.000, 0.000, 0.000,9.306732,19.346252,5.441479,9.615118,5.505815, 22:38:09.499
, 75295.890625, 86412.375000, 152476.046875, 154539.421875, 112877.109375, 93202.945313, 96939.984375, 114722.984375, 0.000, 0.000, 0.000,9.306732,19.346252,5.441479,9.615118,5.505815, 22:38:09.500
, 75325.531250, 86439.804688, 152475.578125, 154319.500000, 112902.281250, 93181.710938, 96816.648438, 114721.218750, 0.000, 0.000, 0.000,9.306732,19.346252,5.441479,9.615118,5.505815, 22:38:09.500
, 75315.382813, 86428.023438, 152517.968750, 154333.625000, 112895.882813, 93209.765625, 96890.359375, 114741.289063, 0.000, 0.000, 0.000,9.306732,19.346252,5.441479,9.615118,5.505815, 22:38:09.500
, 75304.632813, 86414.257813, 152539.703125, 154530.093750, 112887.484375, 93245.460938, 97008.179688, 114758.140625, 0.338, 0.220, 0.898,9.306732,19.346252,5.441479,9.615118,5.505815, 22:38:09.500
, 75312.906250, 86421.296875, 152491.265625, 154556.343750, 112883.953125, 93224.320313, 96958.375000, 114736.507813, 0.000, 0.000, 0.000,9.306732,19.346252,5.441479,9.615118,5.505815, 22:38:09.500
, 75340.085938, 86451.937500, 152478.921875, 154316.125000, 112915.398438, 93194.234375, 96812.015625, 114732.437500, 0.000, 0.000, 0.000,9.306732,19.346252,5.441479,9.615118,5.505815, 22:38:09.500
, 75337.984375, 86447.539063, 152528.984375, 154280.609375, 112926.976563, 93223.601563, 96872.437500, 114763.351563, 0.000, 0.000, 0.000,9.306732,19.346252,5.441479,9.615118,5.505815, 22:38:09.500
, 75314.289063, 86418.296875, 152550.140625, 154467.468750, 112899.078125, 93252.859375, 97000.328125, 114772.539063, 0.000, 0.000, 0.000,9.306732,19.346252,5.441479,9.615118,5.505815, 22:38:09.501
, 75307.765625, 86415.617188, 152509.968750, 154563.062500, 112880.710938, 93227.960938, 96996.867188, 114740.015625, 0.000, 0.000, 0.000,9.306732,19.346252,5.441479,9.615118,5.505815, 22:38:09.501
, 75325.820313, 86444.140625, 152475.593750, 154355.000000, 112898.257813, 93185.804688, 96843.531250, 114718.671875, 0.000, 0.000, 0.000,9.306732,19.346252,5.441479,9.615118,5.505815, 22:38:09.501
, 75333.890625, 86446.843750, 152514.859375, 154258.140625, 112917.835938, 93210.281250, 96855.648438, 114751.015625, 0.000, 0.000, 0.000,9.306732,19.346252,5.441479,9.615118,5.505815, 22:38:09.501
, 75307.960938, 86412.265625, 152546.984375, 154437.625000, 112902.500000, 93245.242188, 96993.757813, 114766.703125, 0.000, 0.000, 0.000,9.306732,19.346252,5.441479,9.615118,5.505815, 22:38:09.501
, 75304.609375, 86406.945313, 152514.468750, 154585.750000, 112884.062500, 93238.648438, 97022.882813, 114746.164063, 0.344, 0.224, 0.902,9.306732,19.346252,5.441479,9.615118,5.505815, 22:38:09.501
, 75330.671875, 86441.500000, 152468.078125, 154397.031250, 112894.789063, 93191.210938, 96858.304688, 114721.015625, 0.000, 0.000, 0.000,9.306732,19.346252,5.441479,9.615118,5.505815, 22:38:09.501
, 75340.773438, 86451.335938, 152514.578125, 154254.609375, 112921.164063, 93204.046875, 96839.890625, 114748.531250, 0.000, 0.000, 0.000,9.306732,19.346252,5.441479,9.615118,5.505815, 22:38:09.501
, 75311.632813, 86421.562500, 152542.250000, 154398.718750, 112900.046875, 93236.406250, 96969.914063, 114759.039063, 0.000, 0.000, 0.000,9.306732,19.346252,5.441479,9.615118,5.505815, 22:38:09.501
, 75296.742188, 86403.367188, 152519.921875, 154570.734375, 112877.023438, 93234.890625, 97026.617188, 114740.796875, 0.000, 0.000, 0.000,9.306732,19.346252,5.441479,9.615118,5.505815, 22:38:09.502
, 75322.804688, 86432.718750, 152464.187500, 154429.375000, 112884.328125, 93188.531250, 96884.210938, 114710.398438, 0.000, 0.000, 0.000,9.306732,19.346252,5.441479,9.615118,5.505815, 22:38:09.502
, 75340.062500, 86449.640625, 152501.156250, 154247.968750, 112911.398438, 93191.796875, 96833.343750, 114734.117188, 0.000, 0.000, 0.000,9.306732,19.346252,5.441479,9.615118,5.505815, 22:38:09.502
, 75319.429688, 86424.804688, 152538.875000, 154361.718750, 112905.500000, 93232.007813, 96960.453125, 114762.054688, 0.000, 0.000, 0.000,9.306732,19.346252,5.441479,9.615118,5.505815, 22:38:09.502
, 75294.843750, 86402.273438, 152513.218750, 154534.031250, 112875.296875, 93234.351563, 97026.617188, 114741.804688, 0.000, 0.000, 0.000,9.306732,19.346252,5.441479,9.615118,5.505815, 22:38:09.502
, 75304.523438, 86415.218750, 152464.187500, 154472.609375, 112874.093750, 93191.703125, 96927.867188, 114708.273438, 0.000, 0.000, 0.000,9.306732,19.346252,5.441479,9.615118,5.505815, 22:38:09.502
, 75335.906250, 86446.687500, 152482.296875, 154275.125000, 112904.937500, 93183.546875, 96838.484375, 114726.781250, 0.348, 0.220, 0.900,9.306732,19.346252,5.441479,9.615118,5.505815, 22:38:09.502
, 75332.953125, 86440.742188, 152535.500000, 154307.156250, 112909.695313, 93224.671875, 96925.210938, 114758.992188, 0.000, 0.000, 0.000,9.306732,19.346252,5.441479,9.615118,5.505815, 22:38:09.502
, 75302.507813, 86402.093750, 152542.171875, 154512.843750, 112880.351563, 93243.335938, 97034.484375, 114753.296875, 0.000, 0.000, 0.000,9.306732,19.346252,5.441479,9.615118,5.505815, 22:38:09.502
, 75297.726563, 86399.617188, 152473.828125, 154524.796875, 112860.953125, 93193.609375, 96969.710938, 114704.835938, 0.000, 0.000, 0.000,9.306732,19.346252,5.441479,9.615118,5.505815, 22:38:09.502
, 75329.867188, 86441.453125, 152469.171875, 154304.843750, 112886.429688, 93173.242188, 96843.554688, 114709.773438, 0.000, 0.000, 0.000,9.306732,19.346252,5.441479,9.615118,5.505815, 22:38:09.503
, 75325.132813, 86428.406250, 152520.250000, 154304.812500, 112902.617188, 93212.851563, 96918.437500, 114749.132813, 0.000, 0.000, 0.000,9.306732,19.346252,5.441479,9.615118,5.505815, 22:38:09.503
, 75304.765625, 86400.148438, 152529.234375, 154499.984375, 112882.945313, 93238.039063, 97035.867188, 114755.953125, 0.000, 0.000, 0.000,9.306732,19.346252,5.441479,9.615118,5.505815, 22:38:09.503
, 75293.164063, 86394.476563, 152476.515625, 154559.171875, 112850.351563, 93203.265625, 97004.421875, 114718.625000, 0.000, 0.000, 0.000,9.306732,19.346252,5.441479,9.615118,5.505815, 22:38:09.503
, 75320.484375, 86427.640625, 152452.500000, 154331.390625, 112874.945313, 93167.164063, 96851.242188, 114710.156250, 0.000, 0.000, 0.000,9.306732,19.346252,5.441479,9.615118,5.505815, 22:38:09.503
, 75329.015625, 86431.445313, 152508.546875, 154269.593750, 112903.734375, 93204.960938, 96894.429688, 114751.703125, 0.350, 0.222, 0.898,9.306732,19.346252,5.441479,9.615118,5.505815, 22:38:09.503
, 75305.078125, 86400.281250, 152532.953125, 154458.015625, 112880.460938, 93240.320313, 97026.882813, 114761.695313, 0.000, 0.000, 0.000,9.306732,19.346252,5.441479,9.615118,5.505815, 22:38:09.503
, 75299.000000, 86394.140625, 152499.875000, 154577.953125, 112862.804688, 93222.015625, 97036.273438, 114733.984375, 0.000, 0.000, 0.000,9.306732,19.346252,5.441479,9.615118,5.505815, 22:38:09.503
, 75320.234375, 86425.812500, 152458.609375, 154366.687500, 112878.851563, 93176.664063, 96871.203125, 114714.375000, 0.000, 0.000, 0.000,9.306732,19.346252,5.441479,9.615118,5.505815, 22:38:09.503
, 75335.125000, 86435.000000, 152508.156250, 154260.093750, 112898.414063, 93195.195313, 96876.968750, 114738.250000, 0.000, 0.000, 0.000,9.306732,19.346252,5.441479,9.615118,5.505815, 22:38:09.503
, 75312.437500, 86408.156250, 152541.312500, 154425.984375, 112878.335938, 93229.992188, 97007.304688, 114749.429688, 0.000, 0.000, 0.000,9.306732,19.346252,5.441479,9.615118,5.505815, 22:38:09.504
, 75302.484375, 86399.234375, 152512.140625, 154587.921875, 112858.132813, 93227.203125, 97052.968750, 114737.375000, 0.000, 0.000, 0.000,9.306732,19.346252,5.441479,9.615118,5.505815, 22:38:09.504
, 75325.578125, 86430.210938, 152460.500000, 154408.937500, 112865.867188, 93181.734375, 96891.609375, 114714.781250, 0.000, 0.000, 0.000,9.306732,19.346252,5.441479,9.615118,5.505815, 22:38:09.504
, 75344.304688, 86448.835938, 152505.343750, 154241.046875, 112904.828125, 93196.671875, 96855.445313, 114748.914063, 0.000, 0.000, 0.000,9.306732,19.346252,5.441479,9.615118,5.505815, 22:38:09.504
, 75311.718750, 86408.507813, 152537.109375, 154380.968750, 112890.992188, 93234.289063, 96990.851563, 114767.265625, 0.000, 0.000, 0.000,9.306732,19.346252,5.441479,9.615118,5.505815, 22:38:09.504
, 75282.171875, 86377.890625, 152507.109375, 154576.046875, 112855.406250, 93232.656250, 97061.757813, 114747.234375, 0.356, 0.224, 0.894,9.306732,19.346252,5.441479,9.615118,5.505815, 22:38:09.504
, 75312.281250, 86414.296875, 152454.468750, 154446.093750, 112864.773438, 93187.343750, 96923.125000, 114722.984375, 0.000, 0.000, 0.000,9.306732,19.346252,5.441479,9.615118,5.505815, 22:38:09.504
, 75337.242188, 86438.375000, 152485.312500, 154242.281250, 112891.328125, 93183.968750, 96847.515625, 114738.140625, 0.000, 0.000, 0.000,9.306732,19.346252,5.441479,9.615118,5.505815, 22:38:09.504
, 75315.500000, 86415.773438, 152535.984375, 154339.281250, 112887.796875, 93226.484375, 96972.078125, 114767.039063, 0.000, 0.000, 0.000,9.306732,19.346252,5.441479,9.615118,5.505815, 22:38:09.504
, 75288.406250, 86388.062500, 152524.984375, 154562.515625, 112858.695313, 93238.484375, 97076.414063, 114758.882813, 0.000, 0.000, 0.000,9.306732,19.346252,5.441479,9.615118,5.505815, 22:38:09.504
, 75308.296875, 86409.406250, 152462.187500, 154510.765625, 112853.484375, 93194.898438, 96974.671875, 114723.859375, 0.000, 0.000, 0.000,9.306732,19.346252,5.441479,9.615118,5.505815, 22:38:09.505
, 75335.968750, 86444.093750, 152470.312500, 154252.843750, 112886.859375, 93179.367188, 96844.671875, 114733.757813, 0.000, 0.000, 0.000,9.306732,19.346252,5.441479,9.615118,5.505815, 22:38:09.505
, 75325.421875, 86431.445313, 152525.843750, 154275.062500, 112895.414063, 93220.203125, 96936.335938, 114766.460938, 0.000, 0.000, 0.000,9.306732,19.346252,5.441479,9.615118,5.505815, 22:38:09.505
, 75307.695313, 86402.406250, 152539.500000, 154482.156250, 112876.882813, 93245.640625, 97053.218750, 114770.992188, 0.000, 0.000, 0.000,9.306732,19.346252,5.441479,9.615118,5.505815, 22:38:09.505
, 75301.234375, 86400.664063, 152486.968750, 154506.890625, 112863.718750, 93207.554688, 96999.234375, 114731.414063, 0.000, 0.000, 0.000,9.306732,19.346252,5.441479,9.615118,5.505815, 22:38:09.505
, 75320.703125, 86428.335938, 152468.125000, 154270.078125, 112885.671875, 93175.726563, 96851.382813, 114724.328125, 0.354, 0.224, 0.896,9.306732,19.346252,5.441479,9.615118,5.505815, 22:38:09.505
, 75325.421875, 86430.328125, 152528.796875, 154243.031250, 112901.117188, 93217.585938, 96915.531250, 114769.632813, 0.000, 0.000, 0.000,9.306732,19.346252,5.441479,9.615118,5.505815, 22:38:09.505
, 75302.625000, 86398.164063, 152545.421875, 154453.640625, 112879.882813, 93246.578125, 97051.562500, 114775.398438, 0.000, 0.000, 0.000,9.306732,19.346252,5.441479,9.615118,5.505815, 22:38:09.505
, 75301.195313, 86399.031250, 152505.703125, 154521.203125, 112864.726563, 93220.335938, 97024.718750, 114743.679688, 0.000, 0.000, 0.000,9.306732,19.346252,5.441479,9.615118,5.505815, 22:38:09.505
, 75324.570313, 86430.523438, 152475.750000, 154295.890625, 112882.226563, 93175.367188, 96865.796875, 114723.875000, 0.000, 0.000, 0.000,9.306732,19.346252,5.441479,9.615118,5.505815, 22:38:09.506
, 75334.046875, 86435.195313, 152530.843750, 154222.140625, 112911.734375, 93206.656250, 96905.468750, 114763.929688, 0.000, 0.000, 0.000,9.306732,19.346252,5.441479,9.615118,5.505815, 22:38:09.506
, 75303.742188, 86400.976563, 152556.546875, 154414.296875, 112891.101563, 93240.257813, 97046.156250, 114775.171875, 0.000, 0.000, 0.000,9.306732,19.346252,5.441479,9.615118,5.505815, 22:38:09.506
, 75288.359375, 86390.539063, 152510.468750, 154543.171875, 112859.632813, 93220.945313, 97058.445313, 114745.070313, 0.000, 0.000, 0.000,9.306732,19.346252,5.441479,9.615118,5.505815, 22:38:09.506
, 75312.656250, 86421.429688, 152466.765625, 154339.218750, 112869.976563, 93171.992188, 96889.757813, 114718.515625, 0.000, 0.000, 0.000,9.306732,19.346252,5.441479,9.615118,5.505815, 22:38:09.506
, 75333.828125, 86437.570313, 152521.734375, 154218.890625, 112905.789063, 93198.812500, 96892.171875, 114753.203125, 0.352, 0.224, 0.894,9.306732,19.346252,5.441479,9.615118,5.505815, 22:38:09.506
, 75316.367188, 86417.023438, 152561.093750, 154370.000000, 112892.507813, 93237.929688, 97024.492188, 114773.234375, 0.000, 0.000, 0.000,9.306732,19.346252,5.441479,9.615118,5.505815, 22:38:09.506
, 75301.617188, 86400.867188, 152531.625000, 154529.656250, 112860.679688, 93231.406250, 97068.976563, 114748.757813, 0.000, 0.000, 0.000,9.306732,19.346252,5.441479,9.615118,5.505815, 22:38:09.507
, 75322.757813, 86427.625000, 152483.937500, 154383.531250, 112868.859375, 93186.007813, 96928.875000, 114721.484375, 0.000, 0.000, 0.000,9.306732,19.346252,5.441479,9.615118,5.505815, 22:38:09.507
, 75333.289063, 86436.585938, 152512.515625, 154225.375000, 112891.976563, 93190.031250, 96886.468750, 114738.765625, 0.000, 0.000, 0.000,9.306732,19.346252,5.441479,9.615118,5.505815, 22:38:09.507
, 75309.976563, 86407.640625, 152547.718750, 154337.218750, 112882.875000, 93223.312500, 97002.117188, 114753.539063, 0.000, 0.000, 0.000,9.306732,19.346252,5.441479,9.615118,5.505815, 22:38:09.507
, 75281.320313, 86383.117188, 152530.375000, 154532.156250, 112852.632813, 93228.093750, 97077.398438, 114741.242188, 0.000, 0.000, 0.000,9.306732,19.346252,5.441479,9.615118,5.505815, 22:38:09.507
, 75303.359375, 86407.390625, 152469.562500, 154428.015625, 112852.570313, 93180.929688, 96945.390625, 114709.750000, 0.000, 0.000, 0.000,9.306732,19.346252,5.441479,9.615118,5.505815, 22:38:09.507
, 75348.781250, 86450.601563, 152509.281250, 154213.828125, 112899.375000, 93183.257813, 96859.625000, 114735.437500, 0.000, 0.000, 0.000,9.306732,19.346252,5.441479,9.615118,5.505815, 22:38:09.507
, 75334.359375, 86430.882813, 152560.953125, 154277.125000, 112899.664063, 93227.648438, 96966.023438, 114769.992188, 0.000, 0.000, 0.000,9.306732,19.346252,5.441479,9.615118,5.505815, 22:38:09.507
, 75299.046875, 86390.492188, 152548.765625, 154496.125000, 112857.554688, 93232.921875, 97071.546875, 114749.828125, 0.346, 0.222, 0.900,9.306732,19.346252,5.441479,9.615118,5.505815, 22:38:09.507
, 75315.585938, 86419.242188, 152489.937500, 154464.000000, 112852.078125, 93192.867188, 96978.203125, 114717.593750, 0.000, 0.000, 0.000,9.306732,19.346252,5.441479,9.615118,5.505815, 22:38:09.508
, 75341.695313, 86448.320313, 152496.828125, 154229.484375, 112881.398438, 93175.726563, 96856.632813, 114726.781250, 0.000, 0.000, 0.000,9.306732,19.346252,5.441479,9.615118,5.505815, 22:38:09.508
, 75330.046875, 86431.554688, 152545.828125, 154253.875000, 112884.601563, 93216.429688, 96949.500000, 114758.054688, 0.000, 0.000, 0.000,9.306732,19.346252,5.441479,9.615118,5.505815, 22:38:09.508
, 75309.976563, 86408.554688, 152554.203125, 154448.687500, 112865.953125, 93240.945313, 97058.937500, 114760.867188, 0.000, 0.000, 0.000,9.306732,19.346252,5.441479,9.615118,5.505815, 22:38:09.508
, 75296.382813, 86398.718750, 152499.703125, 154484.640625, 112844.140625, 93200.492188, 97005.609375, 114719.742188, 0.000, 0.000, 0.000,9.306732,19.346252,5.441479,9.615118,5.505815, 22:38:09.508
, 75324.507813, 86428.898438, 152483.625000, 154264.765625, 112874.023438, 93171.078125, 96865.593750, 114717.195313, 0.000, 0.000, 0.000,9.306732,19.346252,5.441479,9.615118,5.505815, 22:38:09.508
, 75329.648438, 86429.523438, 152541.625000, 154246.718750, 112892.312500, 93207.085938, 96933.765625, 114755.125000, 0.000, 0.000, 0.000,9.306732,19.346252,5.441479,9.615118,5.505815, 22:38:09.508
, 75300.390625, 86399.367188, 152551.750000, 154435.187500, 112867.742188, 93236.476563, 97051.117188, 114759.867188, 0.000, 0.000, 0.000,9.306732,19.346252,5.441479,9.615118,5.505815, 22:38:09.508
, 75302.843750, 86405.070313, 152508.765625, 154498.140625, 112845.507813, 93213.742188, 97022.187500, 114731.078125, 0.348, 0.222, 0.900,8.3527975,16.90397,4.7247653,8.089504,4.7686534, 22:38:09.508
, 75331.390625, 86439.062500, 152481.765625, 154263.281250, 112859.992188, 93171.500000, 96859.429688, 114713.101563, 0.000, 0.000, 0.000,8.3527975,16.90397,4.7247653,8.089504,4.7686534, 22:38:09.509
, 75343.234375, 86447.671875, 152538.718750, 154182.265625, 112885.515625, 93205.429688, 96891.164063, 114751.390625, 0.000, 0.000, 0.000,8.3527975,16.90397,4.7247653,8.089504,4.7686534, 22:38:09.509
, 75312.390625, 86410.164063, 152560.734375, 154360.046875, 112863.992188, 93237.593750, 97022.367188, 114761.335938, 0.000, 0.000, 0.000,8.3527975,16.90397,4.7247653,8.089504,4.7686534, 22:38:09.509
, 75298.109375, 86397.265625, 152513.921875, 154490.718750, 112839.132813, 93222.906250, 97038.664063, 114736.687500, 0.000, 0.000, 0.000,8.3527975,16.90397,4.7247653,8.089504,4.7686534, 22:38:09.509
, 75322.492188, 86429.367188, 152467.718750, 154288.140625, 112854.492188, 93174.296875, 96874.265625, 114714.265625, 0.000, 0.000, 0.000,8.3527975,16.90397,4.7247653,8.089504,4.7686534, 22:38:09.509
, 75331.101563, 86433.523438, 152519.968750, 154161.296875, 112880.015625, 93190.273438, 96869.148438, 114744.445313, 0.000, 0.000, 0.000,8.3527975,16.90397,4.7247653,8.089504,4.7686534, 22:38:09.509
, 75306.843750, 86405.585938, 152556.843750, 154320.062500, 112862.468750, 93222.507813, 97005.515625, 114759.375000, 0.000, 0.000, 0.000,8.3527975,16.90397,4.7247653,8.089504,4.7686534, 22:38:09.509
, 75294.601563, 86394.117188, 152533.593750, 154509.375000, 112836.296875, 93223.601563, 97067.703125, 114743.812500, 0.000, 0.000, 0.000,8.3527975,16.90397,4.7247653,8.089504,4.7686534, 22:38:09.509
, 75313.125000, 86420.914063, 152478.312500, 154362.500000, 112846.710938, 93171.835938, 96918.031250, 114710.445313, 0.000, 0.000, 0.000,8.3527975,16.90397,4.7247653,8.089504,4.7686534, 22:38:09.509
, 75332.015625, 86436.453125, 152515.515625, 154199.734375, 112878.320313, 93178.359375, 96873.890625, 114733.156250, 0.346, 0.220, 0.896,8.3527975,16.90397,4.7247653,8.089504,4.7686534, 22:38:09.510
, 75314.578125, 86412.109375, 152556.218750, 154311.515625, 112867.070313, 93219.625000, 96995.304688, 114762.546875, 0.000, 0.000, 0.000,1.244425,4.592701,1.8963323,2.992243,1.8473065, 22:38:09.976
, 75294.601563, 86385.625000, 152538.406250, 154516.640625, 112842.531250, 93227.554688, 97077.890625, 114749.937500, 0.000, 0.000, 0.000,1.244425,4.592701,1.8963323,2.992243,1.8473065, 22:38:09.976
, 75318.046875, 86415.726563, 152479.140625, 154402.203125, 112849.414063, 93188.109375, 96941.679688, 114722.093750, 0.000, 0.000, 0.000,1.244425,4.592701,1.8963323,2.992243,1.8473065, 22:38:09.976
, 75344.507813, 86448.273438, 152511.171875, 154181.250000, 112884.304688, 93184.578125, 96855.421875, 114744.773438, 0.000, 0.000, 0.000,1.244425,4.592701,1.8963323,2.992243,1.8473065, 22:38:09.976
, 75325.578125, 86430.640625, 152553.531250, 154233.093750, 112876.929688, 93215.351563, 96953.617188, 114762.835938, 0.000, 0.000, 0.000,1.244425,4.592701,1.8963323,2.992243,1.8473065, 22:38:09.976
, 75307.468750, 86400.531250, 152556.328125, 154440.875000, 112851.921875, 93230.820313, 97059.343750, 114755.460938, 0.000, 0.000, 0.000,1.244425,4.592701,1.8963323,2.992243,1.8473065, 22:38:09.976
, 75314.000000, 86409.093750, 152500.718750, 154422.312500, 112842.953125, 93192.578125, 96978.273438, 114720.210938, 0.000, 0.000, 0.000,1.244425,4.592701,1.8963323,2.992243,1.8473065, 22:38:09.976
, 75341.757813, 86441.593750, 152502.343750, 154198.265625, 112871.453125, 93173.375000, 96858.132813, 114725.039063, 0.000, 0.000, 0.000,1.244425,4.592701,1.8963323,2.992243,1.8473065, 22:38:09.976
, 75335.679688, 86429.117188, 152552.375000, 154210.406250, 112878.093750, 93211.218750, 96942.101563, 114761.093750, 0.350, 0.228, 0.896,1.244425,4.592701,1.8963323,2.992243,1.8473065, 22:38:09.976
, 75304.726563, 86395.632813, 152553.750000, 154424.109375, 112859.273438, 93232.968750, 97066.601563, 114758.234375, 0.000, 0.000, 0.000,1.244425,4.592701,1.8963323,2.992243,1.8473065, 22:38:09.977
, 75309.257813, 86401.539063, 152500.890625, 154461.296875, 112846.000000, 93202.125000, 97019.507813, 114723.117188, 0.000, 0.000, 0.000,1.244425,4.592701,1.8963323,2.992243,1.8473065, 22:38:09.977
, 75343.640625, 86440.476563, 152489.343750, 154225.171875, 112876.062500, 93175.281250, 96866.781250, 114722.914063, 0.000, 0.000, 0.000,1.244425,4.592701,1.8963323,2.992243,1.8473065, 22:38:09.977
, 75336.375000, 86425.789063, 152548.765625, 154181.343750, 112894.898438, 93212.406250, 96924.046875, 114760.421875, 0.000, 0.000, 0.000,1.244425,4.592701,1.8963323,2.992243,1.8473065, 22:38:09.977
, 75300.609375, 86390.093750, 152561.515625, 154377.453125, 112867.164063, 93240.546875, 97056.437500, 114765.007813, 0.000, 0.000, 0.000,1.244425,4.592701,1.8963323,2.992243,1.8473065, 22:38:09.977
, 75295.890625, 86395.789063, 152516.234375, 154468.109375, 112844.476563, 93216.492188, 97044.945313, 114729.804688, 0.000, 0.000, 0.000,1.244425,4.592701,1.8963323,2.992243,1.8473065, 22:38:09.977
, 75323.453125, 86430.664063, 152486.703125, 154274.437500, 112854.000000, 93171.882813, 96896.578125, 114709.796875, 0.000, 0.000, 0.000,1.244425,4.592701,1.8963323,2.992243,1.8473065, 22:38:09.977
, 75337.398438, 86441.164063, 152524.859375, 154172.250000, 112872.570313, 93192.218750, 96900.757813, 114736.773438, 0.000, 0.000, 0.000,1.244425,4.592701,1.8963323,2.992243,1.8473065, 22:38:09.977
, 75321.820313, 86424.335938, 152553.312500, 154294.953125, 112863.859375, 93229.992188, 97008.195313, 114756.132813, 0.000, 0.000, 0.000,1.244425,4.592701,1.8963323,2.992243,1.8473065, 22:38:09.977
, 75302.960938, 86406.390625, 152530.421875, 154445.625000, 112839.335938, 93223.179688, 97053.593750, 114739.460938, 0.344, 0.234, 0.896,1.244425,4.592701,1.8963323,2.992243,1.8473065, 22:38:09.978
, 75321.109375, 86429.968750, 152477.828125, 154272.875000, 112846.171875, 93172.171875, 96901.937500, 114706.156250, 0.000, 0.000, 0.000,1.244425,4.592701,1.8963323,2.992243,1.8473065, 22:38:09.978
, 75340.421875, 86443.601563, 152520.281250, 154117.312500, 112875.414063, 93185.023438, 96874.335938, 114736.039063, 0.000, 0.000, 0.000,1.244425,4.592701,1.8963323,2.992243,1.8473065, 22:38:09.978
, 75317.710938, 86422.726563, 152556.187500, 154236.546875, 112867.406250, 93224.632813, 96996.976563, 114757.000000, 0.000, 0.000, 0.000,1.244425,4.592701,1.8963323,2.992243,1.8473065, 22:38:09.978
, 75302.171875, 86405.960938, 152543.312500, 154404.187500, 112843.070313, 93228.320313, 97060.632813, 114743.796875, 0.000, 0.000, 0.000,1.244425,4.592701,1.8963323,2.992243,1.8473065, 22:38:09.978
, 75316.679688, 86422.367188, 152489.156250, 154294.000000, 112837.968750, 93180.664063, 96935.890625, 114710.179688, 0.000, 0.000, 0.000,1.244425,4.592701,1.8963323,2.992243,1.8473065, 22:38:09.978
, 75336.015625, 86439.312500, 152508.609375, 154106.156250, 112861.601563, 93179.882813, 96866.648438, 114726.023438, 0.000, 0.000, 0.000,1.244425,4.592701,1.8963323,2.992243,1.8473065, 22:38:09.978
, 75320.367188, 86419.460938, 152556.937500, 154204.171875, 112855.093750, 93222.570313, 96986.476563, 114755.281250, 0.000, 0.000, 0.000,1.244425,4.592701,1.8963323,2.992243,1.8473065, 22:38:09.978
, 75296.632813, 86396.195313, 152540.859375, 154412.109375, 112826.617188, 93229.390625, 97070.179688, 114737.781250, 0.000, 0.000, 0.000,1.244425,4.592701,1.8963323,2.992243,1.8473065, 22:38:09.978
, 75308.101563, 86410.679688, 152476.234375, 154325.140625, 112821.656250, 93180.929688, 96940.046875, 114700.226563, 0.000, 0.000, 0.000,1.244425,4.592701,1.8963323,2.992243,1.8473065, 22:38:09.978
, 75337.757813, 86440.453125, 152491.156250, 154099.609375, 112852.750000, 93171.585938, 96834.500000, 114719.429688, 0.338, 0.232, 0.896,1.244425,4.592701,1.8963323,2.992243,1.8473065, 22:38:09.979
, 75330.046875, 86419.437500, 152542.140625, 154153.406250, 112861.351563, 93216.132813, 96943.851563, 114754.101563, 0.000, 0.000, 0.000,1.244425,4.592701,1.8963323,2.992243,1.8473065, 22:38:09.979
, 75308.414063, 86401.070313, 152542.578125, 154353.031250, 112837.148438, 93233.617188, 97052.750000, 114749.960938, 0.000, 0.000, 0.000,1.244425,4.592701,1.8963323,2.992243,1.8473065, 22:38:09.979
, 75313.578125, 86414.789063, 152490.875000, 154343.234375, 112828.609375, 93197.585938, 96981.179688, 114720.078125, 0.000, 0.000, 0.000,1.244425,4.592701,1.8963323,2.992243,1.8473065, 22:38:09.979
, 75344.304688, 86446.171875, 152486.125000, 154098.828125, 112854.851563, 93173.937500, 96845.007813, 114724.304688, 0.000, 0.000, 0.000,1.244425,4.592701,1.8963323,2.992243,1.8473065, 22:38:09.979
, 75328.593750, 86425.898438, 152539.390625, 154111.828125, 112862.492188, 93207.820313, 96933.429688, 114750.632813, 0.000, 0.000, 0.000,1.244425,4.592701,1.8963323,2.992243,1.8473065, 22:38:09.979
, 75309.796875, 86398.250000, 152544.421875, 154315.703125, 112835.382813, 93232.070313, 97052.101563, 114748.531250, 0.000, 0.000, 0.000,1.244425,4.592701,1.8963323,2.992243,1.8473065, 22:38:09.979
, 75321.062500, 86410.921875, 152497.875000, 154341.718750, 112823.351563, 93208.359375, 97000.937500, 114722.156250, 0.000, 0.000, 0.000,1.244425,4.592701,1.8963323,2.992243,1.8473065, 22:38:09.979
, 75342.632813, 86439.421875, 152481.781250, 154110.671875, 112840.007813, 93173.351563, 96852.835938, 114712.765625, 0.000, 0.000, 0.000,1.244425,4.592701,1.8963323,2.992243,1.8473065, 22:38:09.979
, 75339.414063, 86428.429688, 152531.625000, 154068.171875, 112849.617188, 93200.492188, 96906.007813, 114748.242188, 0.344, 0.230, 0.900,1.244425,4.592701,1.8963323,2.992243,1.8473065, 22:38:09.980
, 75315.695313, 86397.023438, 152546.093750, 154254.390625, 112825.742188, 93226.218750, 97035.601563, 114749.921875, 0.000, 0.000, 0.000,1.244425,4.592701,1.8963323,2.992243,1.8473065, 22:38:09.980
, 75307.789063, 86390.312500, 152507.593750, 154372.421875, 112812.335938, 93209.859375, 97048.523438, 114729.781250, 0.000, 0.000, 0.000,1.244425,4.592701,1.8963323,2.992243,1.8473065, 22:38:09.980
, 75346.140625, 86434.062500, 152473.578125, 154183.218750, 112835.382813, 93173.914063, 96899.320313, 114720.750000, 0.000, 0.000, 0.000,1.244425,4.592701,1.8963323,2.992243,1.8473065, 22:38:09.980
, 75356.804688, 86442.304688, 152523.984375, 154078.765625, 112861.281250, 93190.992188, 96903.484375, 114744.820313, 0.000, 0.000, 0.000,1.244425,4.592701,1.8963323,2.992243,1.8473065, 22:38:09.980
, 75334.046875, 86414.593750, 152551.359375, 154229.171875, 112841.703125, 93226.125000, 97025.921875, 114759.484375, 0.000, 0.000, 0.000,1.244425,4.592701,1.8963323,2.992243,1.8473065, 22:38:09.980
, 75320.929688, 86397.070313, 152525.656250, 154383.562500, 112812.671875, 93219.156250, 97068.125000, 114737.851563, 0.000, 0.000, 0.000,1.244425,4.592701,1.8963323,2.992243,1.8473065, 22:38:09.980
, 75339.476563, 86424.445313, 152474.296875, 154212.078125, 112823.351563, 93172.039063, 96914.453125, 114710.085938, 0.000, 0.000, 0.000,1.244425,4.592701,1.8963323,2.992243,1.8473065, 22:38:09.980
, 75356.242188, 86440.828125, 152512.390625, 154042.718750, 112852.210938, 93185.625000, 96879.539063, 114737.625000, 0.000, 0.000, 0.000,1.244425,4.592701,1.8963323,2.992243,1.8473065, 22:38:09.981
, 75341.023438, 86418.343750, 152556.531250, 154154.296875, 112844.609375, 93230.218750, 97003.750000, 114765.742188, 0.000, 0.000, 0.000,1.244425,4.592701,1.8963323,2.992243,1.8473065, 22:38:09.981
, 75323.343750, 86397.625000, 152540.125000, 154339.484375, 112819.242188, 93235.265625, 97076.195313, 114748.734375, 0.346, 0.236, 0.896,1.244425,4.592701,1.8963323,2.992243,1.8473065, 22:38:09.981
, 75339.054688, 86416.492188, 152486.093750, 154235.656250, 112822.687500, 93190.742188, 96955.406250, 114717.617188, 0.000, 0.000, 0.000,1.244425,4.592701,1.8963323,2.992243,1.8473065, 22:38:09.981
, 75353.296875, 86431.890625, 152503.046875, 154031.203125, 112848.898438, 93186.765625, 96873.281250, 114730.468750, 0.000, 0.000, 0.000,1.244425,4.592701,1.8963323,2.992243,1.8473065, 22:38:09.981
, 75348.640625, 86417.359375, 152555.515625, 154103.718750, 112854.828125, 93231.156250, 96986.070313, 114763.890625, 0.000, 0.000, 0.000,1.244425,4.592701,1.8963323,2.992243,1.8473065, 22:38:09.981
, 75314.242188, 86380.484375, 152546.656250, 154321.843750, 112819.625000, 93234.976563, 97091.929688, 114745.109375, 0.000, 0.000, 0.000,1.244425,4.592701,1.8963323,2.992243,1.8473065, 22:38:09.981
, 75325.289063, 86400.460938, 152481.187500, 154269.968750, 112816.156250, 93191.210938, 96989.492188, 114711.273438, 0.000, 0.000, 0.000,1.244425,4.592701,1.8963323,2.992243,1.8473065, 22:38:09.981
, 75366.750000, 86439.625000, 152498.500000, 154016.984375, 112852.101563, 93179.101563, 96864.726563, 114729.398438, 0.000, 0.000, 0.000,1.244425,4.592701,1.8963323,2.992243,1.8473065, 22:38:09.981
, 75343.640625, 86415.554688, 152544.328125, 154050.828125, 112844.500000, 93210.726563, 96957.820313, 114755.234375, 0.000, 0.000, 0.000,1.244425,4.592701,1.8963323,2.992243,1.8473065, 22:38:09.982
, 75312.125000, 86384.351563, 152541.421875, 154258.859375, 112808.828125, 93225.882813, 97065.351563, 114746.429688, 0.000, 0.000, 0.000,1.244425,4.592701,1.8963323,2.992243,1.8473065, 22:38:09.982
, 75310.914063, 86382.648438, 152479.484375, 154280.046875, 112790.851563, 93191.437500, 97003.664063, 114715.007813, 0.346, 0.232, 0.904,1.244425,4.592701,1.8963323,2.992243,1.8473065, 22:38:09.982
, 75349.671875, 86419.664063, 152472.546875, 154040.578125, 112827.132813, 93171.570313, 96862.289063, 114726.445313, 0.000, 0.000, 0.000,1.244425,4.592701,1.8963323,2.992243,1.8473065, 22:38:09.982
, 75344.914063, 86409.203125, 152538.062500, 154047.484375, 112842.195313, 93207.757813, 96946.710938, 114758.765625, 0.000, 0.000, 0.000,1.244425,4.592701,1.8963323,2.992243,1.8473065, 22:38:09.982
, 75311.140625, 86374.046875, 152543.984375, 154275.375000, 112809.179688, 93227.492188, 97075.750000, 114751.593750, 0.000, 0.000, 0.000,1.244425,4.592701,1.8963323,2.992243,1.8473065, 22:38:09.982
, 75310.179688, 86378.539063, 152490.796875, 154336.687500, 112785.265625, 93197.179688, 97032.250000, 114716.437500, 0.000, 0.000, 0.000,1.244425,4.592701,1.8963323,2.992243,1.8473065, 22:38:09.982
, 75344.796875, 86410.859375, 152470.343750, 154113.265625, 112810.210938, 93160.812500, 96873.398438, 114710.156250, 0.000, 0.000, 0.000,1.244425,4.592701,1.8963323,2.992243,1.8473065, 22:38:09.982
, 75357.273438, 86415.125000, 152529.937500, 154066.437500, 112832.406250, 93196.289063, 96918.992188, 114750.726563, 0.000, 0.000, 0.000,1.244425,4.592701,1.8963323,2.992243,1.8473065, 22:38:09.982
, 75338.500000, 86390.070313, 152556.890625, 154272.343750, 112816.359375, 93234.148438, 97059.023438, 114763.265625, 0.000, 0.000, 0.000,1.244425,4.592701,1.8963323,2.992243,1.8473065, 22:38:09.982
, 75321.289063, 86377.617188, 152516.406250, 154409.531250, 112793.757813, 93217.140625, 97071.632813, 114735.523438, 0.000, 0.000, 0.000,1.244425,4.592701,1.8963323,2.992243,1.8473065, 22:38:09.982
