%OpenBCI Raw EEG Data
%
%Sample Rate = 250.0 Hz
%First Column = SampleIndex
%5 Columns before Timestamp are Frequency Power factors DELTA THETA ALPHA BETA GAMMA
%Last Column = Timestamp 
%Other Columns = EEG data in microvolts followed by Accel Data (in G) interleaved with Aux Data
0.000000, 0.000000, 0.000000, 0.000000, 0.000000, 0.000000, 0.000000, 0.000000, 0.270, 0.162, 0.938,0.0,0.0,0.0,0.0,0.0, 14:35:13.879
38365.875000, 26614.914063, 107406.835938, 64000.886719, 84388.937500, 68488.562500, 78391.679688, 97634.804688, 0.000, 0.000, 0.000,0.0,0.0,0.0,0.0,0.0, 14:35:14.366
38316.207031, 26567.238281, 107396.039063, 64538.023438, 84333.398438, 68637.976563, 78391.007813, 97586.593750, 0.000, 0.000, 0.000,0.0,0.0,0.0,0.0,0.0, 14:35:14.367
38405.078125, 26654.542969, 107365.750000, 64322.664063, 84391.601563, 68424.250000, 78382.000000, 97606.015625, 0.000, 0.000, 0.000,0.0,0.0,0.0,0.0,0.0, 14:35:14.368
38456.175781, 26706.109375, 107370.828125, 63731.527344, 84452.265625, 68232.250000, 78377.195313, 97651.906250, 0.000, 0.000, 0.000,0.0,0.0,0.0,0.0,0.0, 14:35:14.368
38379.886719, 26629.443359, 107397.492188, 63872.992188, 84389.546875, 68431.453125, 78383.382813, 97635.054688, 0.000, 0.000, 0.000,0.0,0.0,0.0,0.0,0.0, 14:35:14.369
38319.023438, 26566.611328, 107396.414063, 64453.687500, 84323.945313, 68634.515625, 78390.914063, 97587.507813, 0.000, 0.000, 0.000,0.0,0.0,0.0,0.0,0.0, 14:35:14.370
38386.460938, 26637.935547, 107367.468750, 64387.664063, 84366.546875, 68469.757813, 78375.046875, 97593.500000, 0.272, 0.186, 0.932,0.0,0.0,0.0,0.0,0.0, 14:35:14.370
38465.496094, 26718.291016, 107370.531250, 63777.281250, 84441.179688, 68234.421875, 78361.343750, 97639.140625, 0.000, 0.000, 0.000,0.0,0.0,0.0,0.0,0.0, 14:35:14.371
38411.003906, 26657.203125, 107407.773438, 63774.195313, 84412.367188, 68383.234375, 78378.242188, 97642.476563, 0.000, 0.000, 0.000,0.0,0.0,0.0,0.0,0.0, 14:35:14.371
38330.738281, 26579.330078, 107413.960938, 64360.550781, 84337.484375, 68625.148438, 78394.625000, 97596.742188, 0.000, 0.000, 0.000,0.0,0.0,0.0,0.0,0.0, 14:35:14.372
38369.941406, 26627.117188, 107377.507813, 64436.835938, 84356.328125, 68514.976563, 78380.281250, 97585.703125, 0.000, 0.000, 0.000,0.0,0.0,0.0,0.0,0.0, 14:35:14.372
38469.273438, 26724.259766, 107368.007813, 63831.996094, 84442.656250, 68246.023438, 78368.656250, 97635.234375, 0.000, 0.000, 0.000,0.0,0.0,0.0,0.0,0.0, 14:35:14.373
38437.398438, 26688.496094, 107403.703125, 63653.609375, 84430.445313, 68330.351563, 78381.843750, 97653.781250, 0.000, 0.000, 0.000,0.0,0.0,0.0,0.0,0.0, 14:35:14.373
38342.335938, 26590.728516, 107424.671875, 64224.628906, 84349.468750, 68602.460938, 78398.070313, 97606.398438, 0.000, 0.000, 0.000,0.0,0.0,0.0,0.0,0.0, 14:35:14.373
38371.105469, 26619.273438, 107397.468750, 64464.105469, 84358.429688, 68565.468750, 78397.757813, 97590.750000, 0.000, 0.000, 0.000,0.0,0.0,0.0,0.0,0.0, 14:35:14.374
38463.976563, 26717.396484, 107374.578125, 63918.699219, 84435.656250, 68285.539063, 78376.367188, 97629.820313, 0.000, 0.000, 0.000,0.0,0.0,0.0,0.0,0.0, 14:35:14.374
38447.480469, 26698.710938, 107404.171875, 63610.089844, 84443.703125, 68293.453125, 78381.015625, 97654.570313, 0.272, 0.188, 0.928,0.0,0.0,0.0,0.0,0.0, 14:35:14.375
38356.621094, 26602.017578, 107428.562500, 64103.371094, 84368.804688, 68571.710938, 78404.265625, 97620.656250, 0.000, 0.000, 0.000,0.0,0.0,0.0,0.0,0.0, 14:35:14.375
38356.261719, 26604.990234, 107402.296875, 64468.082031, 84353.554688, 68603.851563, 78401.109375, 97592.492188, 0.000, 0.000, 0.000,0.0,0.0,0.0,0.0,0.0, 14:35:14.376
38447.816406, 26696.185547, 107381.937500, 64035.019531, 84433.351563, 68342.960938, 78386.265625, 97630.023438, 0.000, 0.000, 0.000,0.0,0.0,0.0,0.0,0.0, 14:35:14.376
38466.343750, 26716.369141, 107405.421875, 63588.027344, 84465.273438, 68277.445313, 78391.234375, 97672.265625, 0.000, 0.000, 0.000,0.0,0.0,0.0,0.0,0.0, 14:35:14.376
38367.976563, 26621.552734, 107423.304688, 63970.824219, 84377.320313, 68531.250000, 78397.421875, 97629.265625, 0.000, 0.000, 0.000,0.0,0.0,0.0,0.0,0.0, 14:35:14.377
38330.335938, 26591.892578, 107395.437500, 64449.554688, 84327.117188, 68622.828125, 78390.671875, 97579.554688, 0.000, 0.000, 0.000,0.0,0.0,0.0,0.0,0.0, 14:35:14.377
38403.781250, 26671.195313, 107353.234375, 64126.636719, 84382.390625, 68372.640625, 78364.898438, 97594.507813, 0.000, 0.000, 0.000,0.0,0.0,0.0,0.0,0.0, 14:35:14.377
38442.136719, 26713.642578, 107371.406250, 63590.242188, 84435.898438, 68234.351563, 78365.664063, 97643.656250, 0.000, 0.000, 0.000,0.0,0.0,0.0,0.0,0.0, 14:35:14.378
38352.285156, 26622.960938, 107398.695313, 63840.132813, 84378.414063, 68467.546875, 78388.617188, 97629.000000, 0.270, 0.190, 0.924,0.0,0.0,0.0,0.0,0.0, 14:35:14.378
38297.253906, 26567.439453, 107377.976563, 64366.183594, 84316.054688, 68625.375000, 78383.515625, 97581.585938, 0.000, 0.000, 0.000,0.0,0.0,0.0,0.0,0.0, 14:35:14.378
38360.824219, 26636.728516, 107346.531250, 64187.660156, 84362.789063, 68420.789063, 78361.234375, 97585.296875, 0.000, 0.000, 0.000,0.0,0.0,0.0,0.0,0.0, 14:35:14.379
38422.960938, 26700.945313, 107352.070313, 63605.058594, 84423.226563, 68219.265625, 78349.210938, 97628.351563, 0.000, 0.000, 0.000,0.0,0.0,0.0,0.0,0.0, 14:35:14.379
38351.769531, 26623.699219, 107383.429688, 63716.238281, 84374.320313, 68406.976563, 78360.695313, 97621.375000, 0.000, 0.000, 0.000,0.0,0.0,0.0,0.0,0.0, 14:35:14.379
38281.027344, 26549.087891, 107383.921875, 64304.089844, 84312.007813, 68624.703125, 78375.359375, 97575.914063, 0.000, 0.000, 0.000,0.0,0.0,0.0,0.0,0.0, 14:35:14.380
38342.472656, 26616.322266, 107347.132813, 64268.125000, 84345.421875, 68474.882813, 78362.218750, 97578.906250, 0.000, 0.000, 0.000,0.0,0.0,0.0,0.0,0.0, 14:35:14.380
38423.699219, 26699.873047, 107342.460938, 63652.960938, 84420.835938, 68229.031250, 78351.671875, 97629.218750, 0.000, 0.000, 0.000,0.0,0.0,0.0,0.0,0.0, 14:35:14.380
38375.417969, 26650.230469, 107372.054688, 63576.917969, 84402.554688, 68360.304688, 78373.015625, 97644.398438, 0.000, 0.000, 0.000,0.0,0.0,0.0,0.0,0.0, 14:35:14.381
38279.351563, 26550.048828, 107379.921875, 64161.417969, 84317.976563, 68613.531250, 78385.085938, 97590.062500, 0.000, 0.000, 0.000,0.0,0.0,0.0,0.0,0.0, 14:35:14.382
38323.652344, 26597.457031, 107351.335938, 64297.273438, 84342.132813, 68530.710938, 78382.109375, 97581.812500, 0.276, 0.194, 0.924,0.0,0.0,0.0,0.0,0.0, 14:35:14.382
38412.140625, 26691.580078, 107339.062500, 63721.601563, 84422.554688, 68260.664063, 78366.109375, 97625.195313, 0.000, 0.000, 0.000,0.0,0.0,0.0,0.0,0.0, 14:35:14.382
38377.429688, 26655.058594, 107369.976563, 63527.433594, 84411.023438, 68319.445313, 78373.750000, 97642.382813, 0.000, 0.000, 0.000,0.0,0.0,0.0,0.0,0.0, 14:35:14.383
38285.585938, 26557.873047, 107383.656250, 64071.964844, 84328.304688, 68587.085938, 78385.195313, 97598.375000, 0.000, 0.000, 0.000,0.0,0.0,0.0,0.0,0.0, 14:35:14.383
38297.769531, 26572.400391, 107352.609375, 64342.332031, 84322.195313, 68563.507813, 78373.976563, 97573.093750, 0.000, 0.000, 0.000,0.0,0.0,0.0,0.0,0.0, 14:35:14.383
38397.144531, 26674.593750, 107333.382813, 63837.070313, 84400.250000, 68289.156250, 78355.757813, 97612.812500, 0.000, 0.000, 0.000,0.0,0.0,0.0,0.0,0.0, 14:35:14.384
38395.289063, 26667.396484, 107365.351563, 63502.691406, 84416.414063, 68280.484375, 78363.937500, 97645.875000, 0.000, 0.000, 0.000,0.0,0.0,0.0,0.0,0.0, 14:35:14.384
38296.003906, 26563.191406, 107393.132813, 63983.699219, 84344.101563, 68554.562500, 78387.656250, 97610.039063, 0.000, 0.000, 0.000,5.2471646E-6,6.9505936E-6,8.543625E-6,2.6878362E-5,3.4143155E-5, 14:35:14.384
38288.246094, 26556.351563, 107372.281250, 64398.996094, 84322.601563, 68605.859375, 78389.265625, 97577.250000, 0.000, 0.000, 0.000,5.2471646E-6,6.9505936E-6,8.543625E-6,2.6878362E-5,3.4143155E-5, 14:35:14.385
38387.039063, 26661.292969, 107337.117188, 63976.324219, 84394.414063, 68338.601563, 78364.273438, 97608.632813, 0.000, 0.000, 0.000,5.2471646E-6,6.9505936E-6,8.543625E-6,2.6878362E-5,3.4143155E-5, 14:35:14.385
38403.289063, 26677.722656, 107361.101563, 63509.261719, 84430.914063, 68249.796875, 78363.492188, 97644.460938, 0.284, 0.196, 0.930,5.2471646E-6,6.9505936E-6,8.543625E-6,2.6878362E-5,3.4143155E-5, 14:35:14.385
38317.640625, 26585.902344, 107396.484375, 63877.371094, 84364.578125, 68506.578125, 78388.234375, 97617.687500, 0.000, 0.000, 0.000,5.2471646E-6,6.9505936E-6,8.543625E-6,2.6878362E-5,3.4143155E-5, 14:35:14.386
38287.062500, 26555.011719, 107379.476563, 64378.410156, 84319.023438, 68623.789063, 78388.617188, 97574.812500, 0.000, 0.000, 0.000,5.2471646E-6,6.9505936E-6,8.543625E-6,2.6878362E-5,3.4143155E-5, 14:35:14.393
38366.140625, 26640.462891, 107341.078125, 64093.492188, 84382.906250, 68385.492188, 78371.000000, 97594.242188, 0.000, 0.000, 0.000,5.2471646E-6,6.9505936E-6,8.543625E-6,2.6878362E-5,3.4143155E-5, 14:35:14.393
38402.687500, 26681.589844, 107353.992188, 63546.835938, 84428.171875, 68226.101563, 78355.960938, 97633.984375, 0.000, 0.000, 0.000,5.2471646E-6,6.9505936E-6,8.543625E-6,2.6878362E-5,3.4143155E-5, 14:35:14.394
38329.664063, 26602.195313, 107392.773438, 63777.996094, 84376.625000, 68455.593750, 78377.101563, 97623.453125, 0.000, 0.000, 0.000,5.2471646E-6,6.9505936E-6,8.543625E-6,2.6878362E-5,3.4143155E-5, 14:35:14.394
38282.144531, 26548.015625, 107396.750000, 64377.402344, 84317.593750, 68639.742188, 78386.335938, 97577.585938, 0.000, 0.000, 0.000,5.2471646E-6,6.9505936E-6,8.543625E-6,2.6878362E-5,3.4143155E-5, 14:35:14.395
38351.570313, 26622.960938, 107359.804688, 64257.843750, 84364.781250, 68447.718750, 78371.046875, 97585.234375, 0.000, 0.000, 0.000,5.2471646E-6,6.9505936E-6,8.543625E-6,2.6878362E-5,3.4143155E-5, 14:35:14.395
38428.480469, 26698.755859, 107370.039063, 63673.570313, 84440.101563, 68241.929688, 78367.093750, 97642.585938, 0.000, 0.000, 0.000,5.2471646E-6,6.9505936E-6,8.543625E-6,2.6878362E-5,3.4143155E-5, 14:35:14.396
38357.828125, 26623.966797, 107406.476563, 63763.535156, 84395.757813, 68423.109375, 78378.554688, 97643.640625, 0.286, 0.194, 0.928,5.2471646E-6,6.9505936E-6,8.543625E-6,2.6878362E-5,3.4143155E-5, 14:35:14.397
38277.046875, 26538.179688, 107405.359375, 64376.554688, 84323.156250, 68649.671875, 78387.382813, 97594.484375, 0.000, 0.000, 0.000,5.2471646E-6,6.9505936E-6,8.543625E-6,2.6878362E-5,3.4143155E-5, 14:35:14.398
38335.339844, 26598.039063, 107365.750000, 64399.644531, 84359.437500, 68520.726563, 78381.460938, 97601.593750, 0.000, 0.000, 0.000,5.2471646E-6,6.9505936E-6,8.543625E-6,2.6878362E-5,3.4143155E-5, 14:35:14.399
38420.187500, 26685.232422, 107370.039063, 63824.085938, 84443.078125, 68278.718750, 78379.164063, 97657.382813, 0.000, 0.000, 0.000,5.2471646E-6,6.9505936E-6,8.543625E-6,2.6878362E-5,3.4143155E-5, 14:35:14.399
38367.929688, 26634.941406, 107404.109375, 63763.644531, 84412.703125, 68392.109375, 78384.437500, 97660.781250, 0.000, 0.000, 0.000,5.2471646E-6,6.9505936E-6,8.543625E-6,2.6878362E-5,3.4143155E-5, 14:35:14.400
38273.093750, 26542.673828, 107404.304688, 64346.109375, 84332.523438, 68645.312500, 78389.554688, 97610.625000, 0.000, 0.000, 0.000,5.2471646E-6,6.9505936E-6,8.543625E-6,2.6878362E-5,3.4143155E-5, 14:35:14.400
38310.171875, 26578.279297, 107368.921875, 64518.800781, 84349.398438, 68576.734375, 78385.125000, 97596.585938, 0.000, 0.000, 0.000,5.2471646E-6,6.9505936E-6,8.543625E-6,2.6878362E-5,3.4143155E-5, 14:35:14.401
38412.500000, 26678.169922, 107360.898438, 63972.457031, 84432.507813, 68306.437500, 78372.273438, 97640.398438, 0.000, 0.000, 0.000,5.2471646E-6,6.9505936E-6,8.543625E-6,2.6878362E-5,3.4143155E-5, 14:35:14.401
38399.582031, 26656.353516, 107401.468750, 63753.585938, 84436.148438, 68350.421875, 78387.273438, 97665.632813, 0.000, 0.000, 0.000,5.2471646E-6,6.9505936E-6,8.543625E-6,2.6878362E-5,3.4143155E-5, 14:35:14.401
38304.941406, 26562.275391, 107417.203125, 64282.160156, 84354.656250, 68614.976563, 78396.195313, 97620.148438, 0.000, 0.000, 0.000,5.2471646E-6,6.9505936E-6,8.543625E-6,2.6878362E-5,3.4143155E-5, 14:35:14.402
38304.273438, 26569.427734, 107393.289063, 64626.312500, 84340.820313, 68612.523438, 78386.851563, 97582.929688, 0.282, 0.194, 0.926,5.2471646E-6,6.9505936E-6,8.543625E-6,2.6878362E-5,3.4143155E-5, 14:35:14.430
38414.625000, 26679.755859, 107371.492188, 64154.890625, 84427.992188, 68336.570313, 78374.648438, 97623.054688, 0.000, 0.000, 0.000,5.2471646E-6,6.9505936E-6,8.543625E-6,2.6878362E-5,3.4143155E-5, 14:35:14.431
38413.281250, 26675.218750, 107396.796875, 63781.617188, 84440.062500, 68297.921875, 78372.187500, 97651.593750, 0.000, 0.000, 0.000,5.2471646E-6,6.9505936E-6,8.543625E-6,2.6878362E-5,3.4143155E-5, 14:35:14.432
38316.117188, 26575.171875, 107421.453125, 64238.488281, 84359.187500, 68560.445313, 78385.039063, 97610.937500, 0.000, 0.000, 0.000,5.2471646E-6,6.9505936E-6,8.543625E-6,2.6878362E-5,3.4143155E-5, 14:35:14.433
38303.265625, 26565.316406, 107399.617188, 64687.890625, 84333.062500, 68630.312500, 78385.265625, 97573.046875, 0.000, 0.000, 0.000,5.2471646E-6,6.9505936E-6,8.543625E-6,2.6878362E-5,3.4143155E-5, 14:35:14.433
38391.265625, 26661.361328, 107366.625000, 64318.058594, 84397.437500, 68373.984375, 78363.359375, 97602.445313, 0.000, 0.000, 0.000,5.2471646E-6,6.9505936E-6,8.543625E-6,2.6878362E-5,3.4143155E-5, 14:35:14.434
38415.898438, 26687.109375, 107381.664063, 63831.394531, 84428.257813, 68263.250000, 78354.750000, 97637.710938, 0.000, 0.000, 0.000,5.2471646E-6,6.9505936E-6,8.543625E-6,2.6878362E-5,3.4143155E-5, 14:35:14.434
38327.519531, 26593.859375, 107411.304688, 64161.843750, 84365.468750, 68512.968750, 78379.429688, 97617.554688, 0.000, 0.000, 0.000,5.2471646E-6,6.9505936E-6,8.543625E-6,2.6878362E-5,3.4143155E-5, 14:35:14.435
38279.953125, 26543.343750, 107389.984375, 64695.042969, 84310.953125, 68648.328125, 78379.429688, 97570.460938, 0.000, 0.000, 0.000,5.2471646E-6,6.9505936E-6,8.543625E-6,2.6878362E-5,3.4143155E-5, 14:35:14.435
38369.671875, 26637.175781, 107360.226563, 64470.140625, 84373.070313, 68429.859375, 78366.304688, 97590.414063, 0.286, 0.188, 0.928,5.2471646E-6,6.9505936E-6,8.543625E-6,2.6878362E-5,3.4143155E-5, 14:35:14.436
38422.804688, 26691.513672, 107379.789063, 63920.265625, 84434.406250, 68258.914063, 78365.570313, 97640.617188, 0.000, 0.000, 0.000,5.2471646E-6,6.9505936E-6,8.543625E-6,2.6878362E-5,3.4143155E-5, 14:35:14.436
38345.734375, 26606.308594, 107413.312500, 64121.878906, 84377.695313, 68469.023438, 78380.593750, 97626.625000, 0.000, 0.000, 0.000,5.2471646E-6,6.9505936E-6,8.543625E-6,2.6878362E-5,3.4143155E-5, 14:35:14.437
38291.128906, 26548.484375, 107405.445313, 64702.910156, 84315.742188, 68658.500000, 78385.601563, 97578.906250, 0.000, 0.000, 0.000,5.2471646E-6,6.9505936E-6,8.543625E-6,2.6878362E-5,3.4143155E-5, 14:35:14.437
38352.507813, 26610.488281, 107370.734375, 64615.828125, 84359.820313, 68483.640625, 78370.820313, 97583.757813, 0.000, 0.000, 0.000,5.2471646E-6,6.9505936E-6,8.543625E-6,2.6878362E-5,3.4143155E-5, 14:35:14.439
38422.535156, 26688.048828, 107373.375000, 64030.929688, 84431.234375, 68258.828125, 78361.148438, 97632.148438, 0.000, 0.000, 0.000,5.2471646E-6,6.9505936E-6,8.543625E-6,2.6878362E-5,3.4143155E-5, 14:35:14.439
38355.769531, 26620.166016, 107408.156250, 64068.390625, 84393.476563, 68416.898438, 78376.570313, 97633.242188, 0.000, 0.000, 0.000,5.2471646E-6,6.9505936E-6,8.543625E-6,2.6878362E-5,3.4143155E-5, 14:35:14.439
38285.273438, 26539.275391, 107413.117188, 64679.351563, 84318.554688, 68649.781250, 78389.289063, 97583.757813, 0.000, 0.000, 0.000,5.2471646E-6,6.9505936E-6,8.543625E-6,2.6878362E-5,3.4143155E-5, 14:35:14.440
38335.921875, 26590.841797, 107374.890625, 64741.871094, 84342.718750, 68529.593750, 78375.875000, 97575.445313, 0.000, 0.000, 0.000,5.2471646E-6,6.9505936E-6,8.543625E-6,2.6878362E-5,3.4143155E-5, 14:35:14.440
38422.894531, 26682.751953, 107365.687500, 64160.031250, 84418.531250, 68269.531250, 78357.367188, 97620.750000, 0.000, 0.000, 0.000,5.2471646E-6,6.9505936E-6,8.543625E-6,2.6878362E-5,3.4143155E-5, 14:35:14.441
38383.890625, 26642.742188, 107397.359375, 64035.890625, 84398.101563, 68362.960938, 78363.406250, 97636.195313, 0.290, 0.196, 0.932,5.2471646E-6,6.9505936E-6,8.543625E-6,2.6878362E-5,3.4143155E-5, 14:35:14.441
38293.902344, 26555.212891, 107408.976563, 64610.085938, 84324.726563, 68625.867188, 78383.117188, 97593.125000, 0.000, 0.000, 0.000,5.2471646E-6,6.9505936E-6,8.543625E-6,2.6878362E-5,3.4143155E-5, 14:35:14.442
38313.257813, 26578.503906, 107375.968750, 64824.480469, 84332.054688, 68573.382813, 78375.945313, 97574.726563, 0.000, 0.000, 0.000,5.2471646E-6,6.9505936E-6,8.543625E-6,2.6878362E-5,3.4143155E-5, 14:35:14.442
38404.296875, 26671.687500, 107358.484375, 64288.890625, 84407.156250, 68298.281250, 78355.960938, 97614.046875, 0.000, 0.000, 0.000,5.2471646E-6,6.9505936E-6,8.543625E-6,2.6878362E-5,3.4143155E-5, 14:35:14.444
38393.835938, 26656.152344, 107387.679688, 64014.230469, 84412.257813, 68316.312500, 78366.039063, 97639.656250, 0.000, 0.000, 0.000,5.2471646E-6,6.9505936E-6,8.543625E-6,2.6878362E-5,3.4143155E-5, 14:35:14.445
38305.121094, 26562.142578, 107405.132813, 64521.214844, 84331.992188, 68584.914063, 78380.703125, 97598.484375, 0.000, 0.000, 0.000,5.2471646E-6,6.9505936E-6,8.543625E-6,2.6878362E-5,3.4143155E-5, 14:35:14.445
38302.886719, 26560.218750, 107378.539063, 64882.730469, 84316.234375, 68603.875000, 78376.281250, 97565.492188, 0.000, 0.000, 0.000,5.2471646E-6,6.9505936E-6,8.543625E-6,2.6878362E-5,3.4143155E-5, 14:35:14.445
38401.300781, 26664.333984, 107351.937500, 64430.285156, 84396.695313, 68332.210938, 78362.289063, 97601.617188, 0.000, 0.000, 0.000,5.2471646E-6,6.9505936E-6,8.543625E-6,2.6878362E-5,3.4143155E-5, 14:35:14.446
38416.433594, 26679.398438, 107379.273438, 64007.593750, 84426.132813, 68278.359375, 78367.382813, 97645.000000, 0.000, 0.000, 0.000,5.2471646E-6,6.9505936E-6,8.543625E-6,2.6878362E-5,3.4143155E-5, 14:35:14.446
38318.531250, 26578.414063, 107407.726563, 64413.546875, 84351.617188, 68541.781250, 78380.789063, 97609.484375, 0.288, 0.204, 0.926,5.2471646E-6,6.9505936E-6,8.543625E-6,2.6878362E-5,3.4143155E-5, 14:35:14.447
38295.554688, 26556.552734, 107386.562500, 64874.929688, 84316.679688, 68629.664063, 78381.265625, 97568.695313, 0.000, 0.000, 0.000,5.2471646E-6,6.9505936E-6,8.543625E-6,2.6878362E-5,3.4143155E-5, 14:35:14.447
38379.328125, 26642.183594, 107357.367188, 64541.015625, 84382.703125, 68382.726563, 78362.820313, 97592.492188, 0.000, 0.000, 0.000,5.2471646E-6,6.9505936E-6,8.543625E-6,2.6878362E-5,3.4143155E-5, 14:35:14.448
38428.234375, 26688.919922, 107379.945313, 64024.582031, 84434.382813, 68257.664063, 78363.734375, 97642.187500, 0.000, 0.000, 0.000,5.2471646E-6,6.9505936E-6,8.543625E-6,2.6878362E-5,3.4143155E-5, 14:35:14.448
38343.789063, 26599.669922, 107410.429688, 64302.570313, 84366.343750, 68491.304688, 78379.273438, 97617.015625, 0.000, 0.000, 0.000,5.2471646E-6,6.9505936E-6,8.543625E-6,2.6878362E-5,3.4143155E-5, 14:35:14.448
38287.218750, 26542.785156, 107399.101563, 64855.664063, 84306.062500, 68640.125000, 78378.109375, 97562.992188, 0.000, 0.000, 0.000,5.2471646E-6,6.9505936E-6,8.543625E-6,2.6878362E-5,3.4143155E-5, 14:35:14.449
38368.867188, 26626.984375, 107368.703125, 64668.980469, 84365.921875, 68428.656250, 78365.281250, 97580.601563, 0.000, 0.000, 0.000,5.2471646E-6,6.9505936E-6,8.543625E-6,2.6878362E-5,3.4143155E-5, 14:35:14.449
38443.523438, 26697.972656, 107379.250000, 64080.125000, 84437.039063, 68239.156250, 78360.453125, 97634.359375, 0.000, 0.000, 0.000,5.2471646E-6,6.9505936E-6,8.543625E-6,2.6878362E-5,3.4143155E-5, 14:35:14.450
38361.515625, 26619.675781, 107413.515625, 64223.535156, 84381.070313, 68433.640625, 78374.195313, 97620.210938, 0.000, 0.000, 0.000,5.2471646E-6,6.9505936E-6,8.543625E-6,2.6878362E-5,3.4143155E-5, 14:35:14.451
38286.613281, 26547.232422, 107408.398438, 64822.804688, 84313.507813, 68637.312500, 78381.015625, 97571.148438, 0.000, 0.000, 0.000,5.2471646E-6,6.9505936E-6,8.543625E-6,2.6878362E-5,3.4143155E-5, 14:35:14.452
38354.183594, 26616.433594, 107374.046875, 64772.828125, 84359.281250, 68477.718750, 78374.757813, 97578.773438, 0.280, 0.208, 0.926,5.2471646E-6,6.9505936E-6,8.543625E-6,2.6878362E-5,3.4143155E-5, 14:35:14.453
38430.269531, 26700.119141, 107367.742188, 64146.554688, 84430.468750, 68238.445313, 78361.570313, 97628.195313, 0.000, 0.000, 0.000,5.2471646E-6,6.9505936E-6,8.543625E-6,2.6878362E-5,3.4143155E-5, 14:35:14.453
38370.300781, 26638.740234, 107397.312500, 64120.199219, 84395.851563, 68379.054688, 78374.507813, 97631.765625, 0.000, 0.000, 0.000,5.2471646E-6,6.9505936E-6,8.543625E-6,2.6878362E-5,3.4143155E-5, 14:35:14.453
38287.105469, 26552.351563, 107405.648438, 64723.050781, 84318.171875, 68625.281250, 78383.140625, 97581.453125, 0.000, 0.000, 0.000,5.2471646E-6,6.9505936E-6,8.543625E-6,2.6878362E-5,3.4143155E-5, 14:35:14.454
38334.781250, 26601.345703, 107373.890625, 64830.316406, 84344.328125, 68528.632813, 78375.515625, 97575.148438, 0.000, 0.000, 0.000,5.2471646E-6,6.9505936E-6,8.543625E-6,2.6878362E-5,3.4143155E-5, 14:35:14.454
38428.726563, 26698.173828, 107364.031250, 64241.949219, 84423.921875, 68264.390625, 78361.546875, 97623.117188, 0.000, 0.000, 0.000,5.2471646E-6,6.9505936E-6,8.543625E-6,2.6878362E-5,3.4143155E-5, 14:35:14.455
38387.242188, 26655.527344, 107396.843750, 64063.875000, 84409.257813, 68337.867188, 78371.156250, 97638.203125, 0.000, 0.000, 0.000,5.2471646E-6,6.9505936E-6,8.543625E-6,2.6878362E-5,3.4143155E-5, 14:35:14.455
38289.656250, 26556.710938, 107415.414063, 64628.589844, 84332.031250, 68607.625000, 78386.828125, 97593.476563, 0.000, 0.000, 0.000,5.2471646E-6,6.9505936E-6,8.543625E-6,2.6878362E-5,3.4143155E-5, 14:35:14.456
38312.140625, 26579.576172, 107380.171875, 64880.765625, 84330.312500, 68575.085938, 78376.007813, 97571.593750, 0.000, 0.000, 0.000,5.2471646E-6,6.9505936E-6,8.543625E-6,2.6878362E-5,3.4143155E-5, 14:35:14.456
38417.664063, 26685.457031, 107360.656250, 64358.402344, 84413.906250, 68300.539063, 78362.218750, 97615.742188, 0.000, 0.000, 0.000,5.2471646E-6,6.9505936E-6,8.543625E-6,2.6878362E-5,3.4143155E-5, 14:35:14.457
38413.058594, 26677.812500, 107395.257813, 64031.753906, 84427.921875, 68304.179688, 78370.554688, 97648.937500, 0.282, 0.208, 0.918,5.2471646E-6,6.9505936E-6,8.543625E-6,2.6878362E-5,3.4143155E-5, 14:35:14.457
38309.347656, 26572.580078, 107415.015625, 64515.894531, 84339.523438, 68572.359375, 78377.640625, 97604.882813, 0.000, 0.000, 0.000,5.2471646E-6,6.9505936E-6,8.543625E-6,2.6878362E-5,3.4143155E-5, 14:35:14.457
38303.558594, 26567.595703, 107391.210938, 64899.941406, 84322.781250, 68611.671875, 78378.046875, 97576.445313, 0.000, 0.000, 0.000,5.2471646E-6,6.9505936E-6,8.543625E-6,2.6878362E-5,3.4143155E-5, 14:35:14.458
38397.031250, 26667.910156, 107366.554688, 64470.074219, 84401.523438, 68349.601563, 78365.031250, 97614.289063, 0.000, 0.000, 0.000,5.2471646E-6,6.9505936E-6,8.543625E-6,2.6878362E-5,3.4143155E-5, 14:35:14.458
38416.792969, 26688.898438, 107392.218750, 64025.140625, 84437.625000, 68279.953125, 78370.468750, 97655.929688, 0.000, 0.000, 0.000,5.2471646E-6,6.9505936E-6,8.543625E-6,2.6878362E-5,3.4143155E-5, 14:35:14.459
38327.695313, 26595.535156, 107412.265625, 64380.734375, 84368.023438, 68536.054688, 78387.921875, 97627.523438, 0.000, 0.000, 0.000,5.2471646E-6,6.9505936E-6,8.543625E-6,2.6878362E-5,3.4143155E-5, 14:35:14.459
38297.230469, 26560.443359, 107401.359375, 64884.496094, 84327.695313, 68646.539063, 78391.859375, 97582.257813, 0.000, 0.000, 0.000,5.2471646E-6,6.9505936E-6,8.543625E-6,2.6878362E-5,3.4143155E-5, 14:35:14.460
38389.121094, 26654.164063, 107369.929688, 64590.371094, 84389.882813, 68407.335938, 78372.523438, 97601.835938, 0.000, 0.000, 0.000,5.2471646E-6,6.9505936E-6,8.543625E-6,2.6878362E-5,3.4143155E-5, 14:35:14.460
38434.359375, 26700.767578, 107383.898438, 64040.539063, 84443.078125, 68258.109375, 78366.820313, 97648.664063, 0.000, 0.000, 0.000,7.995042E-4,0.0012600209,0.0014587039,0.0034200698,0.002898507, 14:35:14.546
38344.750000, 26608.431641, 107410.968750, 64274.070313, 84375.640625, 68481.164063, 78378.156250, 97627.500000, 0.280, 0.204, 0.920,7.995042E-4,0.0012600209,0.0014587039,0.0034200698,0.002898507, 14:35:14.547
38293.453125, 26554.787109, 107400.664063, 64832.820313, 84320.320313, 68648.281250, 78384.906250, 97576.960938, 0.000, 0.000, 0.000,7.995042E-4,0.0012600209,0.0014587039,0.0034200698,0.002898507, 14:35:14.547
38376.402344, 26639.613281, 107369.906250, 64675.062500, 84378.929688, 68452.304688, 78376.414063, 97589.859375, 0.000, 0.000, 0.000,7.995042E-4,0.0012600209,0.0014587039,0.0034200698,0.002898507, 14:35:14.548
38443.078125, 26708.166016, 107371.984375, 64062.464844, 84441.734375, 68242.242188, 78361.617188, 97634.945313, 0.000, 0.000, 0.000,7.995042E-4,0.0012600209,0.0014587039,0.0034200698,0.002898507, 14:35:14.551
38369.832031, 26635.701172, 107402.968750, 64136.808594, 84391.734375, 68421.570313, 78375.960938, 97630.609375, 0.000, 0.000, 0.000,7.995042E-4,0.0012600209,0.0014587039,0.0034200698,0.002898507, 14:35:14.555
38292.515625, 26558.564453, 107407.546875, 64725.597656, 84322.671875, 68642.117188, 78389.625000, 97582.593750, 0.000, 0.000, 0.000,7.995042E-4,0.0012600209,0.0014587039,0.0034200698,0.002898507, 14:35:14.555
38356.417969, 26623.117188, 107374.445313, 64713.574219, 84360.664063, 68497.726563, 78378.000000, 97582.523438, 0.000, 0.000, 0.000,7.995042E-4,0.0012600209,0.0014587039,0.0034200698,0.002898507, 14:35:14.555
38448.015625, 26709.037109, 107376.835938, 64101.984375, 84442.023438, 68254.648438, 78371.406250, 97635.234375, 0.000, 0.000, 0.000,7.995042E-4,0.0012600209,0.0014587039,0.0034200698,0.002898507, 14:35:14.556
38394.550781, 26651.482422, 107408.109375, 64044.136719, 84407.757813, 68378.585938, 78378.109375, 97636.281250, 0.000, 0.000, 0.000,7.995042E-4,0.0012600209,0.0014587039,0.0034200698,0.002898507, 14:35:14.556
38295.824219, 26553.357422, 107413.312500, 64642.359375, 84320.414063, 68626.718750, 78383.226563, 97580.515625, 0.000, 0.000, 0.000,7.995042E-4,0.0012600209,0.0014587039,0.0034200698,0.002898507, 14:35:14.557
38332.906250, 26599.603516, 107374.179688, 64774.058594, 84342.851563, 68543.406250, 78376.187500, 97577.070313, 0.278, 0.200, 0.918,7.995042E-4,0.0012600209,0.0014587039,0.0034200698,0.002898507, 14:35:14.557
38417.976563, 26689.859375, 107363.382813, 64200.289063, 84417.437500, 68276.351563, 78358.148438, 97621.617188, 0.000, 0.000, 0.000,7.995042E-4,0.0012600209,0.0014587039,0.0034200698,0.002898507, 14:35:14.558
38388.492188, 26658.455078, 107392.218750, 63996.484375, 84408.031250, 68329.773438, 78368.609375, 97638.875000, 0.000, 0.000, 0.000,7.995042E-4,0.0012600209,0.0014587039,0.0034200698,0.002898507, 14:35:14.558
38306.441406, 26573.697266, 107401.289063, 64507.156250, 84330.851563, 68594.906250, 78381.750000, 97602.398438, 0.000, 0.000, 0.000,7.995042E-4,0.0012600209,0.0014587039,0.0034200698,0.002898507, 14:35:14.559
38327.160156, 26594.439453, 107384.859375, 64793.414063, 84335.500000, 68592.226563, 78382.960938, 97583.000000, 0.000, 0.000, 0.000,7.995042E-4,0.0012600209,0.0014587039,0.0034200698,0.002898507, 14:35:14.559
38409.863281, 26685.880859, 107359.539063, 64304.445313, 84409.437500, 68317.078125, 78360.695313, 97610.531250, 0.000, 0.000, 0.000,7.995042E-4,0.0012600209,0.0014587039,0.0034200698,0.002898507, 14:35:14.560
38406.531250, 26685.701172, 107382.562500, 63932.042969, 84427.070313, 68289.625000, 78366.085938, 97643.101563, 0.000, 0.000, 0.000,7.995042E-4,0.0012600209,0.0014587039,0.0034200698,0.002898507, 14:35:14.560
38319.539063, 26586.638672, 107415.593750, 64397.070313, 84356.953125, 68561.226563, 78388.500000, 97609.546875, 0.000, 0.000, 0.000,7.995042E-4,0.0012600209,0.0014587039,0.0034200698,0.002898507, 14:35:14.561
38305.613281, 26572.490234, 107392.375000, 64802.933594, 84326.265625, 68616.140625, 78384.054688, 97572.648438, 0.000, 0.000, 0.000,7.995042E-4,0.0012600209,0.0014587039,0.0034200698,0.002898507, 14:35:14.561
38394.015625, 26667.865234, 107362.109375, 64406.750000, 84396.140625, 68356.460938, 78367.804688, 97600.210938, 0.280, 0.198, 0.928,7.995042E-4,0.0012600209,0.0014587039,0.0034200698,0.002898507, 14:35:14.562
38423.386719, 26692.787109, 107385.820313, 63934.636719, 84434.382813, 68260.835938, 78369.328125, 97641.648438, 0.000, 0.000, 0.000,7.995042E-4,0.0012600209,0.0014587039,0.0034200698,0.002898507, 14:35:14.562
38332.703125, 26603.314453, 107422.500000, 64281.089844, 84366.367188, 68515.757813, 78387.210938, 97616.750000, 0.000, 0.000, 0.000,7.995042E-4,0.0012600209,0.0014587039,0.0034200698,0.002898507, 14:35:14.562
38298.953125, 26567.304688, 107405.421875, 64795.449219, 84319.625000, 68639.703125, 78386.804688, 97571.304688, 0.000, 0.000, 0.000,7.995042E-4,0.0012600209,0.0014587039,0.0034200698,0.002898507, 14:35:14.563
38390.347656, 26662.142578, 107370.421875, 64519.246094, 84385.898438, 68408.539063, 78372.007813, 97594.351563, 0.000, 0.000, 0.000,7.995042E-4,0.0012600209,0.0014587039,0.0034200698,0.002898507, 14:35:14.563
38439.613281, 26717.621094, 107383.187500, 63960.789063, 84435.546875, 68241.531250, 78364.500000, 97636.171875, 0.000, 0.000, 0.000,7.995042E-4,0.0012600209,0.0014587039,0.0034200698,0.002898507, 14:35:14.563
38363.191406, 26633.578125, 107413.625000, 64165.015625, 84375.015625, 68459.390625, 78377.078125, 97620.812500, 0.000, 0.000, 0.000,7.995042E-4,0.0012600209,0.0014587039,0.0034200698,0.002898507, 14:35:14.564
38310.062500, 26574.123047, 107405.070313, 64721.753906, 84322.734375, 68643.726563, 78388.703125, 97580.445313, 0.000, 0.000, 0.000,7.995042E-4,0.0012600209,0.0014587039,0.0034200698,0.002898507, 14:35:14.564
38382.792969, 26650.386719, 107369.328125, 64582.503906, 84373.296875, 68456.726563, 78375.789063, 97589.546875, 0.000, 0.000, 0.000,7.995042E-4,0.0012600209,0.0014587039,0.0034200698,0.002898507, 14:35:14.565
38451.210938, 26723.878906, 107375.007813, 63967.605469, 84442.476563, 68240.921875, 78366.375000, 97638.359375, 0.000, 0.000, 0.000,7.995042E-4,0.0012600209,0.0014587039,0.0034200698,0.002898507, 14:35:14.565
38382.792969, 26648.955078, 107409.718750, 64030.167969, 84392.921875, 68411.625000, 78376.812500, 97630.804688, 0.280, 0.192, 0.924,7.995042E-4,0.0012600209,0.0014587039,0.0034200698,0.002898507, 14:35:14.566
38304.652344, 26572.802734, 107417.117188, 64636.257813, 84324.789063, 68644.125000, 78390.335938, 97584.203125, 0.000, 0.000, 0.000,7.995042E-4,0.0012600209,0.0014587039,0.0034200698,0.002898507, 14:35:14.566
38360.488281, 26630.404297, 107378.625000, 64660.265625, 84356.015625, 68514.039063, 78379.046875, 97582.484375, 0.000, 0.000, 0.000,7.995042E-4,0.0012600209,0.0014587039,0.0034200698,0.002898507, 14:35:14.566
38439.992188, 26716.994141, 107371.296875, 64057.839844, 84425.929688, 68255.632813, 78360.609375, 97623.382813, 0.000, 0.000, 0.000,7.995042E-4,0.0012600209,0.0014587039,0.0034200698,0.002898507, 14:35:14.567
38405.972656, 26678.416016, 107407.976563, 63941.296875, 84410.265625, 68361.351563, 78378.000000, 97639.296875, 0.000, 0.000, 0.000,7.995042E-4,0.0012600209,0.0014587039,0.0034200698,0.002898507, 14:35:14.567
38321.082031, 26584.761719, 107427.820313, 64525.707031, 84336.906250, 68626.226563, 78398.429688, 97594.125000, 0.000, 0.000, 0.000,7.995042E-4,0.0012600209,0.0014587039,0.0034200698,0.002898507, 14:35:14.567
38355.300781, 26618.154297, 107398.500000, 64718.019531, 84355.523438, 68565.429688, 78398.695313, 97581.250000, 0.000, 0.000, 0.000,7.995042E-4,0.0012600209,0.0014587039,0.0034200698,0.002898507, 14:35:14.568
38453.023438, 26722.806641, 107381.242188, 64153.816406, 84435.273438, 68289.539063, 78376.968750, 97625.062500, 0.000, 0.000, 0.000,7.995042E-4,0.0012600209,0.0014587039,0.0034200698,0.002898507, 14:35:14.568
38424.078125, 26698.285156, 107403.171875, 63882.156250, 84425.710938, 68318.398438, 78371.851563, 97643.968750, 0.000, 0.000, 0.000,7.995042E-4,0.0012600209,0.0014587039,0.0034200698,0.002898507, 14:35:14.569
38324.007813, 26593.925781, 107415.687500, 64395.195313, 84338.695313, 68586.679688, 78382.804688, 97598.148438, 0.282, 0.198, 0.924,7.995042E-4,0.0012600209,0.0014587039,0.0034200698,0.002898507, 14:35:14.569
38328.523438, 26600.162109, 107389.375000, 64718.246094, 84329.218750, 68598.015625, 78381.218750, 97574.007813, 0.000, 0.000, 0.000,7.995042E-4,0.0012600209,0.0014587039,0.0034200698,0.002898507, 14:35:14.570
38421.910156, 26699.851563, 107367.898438, 64246.511719, 84411.156250, 68329.703125, 78369.593750, 97611.226563, 0.000, 0.000, 0.000,7.995042E-4,0.0012600209,0.0014587039,0.0034200698,0.002898507, 14:35:14.570
38426.871094, 26708.367188, 107396.414063, 63844.582031, 84441.804688, 68288.960938, 78384.460938, 97651.281250, 0.000, 0.000, 0.000,7.995042E-4,0.0012600209,0.0014587039,0.0034200698,0.002898507, 14:35:14.571
38337.957031, 26610.310547, 107421.671875, 64261.957031, 84367.062500, 68554.875000, 78397.757813, 97620.617188, 0.000, 0.000, 0.000,7.995042E-4,0.0012600209,0.0014587039,0.0034200698,0.002898507, 14:35:14.572
38319.582031, 26589.925781, 107400.351563, 64699.937500, 84335.523438, 68631.031250, 78397.625000, 97582.859375, 0.000, 0.000, 0.000,0.0,0.0,0.0,0.0,0.0, 14:35:15.015
38405.636719, 26684.427734, 107365.953125, 64327.804688, 84403.445313, 68374.585938, 78379.007813, 97607.625000, 0.000, 0.000, 0.000,0.0,0.0,0.0,0.0,0.0, 14:35:15.015
38437.085938, 26711.138672, 107385.085938, 63829.851563, 84438.046875, 68257.289063, 78373.078125, 97642.898438, 0.000, 0.000, 0.000,0.0,0.0,0.0,0.0,0.0, 14:35:15.015
38349.781250, 26619.964844, 107408.601563, 64128.203125, 84369.539063, 68495.484375, 78386.648438, 97617.015625, 0.000, 0.000, 0.000,0.0,0.0,0.0,0.0,0.0, 14:35:15.016
38398.460938, 26668.849609, 107368.031250, 64422.015625, 84390.703125, 68421.593750, 78378.960938, 97594.328125, 0.278, 0.200, 0.930,0.0,0.0,0.0,0.0,0.0, 14:35:15.017
38449.335938, 26723.253906, 107383.296875, 63852.761719, 84447.882813, 68240.031250, 78367.914063, 97637.867188, 0.000, 0.000, 0.000,0.0,0.0,0.0,0.0,0.0, 14:35:15.017
38370.566406, 26641.066406, 107417.945313, 64027.777344, 84393.523438, 68446.492188, 78380.773438, 97626.468750, 0.000, 0.000, 0.000,0.0,0.0,0.0,0.0,0.0, 14:35:15.018
38312.207031, 26580.939453, 107414.187500, 64598.371094, 84340.593750, 68648.195313, 78396.195313, 97588.140625, 0.000, 0.000, 0.000,0.0,0.0,0.0,0.0,0.0, 14:35:15.018
38384.648438, 26651.951172, 107378.828125, 64506.929688, 84383.289063, 68479.437500, 78383.273438, 97594.062500, 0.000, 0.000, 0.000,0.0,0.0,0.0,0.0,0.0, 14:35:15.019
38459.839844, 26728.125000, 107386.468750, 63900.214844, 84452.242188, 68252.789063, 78371.937500, 97644.867188, 0.000, 0.000, 0.000,0.0,0.0,0.0,0.0,0.0, 14:35:15.019
38393.074219, 26657.851563, 107416.937500, 63915.792969, 84415.179688, 68402.257813, 78388.820313, 97646.187500, 0.000, 0.000, 0.000,0.0,0.0,0.0,0.0,0.0, 14:35:15.019
38312.921875, 26576.535156, 107418.609375, 64503.421875, 84344.750000, 68646.250000, 78406.812500, 97603.273438, 0.000, 0.000, 0.000,0.0,0.0,0.0,0.0,0.0, 14:35:15.020
38363.437500, 26629.689453, 107386.695313, 64580.378906, 84368.242188, 68537.421875, 78395.031250, 97595.156250, 0.000, 0.000, 0.000,0.0,0.0,0.0,0.0,0.0, 14:35:15.020
38454.992188, 26727.656250, 107380.234375, 63981.484375, 84447.234375, 68274.851563, 78376.367188, 97642.187500, 0.000, 0.000, 0.000,0.0,0.0,0.0,0.0,0.0, 14:35:15.021
38409.929688, 26683.154297, 107412.664063, 63835.664063, 84424.656250, 68360.101563, 78387.500000, 97651.234375, 0.280, 0.206, 0.930,0.0,0.0,0.0,0.0,0.0, 14:35:15.021
38317.863281, 26589.208984, 107419.593750, 64383.214844, 84345.335938, 68616.546875, 78401.335938, 97601.929688, 0.000, 0.000, 0.000,0.0,0.0,0.0,0.0,0.0, 14:35:15.022
38340.394531, 26618.892578, 107393.781250, 64601.679688, 84354.429688, 68572.335938, 78395.765625, 97582.593750, 0.000, 0.000, 0.000,0.0,0.0,0.0,0.0,0.0, 14:35:15.022
38438.292969, 26716.546875, 107379.875000, 64069.394531, 84431.718750, 68294.437500, 78378.179688, 97619.296875, 0.000, 0.000, 0.000,0.0,0.0,0.0,0.0,0.0, 14:35:15.022
38430.785156, 26708.634766, 107404.734375, 63764.070313, 84437.937500, 68305.703125, 78386.757813, 97646.117188, 0.000, 0.000, 0.000,0.0,0.0,0.0,0.0,0.0, 14:35:15.023
38337.175781, 26610.980469, 107420.046875, 64250.667969, 84354.406250, 68573.203125, 78397.554688, 97603.382813, 0.000, 0.000, 0.000,0.0,0.0,0.0,0.0,0.0, 14:35:15.023
38337.734375, 26609.593750, 107392.976563, 64596.582031, 84338.585938, 68596.765625, 78392.414063, 97573.343750, 0.000, 0.000, 0.000,0.0,0.0,0.0,0.0,0.0, 14:35:15.024
38426.156250, 26705.238281, 107371.164063, 64149.726563, 84411.937500, 68328.992188, 78374.132813, 97604.273438, 0.000, 0.000, 0.000,0.0,0.0,0.0,0.0,0.0, 14:35:15.025
38437.085938, 26718.537109, 107398.718750, 63730.812500, 84440.304688, 68270.406250, 78375.945313, 97643.640625, 0.000, 0.000, 0.000,0.0,0.0,0.0,0.0,0.0, 14:35:15.025
38344.953125, 26620.882813, 107422.632813, 64125.253906, 84368.828125, 68533.109375, 78395.523438, 97617.617188, 0.282, 0.206, 0.934,0.0,0.0,0.0,0.0,0.0, 14:35:15.025
38321.371094, 26594.193359, 107399.929688, 64584.402344, 84337.484375, 68628.054688, 78399.390625, 97583.109375, 0.000, 0.000, 0.000,0.0,0.0,0.0,0.0,0.0, 14:35:15.026
38415.093750, 26693.546875, 107369.640625, 64246.019531, 84404.429688, 68385.140625, 78382.132813, 97611.226563, 0.000, 0.000, 0.000,0.0,0.0,0.0,0.0,0.0, 14:35:15.026
38458.164063, 26738.742188, 107385.242188, 63710.828125, 84449.937500, 68253.914063, 78377.640625, 97657.828125, 0.000, 0.000, 0.000,0.0,0.0,0.0,0.0,0.0, 14:35:15.026
38355.367188, 26633.644531, 107416.242188, 63975.363281, 84380.203125, 68489.585938, 78391.367188, 97629.937500, 0.000, 0.000, 0.000,0.0,0.0,0.0,0.0,0.0, 14:35:15.027
38308.562500, 26586.593750, 107404.734375, 64532.792969, 84325.929688, 68648.484375, 78397.492188, 97582.882813, 0.000, 0.000, 0.000,0.0,0.0,0.0,0.0,0.0, 14:35:15.027
38391.378906, 26678.527344, 107368.476563, 64318.550781, 84385.500000, 68441.375000, 78385.375000, 97601.820313, 0.000, 0.000, 0.000,0.0,0.0,0.0,0.0,0.0, 14:35:15.027
38453.648438, 26734.271484, 107378.023438, 63735.082031, 84441.132813, 68244.234375, 78373.882813, 97643.101563, 0.000, 0.000, 0.000,0.0,0.0,0.0,0.0,0.0, 14:35:15.028
38382.546875, 26656.242188, 107409.000000, 63864.207031, 84395.687500, 68435.296875, 78394.765625, 97635.593750, 0.000, 0.000, 0.000,0.0,0.0,0.0,0.0,0.0, 14:35:15.028
38317.058594, 26590.572266, 107403.546875, 64439.093750, 84329.820313, 68642.804688, 78401.023438, 97590.375000, 0.000, 0.000, 0.000,0.0,0.0,0.0,0.0,0.0, 14:35:15.029
38377.718750, 26652.464844, 107374.000000, 64399.597656, 84369.851563, 68489.945313, 78385.304688, 97593.281250, 0.278, 0.206, 0.932,0.0,0.0,0.0,0.0,0.0, 14:35:15.029
38456.867188, 26734.384766, 107371.453125, 63778.398438, 84444.484375, 68247.023438, 78373.843750, 97642.359375, 0.000, 0.000, 0.000,0.0,0.0,0.0,0.0,0.0, 14:35:15.030
38402.464844, 26673.699219, 107411.882813, 63750.546875, 84416.859375, 68384.867188, 78389.953125, 97647.859375, 0.000, 0.000, 0.000,0.0,0.0,0.0,0.0,0.0, 14:35:15.030
38317.304688, 26585.140625, 107422.234375, 64352.660156, 84339.234375, 68633.578125, 78403.945313, 97598.710938, 0.000, 0.000, 0.000,0.0,0.0,0.0,0.0,0.0, 14:35:15.031
38359.593750, 26629.041016, 107387.812500, 64469.042969, 84360.601563, 68538.359375, 78391.835938, 97588.273438, 0.000, 0.000, 0.000,0.0,0.0,0.0,0.0,0.0, 14:35:15.031
38448.867188, 26719.654297, 107368.429688, 63873.414063, 84435.429688, 68265.781250, 78371.117188, 97631.343750, 0.000, 0.000, 0.000,0.0,0.0,0.0,0.0,0.0, 14:35:15.032
38421.953125, 26689.703125, 107397.312500, 63663.957031, 84434.023438, 68335.781250, 78385.773438, 97655.570313, 0.000, 0.000, 0.000,0.0,0.0,0.0,0.0,0.0, 14:35:15.032
38327.964844, 26594.462891, 107414.968750, 64197.539063, 84360.265625, 68608.921875, 78409.265625, 97617.265625, 0.000, 0.000, 0.000,0.0,0.0,0.0,0.0,0.0, 14:35:15.032
38335.476563, 26604.878906, 107384.171875, 64457.308594, 84349.132813, 68581.203125, 78393.039063, 97584.671875, 0.000, 0.000, 0.000,0.0,0.0,0.0,0.0,0.0, 14:35:15.033
38425.351563, 26705.796875, 107362.484375, 63931.328125, 84422.062500, 68302.640625, 78365.726563, 97621.421875, 0.278, 0.208, 0.930,0.0,0.0,0.0,0.0,0.0, 14:35:15.033
38421.375000, 26697.257813, 107392.882813, 63609.976563, 84426.000000, 68292.515625, 78367.289063, 97643.726563, 0.000, 0.000, 0.000,0.0,0.0,0.0,0.0,0.0, 14:35:15.033
38336.300781, 26603.626953, 107411.304688, 64070.871094, 84355.390625, 68560.015625, 78385.578125, 97609.953125, 0.000, 0.000, 0.000,0.0,0.0,0.0,0.0,0.0, 14:35:15.034
38326.109375, 26594.126953, 107388.484375, 64466.117188, 84333.125000, 68605.328125, 78384.125000, 97576.804688, 0.000, 0.000, 0.000,0.0,0.0,0.0,0.0,0.0, 14:35:15.034
38419.628906, 26697.236328, 107359.468750, 64045.835938, 84406.398438, 68338.265625, 78365.617188, 97608.703125, 0.000, 0.000, 0.000,0.0,0.0,0.0,0.0,0.0, 14:35:15.035
38448.152344, 26720.771484, 107386.117188, 63579.066406, 84449.960938, 68256.054688, 78372.234375, 97653.132813, 0.000, 0.000, 0.000,0.0,0.0,0.0,0.0,0.0, 14:35:15.035
38352.976563, 26621.240234, 107413.453125, 63926.656250, 84375.039063, 68512.500000, 78386.984375, 97623.523438, 0.000, 0.000, 0.000,0.0,0.0,0.0,0.0,0.0, 14:35:15.036
38315.402344, 26591.623047, 107396.976563, 64426.464844, 84330.000000, 68631.523438, 78390.203125, 97580.562500, 0.000, 0.000, 0.000,0.0,0.0,0.0,0.0,0.0, 14:35:15.036
38398.375000, 26683.400391, 107364.453125, 64136.363281, 84389.968750, 68395.929688, 78368.500000, 97600.609375, 0.000, 0.000, 0.000,0.0,0.0,0.0,0.0,0.0, 14:35:15.037
38448.308594, 26731.097656, 107382.781250, 63600.746094, 84445.312500, 68245.281250, 78365.054688, 97649.265625, 0.000, 0.000, 0.000,0.0,0.0,0.0,0.0,0.0, 14:35:15.037
38373.898438, 26649.357422, 107414.296875, 63821.203125, 84394.906250, 68472.132813, 78387.226563, 97640.687500, 0.284, 0.202, 0.932,0.0,0.0,0.0,0.0,0.0, 14:35:15.037
38318.734375, 26590.193359, 107409.289063, 64391.261719, 84336.523438, 68649.000000, 78396.843750, 97592.406250, 0.000, 0.000, 0.000,0.0,0.0,0.0,0.0,0.0, 14:35:15.038
38393.902344, 26667.888672, 107379.945313, 64265.753906, 84380.984375, 68458.789063, 78379.203125, 97597.148438, 0.000, 0.000, 0.000,0.0,0.0,0.0,0.0,0.0, 14:35:15.038
38469.964844, 26746.968750, 107380.703125, 63654.750000, 84448.843750, 68243.203125, 78366.796875, 97649.648438, 0.000, 0.000, 0.000,0.0,0.0,0.0,0.0,0.0, 14:35:15.038
38399.871094, 26674.167969, 107416.085938, 63733.761719, 84408.562500, 68423.046875, 78384.750000, 97644.281250, 0.000, 0.000, 0.000,0.0,0.0,0.0,0.0,0.0, 14:35:15.039
38331.519531, 26602.576172, 107416.960938, 64312.917969, 84342.093750, 68645.359375, 78398.273438, 97598.484375, 0.000, 0.000, 0.000,0.0,0.0,0.0,0.0,0.0, 14:35:15.039
38383.152344, 26654.208984, 107379.523438, 64310.527344, 84369.921875, 68503.445313, 78379.718750, 97590.773438, 0.000, 0.000, 0.000,0.0,0.0,0.0,0.0,0.0, 14:35:15.039
38462.632813, 26736.976563, 107368.632813, 63682.777344, 84440.039063, 68246.179688, 78363.289063, 97635.703125, 0.000, 0.000, 0.000,0.0,0.0,0.0,0.0,0.0, 14:35:15.040
38409.058594, 26680.359375, 107409.093750, 63603.941406, 84415.093750, 68365.085938, 78376.703125, 97642.500000, 0.000, 0.000, 0.000,0.0,0.0,0.0,0.0,0.0, 14:35:15.040
38319.250000, 26589.835938, 107420.218750, 64194.746094, 84333.554688, 68620.234375, 78388.859375, 97591.734375, 0.000, 0.000, 0.000,0.0,0.0,0.0,0.0,0.0, 14:35:15.040
38356.171875, 26630.738281, 107385.734375, 64350.089844, 84351.234375, 68542.765625, 78382.875000, 97577.835938, 0.282, 0.204, 0.936,0.0,0.0,0.0,0.0,0.0, 14:35:15.041
38449.132813, 26727.566406, 107373.867188, 63779.425781, 84433.015625, 68270.609375, 78367.695313, 97620.773438, 0.000, 0.000, 0.000,0.0,0.0,0.0,0.0,0.0, 14:35:15.041
38422.492188, 26698.330078, 107407.546875, 63556.000000, 84426.828125, 68318.101563, 78372.570313, 97640.617188, 0.000, 0.000, 0.000,0.0,0.0,0.0,0.0,0.0, 14:35:15.041
38326.667969, 26600.117188, 107426.546875, 64092.148438, 84345.132813, 68592.765625, 78389.171875, 97602.820313, 0.000, 0.000, 0.000,0.0,0.0,0.0,0.0,0.0, 14:35:15.042
38343.253906, 26618.714844, 107397.492188, 64401.453125, 84335.343750, 68588.156250, 78379.609375, 97575.304688, 0.000, 0.000, 0.000,0.0,0.0,0.0,0.0,0.0, 14:35:15.042
38450.652344, 26725.509766, 107377.125000, 63904.195313, 84424.476563, 68316.179688, 78370.687500, 97620.835938, 0.000, 0.000, 0.000,0.0,0.0,0.0,0.0,0.0, 14:35:15.043
38455.324219, 26727.521484, 107412.578125, 63539.503906, 84448.265625, 68292.781250, 78377.796875, 97659.328125, 0.000, 0.000, 0.000,0.0,0.0,0.0,0.0,0.0, 14:35:15.043
38360.421875, 26633.085938, 107438.234375, 63979.945313, 84373.046875, 68563.507813, 78397.023438, 97625.328125, 0.000, 0.000, 0.000,0.0,0.0,0.0,0.0,0.0, 14:35:15.044
38342.828125, 26615.652344, 107420.382813, 64423.335938, 84342.156250, 68633.578125, 78398.312500, 97585.257813, 0.000, 0.000, 0.000,0.0,0.0,0.0,0.0,0.0, 14:35:15.044
38439.230469, 26713.685547, 107388.039063, 64047.601563, 84413.867188, 68376.085938, 78382.382813, 97614.867188, 0.282, 0.208, 0.930,0.0,0.0,0.0,0.0,0.0, 14:35:15.044
38464.781250, 26740.865234, 107404.398438, 63562.792969, 84451.015625, 68271.437500, 78378.265625, 97654.703125, 0.000, 0.000, 0.000,0.0,0.0,0.0,0.0,0.0, 14:35:15.045
38367.125000, 26636.929688, 107431.843750, 63902.675781, 84382.664063, 68519.203125, 78393.351563, 97625.531250, 0.000, 0.000, 0.000,0.0,0.0,0.0,0.0,0.0, 14:35:15.046
38319.269531, 26595.312500, 107412.960938, 64419.378906, 84334.382813, 68648.914063, 78396.640625, 97585.726563, 0.000, 0.000, 0.000,0.0,0.0,0.0,0.0,0.0, 14:35:15.046
38401.996094, 26677.253906, 107374.000000, 64163.406250, 84392.359375, 68419.226563, 78377.351563, 97601.054688, 0.000, 0.000, 0.000,0.0,0.0,0.0,0.0,0.0, 14:35:15.047
38460.980469, 26727.253906, 107391.117188, 63608.996094, 84451.343750, 68246.289063, 78372.703125, 97645.984375, 0.000, 0.000, 0.000,0.0,0.0,0.0,0.0,0.0, 14:35:15.047
38388.003906, 26651.593750, 107421.296875, 63796.660156, 84395.242188, 68456.257813, 78389.132813, 97631.898438, 0.000, 0.000, 0.000,0.0,0.0,0.0,0.0,0.0, 14:35:15.048
38323.761719, 26589.925781, 107420.625000, 64386.523438, 84332.101563, 68648.929688, 78399.031250, 97584.000000, 0.000, 0.000, 0.000,0.0,0.0,0.0,0.0,0.0, 14:35:15.051
38388.472656, 26662.097656, 107389.085938, 64300.578125, 84376.781250, 68471.015625, 78386.468750, 97589.500000, 0.000, 0.000, 0.000,0.0,0.0,0.0,0.0,0.0, 14:35:15.052
38456.375000, 26735.613281, 107388.437500, 63698.871094, 84445.804688, 68247.539063, 78371.937500, 97636.484375, 0.000, 0.000, 0.000,0.0,0.0,0.0,0.0,0.0, 14:35:15.053
38390.238281, 26663.865234, 107424.156250, 63747.687500, 84407.132813, 68416.031250, 78389.625000, 97638.250000, 0.288, 0.212, 0.930,0.0,0.0,0.0,0.0,0.0, 14:35:15.054
38313.570313, 26586.146484, 107431.781250, 64357.734375, 84337.867188, 68658.273438, 78407.812500, 97597.257813, 0.000, 0.000, 0.000,0.0,0.0,0.0,0.0,0.0, 14:35:15.055
38366.320313, 26641.802734, 107396.039063, 64407.667969, 84370.453125, 68538.851563, 78398.539063, 97596.140625, 0.000, 0.000, 0.000,0.0,0.0,0.0,0.0,0.0, 14:35:15.055
38446.652344, 26728.482422, 107388.484375, 63824.753906, 84442.898438, 68280.445313, 78381.015625, 97641.109375, 0.000, 0.000, 0.000,0.0,0.0,0.0,0.0,0.0, 14:35:15.058
38405.457031, 26686.283203, 107422.320313, 63718.652344, 84425.976563, 68381.921875, 78395.257813, 97656.757813, 0.000, 0.000, 0.000,0.0,0.0,0.0,0.0,0.0, 14:35:15.058
38322.937500, 26591.244141, 107441.125000, 64316.335938, 84352.437500, 68648.734375, 78414.453125, 97610.757813, 0.000, 0.000, 0.000,0.0,0.0,0.0,0.0,0.0, 14:35:15.058
38357.937500, 26632.482422, 107406.765625, 64524.789063, 84361.695313, 68588.156250, 78403.812500, 97592.945313, 0.000, 0.000, 0.000,0.0,0.0,0.0,0.0,0.0, 14:35:15.059
38449.203125, 26729.109375, 107394.742188, 64000.015625, 84436.664063, 68312.562500, 78383.187500, 97631.234375, 0.000, 0.000, 0.000,0.0,0.0,0.0,0.0,0.0, 14:35:15.060
38424.277344, 26706.109375, 107417.539063, 63749.050781, 84426.804688, 68328.429688, 78379.359375, 97644.640625, 0.000, 0.000, 0.000,0.0,0.0,0.0,0.0,0.0, 14:35:15.061
38334.269531, 26609.662109, 107429.742188, 64250.800781, 84351.945313, 68594.820313, 78396.257813, 97606.531250, 0.288, 0.210, 0.934,0.0,0.0,0.0,0.0,0.0, 14:35:15.063
38333.910156, 26609.951172, 107407.257813, 64609.011719, 84333.289063, 68608.742188, 78388.523438, 97570.812500, 0.000, 0.000, 0.000,0.0,0.0,0.0,0.0,0.0, 14:35:15.063
38428.636719, 26710.289063, 107382.625000, 64168.636719, 84410.445313, 68338.132813, 78377.257813, 97605.546875, 0.000, 0.000, 0.000,0.0,0.0,0.0,0.0,0.0, 14:35:15.063
38442.519531, 26722.894531, 107410.234375, 63774.687500, 84447.031250, 68291.820313, 78392.679688, 97651.367188, 0.000, 0.000, 0.000,0.0,0.0,0.0,0.0,0.0, 14:35:15.064
38346.449219, 26625.955078, 107438.414063, 64190.207031, 84372.179688, 68557.382813, 78409.781250, 97621.265625, 0.000, 0.000, 0.000,0.0,0.0,0.0,0.0,0.0, 14:35:15.064
38320.187500, 26601.591797, 107422.101563, 64651.570313, 84334.914063, 68644.929688, 78410.859375, 97582.390625, 0.000, 0.000, 0.000,0.0,0.0,0.0,0.0,0.0, 14:35:15.064
38403.691406, 26691.759766, 107393.132813, 64322.550781, 84402.617188, 68394.523438, 78390.179688, 97607.875000, 0.000, 0.000, 0.000,0.0,0.0,0.0,0.0,0.0, 14:35:15.065
38438.917969, 26726.046875, 107409.562500, 63827.484375, 84444.593750, 68271.921875, 78386.539063, 97652.914063, 0.000, 0.000, 0.000,0.0,0.0,0.0,0.0,0.0, 14:35:15.065
38349.601563, 26634.896484, 107439.398438, 64132.472656, 84381.476563, 68515.601563, 78405.804688, 97633.828125, 0.000, 0.000, 0.000,0.0,0.0,0.0,0.0,0.0, 14:35:15.065
38304.050781, 26593.970703, 107429.117188, 64677.074219, 84338.914063, 68668.804688, 78416.531250, 97593.859375, 0.000, 0.000, 0.000,0.0,0.0,0.0,0.0,0.0, 14:35:15.066
38393.390625, 26676.068359, 107397.710938, 64469.445313, 84397.257813, 68456.664063, 78400.398438, 97610.984375, 0.278, 0.202, 0.928,0.0,0.0,0.0,0.0,0.0, 14:35:15.066
38456.062500, 26729.445313, 107411.039063, 63911.367188, 84456.687500, 68270.921875, 78390.070313, 97654.703125, 0.000, 0.000, 0.000,0.0,0.0,0.0,0.0,0.0, 14:35:15.067
38374.011719, 26648.306641, 107439.843750, 64072.613281, 84403.445313, 68470.117188, 78400.593750, 97639.812500, 0.000, 0.000, 0.000,0.0,0.0,0.0,0.0,0.0, 14:35:15.067
38313.527344, 26582.705078, 107438.976563, 64674.546875, 84339.210938, 68674.656250, 78410.945313, 97591.179688, 0.000, 0.000, 0.000,0.0,0.0,0.0,0.0,0.0, 14:35:15.067
38383.332031, 26652.062500, 107407.125000, 64629.953125, 84380.492188, 68512.609375, 78398.179688, 97597.007813, 0.000, 0.000, 0.000,0.0,0.0,0.0,0.0,0.0, 14:35:15.068
38460.667969, 26734.271484, 107404.554688, 64026.457031, 84451.593750, 68274.023438, 78383.031250, 97644.617188, 0.000, 0.000, 0.000,0.0,0.0,0.0,0.0,0.0, 14:35:15.068
38403.179688, 26678.080078, 107441.750000, 64033.812500, 84419.875000, 68420.429688, 78397.867188, 97647.125000, 0.000, 0.000, 0.000,0.0,0.0,0.0,0.0,0.0, 14:35:15.069
38324.476563, 26594.417969, 107446.710938, 64626.421875, 84347.906250, 68658.609375, 78410.789063, 97597.460938, 0.000, 0.000, 0.000,0.0,0.0,0.0,0.0,0.0, 14:35:15.069
38366.789063, 26639.412109, 107415.687500, 64732.460938, 84367.750000, 68550.476563, 78401.109375, 97581.093750, 0.000, 0.000, 0.000,0.0,0.0,0.0,0.0,0.0, 14:35:15.069
38462.589844, 26743.503906, 107398.500000, 64145.457031, 84441.734375, 68279.164063, 78379.718750, 97625.171875, 0.270, 0.204, 0.922,0.0,0.0,0.0,0.0,0.0, 14:35:15.070
38427.273438, 26709.931641, 107427.710938, 63971.761719, 84425.796875, 68359.367188, 78386.515625, 97642.515625, 0.000, 0.000, 0.000,0.0,0.0,0.0,0.0,0.0, 14:35:15.070
38329.148438, 26610.421875, 107446.304688, 64546.964844, 84342.093750, 68629.171875, 78403.140625, 97595.671875, 0.000, 0.000, 0.000,0.0,0.0,0.0,0.0,0.0, 14:35:15.070
38352.218750, 26635.187500, 107415.101563, 64788.585938, 84347.593750, 68589.273438, 78398.335938, 97578.460938, 0.000, 0.000, 0.000,0.0,0.0,0.0,0.0,0.0, 14:35:15.071
38444.128906, 26732.171875, 107398.070313, 64269.218750, 84425.218750, 68314.039063, 78381.265625, 97619.273438, 0.000, 0.000, 0.000,0.0,0.0,0.0,0.0,0.0, 14:35:15.072
38431.519531, 26714.759766, 107431.507813, 63973.574219, 84435.585938, 68321.460938, 78389.218750, 97650.054688, 0.000, 0.000, 0.000,0.0,0.0,0.0,0.0,0.0, 14:35:15.072
38335.519531, 26615.205078, 107452.898438, 64466.226563, 84355.726563, 68591.398438, 78402.656250, 97610.195313, 0.000, 0.000, 0.000,0.0,0.0,0.0,0.0,0.0, 14:35:15.072
38329.039063, 26611.539063, 107430.507813, 64851.484375, 84338.515625, 68626.359375, 78399.882813, 97577.117188, 0.000, 0.000, 0.000,0.0,0.0,0.0,0.0,0.0, 14:35:15.073
38437.085938, 26721.419922, 107403.835938, 64422.285156, 84420.992188, 68364.171875, 78389.062500, 97619.359375, 0.000, 0.000, 0.000,0.0,0.0,0.0,0.0,0.0, 14:35:15.073
38462.746094, 26745.335938, 107426.929688, 63969.664063, 84454.859375, 68295.101563, 78393.484375, 97664.984375, 0.000, 0.000, 0.000,0.0,0.0,0.0,0.0,0.0, 14:35:15.073
38363.214844, 26646.519531, 107458.492188, 64352.144531, 84377.742188, 68555.726563, 78407.281250, 97629.531250, 0.276, 0.208, 0.920,0.0,0.0,0.0,0.0,0.0, 14:35:15.074
38333.484375, 26615.607422, 107444.515625, 64843.949219, 84343.164063, 68662.078125, 78412.171875, 97591.312500, 0.000, 0.000, 0.000,0.0,0.0,0.0,0.0,0.0, 14:35:15.074
38426.378906, 26706.578125, 107411.281250, 64532.613281, 84413.125000, 68418.398438, 78398.539063, 97619.992188, 0.000, 0.000, 0.000,0.0,0.0,0.0,0.0,0.0, 14:35:15.074
38464.980469, 26742.050781, 107426.703125, 64004.261719, 84460.601563, 68276.304688, 78395.054688, 97662.726563, 0.000, 0.000, 0.000,0.0,0.0,0.0,0.0,0.0, 14:35:15.075
38372.312500, 26648.843750, 107452.070313, 64270.425781, 84391.492188, 68508.140625, 78410.765625, 97639.906250, 0.000, 0.000, 0.000,0.0,0.0,0.0,0.0,0.0, 14:35:15.075
38322.535156, 26599.625000, 107434.195313, 64823.187500, 84330.671875, 68669.945313, 78410.187500, 97589.296875, 0.000, 0.000, 0.000,0.0,0.0,0.0,0.0,0.0, 14:35:15.075
38408.273438, 26682.482422, 107401.109375, 64648.285156, 84394.328125, 68470.140625, 78405.203125, 97610.156250, 0.000, 0.000, 0.000,0.0,0.0,0.0,0.0,0.0, 14:35:15.076
38470.234375, 26744.107422, 107413.539063, 64063.496094, 84458.968750, 68269.468750, 78399.882813, 97659.882813, 0.000, 0.000, 0.000,0.0,0.0,0.0,0.0,0.0, 14:35:15.076
38396.226563, 26670.369141, 107443.671875, 64172.863281, 84404.695313, 68454.828125, 78404.039063, 97650.390625, 0.000, 0.000, 0.000,0.0,0.0,0.0,0.0,0.0, 14:35:15.521
38319.628906, 26592.226563, 107445.148438, 64787.402344, 84335.835938, 68674.148438, 78415.054688, 97600.296875, 0.000, 0.000, 0.000,0.0,0.0,0.0,0.0,0.0, 14:35:15.521
38382.726563, 26663.373047, 107404.132813, 64758.253906, 84373.140625, 68521.820313, 78397.132813, 97600.367188, 0.288, 0.210, 0.924,0.0,0.0,0.0,0.0,0.0, 14:35:15.521
38462.656250, 26744.732422, 107405.742188, 64164.257813, 84440.375000, 68274.476563, 78378.828125, 97642.320313, 0.000, 0.000, 0.000,0.0,0.0,0.0,0.0,0.0, 14:35:15.522
38417.328125, 26696.609375, 107433.367188, 64099.125000, 84409.593750, 68398.664063, 78391.859375, 97650.656250, 0.000, 0.000, 0.000,0.0,0.0,0.0,0.0,0.0, 14:35:15.522
38326.378906, 26601.949219, 107450.132813, 64708.320313, 84329.578125, 68655.703125, 78404.531250, 97597.078125, 0.000, 0.000, 0.000,0.0,0.0,0.0,0.0,0.0, 14:35:15.522
38370.878906, 26647.390625, 107416.687500, 64857.363281, 84352.976563, 68571.171875, 78399.500000, 97587.554688, 0.000, 0.000, 0.000,0.0,0.0,0.0,0.0,0.0, 14:35:15.522
38465.136719, 26745.537109, 107402.718750, 64282.296875, 84435.320313, 68299.554688, 78384.812500, 97634.000000, 0.000, 0.000, 0.000,0.0,0.0,0.0,0.0,0.0, 14:35:15.523
38430.785156, 26713.820313, 107433.210938, 64076.437500, 84427.835938, 68358.648438, 78394.359375, 97656.398438, 0.000, 0.000, 0.000,0.0,0.0,0.0,0.0,0.0, 14:35:15.523
38343.097656, 26618.042969, 107450.015625, 64613.503906, 84354.046875, 68625.085938, 78413.156250, 97614.781250, 0.000, 0.000, 0.000,0.0,0.0,0.0,0.0,0.0, 14:35:15.523
38354.765625, 26628.548828, 107418.882813, 64893.750000, 84344.507813, 68599.914063, 78400.281250, 97584.359375, 0.000, 0.000, 0.000,0.0,0.0,0.0,0.0,0.0, 14:35:15.523
38448.464844, 26726.292969, 107395.859375, 64387.394531, 84418.984375, 68323.804688, 78378.890625, 97622.406250, 0.286, 0.208, 0.926,0.0,0.0,0.0,0.0,0.0, 14:35:15.524
38452.644531, 26724.259766, 107423.976563, 64034.281250, 84439.414063, 68309.476563, 78388.664063, 97659.015625, 0.000, 0.000, 0.000,0.0,0.0,0.0,0.0,0.0, 14:35:15.525
38355.925781, 26622.759766, 107449.281250, 64501.433594, 84365.289063, 68583.132813, 78409.070313, 97619.562500, 0.000, 0.000, 0.000,0.0,0.0,0.0,0.0,0.0, 14:35:15.525
38337.687500, 26609.572266, 107420.601563, 64913.687500, 84337.867188, 68631.656250, 78407.343750, 97581.164063, 0.000, 0.000, 0.000,0.0,0.0,0.0,0.0,0.0, 14:35:15.526
38426.425781, 26711.205078, 107391.164063, 64512.050781, 84407.875000, 68366.226563, 78389.195313, 97610.937500, 0.000, 0.000, 0.000,0.0,0.0,0.0,0.0,0.0, 14:35:15.526
38452.734375, 26738.162109, 107415.750000, 64044.207031, 84444.890625, 68277.023438, 78386.757813, 97653.960938, 0.000, 0.000, 0.000,0.0,0.0,0.0,0.0,0.0, 14:35:15.526
38365.003906, 26638.562500, 107448.453125, 64390.722656, 84378.304688, 68533.929688, 78404.796875, 97629.062500, 0.000, 0.000, 0.000,0.0,0.0,0.0,0.0,0.0, 14:35:15.527
38337.128906, 26605.816406, 107432.132813, 64898.132813, 84336.437500, 68653.359375, 78409.265625, 97585.921875, 0.000, 0.000, 0.000,0.0,0.0,0.0,0.0,0.0, 14:35:15.527
38421.058594, 26697.146484, 107396.843750, 64612.386719, 84405.148438, 68418.171875, 78398.648438, 97608.320313, 0.000, 0.000, 0.000,0.0,0.0,0.0,0.0,0.0, 14:35:15.527
38462.367188, 26740.375000, 107409.359375, 64059.808594, 84451.656250, 68257.867188, 78385.242188, 97648.304688, 0.000, 0.000, 0.000,0.0,0.0,0.0,0.0,0.0, 14:35:15.528
38382.480469, 26650.564453, 107438.554688, 64274.359375, 84390.390625, 68478.609375, 78396.843750, 97630.828125, 0.284, 0.204, 0.926,0.0,0.0,0.0,0.0,0.0, 14:35:15.528
38331.742188, 26605.101563, 107427.132813, 64819.609375, 84338.445313, 68660.109375, 78411.054688, 97594.734375, 0.000, 0.000, 0.000,0.0,0.0,0.0,0.0,0.0, 14:35:15.529
38401.300781, 26679.623047, 107395.320313, 64680.714844, 84383.820313, 68472.242188, 78391.679688, 97602.843750, 0.000, 0.000, 0.000,0.0,0.0,0.0,0.0,0.0, 14:35:15.529
38469.050781, 26749.494141, 107403.679688, 64083.523438, 84447.390625, 68253.664063, 78376.210938, 97645.406250, 0.000, 0.000, 0.000,0.0,0.0,0.0,0.0,0.0, 14:35:15.529
38400.898438, 26680.962891, 107439.710938, 64161.933594, 84399.937500, 68427.851563, 78390.000000, 97637.937500, 0.000, 0.000, 0.000,0.0,0.0,0.0,0.0,0.0, 14:35:15.529
38323.988281, 26604.654297, 107435.242188, 64763.707031, 84326.601563, 68655.835938, 78398.671875, 97589.281250, 0.000, 0.000, 0.000,0.0,0.0,0.0,0.0,0.0, 14:35:15.530
38368.625000, 26658.812500, 107395.007813, 64782.101563, 84355.640625, 68523.179688, 78383.968750, 97585.140625, 0.000, 0.000, 0.000,0.0,0.0,0.0,0.0,0.0, 14:35:15.530
38449.917969, 26740.306641, 107386.625000, 64188.261719, 84433.601563, 68269.375000, 78375.453125, 97634.585938, 0.000, 0.000, 0.000,0.0,0.0,0.0,0.0,0.0, 14:35:15.531
38417.015625, 26692.318359, 107421.875000, 64097.871094, 84418.398438, 68384.710938, 78393.820313, 97652.351563, 0.000, 0.000, 0.000,0.0,0.0,0.0,0.0,0.0, 14:35:15.531
38323.316406, 26597.123047, 107429.226563, 64682.144531, 84333.843750, 68639.968750, 78395.703125, 97596.992188, 0.274, 0.206, 0.926,0.0,0.0,0.0,0.0,0.0, 14:35:15.532
38355.234375, 26637.958984, 107392.218750, 64844.710938, 84353.289063, 68567.773438, 78393.015625, 97585.390625, 0.000, 0.000, 0.000,0.0,0.0,0.0,0.0,0.0, 14:35:15.535
38462.566406, 26740.597656, 107376.679688, 64264.078125, 84442.609375, 68291.101563, 78384.703125, 97632.703125, 0.000, 0.000, 0.000,0.0,0.0,0.0,0.0,0.0, 14:35:15.535
38449.000000, 26722.269531, 107413.945313, 64005.894531, 84448.109375, 68332.234375, 78399.679688, 97659.843750, 0.000, 0.000, 0.000,0.0,0.0,0.0,0.0,0.0, 14:35:15.536
38343.164063, 26609.683594, 107435.351563, 64536.906250, 84357.023438, 68605.054688, 78412.062500, 97612.789063, 0.000, 0.000, 0.000,0.0,0.0,0.0,0.0,0.0, 14:35:15.536
38345.445313, 26627.810547, 107400.398438, 64852.109375, 84341.218750, 68599.085938, 78401.492188, 97581.367188, 0.000, 0.000, 0.000,0.0,0.0,0.0,0.0,0.0, 14:35:15.536
38440.238281, 26734.472656, 107374.695313, 64353.484375, 84423.851563, 68320.476563, 78387.898438, 97621.351563, 0.000, 0.000, 0.000,0.0,0.0,0.0,0.0,0.0, 14:35:15.537
38439.031250, 26730.919922, 107405.468750, 63978.156250, 84441.289063, 68290.429688, 78394.156250, 97655.796875, 0.000, 0.000, 0.000,0.0,0.0,0.0,0.0,0.0, 14:35:15.537
38350.316406, 26633.107422, 107429.117188, 64419.023438, 84362.117188, 68559.750000, 78407.281250, 97619.515625, 0.000, 0.000, 0.000,0.0,0.0,0.0,0.0,0.0, 14:35:15.537
38334.648438, 26617.238281, 107412.062500, 64847.839844, 84333.890625, 68634.273438, 78408.039063, 97585.164063, 0.000, 0.000, 0.000,0.0,0.0,0.0,0.0,0.0, 14:35:15.537
38436.503906, 26723.900391, 107386.132813, 64463.679688, 84410.507813, 68378.031250, 78395.390625, 97620.593750, 0.272, 0.210, 0.926,0.0,0.0,0.0,0.0,0.0, 14:35:15.537
38472.828125, 26759.820313, 107411.507813, 63965.238281, 84454.367188, 68269.218750, 78397.265625, 97665.296875, 0.000, 0.000, 0.000,0.0,0.0,0.0,0.0,0.0, 14:35:15.538
38387.914063, 26669.474609, 107445.367188, 64288.753906, 84389.054688, 68518.867188, 78417.562500, 97639.367188, 0.000, 0.000, 0.000,0.0,0.0,0.0,0.0,0.0, 14:35:15.538
38355.277344, 26632.750000, 107429.320313, 64806.511719, 84341.039063, 68654.093750, 78414.859375, 97594.906250, 0.000, 0.000, 0.000,0.0,0.0,0.0,0.0,0.0, 14:35:15.538
38445.914063, 26725.734375, 107399.343750, 64566.542969, 84396.671875, 68431.632813, 78395.210938, 97609.015625, 0.000, 0.000, 0.000,0.0,0.0,0.0,0.0,0.0, 14:35:15.539
38514.421875, 26791.939453, 107407.351563, 63999.882813, 84453.539063, 68253.421875, 78388.390625, 97654.570313, 0.000, 0.000, 0.000,0.0,0.0,0.0,0.0,0.0, 14:35:15.539
38452.242188, 26718.179688, 107443.312500, 64170.625000, 84401.953125, 68463.703125, 78406.875000, 97646.164063, 0.000, 0.000, 0.000,0.0,0.0,0.0,0.0,0.0, 14:35:15.539
38401.523438, 26666.904297, 107438.882813, 64757.718750, 84336.390625, 68658.210938, 78414.742188, 97595.578125, 0.000, 0.000, 0.000,0.0,0.0,0.0,0.0,0.0, 14:35:15.539
38485.835938, 26753.248047, 107405.914063, 64663.460938, 84379.445313, 68485.515625, 78397.781250, 97602.375000, 0.000, 0.000, 0.000,0.0,0.0,0.0,0.0,0.0, 14:35:15.540
38576.917969, 26845.583984, 107419.085938, 64065.015625, 84453.804688, 68260.484375, 78387.367188, 97655.531250, 0.272, 0.212, 0.930,0.0,0.0,0.0,0.0,0.0, 14:35:15.540
38528.839844, 26797.035156, 107455.429688, 64082.089844, 84424.906250, 68420.046875, 78407.953125, 97660.804688, 0.000, 0.000, 0.000,0.0,0.0,0.0,0.0,0.0, 14:35:15.540
38466.500000, 26729.376953, 107459.718750, 64675.308594, 84352.531250, 68658.726563, 78423.351563, 97610.445313, 0.000, 0.000, 0.000,0.0,0.0,0.0,0.0,0.0, 14:35:15.541
38524.191406, 26788.050781, 107430.015625, 64736.839844, 84379.773438, 68547.187500, 78415.859375, 97604.882813, 0.000, 0.000, 0.000,0.0,0.0,0.0,0.0,0.0, 14:35:15.541
38614.515625, 26893.238281, 107420.132813, 64134.437500, 84458.742188, 68284.039063, 78404.531250, 97655.726563, 0.000, 0.000, 0.000,0.0,0.0,0.0,0.0,0.0, 14:35:15.542
38586.417969, 26860.470703, 107457.726563, 63994.761719, 84443.789063, 68381.453125, 78416.554688, 97671.578125, 0.000, 0.000, 0.000,0.0,0.0,0.0,0.0,0.0, 14:35:15.542
38513.777344, 26779.847656, 107472.414063, 64558.273438, 84363.726563, 68645.242188, 78429.382813, 97626.226563, 0.000, 0.000, 0.000,0.0,0.0,0.0,0.0,0.0, 14:35:15.542
38533.085938, 26812.234375, 107445.968750, 64759.640625, 84370.210938, 68595.554688, 78422.453125, 97609.171875, 0.000, 0.000, 0.000,0.0,0.0,0.0,0.0,0.0, 14:35:15.542
38623.121094, 26907.408203, 107429.296875, 64224.496094, 84449.492188, 68325.031250, 78408.304688, 97652.687500, 0.000, 0.000, 0.000,0.0,0.0,0.0,0.0,0.0, 14:35:15.543
38596.925781, 26882.642578, 107450.351563, 63925.359375, 84452.734375, 68342.289063, 78414.031250, 97681.992188, 0.000, 0.000, 0.000,0.0,0.0,0.0,0.0,0.0, 14:35:15.543
38488.718750, 26771.308594, 107469.664063, 64425.347656, 84372.359375, 68613.664063, 78428.312500, 97640.796875, 0.274, 0.212, 0.930,0.0,0.0,0.0,0.0,0.0, 14:35:15.543
38479.777344, 26758.189453, 107441.031250, 64785.097656, 84351.929688, 68629.820313, 78423.929688, 97603.070313, 0.000, 0.000, 0.000,0.0,0.0,0.0,0.0,0.0, 14:35:15.544
38563.261719, 26853.921875, 107405.250000, 64319.019531, 84423.539063, 68353.953125, 78403.906250, 97635.453125, 0.000, 0.000, 0.000,0.0,0.0,0.0,0.0,0.0, 14:35:15.544
38573.320313, 26860.447266, 107428.757813, 63886.757813, 84457.445313, 68299.796875, 78410.523438, 97678.726563, 0.000, 0.000, 0.000,0.0,0.0,0.0,0.0,0.0, 14:35:15.544
38472.335938, 26750.923828, 107454.710938, 64283.503906, 84387.710938, 68564.554688, 78428.515625, 97646.992188, 0.000, 0.000, 0.000,0.0,0.0,0.0,0.0,0.0, 14:35:15.544
38437.601563, 26719.654297, 107430.281250, 64734.761719, 84349.937500, 68652.398438, 78428.000000, 97607.046875, 0.000, 0.000, 0.000,0.0,0.0,0.0,0.0,0.0, 14:35:15.545
38508.925781, 26800.343750, 107403.835938, 64394.390625, 84415.851563, 68405.210938, 78411.664063, 97629.937500, 0.000, 0.000, 0.000,0.0,0.0,0.0,0.0,0.0, 14:35:15.545
38545.292969, 26826.183594, 107423.507813, 63876.722656, 84460.468750, 68271.882813, 78406.070313, 97669.968750, 0.000, 0.000, 0.000,0.0,0.0,0.0,0.0,0.0, 14:35:15.545
38454.207031, 26738.138672, 107448.742188, 64146.085938, 84394.640625, 68505.500000, 78419.171875, 97646.656250, 0.000, 0.000, 0.000,0.0,0.0,0.0,0.0,0.0, 14:35:15.546
38396.472656, 26689.144531, 107437.296875, 64701.011719, 84335.210938, 68659.101563, 78417.718750, 97595.671875, 0.000, 0.000, 0.000,0.0,0.0,0.0,0.0,0.0, 14:35:15.546
38475.753906, 26772.494141, 107401.562500, 64496.804688, 84398.265625, 68451.250000, 78407.703125, 97617.148438, 0.276, 0.196, 0.924,0.0,0.0,0.0,0.0,0.0, 14:35:15.547
38534.429688, 26831.859375, 107415.796875, 63906.921875, 84465.359375, 68264.843750, 78405.492188, 97673.875000, 0.000, 0.000, 0.000,0.0,0.0,0.0,0.0,0.0, 14:35:15.547
38456.218750, 26751.326172, 107455.093750, 64051.246094, 84418.085938, 68469.156250, 78423.195313, 97667.664063, 0.000, 0.000, 0.000,0.0,0.0,0.0,0.0,0.0, 14:35:15.548
38390.148438, 26681.076172, 107451.046875, 64631.339844, 84357.335938, 68675.109375, 78431.085938, 97620.703125, 0.000, 0.000, 0.000,0.0,0.0,0.0,0.0,0.0, 14:35:15.548
38447.835938, 26739.882813, 107414.812500, 64567.304688, 84397.414063, 68513.500000, 78416.820313, 97622.828125, 0.000, 0.000, 0.000,0.0,0.0,0.0,0.0,0.0, 14:35:15.549
38509.996094, 26805.216797, 107410.320313, 63965.058594, 84459.507813, 68269.710938, 78398.539063, 97660.289063, 0.000, 0.000, 0.000,0.0,0.0,0.0,0.0,0.0, 14:35:15.549
38451.054688, 26742.341797, 107437.429688, 63940.671875, 84420.835938, 68405.273438, 78407.437500, 97661.382813, 0.000, 0.000, 0.000,0.0,0.0,0.0,0.0,0.0, 14:35:15.551
38368.914063, 26653.582031, 107445.234375, 64533.441406, 84344.460938, 68650.835938, 78416.484375, 97612.101563, 0.000, 0.000, 0.000,0.0,0.0,0.0,0.0,0.0, 14:35:15.551
38411.406250, 26697.525391, 107412.218750, 64638.023438, 84366.390625, 68550.273438, 78405.695313, 97602.664063, 0.000, 0.000, 0.000,0.0,0.0,0.0,0.0,0.0, 14:35:15.551
38505.574219, 26793.392578, 107397.046875, 64027.597656, 84453.132813, 68281.875000, 78394.648438, 97656.984375, 0.280, 0.194, 0.924,0.0,0.0,0.0,0.0,0.0, 14:35:15.552
38468.984375, 26754.388672, 107429.054688, 63838.101563, 84443.296875, 68353.468750, 78402.656250, 97669.453125, 0.000, 0.000, 0.000,0.0,0.0,0.0,0.0,0.0, 14:35:15.553
38375.058594, 26659.728516, 107449.570313, 64399.554688, 84359.257813, 68619.765625, 78414.031250, 97619.031250, 0.000, 0.000, 0.000,0.0,0.0,0.0,0.0,0.0, 14:35:15.553
38396.406250, 26683.488281, 107415.906250, 64639.566406, 84364.734375, 68584.335938, 78412.375000, 97600.273438, 0.000, 0.000, 0.000,0.0,0.0,0.0,0.0,0.0, 14:35:15.554
38487.734375, 26782.351563, 107400.820313, 64109.851563, 84446.500000, 68311.171875, 78399.078125, 97641.242188, 0.000, 0.000, 0.000,0.0,0.0,0.0,0.0,0.0, 14:35:15.554
38484.851563, 26779.646484, 107430.726563, 63785.082031, 84456.085938, 68312.296875, 78404.039063, 97672.250000, 0.000, 0.000, 0.000,0.0,0.0,0.0,0.0,0.0, 14:35:15.554
38388.136719, 26672.513672, 107449.656250, 64266.046875, 84372.781250, 68584.000000, 78413.625000, 97628.257813, 0.000, 0.000, 0.000,0.0,0.0,0.0,0.0,0.0, 14:35:15.555
38381.027344, 26666.703125, 107423.398438, 64648.933594, 84349.312500, 68622.804688, 78409.695313, 97596.187500, 0.000, 0.000, 0.000,0.0,0.0,0.0,0.0,0.0, 14:35:15.555
38480.562500, 26770.884766, 107398.656250, 64206.679688, 84426.914063, 68357.914063, 78393.015625, 97631.367188, 0.000, 0.000, 0.000,0.0,0.0,0.0,0.0,0.0, 14:35:15.556
38500.632813, 26791.828125, 107430.593750, 63748.894531, 84465.250000, 68285.335938, 78400.906250, 97674.882813, 0.000, 0.000, 0.000,0.0,0.0,0.0,0.0,0.0, 14:35:15.557
38395.667969, 26683.488281, 107464.296875, 64141.703125, 84391.000000, 68545.351563, 78419.437500, 97640.890625, 0.282, 0.198, 0.922,0.0,0.0,0.0,0.0,0.0, 14:35:15.558
38369.605469, 26650.677734, 107443.515625, 64640.394531, 84346.695313, 68650.835938, 78418.585938, 97596.632813, 0.000, 0.000, 0.000,0.0,0.0,0.0,0.0,0.0, 14:35:15.558
38463.417969, 26746.900391, 107406.875000, 64324.832031, 84413.390625, 68407.890625, 78401.531250, 97623.679688, 0.000, 0.000, 0.000,0.0,0.0,0.0,0.0,0.0, 14:35:15.559
38506.378906, 26791.134766, 107424.335938, 63777.660156, 84462.906250, 68265.109375, 78396.015625, 97671.953125, 0.000, 0.000, 0.000,0.0,0.0,0.0,0.0,0.0, 14:35:15.559
38424.390625, 26704.052734, 107450.062500, 64010.722656, 84396.453125, 68493.585938, 78407.101563, 97654.078125, 0.000, 0.000, 0.000,0.0,0.0,0.0,0.0,0.0, 14:35:15.559
38360.664063, 26639.121094, 107441.453125, 64574.968750, 84336.281250, 68666.593750, 78412.375000, 97604.679688, 0.000, 0.000, 0.000,0.0,0.0,0.0,0.0,0.0, 14:35:15.560
38431.722656, 26719.945313, 107402.453125, 64410.101563, 84391.156250, 68466.117188, 78401.804688, 97615.921875, 0.000, 0.000, 0.000,0.0,0.0,0.0,0.0,0.0, 14:35:15.560
38503.695313, 26794.353516, 107409.273438, 63802.582031, 84460.218750, 68257.351563, 78394.960938, 97667.375000, 0.000, 0.000, 0.000,0.0,0.0,0.0,0.0,0.0, 14:35:15.560
38432.011719, 26714.267578, 107444.968750, 63903.566406, 84414.492188, 68442.132813, 78412.304688, 97663.687500, 0.000, 0.000, 0.000,0.0,0.0,0.0,0.0,0.0, 14:35:15.561
38361.023438, 26644.708984, 107441.078125, 64490.457031, 84351.140625, 68663.351563, 78428.445313, 97621.953125, 0.286, 0.196, 0.920,0.0,0.0,0.0,0.0,0.0, 14:35:15.561
38411.382813, 26696.498047, 107400.062500, 64474.117188, 84377.187500, 68514.976563, 78406.695313, 97617.085938, 0.000, 0.000, 0.000,0.0,0.0,0.0,0.0,0.0, 14:35:15.561
38492.296875, 26780.875000, 107392.015625, 63857.949219, 84449.562500, 68263.726563, 78387.835938, 97664.203125, 0.000, 0.000, 0.000,0.0,0.0,0.0,0.0,0.0, 14:35:15.562
38440.527344, 26727.142578, 107426.281250, 63788.992188, 84426.804688, 68388.937500, 78404.687500, 97672.625000, 0.000, 0.000, 0.000,0.0,0.0,0.0,0.0,0.0, 14:35:15.562
38352.707031, 26635.119141, 107437.117188, 64385.136719, 84346.898438, 68647.570313, 78411.953125, 97620.796875, 0.000, 0.000, 0.000,0.0,0.0,0.0,0.0,0.0, 14:35:15.562
38389.097656, 26679.466797, 107401.468750, 64527.183594, 84363.234375, 68564.085938, 78402.070313, 97608.992188, 0.000, 0.000, 0.000,0.0,0.0,0.0,0.0,0.0, 14:35:15.562
38477.855469, 26777.880859, 107388.820313, 63944.718750, 84445.156250, 68288.976563, 78385.531250, 97654.031250, 0.000, 0.000, 0.000,0.0,0.0,0.0,0.0,0.0, 14:35:15.563
38460.218750, 26755.037109, 107424.421875, 63729.894531, 84438.648438, 68344.054688, 78393.265625, 97672.000000, 0.000, 0.000, 0.000,0.0,0.0,0.0,0.0,0.0, 14:35:15.563
38373.003906, 26661.539063, 107439.039063, 64254.894531, 84362.609375, 68611.000000, 78404.820313, 97629.039063, 0.000, 0.000, 0.000,0.0,0.0,0.0,0.0,0.0, 14:35:15.563
38383.421875, 26668.691406, 107414.007813, 64538.648438, 84355.007813, 68597.367188, 78398.828125, 97600.187500, 0.000, 0.000, 0.000,0.0,0.0,0.0,0.0,0.0, 14:35:15.563
38479.152344, 26774.103516, 107395.476563, 64031.800781, 84429.820313, 68322.460938, 78379.429688, 97636.617188, 0.292, 0.194, 0.922,0.0,0.0,0.0,0.0,0.0, 14:35:15.564
38470.906250, 26766.816406, 107425.539063, 63677.882813, 84442.945313, 68302.460938, 78382.828125, 97667.773438, 0.000, 0.000, 0.000,0.0,0.0,0.0,0.0,0.0, 14:35:15.564
38384.203125, 26673.587891, 107448.273438, 64121.164063, 84368.867188, 68571.710938, 78399.992188, 97637.218750, 0.000, 0.000, 0.000,0.0,0.0,0.0,0.0,0.0, 14:35:15.565
38378.121094, 26661.808594, 107425.140625, 64520.027344, 84343.765625, 68630.250000, 78397.648438, 97602.914063, 0.000, 0.000, 0.000,0.0,0.0,0.0,0.0,0.0, 14:35:15.565
38475.867188, 26762.279297, 107404.460938, 64120.425781, 84421.578125, 68375.750000, 78386.312500, 97636.414063, 0.000, 0.000, 0.000,0.0,0.0,0.0,0.0,0.0, 14:35:15.565
38499.136719, 26787.201172, 107429.812500, 63636.441406, 84458.992188, 68279.484375, 78387.476563, 97677.992188, 0.000, 0.000, 0.000,0.0,0.0,0.0,0.0,0.0, 14:35:15.566
38393.523438, 26677.208984, 107457.195313, 63985.621094, 84382.460938, 68528.054688, 78399.921875, 97643.414063, 0.000, 0.000, 0.000,0.0,0.0,0.0,0.0,0.0, 14:35:15.567
38358.855469, 26641.310547, 107437.992188, 64506.125000, 84341.039063, 68652.062500, 78405.984375, 97600.296875, 0.000, 0.000, 0.000,0.0,0.0,0.0,0.0,0.0, 14:35:15.567
38449.089844, 26736.015625, 107399.992188, 64212.132813, 84415.492188, 68420.406250, 78396.351563, 97626.984375, 0.000, 0.000, 0.000,0.0,0.0,0.0,0.0,0.0, 14:35:15.567
38493.925781, 26782.640625, 107413.625000, 63642.320313, 84460.984375, 68252.789063, 78386.718750, 97667.929688, 0.292, 0.204, 0.930,0.0,0.0,0.0,0.0,0.0, 14:35:15.568
38409.707031, 26684.941406, 107446.687500, 63855.871094, 84398.265625, 68470.406250, 78400.015625, 97649.828125, 0.000, 0.000, 0.000,0.0,0.0,0.0,0.0,0.0, 14:35:15.568
38353.667969, 26620.189453, 107444.851563, 64445.261719, 84342.359375, 68664.468750, 78412.796875, 97606.507813, 0.000, 0.000, 0.000,0.0,0.0,0.0,0.0,0.0, 14:35:15.569
38433.914063, 26719.810547, 107414.210938, 64318.750000, 84397.523438, 68482.992188, 78403.906250, 97621.890625, 0.000, 0.000, 0.000,0.0,0.0,0.0,0.0,0.0, 14:35:15.569
38508.054688, 26802.042969, 107412.625000, 63689.730469, 84462.453125, 68255.875000, 78387.875000, 97667.820313, 0.000, 0.000, 0.000,0.43474767,0.36436364,0.24431492,0.50487936,0.4488591, 14:35:16.002
38432.191406, 26718.291016, 107439.000000, 63730.050781, 84413.570313, 68419.023438, 78396.148438, 97658.679688, 0.000, 0.000, 0.000,0.43474767,0.36436364,0.24431492,0.50487936,0.4488591, 14:35:16.003
38356.308594, 26637.355469, 107433.007813, 64312.023438, 84343.101563, 68647.164063, 78405.601563, 97613.460938, 0.000, 0.000, 0.000,0.43474767,0.36436364,0.24431492,0.50487936,0.4488591, 14:35:16.003
38404.921875, 26688.183594, 107401.398438, 64336.140625, 84378.164063, 68523.382813, 78400.617188, 97615.164063, 0.000, 0.000, 0.000,0.43474767,0.36436364,0.24431492,0.50487936,0.4488591, 14:35:16.003
38485.546875, 26774.460938, 107397.421875, 63729.894531, 84457.984375, 68262.828125, 78390.671875, 97660.601563, 0.000, 0.000, 0.000,0.43474767,0.36436364,0.24431492,0.50487936,0.4488591, 14:35:16.004
38437.042969, 26724.101563, 107430.882813, 63622.269531, 84430.898438, 68368.531250, 78394.562500, 97664.734375, 0.000, 0.000, 0.000,0.43474767,0.36436364,0.24431492,0.50487936,0.4488591, 14:35:16.004
38337.421875, 26620.435547, 107439.289063, 64214.035156, 84343.882813, 68626.359375, 78397.757813, 97610.648438, 0.290, 0.208, 0.924,0.43474767,0.36436364,0.24431492,0.50487936,0.4488591, 14:35:16.004
38365.250000, 26651.884766, 107401.515625, 64393.609375, 84361.757813, 68559.031250, 78394.671875, 97599.132813, 0.000, 0.000, 0.000,0.43474767,0.36436364,0.24431492,0.50487936,0.4488591, 14:35:16.004
38459.257813, 26746.878906, 107387.609375, 63822.988281, 84450.406250, 68288.195313, 78388.992188, 97649.023438, 0.000, 0.000, 0.000,0.43474767,0.36436364,0.24431492,0.50487936,0.4488591, 14:35:16.005
38436.593750, 26722.046875, 107421.789063, 63577.277344, 84448.281250, 68323.046875, 78399.054688, 97669.273438, 0.000, 0.000, 0.000,0.43474767,0.36436364,0.24431492,0.50487936,0.4488591, 14:35:16.005
38341.667969, 26627.296875, 107434.328125, 64091.011719, 84359.593750, 68593.234375, 78407.656250, 97627.343750, 0.000, 0.000, 0.000,0.43474767,0.36436364,0.24431492,0.50487936,0.4488591, 14:35:16.005
38341.914063, 26635.388672, 107405.492188, 64411.464844, 84346.359375, 68597.632813, 78399.210938, 97597.640625, 0.000, 0.000, 0.000,0.43474767,0.36436364,0.24431492,0.50487936,0.4488591, 14:35:16.005
38446.945313, 26734.562500, 107385.445313, 63921.449219, 84426.156250, 68323.398438, 78384.968750, 97637.851563, 0.000, 0.000, 0.000,0.43474767,0.36436364,0.24431492,0.50487936,0.4488591, 14:35:16.005
38456.109375, 26735.412109, 107418.609375, 63526.539063, 84449.875000, 68283.257813, 78390.601563, 97674.703125, 0.000, 0.000, 0.000,0.43474767,0.36436364,0.24431492,0.50487936,0.4488591, 14:35:16.006
38354.519531, 26634.404297, 107438.710938, 63953.500000, 84368.156250, 68550.359375, 78403.703125, 97637.515625, 0.000, 0.000, 0.000,0.43474767,0.36436364,0.24431492,0.50487936,0.4488591, 14:35:16.006
38341.464844, 26624.458984, 107415.234375, 64384.375000, 84342.226563, 68630.937500, 78407.390625, 97604.703125, 0.000, 0.000, 0.000,0.43474767,0.36436364,0.24431492,0.50487936,0.4488591, 14:35:16.006
38431.273438, 26716.792969, 107389.265625, 64015.863281, 84417.750000, 68382.609375, 78394.921875, 97633.757813, 0.284, 0.210, 0.926,0.43474767,0.36436364,0.24431492,0.50487936,0.4488591, 14:35:16.006
38465.316406, 26750.074219, 107408.820313, 63511.183594, 84461.828125, 68264.929688, 78394.117188, 97675.398438, 0.000, 0.000, 0.000,0.43474767,0.36436364,0.24431492,0.50487936,0.4488591, 14:35:16.007
38381.007813, 26660.289063, 107440.945313, 63811.390625, 84397.257813, 68509.414063, 78414.320313, 97655.750000, 0.000, 0.000, 0.000,0.43474767,0.36436364,0.24431492,0.50487936,0.4488591, 14:35:16.007
38333.015625, 26609.371094, 107430.015625, 64354.492188, 84343.835938, 68653.468750, 78416.328125, 97609.304688, 0.000, 0.000, 0.000,0.43474767,0.36436364,0.24431492,0.50487936,0.4488591, 14:35:16.008
38408.253906, 26690.529297, 107396.710938, 64135.890625, 84397.593750, 68436.570313, 78395.632813, 97623.718750, 0.000, 0.000, 0.000,0.43474767,0.36436364,0.24431492,0.50487936,0.4488591, 14:35:16.008
38463.683594, 26757.003906, 107406.523438, 63561.699219, 84455.617188, 68251.742188, 78387.562500, 97670.953125, 0.000, 0.000, 0.000,0.43474767,0.36436364,0.24431492,0.50487936,0.4488591, 14:35:16.008
38388.851563, 26680.158203, 107437.726563, 63720.843750, 84407.601563, 68458.742188, 78404.328125, 97659.062500, 0.000, 0.000, 0.000,0.43474767,0.36436364,0.24431492,0.50487936,0.4488591, 14:35:16.009
38323.429688, 26608.164063, 107431.781250, 64306.011719, 84345.468750, 68658.726563, 78413.226563, 97608.703125, 0.000, 0.000, 0.000,0.43474767,0.36436364,0.24431492,0.50487936,0.4488591, 14:35:16.009
38390.839844, 26679.041016, 107395.164063, 64223.132813, 84389.968750, 68488.671875, 78405.359375, 97617.351563, 0.000, 0.000, 0.000,0.43474767,0.36436364,0.24431492,0.50487936,0.4488591, 14:35:16.009
38468.265625, 26760.535156, 107397.312500, 63601.195313, 84462.570313, 68256.570313, 78395.523438, 97670.679688, 0.286, 0.210, 0.930,0.43474767,0.36436364,0.24431492,0.50487936,0.4488591, 14:35:16.010
38401.390625, 26688.919922, 107433.296875, 63621.734375, 84417.218750, 68409.765625, 78401.398438, 97664.289063, 0.000, 0.000, 0.000,0.43474767,0.36436364,0.24431492,0.50487936,0.4488591, 14:35:16.010
38315.402344, 26602.888672, 107432.875000, 64221.968750, 84341.039063, 68651.101563, 78407.703125, 97613.460938, 0.000, 0.000, 0.000,0.43474767,0.36436364,0.24431492,0.50487936,0.4488591, 14:35:16.010
38359.996094, 26648.062500, 107398.273438, 64312.136719, 84366.140625, 68543.570313, 78396.703125, 97607.382813, 0.000, 0.000, 0.000,0.43474767,0.36436364,0.24431492,0.50487936,0.4488591, 14:35:16.011
38458.097656, 26744.888672, 107392.726563, 63716.996094, 84450.007813, 68280.710938, 78385.601563, 97659.015625, 0.000, 0.000, 0.000,0.43474767,0.36436364,0.24431492,0.50487936,0.4488591, 14:35:16.011
38415.988281, 26701.482422, 107427.289063, 63572.515625, 84438.984375, 68368.101563, 78400.078125, 97675.648438, 0.000, 0.000, 0.000,0.43474767,0.36436364,0.24431492,0.50487936,0.4488591, 14:35:16.011
38313.371094, 26601.570313, 107440.406250, 64149.437500, 84356.015625, 68631.523438, 78411.835938, 97627.523438, 0.000, 0.000, 0.000,0.43474767,0.36436364,0.24431492,0.50487936,0.4488591, 14:35:16.012
38347.390625, 26632.080078, 107409.781250, 64386.410156, 84365.898438, 68594.234375, 78408.171875, 97611.476563, 0.000, 0.000, 0.000,0.43474767,0.36436364,0.24431492,0.50487936,0.4488591, 14:35:16.012
38443.746094, 26729.332031, 107395.078125, 63854.664063, 84444.976563, 68323.046875, 78395.164063, 97654.570313, 0.000, 0.000, 0.000,0.43474767,0.36436364,0.24431492,0.50487936,0.4488591, 14:35:16.013
38429.175781, 26717.955078, 107430.726563, 63576.851563, 84451.976563, 68335.875000, 78405.710938, 97680.406250, 0.000, 0.000, 0.000,0.43474767,0.36436364,0.24431492,0.50487936,0.4488591, 14:35:16.014
38335.742188, 26622.982422, 107450.195313, 64079.273438, 84375.148438, 68607.265625, 78421.695313, 97640.195313, 0.290, 0.202, 0.926,0.43474767,0.36436364,0.24431492,0.50487936,0.4488591, 14:35:16.014
38339.410156, 26619.517578, 107426.054688, 64456.929688, 84356.148438, 68637.804688, 78415.171875, 97609.414063, 0.000, 0.000, 0.000,0.43474767,0.36436364,0.24431492,0.50487936,0.4488591, 14:35:16.015
38439.187500, 26719.072266, 107402.453125, 64034.214844, 84430.671875, 68371.101563, 78397.375000, 97645.023438, 0.000, 0.000, 0.000,0.43474767,0.36436364,0.24431492,0.50487936,0.4488591, 14:35:16.015
38459.617188, 26739.525391, 107427.757813, 63600.476563, 84463.640625, 68308.023438, 78401.156250, 97688.742188, 0.000, 0.000, 0.000,0.43474767,0.36436364,0.24431492,0.50487936,0.4488591, 14:35:16.015
38365.406250, 26640.640625, 107455.046875, 63993.421875, 84395.242188, 68569.875000, 78420.578125, 97657.828125, 0.000, 0.000, 0.000,0.43474767,0.36436364,0.24431492,0.50487936,0.4488591, 14:35:16.016
38323.316406, 26601.369141, 107439.671875, 64501.945313, 84346.203125, 68667.195313, 78416.375000, 97609.414063, 0.000, 0.000, 0.000,0.43474767,0.36436364,0.24431492,0.50487936,0.4488591, 14:35:16.016
38408.031250, 26697.615234, 107404.132813, 64201.718750, 84409.976563, 68419.984375, 78397.421875, 97634.296875, 0.000, 0.000, 0.000,0.34972966,0.289047,0.18514295,0.37243217,0.30358678, 14:35:16.016
38454.027344, 26742.386719, 107421.203125, 63676.003906, 84460.625000, 68282.835938, 78398.156250, 97680.671875, 0.000, 0.000, 0.000,0.34972966,0.289047,0.18514295,0.37243217,0.30358678, 14:35:16.016
38357.984375, 26639.076172, 107445.367188, 63977.707031, 84389.273438, 68515.046875, 78410.742188, 97648.710938, 0.000, 0.000, 0.000,0.34972966,0.289047,0.18514295,0.37243217,0.30358678, 14:35:16.017
38305.324219, 26587.310547, 107432.226563, 64553.085938, 84334.625000, 68673.523438, 78414.093750, 97601.820313, 0.290, 0.200, 0.924,0.34972966,0.289047,0.18514295,0.37243217,0.30358678, 14:35:16.017
38383.398438, 26671.666016, 107398.320313, 64392.085938, 84387.351563, 68465.312500, 78395.257813, 97609.882813, 0.000, 0.000, 0.000,0.34972966,0.289047,0.18514295,0.37243217,0.30358678, 14:35:16.017
38453.558594, 26741.224609, 107402.164063, 63803.363281, 84455.210938, 68260.906250, 78387.500000, 97660.757813, 0.000, 0.000, 0.000,0.34972966,0.289047,0.18514295,0.37243217,0.30358678, 14:35:16.018
38377.855469, 26662.746094, 107437.007813, 63943.578125, 84399.851563, 68450.609375, 78401.156250, 97647.703125, 0.000, 0.000, 0.000,0.34972966,0.289047,0.18514295,0.37243217,0.30358678, 14:35:16.018
38312.832031, 26593.255859, 107437.101563, 64555.546875, 84336.546875, 68664.867188, 78414.320313, 97601.953125, 0.000, 0.000, 0.000,0.34972966,0.289047,0.18514295,0.37243217,0.30358678, 14:35:16.018
38375.441406, 26658.947266, 107402.226563, 64527.628906, 84382.640625, 68514.289063, 78408.734375, 97610.960938, 0.000, 0.000, 0.000,0.34972966,0.289047,0.18514295,0.37243217,0.30358678, 14:35:16.019
38451.792969, 26740.306641, 107399.500000, 63933.074219, 84454.546875, 68272.148438, 78395.992188, 97658.609375, 0.000, 0.000, 0.000,0.34972966,0.289047,0.18514295,0.37243217,0.30358678, 14:35:16.019
38392.382813, 26680.740234, 107427.484375, 63911.613281, 84418.445313, 68403.976563, 78408.507813, 97660.265625, 0.000, 0.000, 0.000,0.34972966,0.289047,0.18514295,0.37243217,0.30358678, 14:35:16.019
38304.765625, 26588.673828, 107432.203125, 64526.289063, 84339.078125, 68650.718750, 78417.742188, 97605.906250, 0.000, 0.000, 0.000,0.34972966,0.289047,0.18514295,0.37243217,0.30358678, 14:35:16.019
38347.367188, 26634.962891, 107399.367188, 64663.347656, 84354.046875, 68559.148438, 78402.851563, 97596.898438, 0.000, 0.000, 0.000,0.34972966,0.289047,0.18514295,0.37243217,0.30358678, 14:35:16.020
38442.851563, 26737.580078, 107390.671875, 64088.863281, 84441.648438, 68290.945313, 78393.648438, 97647.773438, 0.298, 0.198, 0.924,0.34972966,0.289047,0.18514295,0.37243217,0.30358678, 14:35:16.020
38413.328125, 26707.226563, 107426.187500, 63903.949219, 84434.765625, 68358.539063, 78405.757813, 97666.640625, 0.000, 0.000, 0.000,0.34972966,0.289047,0.18514295,0.37243217,0.30358678, 14:35:16.020
38320.632813, 26608.632813, 107440.765625, 64463.703125, 84351.390625, 68624.593750, 78419.953125, 97622.734375, 0.000, 0.000, 0.000,0.34972966,0.289047,0.18514295,0.37243217,0.30358678, 14:35:16.021
38339.878906, 26628.570313, 107412.398438, 64738.093750, 84351.835938, 68602.734375, 78415.484375, 97600.812500, 0.000, 0.000, 0.000,0.34972966,0.289047,0.18514295,0.37243217,0.30358678, 14:35:16.021
38437.355469, 26727.677734, 107398.828125, 64245.257813, 84435.859375, 68332.343750, 78402.921875, 97639.296875, 0.000, 0.000, 0.000,0.34972966,0.289047,0.18514295,0.37243217,0.30358678, 14:35:16.021
38436.527344, 26720.927734, 107430.570313, 63931.574219, 84446.968750, 68325.054688, 78402.609375, 97668.468750, 0.000, 0.000, 0.000,0.34972966,0.289047,0.18514295,0.37243217,0.30358678, 14:35:16.022
38338.449219, 26622.066406, 107449.210938, 64404.894531, 84359.171875, 68590.437500, 78414.875000, 97630.828125, 0.000, 0.000, 0.000,0.34972966,0.289047,0.18514295,0.37243217,0.30358678, 14:35:16.022
38326.132813, 26610.041016, 107424.718750, 64819.742188, 84339.140625, 68639.476563, 78414.703125, 97594.734375, 0.000, 0.000, 0.000,0.34972966,0.289047,0.18514295,0.37243217,0.30358678, 14:35:16.022
38420.679688, 26707.718750, 107391.609375, 64414.886719, 84410.507813, 68373.085938, 78393.648438, 97624.414063, 0.000, 0.000, 0.000,0.34972966,0.289047,0.18514295,0.37243217,0.30358678, 14:35:16.023
38441.914063, 26727.968750, 107416.312500, 63974.980469, 84449.890625, 68292.492188, 78398.945313, 97666.460938, 0.302, 0.206, 0.928,0.34972966,0.289047,0.18514295,0.37243217,0.30358678, 14:35:16.023
38348.796875, 26634.628906, 107438.570313, 64337.484375, 84375.460938, 68546.562500, 78407.703125, 97635.296875, 0.000, 0.000, 0.000,0.34972966,0.289047,0.18514295,0.37243217,0.30358678, 14:35:16.023
38314.441406, 26599.066406, 107422.929688, 64855.507813, 84327.203125, 68663.257813, 78406.359375, 97590.062500, 0.000, 0.000, 0.000,0.34972966,0.289047,0.18514295,0.37243217,0.30358678, 14:35:16.023
38409.707031, 26698.845703, 107388.484375, 64560.441406, 84402.125000, 68427.359375, 78399.765625, 97619.226563, 0.000, 0.000, 0.000,0.34972966,0.289047,0.18514295,0.37243217,0.30358678, 14:35:16.024
38439.144531, 26735.277344, 107401.132813, 64015.906250, 84448.757813, 68272.195313, 78391.476563, 97663.304688, 0.000, 0.000, 0.000,0.34972966,0.289047,0.18514295,0.37243217,0.30358678, 14:35:16.024
38358.296875, 26648.441406, 107428.648438, 64249.171875, 84381.226563, 68494.679688, 78401.312500, 97641.445313, 0.000, 0.000, 0.000,0.34972966,0.289047,0.18514295,0.37243217,0.30358678, 14:35:16.024
38311.402344, 26592.136719, 107423.796875, 64835.167969, 84326.132813, 68675.242188, 78411.125000, 97596.539063, 0.000, 0.000, 0.000,0.34972966,0.289047,0.18514295,0.37243217,0.30358678, 14:35:16.025
38383.910156, 26667.507813, 107389.820313, 64697.992188, 84380.960938, 68482.750000, 78400.437500, 97610.648438, 0.000, 0.000, 0.000,0.34972966,0.289047,0.18514295,0.37243217,0.30358678, 14:35:16.025
38457.316406, 26744.666016, 107401.781250, 64113.742188, 84449.046875, 68274.226563, 78391.609375, 97660.937500, 0.000, 0.000, 0.000,0.34972966,0.289047,0.18514295,0.37243217,0.30358678, 14:35:16.025
38397.589844, 26681.923828, 107432.921875, 64178.003906, 84409.593750, 68452.703125, 78410.656250, 97662.679688, 0.000, 0.000, 0.000,0.34972966,0.289047,0.18514295,0.37243217,0.30358678, 14:35:16.026
38313.347656, 26595.802734, 107435.132813, 64790.218750, 84335.031250, 68679.218750, 78420.625000, 97609.726563, 0.304, 0.210, 0.926,0.34972966,0.289047,0.18514295,0.37243217,0.30358678, 14:35:16.026
38373.207031, 26659.886719, 107395.703125, 64803.492188, 84369.718750, 68539.210938, 78407.148438, 97608.546875, 0.000, 0.000, 0.000,0.34972966,0.289047,0.18514295,0.37243217,0.30358678, 14:35:16.026
38459.371094, 26747.257813, 107392.125000, 64183.925781, 84448.843750, 68286.523438, 78396.882813, 97661.046875, 0.000, 0.000, 0.000,0.34972966,0.289047,0.18514295,0.37243217,0.30358678, 14:35:16.026
38396.496094, 26679.689453, 107430.617188, 64130.816406, 84413.015625, 68405.320313, 78402.335938, 97660.710938, 0.000, 0.000, 0.000,0.34972966,0.289047,0.18514295,0.37243217,0.30358678, 14:35:16.027
38308.988281, 26586.863281, 107435.757813, 64730.089844, 84335.703125, 68654.140625, 78413.515625, 97610.265625, 0.000, 0.000, 0.000,0.34972966,0.289047,0.18514295,0.37243217,0.30358678, 14:35:16.027
38343.121094, 26624.144531, 107401.757813, 64905.730469, 84352.218750, 68576.937500, 78402.789063, 97592.164063, 0.000, 0.000, 0.000,0.34972966,0.289047,0.18514295,0.37243217,0.30358678, 14:35:16.028
38441.691406, 26731.210938, 107388.375000, 64331.468750, 84438.671875, 68302.390625, 78389.265625, 97639.617188, 0.000, 0.000, 0.000,0.34972966,0.289047,0.18514295,0.37243217,0.30358678, 14:35:16.028
38421.953125, 26704.968750, 107424.539063, 64101.246094, 84430.250000, 68351.812500, 78400.257813, 97662.835938, 0.000, 0.000, 0.000,0.34972966,0.289047,0.18514295,0.37243217,0.30358678, 14:35:16.028
38333.062500, 26609.304688, 107440.648438, 64633.507813, 84349.398438, 68623.140625, 78414.812500, 97619.164063, 0.000, 0.000, 0.000,0.34972966,0.289047,0.18514295,0.37243217,0.30358678, 14:35:16.028
38348.820313, 26629.218750, 107410.570313, 64929.582031, 84342.718750, 68615.406250, 78410.656250, 97594.328125, 0.000, 0.000, 0.000,0.34972966,0.289047,0.18514295,0.37243217,0.30358678, 14:35:16.029
38443.121094, 26732.775391, 107391.476563, 64434.644531, 84422.359375, 68342.734375, 78396.726563, 97631.789063, 0.304, 0.208, 0.922,0.34972966,0.289047,0.18514295,0.37243217,0.30358678, 14:35:16.029
38435.320313, 26731.322266, 107418.187500, 64070.421875, 84433.648438, 68312.429688, 78399.101563, 97662.296875, 0.000, 0.000, 0.000,0.34972966,0.289047,0.18514295,0.37243217,0.30358678, 14:35:16.030
38336.906250, 26628.593750, 107439.625000, 64511.960938, 84357.359375, 68578.148438, 78416.890625, 97630.000000, 0.000, 0.000, 0.000,0.34972966,0.289047,0.18514295,0.37243217,0.30358678, 14:35:16.030
38328.972656, 26613.304688, 107420.710938, 64941.492188, 84327.695313, 68647.101563, 78408.398438, 97592.250000, 0.000, 0.000, 0.000,0.34972966,0.289047,0.18514295,0.37243217,0.30358678, 14:35:16.030
38427.812500, 26714.714844, 107396.085938, 64554.250000, 84408.500000, 68394.125000, 78397.648438, 97629.062500, 0.000, 0.000, 0.000,0.34972966,0.289047,0.18514295,0.37243217,0.30358678, 14:35:16.030
38456.890625, 26744.173828, 107424.070313, 64062.355469, 84450.968750, 68292.984375, 78401.445313, 97674.078125, 0.000, 0.000, 0.000,0.34972966,0.289047,0.18514295,0.37243217,0.30358678, 14:35:16.031
38361.828125, 26646.720703, 107457.054688, 64400.691406, 84380.671875, 68545.062500, 78418.476563, 97646.765625, 0.000, 0.000, 0.000,0.34972966,0.289047,0.18514295,0.37243217,0.30358678, 14:35:16.031
38318.824219, 26606.263672, 107438.195313, 64943.886719, 84326.000000, 68674.437500, 78417.875000, 97595.515625, 0.000, 0.000, 0.000,0.34972966,0.289047,0.18514295,0.37243217,0.30358678, 14:35:16.032
38408.097656, 26695.828125, 107401.695313, 64679.597656, 84390.546875, 68444.101563, 78403.968750, 97619.515625, 0.000, 0.000, 0.000,0.34972966,0.289047,0.18514295,0.37243217,0.30358678, 14:35:16.032
38458.609375, 26749.181641, 107416.671875, 64106.878906, 84449.828125, 68271.281250, 78400.882813, 97668.382813, 0.294, 0.206, 0.922,0.34972966,0.289047,0.18514295,0.37243217,0.30358678, 14:35:16.032
38378.996094, 26667.285156, 107452.546875, 64306.906250, 84396.945313, 68486.187500, 78415.039063, 97651.460938, 0.000, 0.000, 0.000,0.34972966,0.289047,0.18514295,0.37243217,0.30358678, 14:35:16.033
38325.039063, 26612.634766, 107450.132813, 64885.480469, 84341.195313, 68681.054688, 78426.367188, 97608.656250, 0.000, 0.000, 0.000,0.34972966,0.289047,0.18514295,0.37243217,0.30358678, 14:35:16.033
38395.890625, 26685.121094, 107418.882813, 64782.214844, 84384.289063, 68504.585938, 78417.203125, 97615.250000, 0.000, 0.000, 0.000,0.34972966,0.289047,0.18514295,0.37243217,0.30358678, 14:35:16.033
38474.726563, 26763.843750, 107420.554688, 64160.390625, 84458.164063, 68278.250000, 78405.242188, 97667.640625, 0.000, 0.000, 0.000,0.34972966,0.289047,0.18514295,0.37243217,0.30358678, 14:35:16.034
38402.777344, 26693.212891, 107455.937500, 64193.292969, 84415.804688, 68440.679688, 78415.039063, 97665.406250, 0.000, 0.000, 0.000,0.34972966,0.289047,0.18514295,0.37243217,0.30358678, 14:35:16.034
38319.136719, 26610.623047, 107458.914063, 64803.941406, 84341.890625, 68675.554688, 78423.195313, 97613.710938, 0.000, 0.000, 0.000,0.34972966,0.289047,0.18514295,0.37243217,0.30358678, 14:35:16.034
38376.804688, 26659.908203, 107425.117188, 64865.585938, 84375.750000, 68555.304688, 78413.468750, 97607.562500, 0.000, 0.000, 0.000,0.34972966,0.289047,0.18514295,0.37243217,0.30358678, 14:35:16.034
38472.984375, 26751.617188, 107415.148438, 64263.074219, 84453.625000, 68293.539063, 78397.375000, 97653.453125, 0.000, 0.000, 0.000,0.34972966,0.289047,0.18514295,0.37243217,0.30358678, 14:35:16.035
38431.968750, 26712.613281, 107446.664063, 64125.097656, 84430.335938, 68391.820313, 78414.742188, 97670.187500, 0.000, 0.000, 0.000,0.34972966,0.289047,0.18514295,0.37243217,0.30358678, 14:35:16.035
38332.324219, 26609.863281, 107456.250000, 64700.945313, 84343.609375, 68649.890625, 78423.148438, 97618.492188, 0.298, 0.210, 0.922,0.34972966,0.289047,0.18514295,0.37243217,0.30358678, 14:35:16.035
38356.242188, 26638.607422, 107421.609375, 64904.703125, 84351.500000, 68593.679688, 78413.406250, 97600.812500, 0.000, 0.000, 0.000,0.34972966,0.289047,0.18514295,0.37243217,0.30358678, 14:35:16.036
38456.890625, 26744.017578, 107405.585938, 64340.074219, 84440.375000, 68318.929688, 78405.382813, 97650.500000, 0.000, 0.000, 0.000,0.34972966,0.289047,0.18514295,0.37243217,0.30358678, 14:35:16.036
38444.843750, 26724.548828, 107444.695313, 64066.625000, 84443.789063, 68348.484375, 78414.742188, 97674.523438, 0.000, 0.000, 0.000,0.34972966,0.289047,0.18514295,0.37243217,0.30358678, 14:35:16.036
38346.292969, 26622.132813, 107460.007813, 64576.289063, 84360.039063, 68616.750000, 78424.085938, 97628.546875, 0.000, 0.000, 0.000,0.34972966,0.289047,0.18514295,0.37243217,0.30358678, 14:35:16.037
38349.019531, 26627.050781, 107432.445313, 64915.207031, 84349.023438, 68632.835938, 78423.640625, 97602.015625, 0.000, 0.000, 0.000,0.34972966,0.289047,0.18514295,0.37243217,0.30358678, 14:35:16.037
38446.699219, 26729.355469, 107407.820313, 64448.617188, 84427.007813, 68363.656250, 78405.804688, 97639.773438, 0.000, 0.000, 0.000,0.34972966,0.289047,0.18514295,0.37243217,0.30358678, 14:35:16.037
38456.867188, 26741.513672, 107430.640625, 64026.972656, 84453.539063, 68313.921875, 78407.281250, 97677.320313, 0.000, 0.000, 0.000,0.34972966,0.289047,0.18514295,0.37243217,0.30358678, 14:35:16.037
38364.710938, 26646.876953, 107459.898438, 64449.890625, 84379.953125, 68581.117188, 78425.023438, 97642.789063, 0.000, 0.000, 0.000,0.34972966,0.289047,0.18514295,0.37243217,0.30358678, 14:35:16.038
38344.328125, 26623.541016, 107439.109375, 64908.101563, 84343.031250, 68663.078125, 78421.671875, 97602.039063, 0.294, 0.212, 0.924,0.34972966,0.289047,0.18514295,0.37243217,0.30358678, 14:35:16.038
38438.046875, 26722.404297, 107408.640625, 64554.382813, 84412.609375, 68413.007813, 78405.757813, 97630.718750, 0.000, 0.000, 0.000,0.34972966,0.289047,0.18514295,0.37243217,0.30358678, 14:35:16.038
38470.750000, 26756.982422, 107430.078125, 64039.957031, 84455.929688, 68288.000000, 78399.656250, 97671.953125, 0.000, 0.000, 0.000,0.34972966,0.289047,0.18514295,0.37243217,0.30358678, 14:35:16.038
38384.113281, 26664.445313, 107456.500000, 64322.261719, 84393.703125, 68526.289063, 78413.898438, 97649.429688, 0.000, 0.000, 0.000,0.34972966,0.289047,0.18514295,0.37243217,0.30358678, 14:35:16.039
38337.019531, 26617.595703, 107443.734375, 64855.730469, 84345.804688, 68676.093750, 78418.117188, 97602.578125, 0.000, 0.000, 0.000,0.34972966,0.289047,0.18514295,0.37243217,0.30358678, 14:35:16.039
38420.433594, 26705.572266, 107407.148438, 64628.414063, 84406.710938, 68463.906250, 78407.882813, 97623.992188, 0.000, 0.000, 0.000,0.34972966,0.289047,0.18514295,0.37243217,0.30358678, 14:35:16.039
38482.058594, 26774.437500, 107420.218750, 64033.031250, 84468.492188, 68281.914063, 78402.671875, 97677.429688, 0.000, 0.000, 0.000,0.34972966,0.289047,0.18514295,0.37243217,0.30358678, 14:35:16.039
38395.960938, 26683.287109, 107455.695313, 64197.113281, 84406.132813, 68484.359375, 78412.398438, 97656.625000, 0.000, 0.000, 0.000,0.34972966,0.289047,0.18514295,0.37243217,0.30358678, 14:35:16.040
38330.871094, 26612.521484, 107443.218750, 64786.058594, 84341.468750, 68685.257813, 78420.398438, 97611.046875, 0.000, 0.000, 0.000,0.34972966,0.289047,0.18514295,0.37243217,0.30358678, 14:35:16.040
38396.292969, 26683.802734, 107405.132813, 64707.402344, 84390.773438, 68520.320313, 78411.460938, 97619.812500, 0.000, 0.000, 0.000,0.08693862,0.14955734,0.05721935,0.049366336,0.02698333, 14:35:16.489
38475.554688, 26766.414063, 107410.164063, 64100.308594, 84463.570313, 68284.625000, 78397.492188, 97664.781250, 0.286, 0.210, 0.932,0.08693862,0.14955734,0.05721935,0.049366336,0.02698333, 14:35:16.489
38412.945313, 26699.716797, 107446.640625, 64105.851563, 84414.085938, 68426.218750, 78400.531250, 97661.828125, 0.000, 0.000, 0.000,0.08693862,0.14955734,0.05721935,0.049366336,0.02698333, 14:35:16.490
38325.351563, 26610.734375, 107445.281250, 64701.144531, 84336.507813, 68665.718750, 78410.835938, 97611.117188, 0.000, 0.000, 0.000,0.08693862,0.14955734,0.05721935,0.049366336,0.02698333, 14:35:16.490
38374.300781, 26665.496094, 107411.281250, 64776.628906, 84370.367188, 68564.398438, 78409.890625, 97610.937500, 0.000, 0.000, 0.000,0.08693862,0.14955734,0.05721935,0.049366336,0.02698333, 14:35:16.491
38452.332031, 26750.767578, 107410.546875, 64196.175781, 84446.742188, 68304.828125, 78398.140625, 97654.921875, 0.000, 0.000, 0.000,0.08693862,0.14955734,0.05721935,0.049366336,0.02698333, 14:35:16.491
38435.007813, 26730.181641, 107442.953125, 64029.832031, 84439.117188, 68382.968750, 78412.062500, 97676.742188, 0.000, 0.000, 0.000,0.08693862,0.14955734,0.05721935,0.049366336,0.02698333, 14:35:16.492
38348.929688, 26637.355469, 107461.796875, 64585.832031, 84360.085938, 68648.554688, 78423.414063, 97632.218750, 0.000, 0.000, 0.000,0.08693862,0.14955734,0.05721935,0.049366336,0.02698333, 14:35:16.492
38377.070313, 26659.304688, 107432.742188, 64831.031250, 84363.953125, 68609.726563, 78415.570313, 97608.093750, 0.000, 0.000, 0.000,0.08693862,0.14955734,0.05721935,0.049366336,0.02698333, 14:35:16.492
38475.734375, 26764.626953, 107414.273438, 64293.226563, 84451.343750, 68331.585938, 78403.367188, 97651.234375, 0.000, 0.000, 0.000,0.08693862,0.14955734,0.05721935,0.049366336,0.02698333, 14:35:16.493
38467.664063, 26757.630859, 107445.281250, 63959.871094, 84461.828125, 68335.671875, 78411.210938, 97681.789063, 0.000, 0.000, 0.000,0.08693862,0.14955734,0.05721935,0.049366336,0.02698333, 14:35:16.493
38361.066406, 26647.792969, 107469.062500, 64458.425781, 84372.335938, 68608.718750, 78419.375000, 97633.554688, 0.288, 0.204, 0.930,0.08693862,0.14955734,0.05721935,0.049366336,0.02698333, 14:35:16.493
38356.777344, 26644.060547, 107435.062500, 64837.089844, 84354.203125, 68638.937500, 78415.328125, 97602.039063, 0.000, 0.000, 0.000,0.08693862,0.14955734,0.05721935,0.049366336,0.02698333, 14:35:16.494
38453.179688, 26747.482422, 107403.414063, 64383.414063, 84431.609375, 68371.234375, 78399.164063, 97637.601563, 0.000, 0.000, 0.000,0.08693862,0.14955734,0.05721935,0.049366336,0.02698333, 14:35:16.494
38464.378906, 26757.406250, 107431.242188, 63949.882813, 84455.125000, 68300.289063, 78396.281250, 97668.539063, 0.000, 0.000, 0.000,0.08693862,0.14955734,0.05721935,0.049366336,0.02698333, 14:35:16.494
38367.484375, 26655.951172, 107451.445313, 64332.988281, 84378.367188, 68554.273438, 78406.632813, 97631.882813, 0.000, 0.000, 0.000,0.08693862,0.14955734,0.05721935,0.049366336,0.02698333, 14:35:16.495
38341.421875, 26627.275391, 107432.960938, 64809.304688, 84345.804688, 68657.492188, 78406.945313, 97591.890625, 0.000, 0.000, 0.000,0.08693862,0.14955734,0.05721935,0.049366336,0.02698333, 14:35:16.495
38436.238281, 26725.779297, 107401.265625, 64479.503906, 84413.750000, 68415.062500, 78395.140625, 97618.804688, 0.000, 0.000, 0.000,0.08693862,0.14955734,0.05721935,0.049366336,0.02698333, 14:35:16.495
38473.898438, 26770.347656, 107413.648438, 63932.246094, 84460.351563, 68269.804688, 78391.500000, 97662.632813, 0.000, 0.000, 0.000,0.08693862,0.14955734,0.05721935,0.049366336,0.02698333, 14:35:16.495
38384.402344, 26678.416016, 107442.484375, 64182.226563, 84391.687500, 68502.257813, 78405.398438, 97644.171875, 0.000, 0.000, 0.000,0.08693862,0.14955734,0.05721935,0.049366336,0.02698333, 14:35:16.496
38332.277344, 26620.234375, 107428.492188, 64741.578125, 84330.539063, 68669.765625, 78407.882813, 97599.468750, 0.292, 0.208, 0.928,0.08693862,0.14955734,0.05721935,0.049366336,0.02698333, 14:35:16.496
38408.765625, 26700.185547, 107392.531250, 64566.296875, 84389.164063, 68469.023438, 78396.906250, 97615.695313, 0.000, 0.000, 0.000,0.08693862,0.14955734,0.05721935,0.049366336,0.02698333, 14:35:16.497
38473.320313, 26766.525391, 107409.203125, 63975.941406, 84461.070313, 68271.101563, 78397.085938, 97668.406250, 0.000, 0.000, 0.000,0.08693862,0.14955734,0.05721935,0.049366336,0.02698333, 14:35:16.497
38402.574219, 26695.402344, 107446.148438, 64094.183594, 84412.390625, 68459.343750, 78410.898438, 97658.679688, 0.000, 0.000, 0.000,0.08693862,0.14955734,0.05721935,0.049366336,0.02698333, 14:35:16.497
38332.191406, 26625.150391, 107441.078125, 64678.011719, 84344.687500, 68670.593750, 78417.312500, 97610.375000, 0.000, 0.000, 0.000,0.08693862,0.14955734,0.05721935,0.049366336,0.02698333, 14:35:16.498
38391.042969, 26689.078125, 107409.492188, 64655.125000, 84377.742188, 68522.492188, 78405.804688, 97613.687500, 0.000, 0.000, 0.000,0.08693862,0.14955734,0.05721935,0.049366336,0.02698333, 14:35:16.498
38479.511719, 26779.109375, 107405.851563, 64030.593750, 84455.820313, 68273.492188, 78395.609375, 97665.992188, 0.000, 0.000, 0.000,0.08693862,0.14955734,0.05721935,0.049366336,0.02698333, 14:35:16.498
38429.507813, 26723.900391, 107443.601563, 63972.523438, 84427.539063, 68403.914063, 78405.601563, 97668.539063, 0.000, 0.000, 0.000,0.08693862,0.14955734,0.05721935,0.049366336,0.02698333, 14:35:16.499
38335.050781, 26631.230469, 107454.796875, 64566.921875, 84350.656250, 68657.429688, 78417.250000, 97618.515625, 0.000, 0.000, 0.000,0.08693862,0.14955734,0.05721935,0.049366336,0.02698333, 14:35:16.499
38378.546875, 26668.691406, 107426.187500, 64718.402344, 84369.789063, 68577.984375, 78414.546875, 97605.640625, 0.000, 0.000, 0.000,0.08693862,0.14955734,0.05721935,0.049366336,0.02698333, 14:35:16.499
38478.570313, 26765.474609, 107407.906250, 64136.898438, 84449.875000, 68303.242188, 78397.531250, 97651.351563, 0.286, 0.210, 0.928,0.08693862,0.14955734,0.05721935,0.049366336,0.02698333, 14:35:16.500
38448.195313, 26737.490234, 107441.906250, 63917.156250, 84445.851563, 68364.242188, 78404.734375, 97676.937500, 0.000, 0.000, 0.000,0.08693862,0.14955734,0.05721935,0.049366336,0.02698333, 14:35:16.500
38351.144531, 26639.054688, 107456.367188, 64461.691406, 84363.726563, 68636.882813, 78415.039063, 97630.984375, 0.000, 0.000, 0.000,0.08693862,0.14955734,0.05721935,0.049366336,0.02698333, 14:35:16.500
38369.292969, 26659.193359, 107423.015625, 64727.050781, 84365.132813, 68618.671875, 78410.585938, 97611.562500, 0.000, 0.000, 0.000,0.08693862,0.14955734,0.05721935,0.049366336,0.02698333, 14:35:16.501
38464.535156, 26757.808594, 107404.328125, 64220.960938, 84448.601563, 68349.531250, 78397.398438, 97653.250000, 0.000, 0.000, 0.000,0.08693862,0.14955734,0.05721935,0.049366336,0.02698333, 14:35:16.501
38460.511719, 26751.929688, 107425.765625, 63857.410156, 84459.703125, 68327.359375, 78396.687500, 97681.609375, 0.000, 0.000, 0.000,0.08693862,0.14955734,0.05721935,0.049366336,0.02698333, 14:35:16.501
38358.699219, 26649.224609, 107447.718750, 64323.421875, 84371.554688, 68594.507813, 78407.101563, 97638.585938, 0.000, 0.000, 0.000,0.08693862,0.14955734,0.05721935,0.049366336,0.02698333, 14:35:16.501
38351.972656, 26643.523438, 107423.710938, 64734.984375, 84347.414063, 68649.023438, 78408.734375, 97607.984375, 0.000, 0.000, 0.000,0.08693862,0.14955734,0.05721935,0.049366336,0.02698333, 14:35:16.502
38447.390625, 26740.441406, 107397.242188, 64322.976563, 84421.906250, 68383.460938, 78393.976563, 97636.484375, 0.000, 0.000, 0.000,0.08693862,0.14955734,0.05721935,0.049366336,0.02698333, 14:35:16.502
38476.804688, 26768.314453, 107424.023438, 63843.687500, 84457.765625, 68287.976563, 78395.257813, 97674.460938, 0.292, 0.214, 0.930,0.08693862,0.14955734,0.05721935,0.049366336,0.02698333, 14:35:16.503
38385.386719, 26674.593750, 107450.398438, 64178.652344, 84385.320313, 68537.953125, 78407.304688, 97645.468750, 0.000, 0.000, 0.000,0.08693862,0.14955734,0.05721935,0.049366336,0.02698333, 14:35:16.503
38346.113281, 26635.656250, 107435.312500, 64690.328125, 84342.117188, 68663.531250, 78409.000000, 97600.875000, 0.000, 0.000, 0.000,0.08693862,0.14955734,0.05721935,0.049366336,0.02698333, 14:35:16.504
38433.824219, 26730.337891, 107403.125000, 64416.628906, 84406.265625, 68433.375000, 78396.195313, 97623.406250, 0.000, 0.000, 0.000,0.08693862,0.14955734,0.05721935,0.049366336,0.02698333, 14:35:16.504
38489.187500, 26781.523438, 107417.070313, 63837.136719, 84471.281250, 68269.515625, 78398.000000, 97675.937500, 0.000, 0.000, 0.000,0.08693862,0.14955734,0.05721935,0.049366336,0.02698333, 14:35:16.504
38403.312500, 26686.103516, 107448.609375, 64038.617188, 84411.492188, 68486.726563, 78413.093750, 97657.828125, 0.000, 0.000, 0.000,0.08693862,0.14955734,0.05721935,0.049366336,0.02698333, 14:35:16.505
38341.085938, 26628.951172, 107440.828125, 64614.218750, 84338.898438, 68667.171875, 78415.148438, 97606.578125, 0.000, 0.000, 0.000,0.08693862,0.14955734,0.05721935,0.049366336,0.02698333, 14:35:16.505
38412.121094, 26704.164063, 107411.726563, 64502.996094, 84389.703125, 68481.851563, 78403.679688, 97611.515625, 0.000, 0.000, 0.000,0.08693862,0.14955734,0.05721935,0.049366336,0.02698333, 14:35:16.506
38490.863281, 26783.244141, 107415.906250, 63904.148438, 84461.632813, 68263.093750, 78398.203125, 97664.468750, 0.000, 0.000, 0.000,0.08693862,0.14955734,0.05721935,0.049366336,0.02698333, 14:35:16.506
38425.082031, 26717.464844, 107450.796875, 63959.312500, 84419.765625, 68431.179688, 78410.367188, 97660.960938, 0.000, 0.000, 0.000,0.08693862,0.14955734,0.05721935,0.049366336,0.02698333, 14:35:16.506
38350.855469, 26636.214844, 107450.531250, 64556.351563, 84347.234375, 68659.125000, 78419.703125, 97610.000000, 0.294, 0.214, 0.934,0.08693862,0.14955734,0.05721935,0.049366336,0.02698333, 14:35:16.506
38401.660156, 26690.195313, 107410.320313, 64567.167969, 84376.023438, 68524.789063, 78405.226563, 97607.179688, 0.000, 0.000, 0.000,0.08693862,0.14955734,0.05721935,0.049366336,0.02698333, 14:35:16.507
38483.734375, 26777.814453, 107409.781250, 63964.230469, 84451.906250, 68273.046875, 78393.976563, 97654.007813, 0.000, 0.000, 0.000,0.08693862,0.14955734,0.05721935,0.049366336,0.02698333, 14:35:16.507
38434.539063, 26729.914063, 107443.867188, 63875.093750, 84428.257813, 68382.500000, 78402.562500, 97661.718750, 0.000, 0.000, 0.000,0.08693862,0.14955734,0.05721935,0.049366336,0.02698333, 14:35:16.507
38348.820313, 26641.154297, 107451.226563, 64450.714844, 84349.156250, 68640.234375, 78412.843750, 97616.281250, 0.000, 0.000, 0.000,0.08693862,0.14955734,0.05721935,0.049366336,0.02698333, 14:35:16.507
38387.710938, 26674.347656, 107421.562500, 64627.785156, 84362.054688, 68574.906250, 78404.750000, 97602.132813, 0.000, 0.000, 0.000,0.08693862,0.14955734,0.05721935,0.049366336,0.02698333, 14:35:16.508
38483.691406, 26774.080078, 107408.085938, 64064.164063, 84443.007813, 68305.539063, 78390.359375, 97648.445313, 0.000, 0.000, 0.000,0.08693862,0.14955734,0.05721935,0.049366336,0.02698333, 14:35:16.508
38458.835938, 26751.550781, 107436.406250, 63800.683594, 84446.343750, 68343.492188, 78399.343750, 97675.375000, 0.000, 0.000, 0.000,0.08693862,0.14955734,0.05721935,0.049366336,0.02698333, 14:35:16.508
38359.437500, 26648.955078, 107450.914063, 64318.394531, 84369.359375, 68613.726563, 78414.703125, 97630.359375, 0.000, 0.000, 0.000,0.08693862,0.14955734,0.05721935,0.049366336,0.02698333, 14:35:16.508
38370.902344, 26657.337891, 107420.398438, 64638.269531, 84360.710938, 68614.421875, 78412.664063, 97602.484375, 0.288, 0.212, 0.932,0.08693862,0.14955734,0.05721935,0.049366336,0.02698333, 14:35:16.508
38473.250000, 26768.314453, 107401.492188, 64140.609375, 84446.789063, 68343.515625, 78402.632813, 97645.578125, 0.000, 0.000, 0.000,0.08693862,0.14955734,0.05721935,0.049366336,0.02698333, 14:35:16.508
38476.761719, 26769.654297, 107431.445313, 63748.828125, 84466.476563, 68304.937500, 78406.250000, 97679.109375, 0.000, 0.000, 0.000,0.08693862,0.14955734,0.05721935,0.049366336,0.02698333, 14:35:16.509
38375.976563, 26664.892578, 107455.539063, 64182.605469, 84386.593750, 68566.007813, 78419.351563, 97637.914063, 0.000, 0.000, 0.000,0.08693862,0.14955734,0.05721935,0.049366336,0.02698333, 14:35:16.509
38355.792969, 26643.748047, 107427.601563, 64617.257813, 84353.335938, 68636.078125, 78414.296875, 97598.617188, 0.000, 0.000, 0.000,0.08693862,0.14955734,0.05721935,0.049366336,0.02698333, 14:35:16.509
38450.699219, 26739.546875, 107397.804688, 64237.457031, 84423.406250, 68386.632813, 78396.976563, 97631.140625, 0.000, 0.000, 0.000,0.08693862,0.14955734,0.05721935,0.049366336,0.02698333, 14:35:16.509
38482.191406, 26771.041016, 107421.828125, 63746.636719, 84459.414063, 68276.171875, 78397.648438, 97672.265625, 0.000, 0.000, 0.000,0.08693862,0.14955734,0.05721935,0.049366336,0.02698333, 14:35:16.509
38396.718750, 26682.505859, 107447.562500, 64044.136719, 84392.140625, 68518.085938, 78412.734375, 97649.226563, 0.000, 0.000, 0.000,0.08693862,0.14955734,0.05721935,0.049366336,0.02698333, 14:35:16.510
38351.613281, 26634.494141, 107437.921875, 64566.343750, 84346.851563, 68658.187500, 78418.898438, 97607.023438, 0.000, 0.000, 0.000,0.08693862,0.14955734,0.05721935,0.049366336,0.02698333, 14:35:16.510
38436.976563, 26723.164063, 107407.570313, 64322.910156, 84411.671875, 68439.093750, 78408.109375, 97629.710938, 0.000, 0.000, 0.000,0.08693862,0.14955734,0.05721935,0.049366336,0.02698333, 14:35:16.510
38490.640625, 26773.455078, 107421.164063, 63741.046875, 84471.062500, 68262.382813, 78402.851563, 97677.570313, 0.288, 0.206, 0.932,0.08693862,0.14955734,0.05721935,0.049366336,0.02698333, 14:35:16.510
38412.121094, 26690.976563, 107452.093750, 63906.628906, 84418.710938, 68471.460938, 78415.882813, 97666.390625, 0.000, 0.000, 0.000,0.08693862,0.14955734,0.05721935,0.049366336,0.02698333, 14:35:16.511
38346.406250, 26624.279297, 107444.695313, 64484.578125, 84351.054688, 68668.757813, 78422.187500, 97617.578125, 0.000, 0.000, 0.000,0.08693862,0.14955734,0.05721935,0.049366336,0.02698333, 14:35:16.511
38419.003906, 26699.158203, 107411.617188, 64388.847656, 84400.453125, 68497.031250, 78412.171875, 97625.132813, 0.000, 0.000, 0.000,0.08693862,0.14955734,0.05721935,0.049366336,0.02698333, 14:35:16.512
38498.398438, 26777.992188, 107419.085938, 63770.886719, 84476.406250, 68266.000000, 78404.617188, 97676.250000, 0.000, 0.000, 0.000,0.08693862,0.14955734,0.05721935,0.049366336,0.02698333, 14:35:16.513
38438.898438, 26720.324219, 107453.234375, 63776.988281, 84438.632813, 68416.500000, 78417.562500, 97675.195313, 0.000, 0.000, 0.000,0.08693862,0.14955734,0.05721935,0.049366336,0.02698333, 14:35:16.513
38353.871094, 26635.767578, 107460.656250, 64381.359375, 84358.093750, 68656.265625, 78422.476563, 97621.445313, 0.000, 0.000, 0.000,0.08693862,0.14955734,0.05721935,0.049366336,0.02698333, 14:35:16.514
38400.675781, 26685.724609, 107423.398438, 64449.933594, 84384.851563, 68543.500000, 78412.171875, 97613.328125, 0.000, 0.000, 0.000,0.08693862,0.14955734,0.05721935,0.049366336,0.02698333, 14:35:16.514
38492.585938, 26774.013672, 107412.960938, 63838.925781, 84467.617188, 68282.273438, 78401.851563, 97662.523438, 0.000, 0.000, 0.000,0.08693862,0.14955734,0.05721935,0.049366336,0.02698333, 14:35:16.514
38466.500000, 26742.207031, 107449.437500, 63691.652344, 84454.546875, 68373.382813, 78414.296875, 97676.937500, 0.000, 0.000, 0.000,0.08693862,0.14955734,0.05721935,0.049366336,0.02698333, 14:35:16.514
38372.890625, 26651.347656, 107465.437500, 64255.785156, 84370.882813, 68635.187500, 78424.203125, 97627.992188, 0.298, 0.208, 0.930,0.08693862,0.14955734,0.05721935,0.049366336,0.02698333, 14:35:16.514
38399.535156, 26684.562500, 107432.625000, 64465.402344, 84375.125000, 68585.789063, 78416.687500, 97612.281250, 0.000, 0.000, 0.000,0.08693862,0.14955734,0.05721935,0.049366336,0.02698333, 14:35:16.515
38498.910156, 26783.781250, 107422.679688, 63916.621094, 84459.796875, 68313.570313, 78406.539063, 97657.296875, 0.000, 0.000, 0.000,0.08693862,0.14955734,0.05721935,0.049366336,0.02698333, 14:35:16.515
38476.984375, 26762.859375, 107454.328125, 63631.300781, 84461.585938, 68333.750000, 78415.148438, 97682.171875, 0.000, 0.000, 0.000,0.08693862,0.14955734,0.05721935,0.049366336,0.02698333, 14:35:16.515
38377.207031, 26660.466797, 107463.093750, 64128.785156, 84373.898438, 68601.523438, 78422.367188, 97637.578125, 0.000, 0.000, 0.000,0.08693862,0.14955734,0.05721935,0.049366336,0.02698333, 14:35:16.515
38374.078125, 26658.679688, 107433.453125, 64481.472656, 84356.843750, 68622.960938, 78419.375000, 97607.492188, 0.000, 0.000, 0.000,0.08693862,0.14955734,0.05721935,0.049366336,0.02698333, 14:35:16.515
38471.171875, 26760.603516, 107409.445313, 64021.585938, 84438.203125, 68356.859375, 78408.484375, 97648.328125, 0.000, 0.000, 0.000,0.08693862,0.14955734,0.05721935,0.049366336,0.02698333, 14:35:16.515
38483.152344, 26771.935547, 107435.554688, 63595.003906, 84463.257813, 68298.570313, 78409.132813, 97683.398438, 0.000, 0.000, 0.000,0.08693862,0.14955734,0.05721935,0.049366336,0.02698333, 14:35:16.515
38383.285156, 26671.375000, 107458.398438, 63992.082031, 84387.710938, 68563.078125, 78422.343750, 97648.867188, 0.000, 0.000, 0.000,0.08693862,0.14955734,0.05721935,0.049366336,0.02698333, 14:35:16.516
38357.851563, 26644.687500, 107439.890625, 64477.917969, 84351.593750, 68655.835938, 78421.468750, 97604.078125, 0.296, 0.212, 0.926,0.08693862,0.14955734,0.05721935,0.049366336,0.02698333, 14:35:16.516
38452.820313, 26741.871094, 107404.687500, 64130.148438, 84425.109375, 68404.312500, 78405.804688, 97632.593750, 0.000, 0.000, 0.000,0.08693862,0.14955734,0.05721935,0.049366336,0.02698333, 14:35:16.516
38489.792969, 26776.986328, 107428.289063, 63601.976563, 84472.695313, 68270.023438, 78408.015625, 97676.609375, 0.000, 0.000, 0.000,0.08693862,0.14955734,0.05721935,0.049366336,0.02698333, 14:35:16.516
38405.617188, 26685.769531, 107458.062500, 63867.761719, 84404.031250, 68504.335938, 78418.570313, 97650.789063, 0.000, 0.000, 0.000,0.08693862,0.14955734,0.05721935,0.049366336,0.02698333, 14:35:16.516
38357.535156, 26636.886719, 107449.390625, 64414.929688, 84348.281250, 68659.953125, 78419.843750, 97603.000000, 0.000, 0.000, 0.000,0.08693862,0.14955734,0.05721935,0.049366336,0.02698333, 14:35:16.516
38430.960938, 26722.335938, 107418.703125, 64224.562500, 84403.421875, 68452.843750, 78405.804688, 97618.421875, 0.000, 0.000, 0.000,0.08693862,0.14955734,0.05721935,0.049366336,0.02698333, 14:35:16.516
38496.117188, 26789.234375, 107427.710938, 63635.101563, 84469.031250, 68258.898438, 78403.210938, 97671.085938, 0.000, 0.000, 0.000,0.08693862,0.14955734,0.05721935,0.049366336,0.02698333, 14:35:16.517
38430.292969, 26717.441406, 107461.351563, 63762.082031, 84422.984375, 68456.554688, 78418.164063, 97665.359375, 0.000, 0.000, 0.000,0.08693862,0.14955734,0.05721935,0.049366336,0.02698333, 14:35:16.517
38355.457031, 26640.394531, 107456.210938, 64359.519531, 84351.101563, 68665.273438, 78423.460938, 97612.117188, 0.000, 0.000, 0.000,0.08693862,0.14955734,0.05721935,0.049366336,0.02698333, 14:35:16.517
38416.210938, 26704.902344, 107418.078125, 64314.839844, 84386.414063, 68505.570313, 78407.992188, 97612.117188, 0.000, 0.000, 0.000,0.08693862,0.14955734,0.05721935,0.049366336,0.02698333, 14:35:16.517
38499.695313, 26793.705078, 107420.578125, 63696.882813, 84462.632813, 68269.937500, 78397.671875, 97667.148438, 0.300, 0.214, 0.926,0.08693862,0.14955734,0.05721935,0.049366336,0.02698333, 14:35:16.517
38447.949219, 26733.556641, 107458.734375, 63676.964844, 84430.093750, 68410.617188, 78409.109375, 97669.453125, 0.000, 0.000, 0.000,0.08693862,0.14955734,0.05721935,0.049366336,0.02698333, 14:35:16.517
38364.464844, 26644.417969, 107460.679688, 64270.605469, 84350.476563, 68655.437500, 78420.289063, 97621.460938, 0.000, 0.000, 0.000,0.08693862,0.14955734,0.05721935,0.049366336,0.02698333, 14:35:16.518
38404.675781, 26684.316406, 107422.523438, 64367.859375, 84376.851563, 68556.843750, 78411.500000, 97612.632813, 0.000, 0.000, 0.000,0.08693862,0.14955734,0.05721935,0.049366336,0.02698333, 14:35:16.518
38495.738281, 26781.189453, 107414.273438, 63770.730469, 84456.757813, 68286.945313, 78397.375000, 97657.203125, 0.000, 0.000, 0.000,0.08693862,0.14955734,0.05721935,0.049366336,0.02698333, 14:35:16.518
38461.046875, 26747.548828, 107449.234375, 63581.234375, 84447.281250, 68357.039063, 78409.000000, 97678.570313, 0.000, 0.000, 0.000,0.08693862,0.14955734,0.05721935,0.049366336,0.02698333, 14:35:16.519
38363.011719, 26645.781250, 107464.929688, 64136.093750, 84368.195313, 68624.679688, 78423.414063, 97630.960938, 0.000, 0.000, 0.000,0.08693862,0.14955734,0.05721935,0.049366336,0.02698333, 14:35:16.519
38381.273438, 26669.384766, 107434.843750, 64384.890625, 84373.851563, 68593.414063, 78420.625000, 97610.867188, 0.000, 0.000, 0.000,0.08693862,0.14955734,0.05721935,0.049366336,0.02698333, 14:35:16.520
38476.941406, 26768.626953, 107413.648438, 63846.144531, 84456.757813, 68316.000000, 78408.039063, 97651.976563, 0.000, 0.000, 0.000,0.08693862,0.14955734,0.05721935,0.049366336,0.02698333, 14:35:16.521
