%OpenBCI Raw EEG Data
%
%Sample Rate = 250.0 Hz
%First Column = SampleIndex
%Last Column = Timestamp 
%Other Columns = EEG data in microvolts followed by Accel Data (in G) interleaved with Aux Data
0, 0.00, 0.00, 0.00, 0.00, 0.00, 0.00, 0.00, 0.00, 0.000, 0.000, 0.000, 11:59:55.756
1, -51823.39, -64098.48, -111896.43, -106446.13, -70341.59, -63587.94, -91051.52, -92820.40, 0.000, 0.000, 0.000, 11:59:56.236
2, -51899.27, -64173.67, -111969.25, -106274.77, -70392.77, -63633.74, -91124.39, -92853.44, 0.000, 0.000, 0.000, 11:59:56.237
3, -51866.82, -64132.96, -112009.80, -106395.09, -70429.92, -63662.95, -91109.87, -92892.23, 0.000, 0.000, 0.000, 11:59:56.237
4, -51788.23, -64052.74, -111968.22, -106594.51, -70401.31, -63627.55, -91045.49, -92876.01, 0.000, 0.000, 0.000, 11:59:56.238
5, -51818.02, -64091.05, -111908.12, -106491.35, -70345.34, -63592.16, -91049.98, -92828.83, 0.000, 0.000, 0.000, 11:59:56.238
6, -51901.66, -64175.23, -111962.88, -106284.44, -70376.90, -63628.48, -91116.66, -92843.27, 0.000, 0.000, 0.000, 11:59:56.239
7, -51871.78, -64140.86, -112012.88, -106369.67, -70426.52, -63661.95, -91118.72, -92891.55, 0.000, 0.000, 0.000, 11:59:56.239
8, -51787.18, -64051.25, -111971.09, -106579.04, -70407.03, -63636.75, -91057.20, -92886.11, 0.000, 0.000, 0.000, 11:59:56.240
9, -51798.69, -64066.45, -111903.73, -106527.88, -70351.48, -63594.64, -91040.51, -92834.46, 0.000, 0.000, 0.000, 11:59:56.240
10, -51887.54, -64157.91, -111936.86, -106295.44, -70366.02, -63612.66, -91098.91, -92831.22, 0.000, 0.000, 0.000, 11:59:56.241
11, -51892.93, -64159.03, -112003.38, -106332.99, -70425.13, -63665.63, -91125.40, -92887.68, 0.000, 0.000, 0.000, 11:59:56.241
12, -51807.63, -64071.90, -111978.80, -106543.23, -70413.31, -63651.29, -91073.25, -92892.10, 0.000, 0.000, 0.000, 11:59:56.242
13, -51790.31, -64060.45, -111911.34, -106565.89, -70366.10, -63599.36, -91036.30, -92837.01, 0.000, 0.000, 0.000, 11:59:56.242
14, -51876.21, -64145.97, -111926.49, -106328.97, -70362.48, -63608.95, -91099.65, -92828.27, 0.000, 0.000, 0.000, 11:59:56.243
15, -51895.30, -64158.20, -111997.63, -106307.09, -70419.91, -63657.27, -91137.20, -92874.87, 0.000, 0.000, 0.000, 11:59:56.243
16, -51818.09, -64082.23, -111994.62, -106507.60, -70426.70, -63650.82, -91083.60, -92887.34, 0.000, 0.000, 0.000, 11:59:56.247
17, -51789.32, -64052.21, -111932.19, -106590.88, -70381.46, -63607.16, -91041.54, -92852.41, 0.000, 0.000, 0.000, 11:59:56.248
18, -51864.14, -64132.47, -111916.08, -106362.67, -70359.06, -63602.45, -91088.18, -92828.38, 0.000, 0.000, 0.000, 11:59:56.248
19, -51891.85, -64158.54, -111982.66, -106275.66, -70406.25, -63645.29, -91126.36, -92867.05, 0.000, 0.000, 0.000, 11:59:56.249
20, -51826.18, -64088.20, -111993.95, -106458.74, -70421.76, -63657.23, -91082.88, -92893.16, 0.000, 0.000, 0.000, 11:59:56.249
21, -51783.11, -64037.50, -111935.32, -106597.37, -70383.07, -63622.32, -91034.61, -92869.02, 0.000, 0.000, 0.000, 11:59:56.249
22, -51842.23, -64105.16, -111892.98, -106394.28, -70338.88, -63599.52, -91057.14, -92817.23, 0.000, 0.000, 0.000, 11:59:56.250
23, -51900.12, -64164.55, -111975.35, -106270.54, -70402.12, -63656.38, -91124.86, -92861.44, 0.000, 0.000, 0.000, 11:59:56.250
24, -51846.93, -64105.74, -112001.50, -106423.65, -70430.50, -63682.04, -91102.00, -92902.09, 0.000, 0.000, 0.000, 11:59:56.251
25, -51775.16, -64033.88, -111942.94, -106595.78, -70388.79, -63641.14, -91036.84, -92880.03, 0.000, 0.000, 0.000, 11:59:56.251
26, -51822.27, -64087.10, -111894.41, -106453.58, -70348.80, -63606.74, -91053.31, -92833.03, 0.000, 0.000, 0.000, 11:59:56.251
27, -51878.35, -64143.45, -111948.77, -106277.27, -70382.22, -63634.43, -91104.16, -92845.01, 0.000, 0.000, 0.000, 11:59:56.251
28, -51846.48, -64109.94, -111987.33, -106387.84, -70414.12, -63666.30, -91091.98, -92885.94, 0.000, 0.000, 0.000, 11:59:56.252
29, -51781.01, -64041.57, -111951.70, -106587.13, -70387.67, -63642.43, -91031.86, -92881.09, 0.000, 0.000, 0.000, 11:59:56.252
30, -51809.04, -64077.15, -111893.01, -106491.38, -70337.88, -63598.40, -91034.74, -92823.87, 0.000, 0.000, 0.000, 11:59:56.252
31, -51894.20, -64164.43, -111950.77, -106274.25, -70372.09, -63634.25, -91113.58, -92837.09, 0.000, 0.000, 0.000, 11:59:56.252
32, -51884.97, -64148.23, -112014.35, -106342.42, -70423.33, -63676.70, -91119.92, -92884.03, 0.000, 0.000, 0.000, 11:59:56.253
33, -51808.23, -64066.69, -111984.96, -106557.06, -70411.62, -63660.23, -91064.52, -92888.08, 0.000, 0.000, 0.000, 11:59:56.253
34, -51814.85, -64075.12, -111922.18, -106535.72, -70360.96, -63616.06, -91045.13, -92841.32, 0.000, 0.000, 0.000, 11:59:56.253
35, -51879.61, -64148.32, -111938.72, -106303.75, -70367.63, -63621.04, -91097.98, -92824.38, 0.000, 0.000, 0.000, 11:59:56.254
36, -51872.83, -64137.68, -111990.08, -106319.78, -70406.52, -63658.13, -91107.07, -92862.33, 0.000, 0.000, 0.000, 11:59:56.254
37, -51818.88, -64074.80, -111992.98, -106522.76, -70412.04, -63668.59, -91072.54, -92888.73, 0.000, 0.000, 0.000, 11:59:56.254
38, -51795.11, -64053.79, -111927.54, -106564.27, -70366.91, -63628.02, -91036.80, -92849.27, 0.000, 0.000, 0.000, 11:59:56.254
39, -51871.80, -64140.72, -111929.75, -106326.28, -70357.12, -63627.19, -91097.55, -92822.12, 0.000, 0.000, 0.000, 11:59:56.255
40, -51886.15, -64153.73, -111998.82, -106293.72, -70411.59, -63673.90, -91129.98, -92868.45, 0.000, 0.000, 0.000, 11:59:56.255
41, -51820.53, -64082.36, -112004.56, -106501.81, -70423.55, -63683.94, -91090.87, -92899.01, 0.000, 0.000, 0.000, 11:59:56.255
42, -51786.35, -64047.13, -111935.30, -106594.57, -70370.98, -63638.12, -91042.16, -92862.42, 0.000, 0.000, 0.000, 11:59:56.256
43, -51868.63, -64138.42, -111924.21, -106375.77, -70340.98, -63629.38, -91071.30, -92834.15, 0.000, 0.000, 0.000, 11:59:56.256
44, -51885.48, -64150.53, -111981.38, -106291.99, -70385.77, -63661.77, -91105.44, -92860.01, 0.000, 0.000, 0.000, 11:59:56.256
45, -51833.11, -64093.65, -111996.52, -106463.08, -70410.30, -63677.21, -91080.20, -92886.11, 0.000, 0.000, 0.000, 11:59:56.256
46, -51791.09, -64050.62, -111949.13, -106606.58, -70378.06, -63648.89, -91038.63, -92869.30, 0.000, 0.000, 0.000, 11:59:56.257
47, -51846.25, -64112.78, -111905.77, -106421.91, -70342.59, -63625.42, -91067.82, -92830.73, 0.000, 0.000, 0.000, 11:59:56.257
48, -51895.81, -64166.20, -111970.92, -106273.71, -70385.24, -63669.75, -91123.27, -92862.71, 0.000, 0.000, 0.000, 11:59:56.257
49, -51836.62, -64100.15, -111992.49, -106421.05, -70413.73, -63684.30, -91102.06, -92894.43, 0.000, 0.000, 0.000, 11:59:56.257
50, -51778.44, -64037.45, -111943.26, -106594.20, -70377.95, -63648.29, -91047.19, -92868.97, 0.000, 0.000, 0.000, 11:59:56.258
51, -51813.55, -64080.01, -111893.30, -106460.59, -70332.80, -63618.63, -91054.52, -92825.36, 0.000, 0.000, 0.000, 11:59:56.258
52, -51880.10, -64147.09, -111949.96, -106278.27, -70369.59, -63654.23, -91116.52, -92849.10, 0.000, 0.000, 0.000, 11:59:56.258
53, -51855.11, -64118.01, -111998.40, -106383.08, -70408.46, -63687.58, -91112.10, -92892.73, 0.000, 0.000, 0.000, 11:59:56.258
54, -51786.00, -64047.16, -111962.81, -106574.39, -70374.89, -63665.75, -91043.10, -92881.48, 0.000, 0.000, 0.000, 11:59:56.258
55, -51811.16, -64077.51, -111907.13, -106509.52, -70331.55, -63629.63, -91039.21, -92837.32, 0.000, 0.000, 0.000, 11:59:56.259
56, -51878.69, -64154.67, -111942.23, -106286.66, -70353.59, -63652.11, -91104.61, -92841.16, 0.000, 0.000, 0.000, 11:59:56.259
57, -51863.02, -64134.15, -111998.20, -106342.16, -70399.32, -63694.18, -91116.37, -92889.24, 0.000, 0.000, 0.000, 11:59:56.259
58, -51793.08, -64052.25, -111972.60, -106556.80, -70383.52, -63676.56, -91053.63, -92890.20, 0.000, 0.000, 0.000, 11:59:56.259
59, -51798.60, -64060.41, -111909.91, -106545.20, -70329.90, -63633.65, -91030.02, -92845.05, 0.000, 0.000, 0.000, 11:59:56.260
60, -51879.98, -64147.52, -111933.66, -106313.25, -70338.57, -63643.95, -91096.07, -92835.55, 0.000, 0.000, 0.000, 11:59:56.260
61, -51880.43, -64145.17, -111992.92, -106316.45, -70385.98, -63685.93, -91115.99, -92873.08, 0.000, 0.000, 0.000, 11:59:56.260
62, -51805.24, -64064.90, -111980.96, -106530.45, -70380.84, -63683.79, -91066.01, -92889.40, 0.000, 0.000, 0.000, 11:59:56.260
63, -51784.90, -64048.00, -111919.27, -106575.33, -70336.00, -63640.49, -91032.48, -92849.61, 0.000, 0.000, 0.000, 11:59:56.261
64, -51874.51, -64142.91, -111931.36, -106346.80, -70341.27, -63644.78, -91092.66, -92832.63, 0.000, 0.000, 0.000, 11:59:56.267
65, -51882.96, -64149.91, -111995.71, -106302.48, -70389.82, -63684.39, -91114.05, -92866.65, 0.000, 0.000, 0.000, 11:59:56.268
66, -51818.63, -64083.48, -111996.92, -106495.15, -70396.95, -63697.08, -91079.69, -92893.69, 0.000, 0.000, 0.000, 11:59:56.268
67, -51777.97, -64042.91, -111940.77, -106601.81, -70354.39, -63651.98, -91037.63, -92861.75, 0.000, 0.000, 0.000, 11:59:56.268
68, -51846.57, -64116.13, -111915.20, -106388.98, -70325.23, -63631.75, -91072.60, -92818.25, 0.000, 0.000, 0.000, 11:59:56.268
69, -51897.11, -64161.73, -111990.55, -106282.45, -70382.11, -63686.04, -91136.71, -92863.76, 0.000, 0.000, 0.000, 11:59:56.268
70, -51841.61, -64104.38, -112015.31, -106453.35, -70402.61, -63706.71, -91107.98, -92898.92, 0.000, 0.000, 0.000, 11:59:56.268
71, -51773.88, -64032.70, -111949.65, -106607.00, -70349.43, -63658.91, -91037.22, -92861.98, 0.000, 0.000, 0.000, 11:59:56.269
72, -51824.30, -64090.83, -111904.92, -106428.50, -70305.13, -63630.95, -91056.89, -92817.85, 0.000, 0.000, 0.000, 11:59:56.269
73, -51890.96, -64160.81, -111967.66, -106270.96, -70354.33, -63674.80, -91122.85, -92852.67, 0.000, 0.000, 0.000, 11:59:56.269
74, -51858.53, -64122.35, -112011.96, -106404.23, -70392.52, -63708.15, -91120.37, -92900.28, 0.000, 0.000, 0.000, 11:59:56.269
75, -51798.07, -64055.92, -111977.77, -106597.68, -70368.23, -63683.96, -91065.92, -92891.90, 0.000, 0.000, 0.000, 11:59:56.269
76, -51830.41, -64092.02, -111923.05, -106484.47, -70320.71, -63647.91, -91059.64, -92844.18, 0.000, 0.000, 0.000, 11:59:56.269
77, -51896.77, -64158.13, -111968.71, -106285.24, -70350.95, -63674.73, -91119.34, -92855.94, 0.000, 0.000, 0.000, 11:59:56.270
78, -51866.62, -64123.69, -112011.88, -106375.14, -70391.77, -63704.39, -91116.21, -92895.45, 0.000, 0.000, 0.000, 11:59:56.270
79, -51797.15, -64050.46, -111985.41, -106582.19, -70373.88, -63688.99, -91061.59, -92893.35, 0.000, 0.000, 0.000, 11:59:56.270
80, -51803.50, -64060.43, -111920.21, -106525.15, -70319.84, -63642.70, -91048.73, -92841.07, 0.000, 0.000, 0.000, 11:59:56.271
81, -51884.36, -64149.10, -111957.13, -106297.72, -70335.48, -63664.05, -91116.97, -92843.91, 0.000, 0.000, 0.000, 11:59:56.271
82, -51868.61, -64131.89, -112012.99, -106339.54, -70383.95, -63703.00, -91129.31, -92888.02, 0.000, 0.000, 0.000, 11:59:56.271
83, -51785.05, -64041.90, -111985.34, -106560.46, -70369.41, -63687.11, -91063.46, -92889.96, 0.000, 0.000, 0.000, 11:59:56.271
84, -51790.87, -64048.34, -111922.49, -106559.97, -70312.82, -63652.54, -91046.25, -92851.89, 0.000, 0.000, 0.000, 11:59:56.271
85, -51871.67, -64137.23, -111934.27, -106317.39, -70315.32, -63660.16, -91104.91, -92842.13, 0.000, 0.000, 0.000, 11:59:56.271
86, -51876.95, -64138.39, -111999.27, -106309.03, -70368.20, -63698.54, -91127.86, -92885.38, 0.000, 0.000, 0.000, 11:59:56.272
87, -51807.21, -64062.38, -111994.09, -106521.50, -70368.70, -63695.03, -91079.80, -92897.55, 0.000, 0.000, 0.000, 11:59:56.272
88, -51781.64, -64040.83, -111931.50, -106586.05, -70315.77, -63649.52, -91031.84, -92850.98, 0.000, 0.000, 0.000, 11:59:56.272
89, -51857.18, -64120.49, -111922.31, -106352.84, -70299.16, -63641.11, -91080.85, -92825.65, 0.000, 0.000, 0.000, 11:59:56.272
90, -51890.20, -64146.80, -111996.97, -106299.51, -70358.23, -63694.02, -91124.30, -92875.41, 0.000, 0.000, 0.000, 11:59:56.272
91, -51817.13, -64067.81, -112000.09, -106490.13, -70361.30, -63691.83, -91075.71, -92886.52, 0.000, 0.000, 0.000, 11:59:56.272
92, -51787.49, -64039.46, -111947.86, -106607.80, -70320.15, -63654.35, -91042.38, -92857.34, 0.000, 0.000, 0.000, 11:59:56.273
93, -51864.56, -64127.20, -111929.17, -106401.50, -70299.70, -63643.42, -91084.61, -92826.16, 0.000, 0.000, 0.000, 11:59:56.273
94, -51904.26, -64166.85, -112001.30, -106291.46, -70351.11, -63690.98, -91138.23, -92868.59, 0.000, 0.000, 0.000, 11:59:56.273
95, -51853.99, -64106.30, -112021.38, -106452.34, -70371.38, -63710.92, -91105.57, -92902.25, 0.000, 0.000, 0.000, 11:59:56.273
96, -51797.59, -64044.50, -111970.44, -106613.84, -70331.82, -63676.92, -91046.79, -92878.18, 0.000, 0.000, 0.000, 11:59:56.274
97, -51839.71, -64095.23, -111918.34, -106448.48, -70281.02, -63640.18, -91060.76, -92825.56, 0.000, 0.000, 0.000, 11:59:56.274
98, -51887.07, -64144.12, -111968.73, -106286.48, -70311.03, -63667.94, -91105.51, -92842.05, 0.000, 0.000, 0.000, 11:59:56.274
99, -51856.87, -64107.13, -111997.57, -106398.88, -70336.40, -63701.82, -91096.19, -92885.38, 0.000, 0.000, 0.000, 11:59:56.274
100, -51805.53, -64053.82, -111973.97, -106596.02, -70325.42, -63690.58, -91056.22, -92887.01, 0.000, 0.000, 0.000, 11:59:56.275
101, -51827.39, -64081.76, -111909.86, -106495.73, -70272.70, -63652.22, -91052.40, -92837.88, 0.000, 0.000, 0.000, 11:59:56.275
102, -51902.20, -64156.70, -111958.45, -106295.82, -70303.41, -63678.40, -91117.71, -92849.99, 0.000, 0.000, 0.000, 11:59:56.275
103, -51883.00, -64135.40, -112011.16, -106373.52, -70349.37, -63715.70, -91126.16, -92891.16, 0.000, 0.000, 0.000, 11:59:56.275
104, -51806.71, -64051.25, -111982.70, -106590.91, -70331.80, -63695.70, -91065.85, -92889.42, 0.000, 0.000, 0.000, 11:59:56.276
105, -51814.45, -64063.09, -111915.74, -106552.41, -70270.33, -63656.13, -91047.99, -92849.05, 0.000, 0.000, 0.000, 11:59:56.276
106, -51898.85, -64156.12, -111951.75, -106315.33, -70284.97, -63676.07, -91116.48, -92847.40, 0.000, 0.000, 0.000, 11:59:56.276
107, -51883.67, -64137.84, -112013.08, -106357.58, -70333.94, -63713.33, -91131.91, -92890.07, 0.000, 0.000, 0.000, 11:59:56.277
108, -51809.69, -64058.13, -111990.15, -106573.63, -70323.59, -63702.54, -91078.10, -92898.63, 0.000, 0.000, 0.000, 11:59:56.277
109, -51804.34, -64059.00, -111932.41, -106590.37, -70277.34, -63665.34, -91051.86, -92857.21, 0.000, 0.000, 0.000, 11:59:56.277
110, -51885.26, -64145.79, -111944.91, -106352.59, -70273.46, -63670.48, -91102.63, -92840.09, 0.000, 0.000, 0.000, 11:59:56.277
111, -51887.96, -64143.07, -112006.20, -106343.43, -70324.93, -63712.17, -91131.61, -92884.80, 0.000, 0.000, 0.000, 11:59:56.278
112, -51816.68, -64064.66, -111993.88, -106544.77, -70315.37, -63707.54, -91074.34, -92897.29, 0.000, 0.000, 0.000, 11:59:56.278
113, -51808.93, -64052.54, -111944.10, -106613.17, -70280.48, -63670.24, -91048.91, -92864.61, 0.000, 0.000, 0.000, 11:59:56.278
114, -51877.32, -64128.40, -111929.91, -106381.05, -70259.31, -63663.15, -91086.98, -92835.84, 0.000, 0.000, 0.000, 11:59:56.279
115, -51907.14, -64159.12, -111996.81, -106308.67, -70310.07, -63705.58, -91127.37, -92871.12, 0.000, 0.000, 0.000, 11:59:56.279
116, -51850.88, -64097.36, -112008.61, -106487.26, -70321.40, -63718.32, -91094.38, -92896.02, 0.000, 0.000, 0.000, 11:59:56.279
117, -51807.65, -64048.79, -111956.27, -106621.80, -70283.56, -63688.75, -91052.78, -92877.95, 0.000, 0.000, 0.000, 11:59:56.279
118, -51862.55, -64110.97, -111916.34, -106426.22, -70244.60, -63660.76, -91075.47, -92833.30, 0.000, 0.000, 0.000, 11:59:56.280
119, -51913.18, -64161.29, -111984.41, -106295.77, -70293.89, -63704.88, -91135.59, -92869.66, 0.000, 0.000, 0.000, 11:59:56.280
120, -51860.65, -64106.25, -112008.37, -106452.46, -70314.48, -63729.05, -91105.71, -92902.50, 0.000, 0.000, 0.000, 11:59:56.280
121, -51803.34, -64045.21, -111961.16, -106628.68, -70278.62, -63702.27, -91052.38, -92885.20, 0.000, 0.000, 0.000, 11:59:56.714
122, -51854.64, -64103.88, -111916.08, -106474.05, -70231.95, -63673.79, -91067.06, -92840.96, 0.000, 0.000, 0.000, 11:59:56.715
123, -51920.13, -64173.18, -111980.98, -106293.76, -70272.88, -63711.63, -91130.43, -92863.47, 0.000, 0.000, 0.000, 11:59:56.715
124, -51883.07, -64130.64, -112021.84, -106412.77, -70310.52, -63739.77, -91122.38, -92903.32, 0.000, 0.000, 0.000, 11:59:56.716
125, -51811.03, -64059.11, -111980.25, -106603.34, -70277.55, -63712.46, -91059.98, -92891.05, 0.000, 0.000, 0.000, 11:59:56.716
126, -51834.32, -64085.27, -111918.84, -106517.39, -70229.38, -63675.71, -91053.90, -92841.39, 0.000, 0.000, 0.000, 11:59:56.717
127, -51911.12, -64159.34, -111960.15, -106303.53, -70255.58, -63704.32, -91117.58, -92849.23, 0.000, 0.000, 0.000, 11:59:56.717
128, -51896.14, -64139.09, -112013.41, -106373.98, -70294.31, -63740.33, -91122.29, -92893.71, 0.000, 0.000, 0.000, 11:59:56.718
129, -51826.45, -64066.02, -111990.98, -106585.48, -70278.09, -63729.67, -91072.78, -92899.63, 0.000, 0.000, 0.000, 11:59:56.718
130, -51830.72, -64072.48, -111932.99, -106563.39, -70238.55, -63688.05, -91065.56, -92857.10, 0.000, 0.000, 0.000, 11:59:56.718
131, -51910.49, -64156.32, -111957.60, -106326.15, -70245.27, -63706.61, -91125.27, -92853.05, 0.000, 0.000, 0.000, 11:59:56.719
132, -51905.82, -64149.41, -112016.08, -106346.89, -70286.65, -63753.12, -91139.13, -92894.79, 0.000, 0.000, 0.000, 11:59:56.719
133, -51827.03, -64070.02, -111995.40, -106554.45, -70275.02, -63741.92, -91084.74, -92899.75, 0.000, 0.000, 0.000, 11:59:56.719
134, -51813.96, -64057.91, -111933.71, -106593.72, -70225.76, -63698.91, -91049.47, -92859.63, 0.000, 0.000, 0.000, 11:59:56.720
135, -51883.52, -64132.81, -111936.15, -106359.86, -70216.23, -63701.42, -91100.48, -92842.08, 0.000, 0.000, 0.000, 11:59:56.720
136, -51884.23, -64129.14, -111997.52, -106324.36, -70265.97, -63745.59, -91132.66, -92885.38, 0.000, 0.000, 0.000, 11:59:56.720
137, -51815.99, -64060.23, -111988.80, -106510.17, -70265.39, -63745.68, -91085.75, -92894.95, 0.000, 0.000, 0.000, 11:59:56.720
138, -51774.15, -64024.47, -111925.24, -106601.19, -70212.86, -63701.80, -91035.43, -92856.66, 0.000, 0.000, 0.000, 11:59:56.721
139, -51832.09, -64091.43, -111905.88, -106380.42, -70182.62, -63690.55, -91073.77, -92830.79, 0.000, 0.000, 0.000, 11:59:56.721
140, -51854.17, -64116.67, -111967.55, -106289.45, -70238.19, -63731.55, -91123.95, -92865.75, 0.000, 0.000, 0.000, 11:59:56.721
141, -51795.96, -64049.77, -111979.17, -106457.66, -70254.95, -63746.19, -91091.96, -92890.77, 0.000, 0.000, 0.000, 11:59:56.721
142, -51743.66, -63988.46, -111924.77, -106602.93, -70208.28, -63705.73, -91032.21, -92863.63, 0.000, 0.000, 0.000, 11:59:56.722
143, -51802.11, -64054.04, -111889.68, -106423.42, -70175.22, -63684.07, -91054.68, -92827.10, 0.000, 0.000, 0.000, 11:59:56.722
144, -51855.62, -64107.80, -111956.69, -106277.87, -70217.71, -63731.01, -91116.01, -92858.89, 0.000, 0.000, 0.000, 11:59:56.722
145, -51804.28, -64051.87, -111979.48, -106417.05, -70235.37, -63748.38, -91086.59, -92889.20, 0.000, 0.000, 0.000, 11:59:56.722
146, -51745.98, -63993.00, -111937.95, -106598.13, -70204.50, -63717.18, -91029.47, -92873.71, 0.000, 0.000, 0.000, 11:59:56.723
147, -51789.17, -64042.08, -111891.09, -106469.00, -70164.34, -63685.62, -91049.13, -92830.03, 0.000, 0.000, 0.000, 11:59:56.723
148, -51845.94, -64101.43, -111938.41, -106287.16, -70186.42, -63713.40, -91103.07, -92842.46, 0.000, 0.000, 0.000, 11:59:56.723
149, -51826.94, -64074.67, -111984.85, -106387.17, -70230.81, -63752.29, -91110.94, -92889.60, 0.000, 0.000, 0.000, 11:59:56.723
150, -51758.68, -64004.04, -111960.42, -106586.63, -70217.82, -63737.32, -91060.73, -92888.52, 0.000, 0.000, 0.000, 11:59:56.724
151, -51774.71, -64023.84, -111892.18, -106505.74, -70162.26, -63691.07, -91044.59, -92832.34, 0.000, 0.000, 0.000, 11:59:56.724
152, -51853.52, -64103.95, -111933.24, -106282.23, -70187.58, -63715.97, -91111.77, -92839.69, 0.000, 0.000, 0.000, 11:59:56.724
153, -51818.54, -64064.95, -111971.44, -106341.84, -70219.10, -63741.50, -91104.97, -92875.63, 0.000, 0.000, 0.000, 11:59:56.724
154, -51745.02, -63986.43, -111945.83, -106560.58, -70194.20, -63726.68, -91051.70, -92879.66, 0.000, 0.000, 0.000, 11:59:56.725
155, -51754.93, -63997.22, -111887.17, -106547.55, -70142.68, -63698.45, -91040.64, -92848.67, 0.000, 0.000, 0.000, 11:59:56.725
156, -51832.09, -64078.85, -111900.88, -106306.66, -70138.79, -63702.18, -91089.86, -92831.46, 0.000, 0.000, 0.000, 11:59:56.725
157, -51828.91, -64073.71, -111958.19, -106307.38, -70185.13, -63742.66, -91110.71, -92871.16, 0.000, 0.000, 0.000, 11:59:56.725
158, -51763.00, -64000.62, -111956.58, -106516.99, -70191.98, -63743.62, -91069.66, -92885.78, 0.000, 0.000, 0.000, 11:59:56.726
159, -51746.48, -63987.41, -111895.40, -106565.09, -70145.41, -63700.14, -91034.25, -92846.82, 0.000, 0.000, 0.000, 11:59:56.726
160, -51811.79, -64056.66, -111887.95, -106336.77, -70127.68, -63693.06, -91076.80, -92821.90, 0.000, 0.000, 0.000, 11:59:56.726
161, -51831.84, -64073.31, -111956.33, -106295.21, -70173.32, -63738.99, -91114.42, -92865.93, 0.000, 0.000, 0.000, 11:59:56.726
162, -51772.98, -64008.60, -111968.13, -106491.73, -70188.92, -63746.41, -91081.70, -92887.23, 0.000, 0.000, 0.000, 11:59:56.727
163, -51739.46, -63972.03, -111915.20, -106594.20, -70154.13, -63705.13, -91040.20, -92854.20, 0.000, 0.000, 0.000, 11:59:56.727
164, -51812.06, -64052.48, -111896.52, -106371.86, -70123.61, -63687.32, -91078.93, -92815.23, 0.000, 0.000, 0.000, 11:59:56.727
165, -51846.84, -64084.62, -111962.03, -106278.43, -70165.41, -63725.60, -91126.85, -92853.13, 0.000, 0.000, 0.000, 11:59:56.727
166, -51797.42, -64028.11, -111987.73, -106452.86, -70183.56, -63745.88, -91098.69, -92890.70, 0.000, 0.000, 0.000, 11:59:56.728
167, -51730.79, -63963.45, -111928.14, -106597.73, -70138.81, -63708.30, -91040.22, -92862.04, 0.000, 0.000, 0.000, 11:59:56.728
168, -51784.32, -64023.91, -111888.42, -106417.50, -70098.84, -63688.50, -91067.15, -92828.06, 0.000, 0.000, 0.000, 11:59:56.728
169, -51846.34, -64082.52, -111959.13, -106270.31, -70142.25, -63738.50, -91123.59, -92866.60, 0.000, 0.000, 0.000, 11:59:56.728
170, -51805.15, -64035.69, -111993.73, -106403.66, -70182.20, -63770.84, -91119.50, -92909.63, 0.000, 0.000, 0.000, 11:59:56.729
171, -51732.20, -63958.26, -111948.75, -106587.76, -70153.23, -63746.05, -91061.32, -92897.06, 0.000, 0.000, 0.000, 11:59:56.729
172, -51776.90, -64013.29, -111897.95, -106457.09, -70100.30, -63716.04, -91063.15, -92850.53, 0.000, 0.000, 0.000, 11:59:56.729
173, -51846.01, -64085.51, -111962.61, -106270.96, -70136.33, -63748.27, -91127.55, -92869.57, 0.000, 0.000, 0.000, 11:59:56.729
174, -51807.14, -64039.36, -111997.97, -106372.53, -70163.87, -63768.63, -91113.13, -92901.73, 0.000, 0.000, 0.000, 11:59:56.729
175, -51741.14, -63966.53, -111968.98, -106579.02, -70137.89, -63738.86, -91056.73, -92888.70, 0.000, 0.000, 0.000, 11:59:56.729
176, -51775.63, -64006.50, -111918.94, -106515.76, -70093.88, -63702.85, -91059.93, -92847.38, 0.000, 0.000, 0.000, 11:59:56.729
177, -51854.10, -64086.52, -111957.54, -106292.24, -70111.66, -63725.74, -91131.75, -92849.81, 0.000, 0.000, 0.000, 11:59:56.730
178, -51831.64, -64061.48, -112005.98, -106345.53, -70150.45, -63757.12, -91131.55, -92888.57, 0.000, 0.000, 0.000, 11:59:56.730
179, -51757.07, -63985.64, -111980.56, -106552.04, -70131.14, -63738.07, -91062.26, -92887.39, 0.000, 0.000, 0.000, 11:59:56.730
180, -51751.75, -63984.68, -111914.22, -106553.35, -70075.53, -63689.57, -91033.11, -92841.27, 0.000, 0.000, 0.000, 11:59:56.731
181, -51841.38, -64078.67, -111928.86, -106306.91, -70082.87, -63704.84, -91095.42, -92831.59, 0.000, 0.000, 0.000, 11:59:56.731
182, -51848.07, -64081.40, -111996.59, -106301.45, -70131.10, -63752.85, -91126.12, -92880.48, 0.000, 0.000, 0.000, 11:59:56.731
183, -51776.63, -64005.27, -111995.96, -106511.02, -70134.01, -63757.19, -91084.54, -92903.70, 0.000, 0.000, 0.000, 11:59:56.731
184, -51749.85, -63977.95, -111926.31, -106572.91, -70085.32, -63713.00, -91046.95, -92864.01, 0.000, 0.000, 0.000, 11:59:56.731
185, -51814.85, -64048.30, -111911.13, -106334.33, -70057.77, -63701.48, -91090.02, -92832.02, 0.000, 0.000, 0.000, 11:59:56.732
186, -51837.40, -64063.09, -111977.43, -106276.95, -70110.91, -63741.29, -91121.91, -92869.05, 0.000, 0.000, 0.000, 11:59:56.732
187, -51774.71, -63994.52, -111984.96, -106468.55, -70118.52, -63750.23, -91080.88, -92890.80, 0.000, 0.000, 0.000, 11:59:56.732
188, -51732.29, -63952.52, -111926.29, -106591.69, -70072.29, -63712.46, -91028.88, -92858.06, 0.000, 0.000, 0.000, 11:59:56.732
189, -51803.61, -64034.62, -111893.97, -106374.05, -70034.80, -63700.39, -91070.30, -92828.31, 0.000, 0.000, 0.000, 11:59:56.732
190, -51847.51, -64081.38, -111971.38, -106261.24, -70082.98, -63748.89, -91127.01, -92874.49, 0.000, 0.000, 0.000, 11:59:56.733
191, -51795.36, -64021.34, -111992.41, -106428.59, -70103.16, -63764.65, -91095.78, -92903.97, 0.000, 0.000, 0.000, 11:59:56.733
192, -51736.44, -63957.82, -111942.61, -106593.25, -70066.23, -63728.31, -91040.24, -92878.49, 0.000, 0.000, 0.000, 11:59:56.733
193, -51781.08, -64011.57, -111893.14, -106425.75, -70021.17, -63695.07, -91062.32, -92831.02, 0.000, 0.000, 0.000, 11:59:56.733
194, -51832.75, -64063.32, -111952.80, -106269.06, -70055.22, -63721.51, -91111.45, -92846.70, 0.000, 0.000, 0.000, 11:59:56.733
195, -51800.19, -64024.63, -111991.94, -106399.24, -70088.72, -63748.11, -91102.49, -92882.78, 0.000, 0.000, 0.000, 11:59:56.734
196, -51740.29, -63963.71, -111958.92, -106582.45, -70058.68, -63726.05, -91050.81, -92875.38, 0.000, 0.000, 0.000, 11:59:56.734
197, -51767.82, -63998.50, -111905.34, -106470.30, -70009.22, -63690.11, -91053.78, -92831.09, 0.000, 0.000, 0.000, 11:59:56.734
198, -51838.32, -64072.17, -111949.20, -106269.80, -70035.10, -63719.48, -91109.04, -92846.02, 0.000, 0.000, 0.000, 11:59:56.734
199, -51822.76, -64053.77, -111996.74, -106353.22, -70074.20, -63764.88, -91117.60, -92894.54, 0.000, 0.000, 0.000, 11:59:56.734
200, -51755.77, -63978.87, -111977.56, -106562.09, -70064.65, -63753.63, -91073.23, -92900.46, 0.000, 0.000, 0.000, 11:59:56.734
201, -51761.27, -63985.64, -111908.36, -106514.95, -70014.63, -63702.11, -91055.93, -92846.73, 0.000, 0.000, 0.000, 11:59:56.734
202, -51824.11, -64052.97, -111930.16, -106286.38, -70019.52, -63711.75, -91103.38, -92840.91, 0.000, 0.000, 0.000, 11:59:56.735
203, -51823.48, -64047.47, -111987.53, -106316.63, -70060.36, -63754.97, -91116.75, -92886.29, 0.000, 0.000, 0.000, 11:59:56.735
204, -51759.57, -63982.13, -111977.09, -106524.72, -70055.04, -63751.15, -91068.49, -92900.40, 0.000, 0.000, 0.000, 11:59:56.735
205, -51738.34, -63963.11, -111909.01, -106543.07, -69999.98, -63700.52, -91034.45, -92852.48, 0.000, 0.000, 0.000, 11:59:56.735
206, -51824.51, -64052.21, -111926.24, -106299.57, -69999.83, -63709.49, -91100.59, -92839.11, 0.000, 0.000, 0.000, 11:59:56.735
207, -51834.03, -64060.39, -111996.38, -106288.15, -70053.47, -63761.68, -91135.08, -92889.91, 0.000, 0.000, 0.000, 11:59:56.735
208, -51757.83, -63979.77, -111989.30, -106499.06, -70050.12, -63755.73, -91080.49, -92901.80, 0.000, 0.000, 0.000, 11:59:56.735
209, -51725.60, -63951.96, -111923.49, -106568.06, -69994.04, -63706.47, -91036.87, -92856.84, 0.000, 0.000, 0.000, 11:59:56.736
210, -51804.34, -64036.81, -111917.86, -106340.37, -69977.63, -63701.11, -91086.59, -92831.53, 0.000, 0.000, 0.000, 11:59:56.736
211, -51833.25, -64063.92, -111987.98, -106273.29, -70029.35, -63747.78, -91126.72, -92873.88, 0.000, 0.000, 0.000, 11:59:56.737
212, -51774.02, -63997.09, -111998.24, -106456.82, -70042.36, -63762.15, -91091.45, -92902.36, 0.000, 0.000, 0.000, 11:59:56.737
213, -51725.36, -63942.62, -111939.01, -106591.38, -69996.74, -63725.58, -91041.54, -92876.81, 0.000, 0.000, 0.000, 11:59:56.737
214, -51789.50, -64014.43, -111903.40, -106394.66, -69957.80, -63701.13, -91070.21, -92831.98, 0.000, 0.000, 0.000, 11:59:56.737
215, -51828.38, -64051.89, -111965.07, -106269.04, -69999.23, -63738.10, -91116.64, -92863.54, 0.000, 0.000, 0.000, 11:59:56.737
216, -51784.90, -64002.88, -111991.96, -106420.16, -70024.23, -63757.28, -91095.67, -92894.49, 0.000, 0.000, 0.000, 11:59:56.737
217, -51724.53, -63938.66, -111950.20, -106585.20, -69990.02, -63724.53, -91044.93, -92875.18, 0.000, 0.000, 0.000, 11:59:56.738
218, -51769.41, -63991.30, -111903.36, -106429.30, -69945.40, -63689.21, -91059.66, -92826.81, 0.000, 0.000, 0.000, 11:59:56.738
219, -51820.51, -64044.29, -111962.72, -106268.21, -69980.29, -63718.38, -91116.52, -92848.52, 0.000, 0.000, 0.000, 11:59:56.738
220, -51796.61, -64015.98, -112003.42, -106385.60, -70013.93, -63751.93, -91113.62, -92893.60, 0.000, 0.000, 0.000, 11:59:56.738
221, -51739.30, -63951.69, -111980.45, -106586.16, -69996.81, -63739.26, -91064.06, -92895.86, 0.000, 0.000, 0.000, 11:59:56.738
222, -51760.47, -63980.10, -111914.78, -106489.23, -69936.44, -63700.82, -91049.88, -92848.30, 0.000, 0.000, 0.000, 11:59:56.738
223, -51832.57, -64057.73, -111955.52, -106276.64, -69961.59, -63730.12, -91115.43, -92861.17, 0.000, 0.000, 0.000, 11:59:56.739
224, -51817.20, -64033.88, -112005.80, -106350.29, -70001.88, -63759.38, -91118.83, -92898.30, 0.000, 0.000, 0.000, 11:59:56.739
225, -51740.82, -63955.51, -111975.77, -106558.77, -69974.62, -63736.45, -91054.84, -92888.44, 0.000, 0.000, 0.000, 11:59:56.739
226, -51761.21, -63977.11, -111920.30, -106518.06, -69933.66, -63703.79, -91055.69, -92850.20, 0.000, 0.000, 0.000, 11:59:56.739
227, -51824.15, -64040.38, -111942.43, -106290.43, -69939.81, -63711.72, -91105.39, -92843.45, 0.000, 0.000, 0.000, 11:59:56.739
228, -51816.30, -64029.74, -111993.23, -106312.98, -69976.02, -63747.33, -91114.67, -92882.45, 0.000, 0.000, 0.000, 11:59:56.740
229, -51742.48, -63958.31, -111984.23, -106521.62, -69970.48, -63749.05, -91072.83, -92902.14, 0.000, 0.000, 0.000, 11:59:56.740
230, -51722.98, -63943.29, -111922.67, -106555.21, -69911.38, -63710.23, -91041.11, -92862.02, 0.000, 0.000, 0.000, 11:59:56.740
231, -51813.73, -64032.87, -111929.62, -106318.88, -69904.63, -63710.09, -91095.56, -92842.68, 0.000, 0.000, 0.000, 11:59:56.740
232, -51827.08, -64039.96, -111989.14, -106287.28, -69955.75, -63743.46, -91122.05, -92878.63, 0.000, 0.000, 0.000, 11:59:56.741
233, -51753.81, -63963.52, -111985.68, -106483.80, -69959.30, -63745.77, -91078.39, -92897.73, 0.000, 0.000, 0.000, 11:59:56.741
234, -51712.14, -63926.93, -111925.46, -106570.86, -69905.21, -63703.50, -91039.13, -92862.89, 0.000, 0.000, 0.000, 11:59:56.741
235, -51787.92, -64007.26, -111906.17, -106332.03, -69876.94, -63695.61, -91083.35, -92833.32, 0.000, 0.000, 0.000, 11:59:56.741
236, -51821.33, -64031.62, -111979.66, -106257.46, -69934.09, -63737.54, -91127.19, -92870.65, 0.000, 0.000, 0.000, 11:59:56.742
237, -51755.71, -63964.19, -111985.61, -106438.73, -69946.79, -63745.59, -91092.54, -92893.20, 0.000, 0.000, 0.000, 11:59:56.742
238, -51697.44, -63907.37, -111928.30, -106578.86, -69904.92, -63711.30, -91045.29, -92870.16, 0.000, 0.000, 0.000, 11:59:56.742
239, -51750.37, -63970.04, -111882.59, -106385.38, -69863.33, -63681.21, -91067.64, -92826.41, 0.000, 0.000, 0.000, 11:59:56.742
240, -51807.12, -64025.27, -111949.96, -106241.05, -69907.58, -63722.63, -91119.68, -92856.12, 0.000, 0.000, 0.000, 11:59:56.742
241, -51763.98, -63974.47, -111979.33, -106386.16, -69934.16, -63751.13, -91105.95, -92897.00, 0.000, 0.000, 0.000, 11:59:57.193
242, -51699.80, -63907.43, -111933.15, -106558.92, -69898.69, -63718.83, -91048.76, -92879.43, 0.000, 0.000, 0.000, 11:59:57.193
243, -51747.64, -63964.19, -111889.68, -106421.57, -69852.69, -63683.79, -91063.69, -92830.88, 0.000, 0.000, 0.000, 11:59:57.193
244, -51818.02, -64032.25, -111952.27, -106240.34, -69884.56, -63719.84, -91126.52, -92852.66, 0.000, 0.000, 0.000, 11:59:57.193
245, -51788.25, -64000.29, -111994.22, -106348.75, -69916.66, -63753.99, -91128.75, -92900.71, 0.000, 0.000, 0.000, 11:59:57.194
246, -51714.80, -63927.04, -111961.09, -106553.66, -69895.55, -63727.86, -91070.52, -92892.55, 0.000, 0.000, 0.000, 11:59:57.194
247, -51732.15, -63951.42, -111896.05, -106470.09, -69834.78, -63680.65, -91057.36, -92837.88, 0.000, 0.000, 0.000, 11:59:57.194
248, -51802.85, -64020.69, -111937.98, -106259.77, -69853.76, -63702.22, -91111.72, -92843.24, 0.000, 0.000, 0.000, 11:59:57.194
249, -51784.32, -63996.33, -111982.39, -106327.27, -69894.28, -63735.04, -91117.04, -92880.80, 0.000, 0.000, 0.000, 11:59:57.195
250, -51714.04, -63923.95, -111958.14, -106534.40, -69877.97, -63722.30, -91070.10, -92887.05, 0.000, 0.000, 0.000, 11:59:57.195
251, -51705.06, -63920.31, -111886.50, -106513.63, -69813.08, -63672.34, -91036.10, -92835.64, 0.000, 0.000, 0.000, 11:59:57.195
252, -51794.80, -64013.85, -111915.41, -106272.10, -69831.81, -63693.28, -91112.44, -92836.96, 0.000, 0.000, 0.000, 11:59:57.195
253, -51798.89, -64013.58, -111987.98, -106290.84, -69888.38, -63744.31, -91143.51, -92896.06, 0.000, 0.000, 0.000, 11:59:57.195
254, -51719.25, -63924.73, -111971.09, -106499.87, -69870.79, -63726.86, -91080.70, -92899.41, 0.000, 0.000, 0.000, 11:59:57.196
255, -51695.29, -63902.18, -111900.70, -106542.38, -69812.59, -63676.47, -91038.41, -92848.52, 0.000, 0.000, 0.000, 11:59:57.196
0, -51772.43, -63987.70, -111899.69, -106298.43, -69804.02, -63680.99, -91097.70, -92830.70, 0.000, 0.000, 0.000, 11:59:57.196
1, -51784.56, -63997.69, -111967.53, -106261.58, -69856.48, -63726.57, -91139.30, -92878.67, 0.000, 0.000, 0.000, 11:59:57.196
2, -51734.56, -63944.14, -111981.41, -106456.93, -69862.72, -63737.09, -91095.67, -92903.70, 0.000, 0.000, 0.000, 11:59:57.196
3, -51697.32, -63905.22, -111927.23, -106571.33, -69818.63, -63700.21, -91057.36, -92877.53, 0.000, 0.000, 0.000, 11:59:57.197
4, -51768.56, -63978.45, -111901.32, -106353.66, -69794.84, -63676.83, -91103.90, -92836.88, 0.000, 0.000, 0.000, 11:59:57.197
5, -51815.61, -64021.56, -111981.92, -106260.62, -69846.00, -63730.03, -91137.80, -92878.52, 0.000, 0.000, 0.000, 11:59:57.197
6, -51745.00, -63954.48, -111988.41, -106431.47, -69851.81, -63740.60, -91096.97, -92903.44, 0.000, 0.000, 0.000, 11:59:57.197
7, -51693.57, -63902.23, -111933.95, -106574.84, -69805.44, -63698.91, -91046.81, -92871.88, 0.000, 0.000, 0.000, 11:59:57.197
8, -51754.43, -63962.62, -111899.34, -106403.33, -69773.00, -63674.39, -91076.13, -92834.57, 0.000, 0.000, 0.000, 11:59:57.198
9, -51811.99, -64020.60, -111966.12, -106258.40, -69818.16, -63716.33, -91138.25, -92867.59, 0.000, 0.000, 0.000, 11:59:57.198
10, -51765.79, -63973.02, -111996.67, -106394.39, -69838.23, -63738.81, -91121.78, -92905.00, 0.000, 0.000, 0.000, 11:59:57.198
11, -51698.98, -63899.05, -111950.41, -106574.41, -69801.88, -63702.54, -91057.47, -92886.11, 0.000, 0.000, 0.000, 11:59:57.198
12, -51731.88, -63938.59, -111894.86, -106443.81, -69753.55, -63662.71, -91060.96, -92836.58, 0.000, 0.000, 0.000, 11:59:57.199
13, -51796.39, -64006.21, -111948.40, -106251.00, -69796.88, -63694.38, -91126.56, -92853.97, 0.000, 0.000, 0.000, 11:59:57.199
14, -51778.80, -63985.35, -111998.24, -106353.55, -69835.92, -63732.91, -91127.27, -92901.06, 0.000, 0.000, 0.000, 11:59:57.199
15, -51706.31, -63909.78, -111966.21, -106566.45, -69807.18, -63708.13, -91072.27, -92895.88, 0.000, 0.000, 0.000, 11:59:57.199
16, -51732.84, -63935.20, -111906.84, -106494.91, -69754.18, -63668.29, -91065.98, -92850.26, 0.000, 0.000, 0.000, 11:59:57.200
17, -51799.03, -64004.75, -111942.13, -106276.06, -69763.05, -63685.77, -91119.21, -92853.03, 0.000, 0.000, 0.000, 11:59:57.200
18, -51769.59, -63974.89, -111980.70, -106322.98, -69791.13, -63706.61, -91112.50, -92881.71, 0.000, 0.000, 0.000, 11:59:57.200
19, -51702.33, -63900.44, -111961.91, -106530.18, -69775.05, -63694.09, -91059.35, -92883.63, 0.000, 0.000, 0.000, 11:59:57.200
20, -51708.68, -63908.57, -111908.97, -106527.72, -69737.59, -63659.31, -91045.40, -92847.22, 0.000, 0.000, 0.000, 11:59:57.201
21, -51794.29, -63995.88, -111933.71, -106300.91, -69747.32, -63676.95, -91111.54, -92847.55, 0.000, 0.000, 0.000, 11:59:57.201
22, -51798.07, -63997.09, -112000.72, -106303.46, -69798.02, -63725.65, -91147.17, -92900.30, 0.000, 0.000, 0.000, 11:59:57.201
23, -51728.84, -63923.73, -111996.56, -106511.11, -69795.06, -63728.15, -91101.08, -92919.44, 0.000, 0.000, 0.000, 11:59:57.201
24, -51710.29, -63904.60, -111931.25, -106570.12, -69741.59, -63678.26, -91054.16, -92874.60, 0.000, 0.000, 0.000, 11:59:57.201
25, -51776.32, -63979.63, -111917.55, -106324.59, -69723.56, -63664.29, -91101.02, -92838.91, 0.000, 0.000, 0.000, 11:59:57.202
26, -51779.49, -63983.63, -111978.52, -106273.13, -69772.02, -63701.20, -91138.61, -92879.63, 0.000, 0.000, 0.000, 11:59:57.202
27, -51700.72, -63900.91, -111976.40, -106464.08, -69775.86, -63704.68, -91086.80, -92901.16, 0.000, 0.000, 0.000, 11:59:57.202
28, -51650.68, -63852.92, -111903.13, -106562.36, -69721.10, -63658.35, -91032.98, -92859.80, 0.000, 0.000, 0.000, 11:59:57.202
29, -51718.36, -63934.59, -111880.76, -106337.05, -69687.77, -63644.20, -91076.96, -92821.78, 0.000, 0.000, 0.000, 11:59:57.203
30, -51732.29, -63952.03, -111950.20, -106235.52, -69738.09, -63682.38, -91128.44, -92857.68, 0.000, 0.000, 0.000, 11:59:57.203
31, -51665.92, -63883.18, -111967.20, -106401.72, -69754.70, -63703.03, -91104.23, -92893.55, 0.000, 0.000, 0.000, 11:59:57.203
32, -51596.47, -63810.85, -111914.71, -106564.71, -69718.24, -63666.50, -91049.47, -92872.99, 0.000, 0.000, 0.000, 11:59:57.203
33, -51638.81, -63863.67, -111861.89, -106383.75, -69666.38, -63631.82, -91058.39, -92822.34, 0.000, 0.000, 0.000, 11:59:57.203
34, -51687.67, -63912.93, -111925.24, -106218.03, -69710.13, -63664.56, -91115.61, -92844.16, 0.000, 0.000, 0.000, 11:59:57.204
35, -51636.44, -63858.08, -111955.84, -106348.57, -69740.57, -63689.84, -91110.27, -92883.21, 0.000, 0.000, 0.000, 11:59:57.204
36, -51573.77, -63793.51, -111913.59, -106538.29, -69709.48, -63664.05, -91049.34, -92870.20, 0.000, 0.000, 0.000, 11:59:57.204
37, -51608.59, -63834.25, -111862.45, -106428.12, -69663.61, -63628.39, -91050.86, -92825.59, 0.000, 0.000, 0.000, 11:59:57.204
38, -51661.59, -63892.64, -111902.38, -106232.41, -69687.77, -63646.63, -91106.04, -92832.98, 0.000, 0.000, 0.000, 11:59:57.205
39, -51647.10, -63875.05, -111953.49, -106313.38, -69729.41, -63685.35, -91111.90, -92881.02, 0.000, 0.000, 0.000, 11:59:57.205
40, -51573.18, -63791.65, -111920.01, -106519.65, -69706.98, -63663.13, -91051.98, -92876.28, 0.000, 0.000, 0.000, 11:59:57.205
41, -51578.37, -63805.27, -111854.92, -106465.96, -69648.30, -63625.09, -91041.94, -92833.05, 0.000, 0.000, 0.000, 11:59:57.205
42, -51646.61, -63882.54, -111884.78, -106243.96, -69660.48, -63634.54, -91103.63, -92829.45, 0.000, 0.000, 0.000, 11:59:57.206
43, -51639.61, -63870.55, -111942.54, -106278.67, -69711.73, -63677.39, -91121.15, -92875.77, 0.000, 0.000, 0.000, 11:59:57.206
44, -51570.26, -63794.20, -111931.48, -106491.69, -69706.39, -63675.34, -91062.88, -92888.51, 0.000, 0.000, 0.000, 11:59:57.206
45, -51548.87, -63778.18, -111859.13, -106508.09, -69648.37, -63625.49, -91034.61, -92845.16, 0.000, 0.000, 0.000, 11:59:57.206
46, -51624.75, -63860.21, -111868.48, -106270.49, -69645.35, -63630.18, -91094.33, -92831.80, 0.000, 0.000, 0.000, 11:59:57.207
47, -51638.99, -63867.92, -111932.30, -106255.74, -69694.44, -63669.77, -91117.15, -92872.66, 0.000, 0.000, 0.000, 11:59:57.207
48, -51586.17, -63809.58, -111941.35, -106455.37, -69698.84, -63677.46, -91073.88, -92895.91, 0.000, 0.000, 0.000, 11:59:57.207
49, -51549.78, -63776.32, -111874.77, -106526.98, -69651.34, -63627.52, -91026.02, -92848.45, 0.000, 0.000, 0.000, 11:59:57.207
50, -51629.87, -63860.94, -111868.17, -106297.92, -69640.59, -63624.04, -91080.85, -92819.73, 0.000, 0.000, 0.000, 11:59:57.207
51, -51652.67, -63882.67, -111938.12, -106240.23, -69688.91, -63665.68, -91123.41, -92862.58, 0.000, 0.000, 0.000, 11:59:57.208
52, -51592.94, -63815.05, -111946.65, -106424.77, -69701.19, -63673.90, -91082.57, -92887.59, 0.000, 0.000, 0.000, 11:59:57.208
53, -51549.65, -63773.57, -111895.06, -106549.00, -69661.04, -63635.55, -91033.98, -92856.56, 0.000, 0.000, 0.000, 11:59:57.208
54, -51612.79, -63849.79, -111868.80, -106345.04, -69630.91, -63621.22, -91071.11, -92820.11, 0.000, 0.000, 0.000, 11:59:57.208
55, -51648.51, -63887.14, -111934.54, -106230.80, -69680.31, -63664.88, -91127.95, -92858.13, 0.000, 0.000, 0.000, 11:59:57.208
56, -51599.58, -63832.54, -111956.87, -106383.98, -69701.39, -63685.08, -91102.53, -92893.76, 0.000, 0.000, 0.000, 11:59:57.209
57, -51536.73, -63768.09, -111901.52, -106547.14, -69654.36, -63646.30, -91028.52, -92871.34, 0.000, 0.000, 0.000, 11:59:57.209
58, -51577.90, -63815.05, -111849.76, -106391.22, -69604.94, -63607.86, -91042.32, -92820.00, 0.000, 0.000, 0.000, 11:59:57.209
59, -51637.89, -63876.25, -111903.70, -106220.78, -69643.14, -63643.84, -91106.45, -92844.34, 0.000, 0.000, 0.000, 11:59:57.209
60, -51603.07, -63837.07, -111943.26, -106342.84, -69679.59, -63672.54, -91093.15, -92886.67, 0.000, 0.000, 0.000, 11:59:57.210
61, -51543.93, -63775.14, -111910.13, -106534.71, -69662.65, -63652.47, -91038.63, -92880.50, 0.000, 0.000, 0.000, 11:59:57.210
62, -51578.93, -63817.04, -111864.82, -106438.20, -69618.80, -63615.90, -91049.80, -92836.07, 0.000, 0.000, 0.000, 11:59:57.210
63, -51642.36, -63882.49, -111909.28, -106243.65, -69640.41, -63632.93, -91103.34, -92839.63, 0.000, 0.000, 0.000, 11:59:57.210
64, -51613.73, -63847.91, -111948.80, -106326.15, -69675.68, -63670.42, -91104.05, -92882.96, 0.000, 0.000, 0.000, 11:59:57.211
65, -51544.73, -63770.71, -111917.53, -106524.01, -69654.41, -63662.57, -91048.69, -92885.04, 0.000, 0.000, 0.000, 11:59:57.211
66, -51545.02, -63774.82, -111850.92, -106477.63, -69596.58, -63618.38, -91028.30, -92840.18, 0.000, 0.000, 0.000, 11:59:57.211
67, -51630.43, -63865.32, -111887.24, -106247.65, -69618.91, -63630.00, -91095.60, -92831.91, 0.000, 0.000, 0.000, 11:59:57.211
68, -51629.80, -63861.55, -111948.95, -106280.53, -69672.17, -63673.21, -91115.20, -92878.76, 0.000, 0.000, 0.000, 11:59:57.211
69, -51555.79, -63781.66, -111929.28, -106487.77, -69666.63, -63670.66, -91060.73, -92891.88, 0.000, 0.000, 0.000, 11:59:57.212
70, -51533.49, -63760.83, -111861.36, -106517.91, -69618.17, -63622.27, -91030.31, -92850.30, 0.000, 0.000, 0.000, 11:59:57.212
71, -51612.68, -63844.56, -111869.52, -106278.83, -69610.17, -63617.00, -91084.18, -92829.07, 0.000, 0.000, 0.000, 11:59:57.212
72, -51625.18, -63856.94, -111941.80, -106256.68, -69662.79, -63663.33, -91115.81, -92875.23, 0.000, 0.000, 0.000, 11:59:57.212
73, -51551.21, -63778.40, -111937.24, -106453.78, -69666.32, -63659.66, -91072.63, -92891.21, 0.000, 0.000, 0.000, 11:59:57.213
74, -51522.13, -63750.88, -111879.28, -106536.44, -69622.77, -63620.21, -91031.41, -92858.66, 0.000, 0.000, 0.000, 11:59:57.213
75, -51591.85, -63826.77, -111865.13, -106310.95, -69599.75, -63603.88, -91067.48, -92818.81, 0.000, 0.000, 0.000, 11:59:57.213
76, -51624.70, -63859.40, -111935.72, -106239.89, -69661.35, -63649.90, -91122.72, -92861.57, 0.000, 0.000, 0.000, 11:59:57.213
77, -51567.68, -63794.85, -111948.30, -106418.17, -69676.09, -63662.04, -91089.16, -92889.87, 0.000, 0.000, 0.000, 11:59:57.214
78, -51519.59, -63743.51, -111893.27, -106553.13, -69634.94, -63624.71, -91029.27, -92864.05, 0.000, 0.000, 0.000, 11:59:57.214
79, -51580.16, -63807.68, -111857.24, -106364.93, -69590.55, -63600.23, -91056.66, -92825.59, 0.000, 0.000, 0.000, 11:59:57.214
80, -51617.46, -63844.18, -111916.27, -106235.31, -69632.86, -63632.73, -91109.51, -92852.85, 0.000, 0.000, 0.000, 11:59:57.214
81, -51584.45, -63805.71, -111946.23, -106376.02, -69665.98, -63663.18, -91101.44, -92898.56, 0.000, 0.000, 0.000, 11:59:57.214
82, -51531.54, -63747.42, -111915.36, -106558.30, -69645.95, -63634.50, -91041.05, -92886.96, 0.000, 0.000, 0.000, 11:59:57.215
83, -51570.70, -63796.75, -111867.05, -106422.40, -69606.66, -63596.32, -91056.40, -92838.17, 0.000, 0.000, 0.000, 11:59:57.215
84, -51634.09, -63865.19, -111924.93, -106238.80, -69643.95, -63631.50, -91116.99, -92855.87, 0.000, 0.000, 0.000, 11:59:57.215
85, -51599.29, -63825.43, -111963.82, -106347.45, -69676.91, -63660.56, -91108.61, -92893.87, 0.000, 0.000, 0.000, 11:59:57.215
86, -51521.20, -63742.30, -111920.43, -106542.58, -69651.38, -63623.55, -91045.60, -92875.41, 0.000, 0.000, 0.000, 11:59:57.216
87, -51547.28, -63772.99, -111864.11, -106458.65, -69607.06, -63583.36, -91051.41, -92828.55, 0.000, 0.000, 0.000, 11:59:57.216
88, -51614.67, -63845.83, -111905.03, -106246.40, -69625.66, -63605.93, -91107.02, -92835.20, 0.000, 0.000, 0.000, 11:59:57.216
89, -51599.34, -63820.31, -111959.26, -106321.77, -69674.27, -63645.03, -91108.55, -92885.40, 0.000, 0.000, 0.000, 11:59:57.216
90, -51526.04, -63739.71, -111931.45, -106534.24, -69661.58, -63628.64, -91055.91, -92893.31, 0.000, 0.000, 0.000, 11:59:57.216
91, -51537.49, -63757.21, -111870.74, -106502.13, -69620.92, -63589.64, -91048.62, -92846.04, 0.000, 0.000, 0.000, 11:59:57.217
92, -51613.24, -63838.52, -111901.93, -106274.27, -69635.52, -63600.93, -91101.48, -92839.87, 0.000, 0.000, 0.000, 11:59:57.217
93, -51607.25, -63828.36, -111957.07, -106294.01, -69677.96, -63641.02, -91109.59, -92889.80, 0.000, 0.000, 0.000, 11:59:57.217
94, -51534.18, -63755.27, -111943.66, -106500.00, -69676.33, -63641.98, -91074.95, -92909.11, 0.000, 0.000, 0.000, 11:59:57.218
95, -51513.28, -63739.80, -111878.97, -106537.04, -69620.81, -63590.78, -91032.98, -92857.93, 0.000, 0.000, 0.000, 11:59:57.218
96, -51593.57, -63826.79, -111885.20, -106307.62, -69610.93, -63583.80, -91080.92, -92831.24, 0.000, 0.000, 0.000, 11:59:57.218
97, -51617.53, -63846.88, -111959.05, -106272.88, -69661.91, -63623.64, -91110.63, -92874.34, 0.000, 0.000, 0.000, 11:59:57.218
98, -51555.75, -63775.67, -111964.89, -106474.54, -69678.01, -63627.59, -91078.69, -92897.78, 0.000, 0.000, 0.000, 11:59:57.219
99, -51519.63, -63739.30, -111904.92, -106575.84, -69634.45, -63590.00, -91044.91, -92870.35, 0.000, 0.000, 0.000, 11:59:57.219
100, -51587.24, -63817.78, -111886.59, -106348.16, -69616.43, -63577.12, -91089.48, -92838.50, 0.000, 0.000, 0.000, 11:59:57.219
101, -51616.23, -63843.15, -111955.52, -106264.21, -69669.38, -63617.82, -91116.41, -92874.83, 0.000, 0.000, 0.000, 11:59:57.219
102, -51565.90, -63783.58, -111966.41, -106440.81, -69696.72, -63623.14, -91091.88, -92902.27, 0.000, 0.000, 0.000, 11:59:57.219
103, -51521.53, -63740.67, -111913.64, -106577.00, -69653.89, -63584.27, -91038.70, -92875.61, 0.000, 0.000, 0.000, 11:59:57.220
104, -51580.05, -63807.79, -111878.50, -106394.95, -69615.76, -63559.46, -91068.89, -92837.72, 0.000, 0.000, 0.000, 11:59:57.220
105, -51612.30, -63841.63, -111933.33, -106262.63, -69657.51, -63593.21, -91115.81, -92868.68, 0.000, 0.000, 0.000, 11:59:57.673
106, -51560.98, -63784.48, -111948.73, -106398.88, -69666.72, -63603.96, -91074.84, -92889.64, 0.000, 0.000, 0.000, 11:59:57.674
107, -51507.40, -63725.47, -111911.65, -106569.41, -69641.57, -63581.03, -91035.34, -92881.24, 0.000, 0.000, 0.000, 11:59:57.674
108, -51544.11, -63768.65, -111867.73, -106438.91, -69609.12, -63540.96, -91052.13, -92834.03, 0.000, 0.000, 0.000, 11:59:57.674
109, -51611.11, -63835.98, -111923.49, -106255.12, -69643.59, -63567.93, -91104.81, -92846.75, 0.000, 0.000, 0.000, 11:59:57.674
110, -51581.10, -63800.17, -111967.64, -106354.16, -69692.13, -63602.25, -91109.87, -92887.79, 0.000, 0.000, 0.000, 11:59:57.675
111, -51501.93, -63717.91, -111932.55, -106556.15, -69680.04, -63575.15, -91056.53, -92883.41, 0.000, 0.000, 0.000, 11:59:57.675
112, -51525.95, -63745.61, -111874.59, -106478.37, -69633.33, -63531.25, -91044.55, -92831.17, 0.000, 0.000, 0.000, 11:59:57.675
113, -51612.23, -63831.57, -111926.45, -106262.96, -69661.47, -63563.96, -91107.88, -92850.20, 0.000, 0.000, 0.000, 11:59:57.675
114, -51590.11, -63807.50, -111980.36, -106322.75, -69716.61, -63603.79, -91125.40, -92897.80, 0.000, 0.000, 0.000, 11:59:57.676
115, -51507.02, -63720.64, -111953.73, -106540.57, -69706.44, -63582.86, -91070.80, -92900.22, 0.000, 0.000, 0.000, 11:59:57.676
116, -51505.04, -63723.26, -111884.91, -106527.85, -69648.13, -63533.85, -91027.30, -92848.20, 0.000, 0.000, 0.000, 11:59:57.676
117, -51580.92, -63803.39, -111906.59, -106293.85, -69655.39, -63539.28, -91084.95, -92833.70, 0.000, 0.000, 0.000, 11:59:57.676
118, -51569.88, -63787.09, -111957.60, -106300.42, -69702.33, -63568.31, -91104.88, -92871.00, 0.000, 0.000, 0.000, 11:59:57.677
119, -51502.42, -63719.19, -111949.27, -106496.54, -69702.48, -63569.19, -91067.91, -92892.57, 0.000, 0.000, 0.000, 11:59:57.677
120, -51477.34, -63698.38, -111885.20, -106543.14, -69656.62, -63527.39, -91036.51, -92853.19, 0.000, 0.000, 0.000, 11:59:57.677
121, -51554.18, -63784.37, -111881.27, -106307.71, -69641.98, -63514.25, -91077.25, -92823.15, 0.000, 0.000, 0.000, 11:59:57.677
122, -51574.97, -63800.95, -111951.95, -106263.72, -69706.38, -63558.84, -91122.74, -92872.26, 0.000, 0.000, 0.000, 11:59:57.677
123, -51509.50, -63732.11, -111955.68, -106455.41, -69716.56, -63561.52, -91081.81, -92897.02, 0.000, 0.000, 0.000, 11:59:57.678
124, -51466.03, -63686.38, -111897.10, -106563.23, -69679.02, -63511.32, -91028.37, -92861.23, 0.000, 0.000, 0.000, 11:59:57.678
125, -51546.88, -63774.31, -111883.76, -106347.09, -69667.21, -63503.88, -91092.03, -92837.03, 0.000, 0.000, 0.000, 11:59:57.678
126, -51580.05, -63807.72, -111956.53, -106254.58, -69725.20, -63550.79, -91145.25, -92878.27, 0.000, 0.000, 0.000, 11:59:57.678
127, -51514.18, -63737.52, -111962.48, -106428.09, -69742.67, -63567.33, -91101.98, -92910.19, 0.000, 0.000, 0.000, 11:59:57.679
128, -51465.80, -63690.09, -111914.87, -106576.27, -69713.32, -63530.16, -91061.61, -92885.02, 0.000, 0.000, 0.000, 11:59:57.679
129, -51516.03, -63745.99, -111876.53, -106407.40, -69670.30, -63491.16, -91063.24, -92828.98, 0.000, 0.000, 0.000, 11:59:57.679
130, -51555.91, -63786.87, -111931.77, -106259.95, -69714.82, -63527.84, -91118.98, -92862.15, 0.000, 0.000, 0.000, 11:59:57.679
131, -51501.52, -63731.77, -111953.38, -106390.43, -69747.97, -63543.64, -91098.04, -92893.34, 0.000, 0.000, 0.000, 11:59:57.679
132, -51437.26, -63665.05, -111909.39, -106568.55, -69714.73, -63504.57, -91031.95, -92865.13, 0.000, 0.000, 0.000, 11:59:57.680
133, -51487.44, -63719.50, -111874.88, -106458.41, -69690.39, -63481.50, -91060.80, -92836.65, 0.000, 0.000, 0.000, 11:59:57.680
134, -51541.49, -63776.54, -111919.45, -106267.81, -69725.62, -63507.41, -91115.61, -92852.20, 0.000, 0.000, 0.000, 11:59:57.680
135, -51499.29, -63735.26, -111945.73, -106351.36, -69748.77, -63529.07, -91098.20, -92884.17, 0.000, 0.000, 0.000, 11:59:57.680
136, -51443.41, -63680.03, -111928.34, -106554.30, -69745.35, -63515.39, -91062.55, -92891.09, 0.000, 0.000, 0.000, 11:59:57.680
137, -51459.17, -63699.43, -111877.34, -106503.71, -69706.86, -63470.44, -91055.66, -92845.14, 0.000, 0.000, 0.000, 11:59:57.683
138, -51521.80, -63765.14, -111904.59, -106280.89, -69722.22, -63481.86, -91110.67, -92840.00, 0.000, 0.000, 0.000, 11:59:57.683
139, -51511.47, -63750.08, -111956.89, -106318.77, -69774.37, -63523.77, -91120.37, -92889.24, 0.000, 0.000, 0.000, 11:59:57.684
140, -51442.18, -63676.03, -111941.60, -106526.51, -69765.34, -63515.79, -91063.33, -92902.67, 0.000, 0.000, 0.000, 11:59:57.684
141, -51431.77, -63667.49, -111877.12, -106534.27, -69722.17, -63468.63, -91042.77, -92859.34, 0.000, 0.000, 0.000, 11:59:57.684
142, -51511.31, -63753.36, -111890.84, -106295.41, -69725.08, -63471.35, -91094.98, -92837.66, 0.000, 0.000, 0.000, 11:59:57.684
143, -51512.59, -63750.68, -111954.85, -106294.34, -69784.96, -63508.57, -91130.67, -92883.85, 0.000, 0.000, 0.000, 11:59:57.685
144, -51437.04, -63673.39, -111942.16, -106493.95, -69782.52, -63505.57, -91080.14, -92903.32, 0.000, 0.000, 0.000, 11:59:57.685
145, -51422.27, -63658.13, -111896.45, -106562.63, -69749.24, -63467.46, -91047.37, -92873.80, 0.000, 0.000, 0.000, 11:59:57.685
146, -51495.42, -63736.45, -111895.82, -106347.30, -69740.91, -63449.56, -91093.70, -92843.53, 0.000, 0.000, 0.000, 11:59:57.685
147, -51526.54, -63766.93, -111964.29, -106286.81, -69796.25, -63497.64, -91139.48, -92891.09, 0.000, 0.000, 0.000, 11:59:57.686
148, -51452.95, -63690.49, -111971.09, -106469.70, -69809.01, -63493.93, -91090.02, -92904.24, 0.000, 0.000, 0.000, 11:59:57.686
149, -51393.12, -63628.69, -111900.63, -106589.14, -69751.57, -63437.91, -91022.72, -92862.71, 0.000, 0.000, 0.000, 11:59:57.686
150, -51455.32, -63700.43, -111868.29, -106381.72, -69725.08, -63417.57, -91071.33, -92830.21, 0.000, 0.000, 0.000, 11:59:57.686
151, -51499.33, -63744.98, -111937.55, -106275.48, -69785.63, -63465.90, -91124.35, -92880.13, 0.000, 0.000, 0.000, 11:59:57.687
152, -51451.01, -63691.29, -111957.02, -106426.64, -69810.62, -63473.97, -91096.79, -92897.18, 0.000, 0.000, 0.000, 11:59:57.687
153, -51389.90, -63629.36, -111907.24, -106583.91, -69774.81, -63428.86, -91036.51, -92867.38, 0.000, 0.000, 0.000, 11:59:57.687
154, -51440.91, -63687.94, -111861.72, -106417.91, -69738.94, -63395.11, -91061.98, -92826.34, 0.000, 0.000, 0.000, 11:59:57.688
155, -51488.43, -63738.07, -111916.19, -106257.95, -69780.73, -63419.18, -91114.96, -92843.42, 0.000, 0.000, 0.000, 11:59:57.688
156, -51449.89, -63692.55, -111951.14, -106382.27, -69814.53, -63444.57, -91098.48, -92881.42, 0.000, 0.000, 0.000, 11:59:57.688
157, -51385.90, -63626.16, -111921.48, -106564.80, -69788.45, -63423.09, -91046.01, -92877.93, 0.000, 0.000, 0.000, 11:59:57.688
158, -51417.71, -63662.88, -111868.29, -106462.52, -69752.15, -63387.85, -91055.55, -92834.48, 0.000, 0.000, 0.000, 11:59:57.688
159, -51495.15, -63745.21, -111929.04, -106262.02, -69800.85, -63424.82, -91137.83, -92858.38, 0.000, 0.000, 0.000, 11:59:57.689
160, -51465.45, -63714.00, -111980.47, -106353.42, -69846.78, -63459.75, -91136.75, -92904.95, 0.000, 0.000, 0.000, 11:59:57.689
161, -51387.60, -63631.52, -111944.53, -106567.34, -69829.48, -63428.04, -91070.99, -92897.80, 0.000, 0.000, 0.000, 11:59:57.689
162, -51401.99, -63649.70, -111883.91, -106526.64, -69787.82, -63382.79, -91065.02, -92852.74, 0.000, 0.000, 0.000, 11:59:57.689
163, -51465.34, -63721.96, -111908.90, -106308.27, -69801.52, -63390.35, -91119.21, -92849.97, 0.000, 0.000, 0.000, 11:59:57.689
164, -51452.98, -63708.48, -111957.31, -106333.88, -69845.34, -63429.33, -91124.35, -92901.02, 0.000, 0.000, 0.000, 11:59:57.690
165, -51388.63, -63637.74, -111948.95, -106531.56, -69843.74, -63412.77, -91069.88, -92894.95, 0.000, 0.000, 0.000, 11:59:57.690
166, -51365.60, -63616.75, -111882.63, -106553.35, -69795.29, -63357.58, -91037.00, -92841.63, 0.000, 0.000, 0.000, 11:59:57.690
167, -51439.90, -63699.41, -111888.34, -106314.44, -69790.33, -63362.88, -91091.76, -92833.50, 0.000, 0.000, 0.000, 11:59:57.690
168, -51457.52, -63715.48, -111958.30, -106291.57, -69849.00, -63404.75, -91134.32, -92877.38, 0.000, 0.000, 0.000, 11:59:57.691
169, -51396.79, -63645.67, -111962.30, -106496.52, -69863.93, -63403.78, -91096.77, -92903.48, 0.000, 0.000, 0.000, 11:59:57.691
170, -51357.64, -63605.29, -111891.13, -106572.27, -69815.83, -63349.36, -91037.00, -92858.24, 0.000, 0.000, 0.000, 11:59:57.691
171, -51435.36, -63692.75, -111884.54, -106356.26, -69803.31, -63339.39, -91082.69, -92833.03, 0.000, 0.000, 0.000, 11:59:57.691
172, -51463.91, -63722.18, -111956.46, -106282.66, -69856.77, -63383.42, -91125.89, -92874.13, 0.000, 0.000, 0.000, 11:59:57.691
173, -51396.96, -63656.07, -111968.98, -106461.89, -69873.38, -63398.33, -91096.61, -92909.29, 0.000, 0.000, 0.000, 11:59:57.692
174, -51346.25, -63602.36, -111908.05, -106589.14, -69828.88, -63351.66, -91041.20, -92876.95, 0.000, 0.000, 0.000, 11:59:57.692
175, -51407.58, -63668.07, -111880.70, -106393.23, -69804.90, -63325.66, -91070.37, -92840.80, 0.000, 0.000, 0.000, 11:59:57.692
176, -51457.45, -63721.49, -111954.20, -106272.75, -69869.07, -63368.45, -91137.24, -92872.66, 0.000, 0.000, 0.000, 11:59:57.692
177, -51398.44, -63659.00, -111978.57, -106426.87, -69901.30, -63380.63, -91116.62, -92905.13, 0.000, 0.000, 0.000, 11:59:57.692
178, -51318.91, -63580.52, -111917.33, -106599.13, -69853.55, -63337.73, -91044.55, -92879.67, 0.000, 0.000, 0.000, 11:59:57.692
179, -51375.59, -63647.17, -111872.24, -106446.58, -69812.81, -63315.85, -91065.52, -92850.73, 0.000, 0.000, 0.000, 11:59:57.692
180, -51443.92, -63716.39, -111940.46, -106272.75, -69864.04, -63353.36, -91135.55, -92872.63, 0.000, 0.000, 0.000, 11:59:57.692
181, -51413.46, -63683.67, -111984.60, -106389.67, -69906.87, -63381.75, -91124.28, -92911.98, 0.000, 0.000, 0.000, 11:59:57.693
182, -51343.07, -63613.20, -111950.59, -106586.21, -69888.07, -63357.40, -91075.02, -92908.02, 0.000, 0.000, 0.000, 11:59:57.693
183, -51363.12, -63638.19, -111888.90, -106491.10, -69844.33, -63315.98, -91077.30, -92860.61, 0.000, 0.000, 0.000, 11:59:57.693
184, -51428.77, -63705.80, -111929.02, -106281.63, -69874.23, -63338.96, -91134.30, -92869.33, 0.000, 0.000, 0.000, 11:59:57.693
185, -51398.55, -63671.51, -111977.38, -106364.33, -69916.63, -63362.84, -91130.90, -92906.45, 0.000, 0.000, 0.000, 11:59:57.693
186, -51329.71, -63604.25, -111955.19, -106568.58, -69906.46, -63344.68, -91076.70, -92914.45, 0.000, 0.000, 0.000, 11:59:57.693
187, -51325.84, -63604.10, -111885.23, -106535.88, -69863.99, -63296.63, -91053.88, -92862.11, 0.000, 0.000, 0.000, 11:59:57.693
188, -51398.75, -63663.29, -111908.34, -106297.27, -69878.79, -63304.27, -91109.59, -92847.31, 0.000, 0.000, 0.000, 11:59:57.694
189, -51399.38, -63650.66, -111973.77, -106321.73, -69939.12, -63348.24, -91141.42, -92899.13, 0.000, 0.000, 0.000, 11:59:57.694
190, -51326.33, -63572.02, -111962.34, -106526.73, -69933.35, -63338.11, -91081.97, -92908.02, 0.000, 0.000, 0.000, 11:59:57.694
191, -51308.90, -63559.91, -111901.32, -106557.52, -69883.22, -63296.92, -91041.87, -92866.60, 0.000, 0.000, 0.000, 11:59:57.694
192, -51384.45, -63649.36, -111913.37, -106328.97, -69890.23, -63300.72, -91104.19, -92855.89, 0.000, 0.000, 0.000, 11:59:57.694
193, -51397.99, -63662.77, -111983.53, -106308.72, -69956.76, -63343.61, -91144.53, -92904.62, 0.000, 0.000, 0.000, 11:59:57.694
194, -51329.62, -63595.65, -111978.52, -106502.20, -69961.20, -63337.40, -91098.66, -92921.02, 0.000, 0.000, 0.000, 11:59:57.694
195, -51286.66, -63551.91, -111910.84, -106587.27, -69915.34, -63287.26, -91048.35, -92887.25, 0.000, 0.000, 0.000, 11:59:57.694
196, -51356.84, -63628.20, -111895.27, -106373.91, -69908.14, -63272.09, -91096.45, -92847.29, 0.000, 0.000, 0.000, 11:59:57.695
197, -51383.24, -63663.24, -111962.66, -106292.47, -69959.86, -63314.15, -91131.45, -92881.28, 0.000, 0.000, 0.000, 11:59:57.695
198, -51330.20, -63608.68, -111981.34, -106466.98, -69985.57, -63329.87, -91095.18, -92913.31, 0.000, 0.000, 0.000, 11:59:57.695
199, -51270.63, -63551.68, -111924.59, -106603.40, -69955.30, -63290.73, -91048.80, -92885.69, 0.000, 0.000, 0.000, 11:59:57.695
200, -51316.61, -63610.38, -111882.21, -106411.87, -69921.13, -63262.41, -91076.94, -92843.11, 0.000, 0.000, 0.000, 11:59:57.695
201, -51362.95, -63658.26, -111949.89, -106278.77, -69972.52, -63302.39, -91135.48, -92875.65, 0.000, 0.000, 0.000, 11:59:57.695
202, -51323.14, -63618.23, -111987.40, -106424.27, -70014.11, -63331.52, -91127.30, -92920.71, 0.000, 0.000, 0.000, 11:59:57.695
203, -51263.21, -63558.61, -111945.55, -106590.64, -69984.98, -63299.71, -91070.44, -92899.03, 0.000, 0.000, 0.000, 11:59:57.696
204, -51309.63, -63612.23, -111907.91, -106462.56, -69953.78, -63269.18, -91081.32, -92858.46, 0.000, 0.000, 0.000, 11:59:57.696
205, -51361.51, -63663.73, -111959.33, -106289.98, -69998.30, -63298.93, -91143.62, -92879.19, 0.000, 0.000, 0.000, 11:59:57.696
206, -51322.24, -63613.02, -111989.77, -106400.20, -70027.63, -63326.89, -91124.59, -92919.10, 0.000, 0.000, 0.000, 11:59:57.696
207, -51252.93, -63543.50, -111950.85, -106592.18, -70003.25, -63295.89, -91059.39, -92905.11, 0.000, 0.000, 0.000, 11:59:57.696
208, -51279.32, -63579.40, -111899.00, -106518.28, -69966.37, -63253.11, -91054.45, -92858.09, 0.000, 0.000, 0.000, 11:59:57.696
209, -51350.07, -63650.86, -111936.23, -106306.88, -69995.47, -63268.00, -91113.17, -92858.95, 0.000, 0.000, 0.000, 11:59:57.696
210, -51335.00, -63631.41, -111985.12, -106358.23, -70049.34, -63300.07, -91128.15, -92895.55, 0.000, 0.000, 0.000, 11:59:57.696
211, -51259.72, -63552.27, -111963.13, -106563.70, -70043.26, -63289.10, -91074.75, -92901.27, 0.000, 0.000, 0.000, 11:59:57.697
212, -51262.90, -63559.29, -111902.28, -106541.13, -69996.45, -63249.18, -91039.50, -92858.30, 0.000, 0.000, 0.000, 11:59:57.697
213, -51330.42, -63630.96, -111921.38, -106315.48, -70013.57, -63257.94, -91105.06, -92847.58, 0.000, 0.000, 0.000, 11:59:57.697
214, -51324.45, -63627.30, -111978.03, -106332.19, -70064.55, -63298.06, -91120.59, -92891.90, 0.000, 0.000, 0.000, 11:59:57.697
215, -51250.96, -63553.63, -111967.26, -106535.05, -70067.95, -63294.75, -91078.77, -92910.14, 0.000, 0.000, 0.000, 11:59:57.697
216, -51229.04, -63537.78, -111903.85, -106575.77, -70022.49, -63255.59, -91046.85, -92873.51, 0.000, 0.000, 0.000, 11:59:57.697
217, -51305.77, -63620.64, -111906.75, -106347.36, -70021.06, -63251.34, -91092.41, -92848.72, 0.000, 0.000, 0.000, 11:59:57.697
218, -51325.10, -63624.98, -111967.69, -106306.84, -70083.47, -63290.01, -91127.74, -92892.13, 0.000, 0.000, 0.000, 11:59:57.698
219, -51279.68, -63567.49, -111979.02, -106485.85, -70099.45, -63303.25, -91086.53, -92918.66, 0.000, 0.000, 0.000, 11:59:57.698
220, -51237.86, -63543.68, -111924.63, -106586.99, -70066.52, -63262.90, -91046.79, -92885.94, 0.000, 0.000, 0.000, 11:59:57.698
221, -51303.36, -63622.32, -111904.88, -106376.02, -70047.17, -63245.53, -91084.27, -92850.04, 0.000, 0.000, 0.000, 11:59:57.698
222, -51337.86, -63649.96, -111972.55, -106285.70, -70103.54, -63285.21, -91131.88, -92890.25, 0.000, 0.000, 0.000, 11:59:57.699
223, -51283.26, -63588.34, -111990.66, -106464.20, -70133.27, -63297.77, -91109.71, -92922.84, 0.000, 0.000, 0.000, 11:59:57.699
224, -51226.71, -63534.34, -111934.63, -106602.77, -70091.49, -63259.05, -91045.54, -92891.70, 0.000, 0.000, 0.000, 11:59:57.699
225, -51281.58, -63598.89, -111898.46, -106423.76, -70050.23, -63230.22, -91062.05, -92845.14, 0.000, 0.000, 0.000, 11:59:58.154
226, -51329.84, -63644.46, -111962.77, -106277.83, -70104.88, -63268.33, -91128.02, -92875.20, 0.000, 0.000, 0.000, 11:59:58.154
227, -51288.18, -63597.35, -111992.02, -106417.91, -70144.94, -63296.00, -91108.93, -92919.20, 0.000, 0.000, 0.000, 11:59:58.154
228, -51218.57, -63525.36, -111942.90, -106596.07, -70117.15, -63259.93, -91047.84, -92897.47, 0.000, 0.000, 0.000, 11:59:58.154
229, -51253.64, -63570.24, -111888.13, -106475.82, -70072.07, -63219.52, -91050.72, -92843.53, 0.000, 0.000, 0.000, 11:59:58.155
230, -51329.30, -63647.02, -111950.88, -106282.56, -70119.41, -63261.34, -91123.09, -92867.34, 0.000, 0.000, 0.000, 11:59:58.155
231, -51296.83, -63608.91, -111996.79, -106377.05, -70167.24, -63295.20, -91121.89, -92914.77, 0.000, 0.000, 0.000, 11:59:58.155
232, -51238.00, -63547.77, -111973.81, -106577.63, -70162.30, -63280.16, -91078.91, -92919.35, 0.000, 0.000, 0.000, 11:59:58.155
233, -51253.98, -63569.86, -111921.64, -106519.96, -70131.10, -63246.65, -91080.56, -92885.89, 0.000, 0.000, 0.000, 11:59:58.155
234, -51319.09, -63643.93, -111947.28, -106304.63, -70147.69, -63256.98, -91132.55, -92885.53, 0.000, 0.000, 0.000, 11:59:58.155
235, -51327.92, -63646.93, -111999.27, -106357.51, -70197.80, -63295.42, -91146.92, -92927.84, 0.000, 0.000, 0.000, 11:59:58.156
236, -51281.72, -63598.51, -111989.01, -106569.59, -70197.02, -63283.57, -91092.09, -92930.41, 0.000, 0.000, 0.000, 11:59:58.156
237, -51284.55, -63603.38, -111920.48, -106571.15, -70140.69, -63225.89, -91042.74, -92872.73, 0.000, 0.000, 0.000, 11:59:58.156
238, -51378.81, -63696.50, -111932.80, -106342.04, -70144.66, -63227.92, -91098.73, -92860.52, 0.000, 0.000, 0.000, 11:59:58.156
239, -51417.26, -63730.25, -112005.57, -106339.20, -70213.69, -63275.91, -91128.48, -92903.41, 0.000, 0.000, 0.000, 11:59:58.156
240, -51379.51, -63688.84, -112002.69, -106547.07, -70221.89, -63277.65, -91086.53, -92920.09, 0.000, 0.000, 0.000, 11:59:58.157
241, -51379.19, -63688.86, -111953.47, -106610.24, -70184.45, -63241.78, -91060.27, -92890.52, 0.000, 0.000, 0.000, 11:59:58.157
242, -51473.99, -63791.18, -111956.91, -106387.62, -70186.02, -63242.83, -91112.28, -92874.52, 0.000, 0.000, 0.000, 11:59:58.157
243, -51522.18, -63833.65, -112028.15, -106336.86, -70248.47, -63291.11, -91154.34, -92920.71, 0.000, 0.000, 0.000, 11:59:58.157
244, -51481.61, -63777.55, -112043.84, -106536.23, -70269.77, -63300.09, -91117.84, -92944.18, 0.000, 0.000, 0.000, 11:59:58.157
245, -51452.91, -63749.77, -111989.14, -106657.38, -70236.35, -63259.48, -91071.02, -92912.27, 0.000, 0.000, 0.000, 11:59:58.157
246, -51520.97, -63844.49, -111961.38, -106463.05, -70211.79, -63238.38, -91102.96, -92874.67, 0.000, 0.000, 0.000, 11:59:58.158
247, -51576.29, -63900.30, -112029.20, -106357.35, -70261.79, -63276.64, -91153.34, -92909.70, 0.000, 0.000, 0.000, 11:59:58.158
248, -51544.15, -63860.77, -112063.91, -106512.92, -70293.98, -63299.69, -91135.57, -92946.17, 0.000, 0.000, 0.000, 11:59:58.158
249, -51504.95, -63821.20, -112024.37, -106670.95, -70273.05, -63267.50, -91089.97, -92927.66, 0.000, 0.000, 0.000, 11:59:58.158
250, -51555.88, -63878.09, -111983.73, -106517.44, -70239.10, -63242.80, -91100.34, -92888.05, 0.000, 0.000, 0.000, 11:59:58.158
251, -51600.01, -63920.62, -112038.16, -106365.02, -70283.02, -63278.99, -91155.93, -92917.80, 0.000, 0.000, 0.000, 11:59:58.158
252, -51562.05, -63879.20, -112071.28, -106486.97, -70321.88, -63301.75, -91147.88, -92955.54, 0.000, 0.000, 0.000, 11:59:58.158
253, -51511.07, -63815.32, -112040.66, -106671.51, -70312.15, -63276.96, -91092.32, -92939.06, 0.000, 0.000, 0.000, 11:59:58.159
254, -51541.98, -63867.89, -111986.59, -106556.23, -70275.34, -63243.54, -91099.60, -92895.10, 0.000, 0.000, 0.000, 11:59:58.159
255, -51592.77, -63917.92, -112025.42, -106355.72, -70301.24, -63264.06, -91156.98, -92903.62, 0.000, 0.000, 0.000, 11:59:58.159
0, -51555.95, -63876.93, -112061.90, -106434.87, -70346.21, -63297.43, -91155.02, -92944.25, 0.000, 0.000, 0.000, 11:59:58.159
1, -51464.27, -63788.50, -112030.31, -106640.52, -70332.16, -63276.91, -91095.18, -92940.83, 0.000, 0.000, 0.000, 11:59:58.159
2, -51464.02, -63779.52, -111959.37, -106583.71, -70281.68, -63227.25, -91077.90, -92888.52, 0.000, 0.000, 0.000, 11:59:58.160
3, -51528.19, -63838.91, -111994.69, -106356.16, -70303.52, -63251.84, -91148.16, -92897.36, 0.000, 0.000, 0.000, 11:59:58.160
4, -51500.52, -63829.36, -112042.16, -106392.47, -70352.18, -63291.84, -91160.29, -92940.34, 0.000, 0.000, 0.000, 11:59:58.160
5, -51418.04, -63746.82, -112020.93, -106586.91, -70342.77, -63279.66, -91101.53, -92941.99, 0.000, 0.000, 0.000, 11:59:58.160
6, -51403.38, -63735.48, -111961.41, -106606.06, -70306.29, -63240.48, -91083.60, -92913.16, 0.000, 0.000, 0.000, 11:59:58.161
7, -51453.51, -63792.08, -111959.37, -106364.04, -70307.74, -63235.95, -91131.70, -92885.89, 0.000, 0.000, 0.000, 11:59:58.161
8, -51450.96, -63783.05, -112023.36, -106348.86, -70368.56, -63284.18, -91162.64, -92924.29, 0.000, 0.000, 0.000, 11:59:58.161
9, -51372.82, -63698.40, -112023.77, -106555.88, -70382.67, -63285.57, -91119.61, -92944.38, 0.000, 0.000, 0.000, 11:59:58.161
10, -51323.58, -63664.11, -111964.55, -106624.45, -70336.84, -63239.25, -91076.70, -92904.13, 0.000, 0.000, 0.000, 11:59:58.161
11, -51401.43, -63738.28, -111956.40, -106396.53, -70326.12, -63233.24, -91121.20, -92883.79, 0.000, 0.000, 0.000, 11:59:58.162
12, -51418.27, -63744.40, -112014.73, -106334.62, -70379.65, -63268.31, -91152.67, -92918.12, 0.000, 0.000, 0.000, 11:59:58.162
13, -51352.28, -63674.06, -112026.36, -106516.66, -70398.31, -63275.51, -91114.89, -92934.88, 0.000, 0.000, 0.000, 11:59:58.162
14, -51299.38, -63625.96, -111973.12, -106641.89, -70367.11, -63240.53, -91072.83, -92910.74, 0.000, 0.000, 0.000, 11:59:58.162
15, -51348.59, -63684.52, -111940.64, -106439.48, -70342.03, -63220.32, -91101.02, -92873.75, 0.000, 0.000, 0.000, 11:59:58.162
16, -51391.15, -63722.63, -112008.14, -106310.70, -70401.20, -63266.66, -91165.23, -92912.51, 0.000, 0.000, 0.000, 11:59:58.162
17, -51341.75, -63663.24, -112040.33, -106467.37, -70435.24, -63289.25, -91141.60, -92947.20, 0.000, 0.000, 0.000, 11:59:58.162
18, -51277.07, -63594.38, -111994.62, -106645.45, -70405.40, -63252.64, -91072.09, -92928.85, 0.000, 0.000, 0.000, 11:59:58.162
19, -51323.65, -63648.82, -111948.09, -106489.90, -70365.77, -63230.31, -91079.53, -92889.63, 0.000, 0.000, 0.000, 11:59:58.163
20, -51363.14, -63696.19, -111995.65, -106315.82, -70404.55, -63258.95, -91124.62, -92901.47, 0.000, 0.000, 0.000, 11:59:58.163
21, -51320.63, -63649.92, -112021.38, -106431.09, -70440.83, -63283.80, -91111.90, -92938.08, 0.000, 0.000, 0.000, 11:59:58.163
22, -51247.12, -63571.24, -111982.08, -106623.49, -70420.40, -63263.19, -91060.78, -92930.66, 0.000, 0.000, 0.000, 11:59:58.163
23, -51276.31, -63612.48, -111932.55, -106522.69, -70383.83, -63229.26, -91066.86, -92887.07, 0.000, 0.000, 0.000, 11:59:58.163
24, -51344.35, -63689.86, -111977.85, -106309.27, -70422.01, -63257.63, -91131.99, -92900.44, 0.000, 0.000, 0.000, 11:59:58.163
25, -51309.14, -63651.48, -112023.72, -106384.13, -70468.05, -63286.17, -91124.57, -92939.80, 0.000, 0.000, 0.000, 11:59:58.163
26, -51225.05, -63566.39, -111989.12, -106589.63, -70443.89, -63255.93, -91058.03, -92927.77, 0.000, 0.000, 0.000, 11:59:58.164
27, -51240.61, -63587.83, -111939.61, -106561.36, -70404.28, -63217.86, -91047.13, -92880.01, 0.000, 0.000, 0.000, 11:59:58.164
28, -51321.82, -63675.34, -111979.58, -106340.45, -70428.18, -63243.07, -91112.66, -92886.94, 0.000, 0.000, 0.000, 11:59:58.164
29, -51314.95, -63666.91, -112039.32, -106366.20, -70481.10, -63285.07, -91131.77, -92932.31, 0.000, 0.000, 0.000, 11:59:58.164
30, -51248.28, -63597.66, -112029.06, -106576.49, -70484.34, -63280.16, -91084.88, -92946.33, 0.000, 0.000, 0.000, 11:59:58.164
31, -51236.63, -63589.21, -111973.23, -106603.16, -70448.70, -63241.73, -91060.76, -92911.28, 0.000, 0.000, 0.000, 11:59:58.164
32, -51301.90, -63662.30, -111971.15, -106369.58, -70446.84, -63242.98, -91110.45, -92896.33, 0.000, 0.000, 0.000, 11:59:58.164
33, -51308.47, -63671.45, -112029.47, -106349.13, -70502.83, -63285.50, -91136.87, -92940.77, 0.000, 0.000, 0.000, 11:59:58.164
34, -51246.47, -63602.80, -112032.04, -106545.73, -70516.89, -63291.31, -91093.28, -92958.42, 0.000, 0.000, 0.000, 11:59:58.164
35, -51204.34, -63563.53, -111971.82, -106622.31, -70478.71, -63246.88, -91052.89, -92918.14, 0.000, 0.000, 0.000, 11:59:58.165
36, -51257.18, -63626.07, -111940.64, -106392.38, -70451.04, -63226.80, -91086.02, -92881.17, 0.000, 0.000, 0.000, 11:59:58.165
37, -51292.27, -63664.14, -112015.90, -106306.77, -70518.34, -63278.82, -91145.20, -92931.20, 0.000, 0.000, 0.000, 11:59:58.165
38, -51227.63, -63595.67, -112022.85, -106484.49, -70544.05, -63283.98, -91094.55, -92948.45, 0.000, 0.000, 0.000, 11:59:58.165
39, -51178.92, -63545.61, -111970.03, -106628.79, -70512.24, -63251.32, -91041.09, -92926.97, 0.000, 0.000, 0.000, 11:59:58.165
40, -51237.89, -63609.98, -111933.27, -106437.13, -70476.19, -63229.44, -91065.41, -92890.18, 0.000, 0.000, 0.000, 11:59:58.165
41, -51291.53, -63669.19, -112005.13, -106300.02, -70529.90, -63272.58, -91122.16, -92921.20, 0.000, 0.000, 0.000, 11:59:58.166
42, -51240.37, -63620.21, -112037.04, -106455.21, -70562.91, -63294.46, -91096.97, -92954.71, 0.000, 0.000, 0.000, 11:59:58.166
43, -51190.45, -63560.22, -111996.70, -106632.66, -70543.49, -63265.98, -91049.31, -92944.05, 0.000, 0.000, 0.000, 11:59:58.166
44, -51232.03, -63604.08, -111945.09, -106489.95, -70499.55, -63231.88, -91053.90, -92898.07, 0.000, 0.000, 0.000, 11:59:58.166
45, -51289.34, -63668.65, -111998.71, -106307.46, -70534.13, -63266.70, -91103.43, -92917.05, 0.000, 0.000, 0.000, 11:59:58.166
46, -51256.32, -63631.66, -112043.05, -106423.47, -70582.27, -63298.82, -91100.88, -92963.27, 0.000, 0.000, 0.000, 11:59:58.166
47, -51186.84, -63556.67, -112010.00, -106622.82, -70568.52, -63276.40, -91038.80, -92953.28, 0.000, 0.000, 0.000, 11:59:58.166
48, -51207.31, -63589.06, -111951.50, -106537.06, -70537.16, -63240.35, -91047.05, -92912.42, 0.000, 0.000, 0.000, 11:59:58.166
49, -51290.08, -63671.40, -112001.52, -106319.78, -70584.64, -63274.12, -91120.70, -92929.70, 0.000, 0.000, 0.000, 11:59:58.166
50, -51263.68, -63634.99, -112047.16, -106387.57, -70626.33, -63304.41, -91118.49, -92966.06, 0.000, 0.000, 0.000, 11:59:58.167
51, -51198.23, -63574.62, -112027.68, -106602.55, -70616.00, -63295.94, -91068.29, -92972.34, 0.000, 0.000, 0.000, 11:59:58.167
52, -51193.81, -63578.62, -111955.08, -106575.62, -70567.12, -63247.19, -91044.11, -92921.49, 0.000, 0.000, 0.000, 11:59:58.167
53, -51277.27, -63661.61, -111978.59, -106330.35, -70581.98, -63259.37, -91106.02, -92912.22, 0.000, 0.000, 0.000, 11:59:58.167
54, -51275.70, -63652.60, -112039.34, -106352.93, -70636.36, -63300.32, -91120.37, -92956.25, 0.000, 0.000, 0.000, 11:59:58.167
55, -51204.63, -63578.64, -112027.79, -106563.03, -70635.38, -63293.57, -91066.46, -92965.66, 0.000, 0.000, 0.000, 11:59:58.167
56, -51184.87, -63558.28, -111963.26, -106605.13, -70594.45, -63245.73, -91026.31, -92918.19, 0.000, 0.000, 0.000, 11:59:58.167
57, -51260.41, -63637.96, -111965.59, -106372.53, -70593.20, -63242.16, -91082.73, -92900.28, 0.000, 0.000, 0.000, 11:59:58.167
58, -51278.97, -63658.48, -112035.63, -106336.16, -70650.45, -63290.80, -91115.07, -92946.75, 0.000, 0.000, 0.000, 11:59:58.168
59, -51202.75, -63582.17, -112030.09, -106536.03, -70645.95, -63286.44, -91059.53, -92956.32, 0.000, 0.000, 0.000, 11:59:58.168
60, -51175.55, -63557.61, -111975.35, -106638.18, -70614.08, -63248.75, -91025.38, -92923.87, 0.000, 0.000, 0.000, 11:59:58.168
61, -51254.29, -63639.68, -111962.55, -106413.95, -70603.01, -63240.86, -91076.52, -92899.84, 0.000, 0.000, 0.000, 11:59:58.168
62, -51281.02, -63661.83, -112026.96, -106321.84, -70655.02, -63280.74, -91115.92, -92935.17, 0.000, 0.000, 0.000, 11:59:58.168
63, -51228.39, -63600.77, -112043.95, -106497.68, -70677.63, -63298.35, -91082.02, -92967.07, 0.000, 0.000, 0.000, 11:59:58.168
64, -51177.45, -63550.90, -111995.40, -106640.70, -70641.57, -63263.30, -91028.73, -92943.94, 0.000, 0.000, 0.000, 11:59:58.169
65, -51233.32, -63615.79, -111962.72, -106458.02, -70620.20, -63241.20, -91059.64, -92904.73, 0.000, 0.000, 0.000, 11:59:58.169
66, -51276.62, -63656.56, -112024.52, -106315.27, -70675.68, -63281.18, -91117.87, -92932.34, 0.000, 0.000, 0.000, 11:59:58.169
67, -51228.97, -63603.83, -112046.97, -106472.55, -70707.69, -63306.69, -91094.02, -92972.48, 0.000, 0.000, 0.000, 11:59:58.169
68, -51163.72, -63537.67, -111999.88, -106643.37, -70673.95, -63272.29, -91033.98, -92947.80, 0.000, 0.000, 0.000, 11:59:58.169
69, -51202.68, -63580.70, -111947.39, -106508.16, -70635.49, -63239.50, -91042.88, -92902.19, 0.000, 0.000, 0.000, 11:59:58.170
70, -51258.56, -63643.86, -111994.73, -106314.13, -70677.40, -63269.38, -91095.91, -92921.48, 0.000, 0.000, 0.000, 11:59:58.170
71, -51223.80, -63609.46, -112034.20, -106415.13, -70721.99, -63302.30, -91097.75, -92970.22, 0.000, 0.000, 0.000, 11:59:58.170
72, -51172.68, -63555.21, -112012.09, -106613.33, -70717.54, -63290.10, -91046.07, -92967.77, 0.000, 0.000, 0.000, 11:59:58.170
73, -51184.96, -63570.50, -111947.30, -106542.73, -70668.57, -63247.30, -91024.70, -92914.16, 0.000, 0.000, 0.000, 11:59:58.170
74, -51259.72, -63648.42, -111984.25, -106315.20, -70690.43, -63266.88, -91088.32, -92915.91, 0.000, 0.000, 0.000, 11:59:58.170
75, -51247.21, -63632.53, -112048.48, -106379.64, -70751.02, -63305.21, -91101.82, -92961.73, 0.000, 0.000, 0.000, 11:59:58.170
76, -51172.91, -63557.05, -112023.59, -106598.64, -70742.95, -63291.80, -91048.29, -92964.48, 0.000, 0.000, 0.000, 11:59:58.171
77, -51172.21, -63559.55, -111961.63, -106585.48, -70702.99, -63251.68, -91029.55, -92921.45, 0.000, 0.000, 0.000, 11:59:58.171
78, -51249.62, -63640.84, -111979.62, -106347.12, -70713.23, -63260.96, -91085.28, -92910.74, 0.000, 0.000, 0.000, 11:59:58.171
79, -51246.58, -63637.85, -112041.47, -106356.84, -70762.27, -63300.05, -91100.79, -92952.09, 0.000, 0.000, 0.000, 11:59:58.171
80, -51172.24, -63561.25, -112026.07, -106572.00, -70759.83, -63291.42, -91049.29, -92959.80, 0.000, 0.000, 0.000, 11:59:58.171
81, -51150.89, -63546.25, -111965.20, -106621.75, -70723.29, -63257.07, -91024.10, -92924.49, 0.000, 0.000, 0.000, 11:59:58.171
82, -51215.36, -63616.77, -111957.72, -106395.02, -70718.08, -63249.24, -91061.41, -92900.95, 0.000, 0.000, 0.000, 11:59:58.172
83, -51242.96, -63644.22, -112026.70, -106340.95, -70779.61, -63295.55, -91103.05, -92946.13, 0.000, 0.000, 0.000, 11:59:58.172
84, -51180.48, -63577.41, -112033.91, -106532.34, -70793.05, -63297.25, -91057.77, -92963.85, 0.000, 0.000, 0.000, 11:59:58.172
85, -51135.94, -63534.90, -111970.75, -106640.66, -70750.45, -63251.16, -91000.38, -92923.48, 0.000, 0.000, 0.000, 11:59:58.172
86, -51204.04, -63606.98, -111941.76, -106421.48, -70722.44, -63230.56, -91037.00, -92886.80, 0.000, 0.000, 0.000, 11:59:58.172
87, -51251.01, -63653.77, -112020.48, -106322.39, -70789.13, -63281.21, -91099.92, -92931.69, 0.000, 0.000, 0.000, 11:59:58.172
88, -51192.85, -63590.31, -112033.89, -106493.05, -70807.95, -63296.41, -91059.38, -92961.28, 0.000, 0.000, 0.000, 11:59:58.173
89, -51139.38, -63532.69, -111981.74, -106638.07, -70767.05, -63259.17, -91000.85, -92935.24, 0.000, 0.000, 0.000, 11:59:58.173
90, -51200.85, -63598.67, -111948.98, -106465.53, -70740.05, -63236.44, -91033.78, -92898.59, 0.000, 0.000, 0.000, 11:59:58.633
91, -51261.62, -63660.71, -112018.16, -106315.91, -70796.55, -63280.49, -91102.45, -92932.27, 0.000, 0.000, 0.000, 11:59:58.633
92, -51203.55, -63599.47, -112039.59, -106454.74, -70827.65, -63296.65, -91072.54, -92956.99, 0.000, 0.000, 0.000, 11:59:58.633
93, -51143.67, -63541.43, -111997.44, -106637.09, -70809.70, -63273.36, -91017.35, -92946.48, 0.000, 0.000, 0.000, 11:59:58.634
94, -51185.23, -63592.48, -111950.07, -106511.63, -70778.30, -63244.15, -91025.27, -92904.73, 0.000, 0.000, 0.000, 11:59:58.634
95, -51251.70, -63664.72, -112000.74, -106314.41, -70817.23, -63271.06, -91080.65, -92915.35, 0.000, 0.000, 0.000, 11:59:58.634
96, -51229.84, -63633.67, -112045.58, -106410.04, -70863.72, -63305.84, -91086.55, -92960.05, 0.000, 0.000, 0.000, 11:59:58.634
97, -51146.80, -63547.26, -112008.48, -106624.16, -70846.58, -63284.80, -91027.61, -92956.59, 0.000, 0.000, 0.000, 11:59:58.634
98, -51167.88, -63572.83, -111948.46, -106560.17, -70807.98, -63249.46, -91023.09, -92913.98, 0.000, 0.000, 0.000, 11:59:58.634
99, -51243.92, -63652.71, -111982.82, -106329.68, -70829.23, -63271.26, -91082.39, -92916.27, 0.000, 0.000, 0.000, 11:59:58.634
100, -51224.07, -63628.75, -112032.91, -106382.48, -70873.42, -63302.98, -91085.28, -92953.34, 0.000, 0.000, 0.000, 11:59:58.635
101, -51157.06, -63555.46, -112015.85, -106592.88, -70869.13, -63287.78, -91033.55, -92951.54, 0.000, 0.000, 0.000, 11:59:58.635
102, -51171.88, -63571.11, -111970.44, -106597.84, -70835.56, -63261.80, -91019.23, -92919.93, 0.000, 0.000, 0.000, 11:59:58.635
103, -51241.51, -63646.75, -111985.16, -106366.61, -70838.76, -63267.97, -91069.01, -92907.30, 0.000, 0.000, 0.000, 11:59:58.635
104, -51233.82, -63641.16, -112034.36, -106366.56, -70887.64, -63302.62, -91086.41, -92943.94, 0.000, 0.000, 0.000, 11:59:58.635
105, -51172.80, -63575.15, -112030.11, -106567.28, -70894.68, -63302.53, -91042.74, -92960.66, 0.000, 0.000, 0.000, 11:59:58.635
106, -51159.83, -63566.62, -111985.30, -106637.80, -70870.96, -63271.86, -91019.85, -92933.14, 0.000, 0.000, 0.000, 11:59:58.635
107, -51220.96, -63637.79, -111969.48, -106406.08, -70861.42, -63261.07, -91060.80, -92904.55, 0.000, 0.000, 0.000, 11:59:58.635
108, -51236.21, -63649.88, -112024.95, -106339.52, -70911.33, -63302.11, -91091.73, -92939.04, 0.000, 0.000, 0.000, 11:59:58.636
109, -51178.52, -63587.11, -112036.02, -106522.82, -70926.24, -63318.96, -91057.14, -92966.13, 0.000, 0.000, 0.000, 11:59:58.636
110, -51153.64, -63559.22, -111997.86, -106652.02, -70901.70, -63292.74, -91016.10, -92948.52, 0.000, 0.000, 0.000, 11:59:58.636
111, -51211.02, -63626.05, -111964.29, -106446.70, -70873.83, -63268.38, -91035.41, -92907.99, 0.000, 0.000, 0.000, 11:59:58.636
112, -51244.32, -63662.26, -112020.81, -106328.14, -70924.45, -63301.79, -91080.38, -92934.77, 0.000, 0.000, 0.000, 11:59:58.636
113, -51196.87, -63609.60, -112045.89, -106492.85, -70958.27, -63326.22, -91057.00, -92971.90, 0.000, 0.000, 0.000, 11:59:58.637
114, -51147.88, -63561.14, -112003.80, -106655.66, -70928.07, -63300.63, -91013.93, -92957.21, 0.000, 0.000, 0.000, 11:59:58.637
115, -51202.32, -63622.05, -111962.90, -106493.52, -70895.62, -63276.49, -91041.52, -92914.97, 0.000, 0.000, 0.000, 11:59:58.637
116, -51257.55, -63675.89, -112026.70, -106333.03, -70945.98, -63310.66, -91091.55, -92935.42, 0.000, 0.000, 0.000, 11:59:58.637
117, -51210.15, -63624.17, -112058.16, -106463.34, -70976.77, -63326.94, -91065.27, -92965.75, 0.000, 0.000, 0.000, 11:59:58.637
118, -51145.98, -63563.17, -112013.53, -106652.71, -70950.70, -63298.57, -91006.78, -92950.38, 0.000, 0.000, 0.000, 11:59:58.638
119, -51174.52, -63598.29, -111956.66, -106539.66, -70907.51, -63265.65, -91008.12, -92903.32, 0.000, 0.000, 0.000, 11:59:58.638
120, -51239.94, -63660.79, -111998.46, -106335.42, -70943.67, -63293.16, -91064.96, -92911.15, 0.000, 0.000, 0.000, 11:59:58.638
121, -51212.25, -63633.31, -112045.13, -106411.02, -70992.29, -63335.14, -91068.70, -92958.47, 0.000, 0.000, 0.000, 11:59:58.638
122, -51135.71, -63561.43, -112006.80, -106615.67, -70969.27, -63309.55, -90999.58, -92942.59, 0.000, 0.000, 0.000, 11:59:58.638
123, -51155.59, -63586.96, -111948.20, -106562.97, -70925.91, -63266.88, -90996.05, -92897.34, 0.000, 0.000, 0.000, 11:59:58.639
124, -51226.75, -63667.29, -111980.42, -106343.45, -70949.89, -63292.45, -91057.27, -92904.40, 0.000, 0.000, 0.000, 11:59:58.639
125, -51224.47, -63657.12, -112036.57, -106387.08, -71006.10, -63331.99, -91069.20, -92950.53, 0.000, 0.000, 0.000, 11:59:58.639
126, -51156.93, -63584.18, -112019.45, -106594.30, -71005.37, -63319.52, -91014.83, -92952.68, 0.000, 0.000, 0.000, 11:59:58.639
127, -51152.55, -63589.48, -111964.02, -106606.48, -70963.39, -63286.79, -90991.80, -92914.12, 0.000, 0.000, 0.000, 11:59:58.639
128, -51224.14, -63666.17, -111966.41, -106366.49, -70960.80, -63290.19, -91033.53, -92893.83, 0.000, 0.000, 0.000, 11:59:58.640
129, -51235.49, -63672.68, -112029.66, -106352.79, -71012.41, -63336.50, -91061.07, -92937.25, 0.000, 0.000, 0.000, 11:59:58.640
130, -51167.63, -63597.82, -112027.56, -106555.95, -71024.55, -63340.10, -91020.10, -92954.82, 0.000, 0.000, 0.000, 11:59:58.640
131, -51135.92, -63569.07, -111969.34, -106633.04, -70994.77, -63300.27, -90989.03, -92920.22, 0.000, 0.000, 0.000, 11:59:58.640
132, -51209.59, -63655.02, -111956.91, -106396.58, -70979.44, -63297.05, -91036.73, -92894.95, 0.000, 0.000, 0.000, 11:59:58.640
133, -51235.49, -63679.49, -112027.81, -106324.54, -71044.03, -63352.98, -91080.31, -92945.16, 0.000, 0.000, 0.000, 11:59:58.641
134, -51165.93, -63603.63, -112031.08, -106513.23, -71053.82, -63361.80, -91037.27, -92968.28, 0.000, 0.000, 0.000, 11:59:58.641
135, -51125.86, -63563.69, -111970.99, -106637.80, -71015.22, -63318.00, -90979.91, -92926.46, 0.000, 0.000, 0.000, 11:59:58.641
136, -51188.69, -63635.08, -111941.69, -106433.15, -70992.54, -63303.91, -91012.52, -92894.20, 0.000, 0.000, 0.000, 11:59:58.641
137, -51237.68, -63679.52, -112014.29, -106315.64, -71050.05, -63351.19, -91069.70, -92933.37, 0.000, 0.000, 0.000, 11:59:58.641
138, -51189.54, -63626.38, -112041.06, -106478.32, -71085.36, -63364.00, -91047.13, -92957.91, 0.000, 0.000, 0.000, 11:59:58.642
139, -51111.40, -63549.85, -111975.42, -106645.73, -71039.48, -63313.35, -90969.72, -92922.99, 0.000, 0.000, 0.000, 11:59:58.642
140, -51170.38, -63614.49, -111930.73, -106486.44, -71004.80, -63296.25, -90992.92, -92891.52, 0.000, 0.000, 0.000, 11:59:58.642
141, -51234.98, -63685.17, -111997.59, -106311.13, -71055.91, -63343.14, -91064.78, -92924.60, 0.000, 0.000, 0.000, 11:59:58.642
142, -51202.30, -63647.71, -112038.49, -106429.82, -71095.29, -63372.07, -91060.76, -92962.60, 0.000, 0.000, 0.000, 11:59:58.642
143, -51134.40, -63572.34, -112003.07, -106632.10, -71076.91, -63343.52, -90998.46, -92949.55, 0.000, 0.000, 0.000, 11:59:58.643
144, -51171.72, -63614.87, -111948.55, -106535.27, -71041.27, -63311.00, -91003.78, -92903.81, 0.000, 0.000, 0.000, 11:59:58.643
145, -51248.03, -63692.16, -112002.60, -106329.44, -71080.96, -63344.37, -91067.80, -92919.38, 0.000, 0.000, 0.000, 11:59:58.643
146, -51229.95, -63670.04, -112048.76, -106398.03, -71124.08, -63380.85, -91070.26, -92957.10, 0.000, 0.000, 0.000, 11:59:58.643
147, -51159.72, -63601.02, -112031.63, -106604.65, -71112.23, -63371.80, -91022.52, -92960.79, 0.000, 0.000, 0.000, 11:59:58.643
148, -51147.74, -63595.38, -111958.09, -106584.83, -71057.00, -63323.56, -90991.18, -92908.66, 0.000, 0.000, 0.000, 11:59:58.644
149, -51241.84, -63689.17, -111990.26, -106351.98, -71078.12, -63340.41, -91053.49, -92905.83, 0.000, 0.000, 0.000, 11:59:58.644
150, -51235.61, -63675.80, -112056.45, -106382.16, -71142.41, -63383.04, -91073.56, -92954.73, 0.000, 0.000, 0.000, 11:59:58.644
151, -51164.57, -63601.04, -112040.44, -106589.48, -71137.11, -63384.54, -91019.27, -92969.04, 0.000, 0.000, 0.000, 11:59:58.644
152, -51143.11, -63583.89, -111973.72, -106624.01, -71092.11, -63339.39, -90992.27, -92927.76, 0.000, 0.000, 0.000, 11:59:58.644
153, -51216.27, -63668.20, -111974.30, -106384.04, -71092.00, -63343.21, -91043.52, -92907.80, 0.000, 0.000, 0.000, 11:59:58.644
154, -51224.54, -63680.23, -112038.49, -106350.78, -71139.38, -63388.09, -91070.80, -92953.68, 0.000, 0.000, 0.000, 11:59:58.645
155, -51145.17, -63597.28, -112025.58, -106553.42, -71131.70, -63382.19, -91011.41, -92964.97, 0.000, 0.000, 0.000, 11:59:58.645
156, -51121.79, -63569.05, -111964.33, -106641.58, -71094.95, -63348.53, -90975.93, -92934.46, 0.000, 0.000, 0.000, 11:59:58.645
157, -51204.38, -63654.37, -111961.18, -106416.41, -71090.81, -63346.61, -91029.29, -92906.16, 0.000, 0.000, 0.000, 11:59:58.645
158, -51241.53, -63689.82, -112039.39, -106333.48, -71154.83, -63396.05, -91080.31, -92951.16, 0.000, 0.000, 0.000, 11:59:58.646
159, -51184.20, -63630.09, -112058.81, -106523.02, -71180.38, -63406.13, -91043.21, -92979.39, 0.000, 0.000, 0.000, 11:59:58.646
160, -51123.96, -63570.80, -111993.14, -106663.05, -71139.95, -63363.19, -90986.51, -92943.45, 0.000, 0.000, 0.000, 11:59:58.646
161, -51184.13, -63636.13, -111953.83, -106467.48, -71115.63, -63343.48, -91022.40, -92909.43, 0.000, 0.000, 0.000, 11:59:58.646
162, -51230.33, -63677.46, -112017.38, -106333.99, -71161.83, -63379.98, -91067.95, -92938.75, 0.000, 0.000, 0.000, 11:59:58.646
163, -51185.87, -63634.43, -112042.43, -106476.53, -71182.62, -63402.57, -91039.66, -92968.70, 0.000, 0.000, 0.000, 11:59:58.646
164, -51130.64, -63576.29, -112006.80, -106658.20, -71159.03, -63374.37, -90988.98, -92952.88, 0.000, 0.000, 0.000, 11:59:58.646
165, -51183.86, -63638.63, -111963.88, -106512.23, -71125.44, -63353.11, -91015.23, -92916.31, 0.000, 0.000, 0.000, 11:59:58.646
166, -51243.25, -63701.00, -112024.99, -106332.38, -71175.40, -63390.46, -91082.41, -92942.62, 0.000, 0.000, 0.000, 11:59:58.646
167, -51201.86, -63653.56, -112056.87, -106446.87, -71211.27, -63413.26, -91063.44, -92976.15, 0.000, 0.000, 0.000, 11:59:58.647
168, -51137.37, -63580.79, -112025.51, -106652.17, -71200.05, -63393.79, -91011.36, -92972.66, 0.000, 0.000, 0.000, 11:59:58.647
169, -51161.27, -63610.69, -111963.15, -106562.74, -71155.84, -63354.03, -91005.99, -92926.50, 0.000, 0.000, 0.000, 11:59:58.647
170, -51233.57, -63689.21, -112006.80, -106339.56, -71175.33, -63380.80, -91059.30, -92931.60, 0.000, 0.000, 0.000, 11:59:58.647
171, -51217.41, -63671.36, -112055.91, -106397.63, -71219.77, -63415.27, -91067.58, -92968.01, 0.000, 0.000, 0.000, 11:59:58.647
172, -51144.39, -63595.79, -112035.79, -106610.11, -71215.96, -63398.08, -91015.77, -92966.53, 0.000, 0.000, 0.000, 11:59:58.647
173, -51148.93, -63599.83, -111973.66, -106596.80, -71170.14, -63358.57, -90997.66, -92923.06, 0.000, 0.000, 0.000, 11:59:58.647
174, -51226.98, -63682.62, -111999.13, -106364.59, -71180.98, -63372.80, -91054.56, -92919.93, 0.000, 0.000, 0.000, 11:59:58.647
175, -51220.52, -63671.02, -112053.90, -106381.80, -71230.42, -63406.29, -91068.52, -92960.77, 0.000, 0.000, 0.000, 11:59:58.647
176, -51153.26, -63593.77, -112046.48, -106594.41, -71231.25, -63395.58, -91019.07, -92968.32, 0.000, 0.000, 0.000, 11:59:58.647
177, -51148.55, -63591.43, -111985.92, -106629.69, -71192.00, -63360.36, -90993.44, -92929.88, 0.000, 0.000, 0.000, 11:59:58.648
178, -51224.65, -63674.66, -111984.90, -106386.23, -71191.87, -63364.15, -91041.80, -92912.16, 0.000, 0.000, 0.000, 11:59:58.648
179, -51238.06, -63689.08, -112051.68, -106349.46, -71236.75, -63412.43, -91073.23, -92954.64, 0.000, 0.000, 0.000, 11:59:58.648
180, -51174.92, -63621.15, -112057.65, -106547.23, -71248.84, -63422.04, -91038.67, -92980.10, 0.000, 0.000, 0.000, 11:59:58.648
181, -51139.88, -63588.36, -111997.30, -106651.30, -71211.76, -63376.83, -90992.14, -92943.58, 0.000, 0.000, 0.000, 11:59:58.648
182, -51204.71, -63664.56, -111970.48, -106427.88, -71189.34, -63357.71, -91028.57, -92906.74, 0.000, 0.000, 0.000, 11:59:58.648
183, -51237.91, -63693.98, -112042.56, -106337.28, -71247.59, -63410.87, -91080.14, -92952.43, 0.000, 0.000, 0.000, 11:59:58.648
184, -51185.61, -63639.30, -112057.98, -106508.09, -71267.71, -63427.81, -91059.51, -92982.85, 0.000, 0.000, 0.000, 11:59:58.648
185, -51131.49, -63588.68, -112005.73, -106651.48, -71228.28, -63387.98, -91001.70, -92952.79, 0.000, 0.000, 0.000, 11:59:58.648
186, -51192.02, -63649.74, -111971.33, -106483.20, -71195.87, -63365.72, -91018.38, -92918.41, 0.000, 0.000, 0.000, 11:59:58.648
187, -51238.29, -63698.36, -112025.20, -106332.32, -71240.38, -63402.87, -91067.30, -92942.88, 0.000, 0.000, 0.000, 11:59:58.649
188, -51190.90, -63644.63, -112057.59, -106479.77, -71279.58, -63427.34, -91050.03, -92981.16, 0.000, 0.000, 0.000, 11:59:58.649
189, -51121.86, -63573.54, -112005.08, -106652.73, -71245.71, -63390.19, -90990.62, -92954.24, 0.000, 0.000, 0.000, 11:59:58.649
190, -51163.27, -63625.22, -111953.42, -106512.65, -71203.34, -63361.88, -91001.37, -92909.80, 0.000, 0.000, 0.000, 11:59:58.649
191, -51240.57, -63704.79, -112019.59, -106333.15, -71257.41, -63407.92, -91074.34, -92946.58, 0.000, 0.000, 0.000, 11:59:58.649
192, -51205.83, -63662.84, -112060.34, -106437.66, -71298.69, -63433.40, -91065.20, -92983.57, 0.000, 0.000, 0.000, 11:59:58.649
193, -51130.08, -63584.99, -112021.20, -106637.02, -71273.43, -63403.74, -91002.71, -92964.27, 0.000, 0.000, 0.000, 11:59:58.649
194, -51156.91, -63615.14, -111967.04, -106566.12, -71231.79, -63371.75, -90999.07, -92921.72, 0.000, 0.000, 0.000, 11:59:58.649
195, -51233.26, -63697.35, -112010.38, -106347.49, -71257.07, -63400.48, -91062.68, -92935.40, 0.000, 0.000, 0.000, 11:59:58.649
196, -51207.98, -63668.25, -112060.29, -106407.13, -71305.66, -63433.58, -91065.30, -92975.59, 0.000, 0.000, 0.000, 11:59:58.649
197, -51146.09, -63596.66, -112039.81, -106617.57, -71300.52, -63419.63, -91016.57, -92970.94, 0.000, 0.000, 0.000, 11:59:58.650
198, -51146.96, -63602.42, -111975.64, -106612.43, -71250.97, -63380.65, -90998.55, -92933.68, 0.000, 0.000, 0.000, 11:59:58.650
199, -51228.86, -63691.61, -111993.12, -106367.16, -71262.14, -63394.11, -91065.41, -92928.80, 0.000, 0.000, 0.000, 11:59:58.650
200, -51222.69, -63682.18, -112055.02, -106369.58, -71315.45, -63434.63, -91075.64, -92970.76, 0.000, 0.000, 0.000, 11:59:58.650
201, -51142.42, -63595.27, -112037.00, -106584.78, -71311.27, -63423.72, -91010.47, -92975.63, 0.000, 0.000, 0.000, 11:59:58.650
202, -51126.28, -63581.79, -111979.42, -106642.49, -71273.92, -63389.01, -90989.59, -92943.02, 0.000, 0.000, 0.000, 11:59:58.650
203, -51211.13, -63672.61, -111980.83, -106409.81, -71264.55, -63387.29, -91042.92, -92921.45, 0.000, 0.000, 0.000, 11:59:58.650
204, -51227.63, -63688.75, -112044.71, -106351.09, -71311.90, -63429.73, -91068.91, -92961.82, 0.000, 0.000, 0.000, 11:59:58.650
205, -51166.32, -63623.05, -112053.85, -106546.05, -71325.91, -63439.12, -91032.91, -92986.43, 0.000, 0.000, 0.000, 11:59:58.650
206, -51133.95, -63590.24, -111996.88, -106658.63, -71290.66, -63403.71, -90986.93, -92954.91, 0.000, 0.000, 0.000, 11:59:58.650
207, -51199.78, -63663.09, -111977.81, -106448.75, -71273.61, -63388.25, -91031.05, -92923.51, 0.000, 0.000, 0.000, 11:59:58.650
208, -51234.06, -63697.20, -112045.20, -106347.25, -71324.93, -63433.04, -91081.63, -92963.34, 0.000, 0.000, 0.000, 11:59:58.651
209, -51182.27, -63641.36, -112063.93, -106514.98, -71342.66, -63452.62, -91048.64, -92996.64, 0.000, 0.000, 0.000, 11:59:58.651
210, -51127.80, -63585.48, -112012.99, -106674.79, -71318.31, -63417.44, -91000.01, -92975.03, 0.000, 0.000, 0.000, 11:59:59.114
211, -51185.07, -63647.46, -111968.98, -106504.49, -71283.84, -63393.93, -91022.47, -92930.99, 0.000, 0.000, 0.000, 11:59:59.114
212, -51231.05, -63696.34, -112027.07, -106341.88, -71322.83, -63431.88, -91067.89, -92954.91, 0.000, 0.000, 0.000, 11:59:59.114
213, -51190.77, -63651.15, -112059.55, -106470.30, -71354.92, -63462.70, -91055.35, -92997.05, 0.000, 0.000, 0.000, 11:59:59.114
214, -51129.84, -63585.12, -112021.10, -106654.79, -71338.36, -63436.86, -91004.99, -92982.83, 0.000, 0.000, 0.000, 11:59:59.115
215, -51147.14, -63611.43, -111954.84, -106535.61, -71280.41, -63386.66, -90993.84, -92925.16, 0.000, 0.000, 0.000, 11:59:59.115
216, -51228.43, -63693.21, -112012.09, -106339.23, -71316.05, -63422.52, -91065.18, -92946.02, 0.000, 0.000, 0.000, 11:59:59.115
217, -51204.20, -63660.76, -112063.77, -106441.15, -71362.10, -63455.84, -91059.48, -92984.33, 0.000, 0.000, 0.000, 11:59:59.115
218, -51130.48, -63588.52, -112026.41, -106645.69, -71342.70, -63435.19, -91003.56, -92976.41, 0.000, 0.000, 0.000, 11:59:59.115
219, -51155.27, -63616.10, -111973.48, -106584.52, -71306.11, -63399.43, -90997.63, -92933.95, 0.000, 0.000, 0.000, 11:59:59.115
220, -51229.95, -63694.45, -112008.88, -106361.69, -71323.07, -63416.55, -91056.60, -92932.49, 0.000, 0.000, 0.000, 11:59:59.116
221, -51220.32, -63677.97, -112072.88, -106412.61, -71374.41, -63467.57, -91073.70, -92988.20, 0.000, 0.000, 0.000, 11:59:59.116
222, -51155.00, -63607.45, -112060.47, -106629.48, -71379.76, -63455.19, -91024.99, -92990.61, 0.000, 0.000, 0.000, 11:59:59.116
223, -51150.40, -63609.29, -111993.79, -106636.70, -71334.20, -63410.64, -91000.41, -92947.05, 0.000, 0.000, 0.000, 11:59:59.116
224, -51221.46, -63686.29, -111999.71, -106395.51, -71337.00, -63414.51, -91054.74, -92933.21, 0.000, 0.000, 0.000, 11:59:59.116
225, -51204.76, -63671.85, -112051.21, -106383.48, -71374.19, -63450.59, -91069.52, -92970.24, 0.000, 0.000, 0.000, 11:59:59.116
226, -51139.05, -63603.43, -112047.81, -106584.36, -71368.96, -63454.23, -91023.79, -92985.84, 0.000, 0.000, 0.000, 11:59:59.117
227, -51129.68, -63590.87, -111998.33, -106659.15, -71332.05, -63411.70, -90988.85, -92948.34, 0.000, 0.000, 0.000, 11:59:59.117
228, -51208.43, -63675.89, -111994.13, -106423.11, -71329.11, -63408.43, -91042.02, -92927.89, 0.000, 0.000, 0.000, 11:59:59.117
229, -51228.95, -63696.59, -112063.91, -106362.20, -71383.73, -63455.86, -91080.09, -92973.73, 0.000, 0.000, 0.000, 11:59:59.117
230, -51162.54, -63625.33, -112065.01, -106555.43, -71392.25, -63462.79, -91029.76, -92995.08, 0.000, 0.000, 0.000, 11:59:59.117
231, -51122.82, -63582.55, -112009.82, -106676.31, -71354.50, -63419.68, -90984.67, -92963.07, 0.000, 0.000, 0.000, 11:59:59.117
232, -51186.32, -63655.64, -111984.52, -106467.41, -71327.74, -63406.38, -91021.64, -92930.03, 0.000, 0.000, 0.000, 11:59:59.117
233, -51222.95, -63692.14, -112043.34, -106345.15, -71375.66, -63444.84, -91076.49, -92963.56, 0.000, 0.000, 0.000, 11:59:59.118
234, -51166.81, -63631.05, -112057.23, -106499.84, -71395.20, -63460.20, -91043.26, -92988.38, 0.000, 0.000, 0.000, 11:59:59.118
235, -51104.45, -63568.76, -112005.80, -106663.86, -71359.88, -63424.77, -90991.98, -92963.67, 0.000, 0.000, 0.000, 11:59:59.118
236, -51161.18, -63629.29, -111968.18, -106508.34, -71327.86, -63401.32, -91014.83, -92924.02, 0.000, 0.000, 0.000, 11:59:59.118
237, -51224.79, -63693.20, -112029.78, -106341.64, -71364.49, -63444.11, -91069.59, -92953.26, 0.000, 0.000, 0.000, 11:59:59.118
238, -51187.88, -63650.99, -112063.87, -106460.77, -71402.02, -63472.27, -91061.07, -92995.13, 0.000, 0.000, 0.000, 11:59:59.118
239, -51122.28, -63584.81, -112025.76, -106652.20, -71380.43, -63445.34, -91004.16, -92979.25, 0.000, 0.000, 0.000, 11:59:59.118
240, -51145.73, -63614.38, -111963.26, -106546.13, -71333.04, -63407.25, -91004.01, -92936.12, 0.000, 0.000, 0.000, 11:59:59.118
241, -51219.07, -63688.34, -112014.35, -106340.03, -71367.09, -63436.35, -91064.60, -92951.47, 0.000, 0.000, 0.000, 11:59:59.118
242, -51189.20, -63650.77, -112050.79, -106417.52, -71405.38, -63464.67, -91057.36, -92984.35, 0.000, 0.000, 0.000, 11:59:59.118
243, -51127.56, -63585.50, -112027.86, -106617.17, -71393.05, -63449.27, -91008.90, -92979.81, 0.000, 0.000, 0.000, 11:59:59.119
244, -51129.21, -63594.04, -111973.14, -106583.02, -71355.44, -63410.80, -90996.79, -92938.98, 0.000, 0.000, 0.000, 11:59:59.119
245, -51198.64, -63666.28, -111992.49, -106358.00, -71363.51, -63418.87, -91053.47, -92931.53, 0.000, 0.000, 0.000, 11:59:59.119
246, -51184.24, -63646.50, -112041.53, -106387.64, -71410.16, -63451.86, -91068.07, -92969.71, 0.000, 0.000, 0.000, 11:59:59.119
247, -51120.58, -63580.32, -112025.84, -106597.59, -71408.57, -63447.35, -91017.20, -92979.68, 0.000, 0.000, 0.000, 11:59:59.119
248, -51118.37, -63582.48, -111966.30, -106613.33, -71357.36, -63411.05, -90984.20, -92939.13, 0.000, 0.000, 0.000, 11:59:59.119
249, -51197.43, -63665.28, -111977.23, -106375.55, -71364.45, -63416.50, -91046.19, -92925.90, 0.000, 0.000, 0.000, 11:59:59.119
250, -51203.98, -63668.54, -112036.28, -106362.63, -71417.30, -63456.31, -91064.73, -92967.23, 0.000, 0.000, 0.000, 11:59:59.119
251, -51131.11, -63589.46, -112021.66, -106561.00, -71408.13, -63448.62, -90999.23, -92972.16, 0.000, 0.000, 0.000, 11:59:59.119
252, -51110.30, -63566.95, -111966.50, -106638.56, -71365.45, -63410.27, -90962.86, -92935.76, 0.000, 0.000, 0.000, 11:59:59.119
253, -51181.98, -63645.63, -111962.19, -106419.94, -71356.35, -63401.75, -91013.84, -92914.23, 0.000, 0.000, 0.000, 11:59:59.120
254, -51209.54, -63673.21, -112029.42, -106345.26, -71413.46, -63444.35, -91062.03, -92955.16, 0.000, 0.000, 0.000, 11:59:59.120
255, -51171.30, -63631.41, -112059.20, -106522.33, -71444.09, -63476.18, -91049.88, -92996.89, 0.000, 0.000, 0.000, 11:59:59.120
0, -51118.86, -63576.85, -112001.88, -106657.18, -71396.09, -63439.77, -90984.72, -92966.84, 0.000, 0.000, 0.000, 11:59:59.120
1, -51168.26, -63632.26, -111957.34, -106461.24, -71357.38, -63409.26, -91008.50, -92921.98, 0.000, 0.000, 0.000, 11:59:59.120
2, -51217.14, -63677.66, -112024.46, -106333.46, -71410.38, -63449.16, -91059.91, -92953.77, 0.000, 0.000, 0.000, 11:59:59.120
3, -51170.09, -63625.60, -112054.79, -106489.12, -71441.83, -63469.21, -91031.88, -92986.90, 0.000, 0.000, 0.000, 11:59:59.120
4, -51099.26, -63552.47, -112003.94, -106662.27, -71406.47, -63430.72, -90968.67, -92963.49, 0.000, 0.000, 0.000, 11:59:59.120
5, -51149.20, -63605.38, -111953.65, -106514.02, -71364.70, -63402.40, -90989.19, -92918.45, 0.000, 0.000, 0.000, 11:59:59.120
6, -51215.49, -63670.75, -112011.34, -106321.99, -71402.66, -63436.66, -91054.92, -92937.37, 0.000, 0.000, 0.000, 11:59:59.120
7, -51181.07, -63632.75, -112055.68, -106445.46, -71451.04, -63470.70, -91055.05, -92986.36, 0.000, 0.000, 0.000, 11:59:59.121
8, -51129.86, -63577.88, -112028.50, -106644.13, -71427.63, -63451.64, -91000.07, -92981.17, 0.000, 0.000, 0.000, 11:59:59.121
9, -51152.64, -63607.18, -111967.22, -106557.04, -71368.98, -63410.09, -90983.06, -92927.69, 0.000, 0.000, 0.000, 11:59:59.121
10, -51225.35, -63682.11, -112009.98, -106347.65, -71401.04, -63437.91, -91048.84, -92937.12, 0.000, 0.000, 0.000, 11:59:59.121
11, -51193.45, -63646.57, -112057.31, -106425.28, -71446.73, -63474.41, -91051.15, -92984.13, 0.000, 0.000, 0.000, 11:59:59.121
12, -51122.10, -63569.01, -112025.46, -106635.20, -71431.16, -63453.47, -90990.41, -92973.84, 0.000, 0.000, 0.000, 11:59:59.121
13, -51137.75, -63584.86, -111966.26, -106602.23, -71387.78, -63415.83, -90982.93, -92929.72, 0.000, 0.000, 0.000, 11:59:59.121
14, -51208.49, -63658.91, -111985.81, -106361.71, -71397.35, -63429.82, -91038.59, -92930.48, 0.000, 0.000, 0.000, 11:59:59.121
15, -51199.46, -63644.94, -112039.92, -106376.95, -71445.60, -63471.40, -91050.23, -92973.66, 0.000, 0.000, 0.000, 11:59:59.121
16, -51138.04, -63576.90, -112038.25, -106594.37, -71457.20, -63471.73, -91015.12, -92992.77, 0.000, 0.000, 0.000, 11:59:59.121
17, -51132.65, -63568.70, -111982.80, -106631.38, -71407.07, -63433.73, -90980.59, -92952.07, 0.000, 0.000, 0.000, 11:59:59.122
18, -51203.22, -63646.59, -111986.48, -106394.59, -71397.48, -63433.91, -91034.45, -92931.95, 0.000, 0.000, 0.000, 11:59:59.122
19, -51223.00, -63663.38, -112057.88, -106364.15, -71456.27, -63480.43, -91073.56, -92978.09, 0.000, 0.000, 0.000, 11:59:59.122
20, -51155.77, -63590.73, -112057.09, -106562.38, -71465.48, -63483.29, -91027.97, -92995.81, 0.000, 0.000, 0.000, 11:59:59.122
21, -51112.56, -63545.38, -111989.10, -106658.97, -71416.97, -63436.28, -90979.71, -92958.60, 0.000, 0.000, 0.000, 11:59:59.122
22, -51192.51, -63633.49, -111967.80, -106435.23, -71400.05, -63421.08, -91021.24, -92924.45, 0.000, 0.000, 0.000, 11:59:59.122
23, -51230.29, -63669.46, -112044.80, -106346.96, -71462.34, -63468.87, -91065.56, -92965.04, 0.000, 0.000, 0.000, 11:59:59.122
24, -51167.25, -63604.68, -112049.45, -106514.82, -71470.57, -63479.93, -91028.35, -92987.21, 0.000, 0.000, 0.000, 11:59:59.122
25, -51116.92, -63552.47, -111994.62, -106661.78, -71429.89, -63444.71, -90978.17, -92962.38, 0.000, 0.000, 0.000, 11:59:59.122
26, -51178.88, -63620.44, -111962.56, -106482.84, -71401.21, -63429.93, -91009.62, -92928.83, 0.000, 0.000, 0.000, 11:59:59.123
27, -51231.74, -63673.68, -112027.43, -106344.26, -71454.79, -63471.87, -91066.84, -92957.15, 0.000, 0.000, 0.000, 11:59:59.123
28, -51193.14, -63625.89, -112059.62, -106487.71, -71484.07, -63496.05, -91040.33, -92991.08, 0.000, 0.000, 0.000, 11:59:59.123
29, -51133.23, -63560.25, -112018.71, -106667.59, -71449.90, -63460.71, -90975.40, -92973.06, 0.000, 0.000, 0.000, 11:59:59.123
30, -51174.99, -63609.35, -111967.84, -106536.81, -71409.24, -63433.22, -90991.06, -92926.46, 0.000, 0.000, 0.000, 11:59:59.123
31, -51244.34, -63680.34, -112029.33, -106352.32, -71454.77, -63479.71, -91064.34, -92953.37, 0.000, 0.000, 0.000, 11:59:59.123
32, -51207.31, -63638.48, -112066.08, -106460.66, -71492.19, -63506.60, -91053.07, -92992.95, 0.000, 0.000, 0.000, 11:59:59.123
33, -51139.94, -63565.21, -112029.11, -106656.58, -71469.41, -63476.63, -90988.49, -92976.86, 0.000, 0.000, 0.000, 11:59:59.123
34, -51171.46, -63602.36, -111984.41, -106585.14, -71435.93, -63448.26, -90990.66, -92940.38, 0.000, 0.000, 0.000, 11:59:59.123
35, -51244.14, -63678.87, -112021.28, -106367.97, -71460.34, -63470.68, -91053.72, -92942.77, 0.000, 0.000, 0.000, 11:59:59.123
36, -51218.04, -63654.97, -112067.98, -106431.23, -71502.36, -63506.02, -91059.82, -92983.14, 0.000, 0.000, 0.000, 11:59:59.124
37, -51149.91, -63585.44, -112040.10, -106634.89, -71489.64, -63493.77, -91004.84, -92986.36, 0.000, 0.000, 0.000, 11:59:59.124
38, -51158.13, -63594.69, -111984.43, -106618.63, -71439.05, -63456.76, -90985.09, -92947.80, 0.000, 0.000, 0.000, 11:59:59.124
39, -51231.85, -63674.84, -112002.24, -106378.48, -71442.72, -63465.79, -91051.33, -92938.35, 0.000, 0.000, 0.000, 11:59:59.124
40, -51227.16, -63668.92, -112061.72, -106389.78, -71499.65, -63503.25, -91070.23, -92983.21, 0.000, 0.000, 0.000, 11:59:59.124
41, -51165.51, -63598.51, -112052.98, -106596.63, -71501.80, -63506.02, -91016.84, -92996.58, 0.000, 0.000, 0.000, 11:59:59.124
42, -51138.62, -63574.48, -111987.17, -106648.66, -71448.96, -63463.13, -90978.28, -92950.06, 0.000, 0.000, 0.000, 11:59:59.124
43, -51211.24, -63659.15, -111981.27, -106408.36, -71437.47, -63460.55, -91027.16, -92925.27, 0.000, 0.000, 0.000, 11:59:59.124
44, -51243.34, -63682.51, -112062.55, -106363.66, -71504.77, -63514.02, -91074.26, -92978.98, 0.000, 0.000, 0.000, 11:59:59.124
45, -51186.52, -63614.89, -112075.84, -106563.70, -71520.84, -63527.23, -91036.28, -93009.56, 0.000, 0.000, 0.000, 11:59:59.124
46, -51142.13, -63575.98, -112021.27, -106672.45, -71478.06, -63493.97, -90991.02, -92980.73, 0.000, 0.000, 0.000, 11:59:59.124
47, -51197.03, -63647.24, -111987.84, -106455.79, -71444.76, -63468.74, -91021.04, -92932.11, 0.000, 0.000, 0.000, 11:59:59.125
48, -51227.63, -63678.42, -112041.24, -106349.06, -71484.66, -63505.30, -91058.03, -92960.92, 0.000, 0.000, 0.000, 11:59:59.125
49, -51184.40, -63633.76, -112064.47, -106515.27, -71514.47, -63534.81, -91041.27, -93001.56, 0.000, 0.000, 0.000, 11:59:59.125
50, -51129.19, -63576.16, -112014.69, -106666.84, -71480.20, -63503.38, -90990.80, -92978.25, 0.000, 0.000, 0.000, 11:59:59.125
51, -51171.86, -63627.68, -111962.95, -106492.38, -71435.99, -63464.40, -91004.25, -92925.38, 0.000, 0.000, 0.000, 11:59:59.125
52, -51229.48, -63684.19, -112027.77, -106343.98, -71483.42, -63505.08, -91065.43, -92955.18, 0.000, 0.000, 0.000, 11:59:59.125
53, -51191.77, -63635.55, -112061.05, -106475.59, -71520.38, -63534.65, -91044.84, -92992.06, 0.000, 0.000, 0.000, 11:59:59.125
54, -51132.59, -63577.57, -112024.08, -106664.96, -71497.39, -63508.50, -90988.74, -92981.89, 0.000, 0.000, 0.000, 11:59:59.125
55, -51169.31, -63621.31, -111965.74, -106543.92, -71443.19, -63470.21, -90991.98, -92928.52, 0.000, 0.000, 0.000, 11:59:59.125
56, -51232.12, -63684.81, -112013.55, -106350.02, -71474.59, -63508.39, -91051.52, -92950.55, 0.000, 0.000, 0.000, 11:59:59.126
57, -51198.97, -63647.91, -112051.77, -106448.86, -71510.54, -63536.91, -91042.43, -92992.62, 0.000, 0.000, 0.000, 11:59:59.126
58, -51125.72, -63572.81, -112017.69, -106648.64, -71490.24, -63513.17, -90979.87, -92980.13, 0.000, 0.000, 0.000, 11:59:59.126
59, -51146.47, -63596.14, -111959.51, -106585.77, -71442.63, -63477.28, -90969.34, -92934.55, 0.000, 0.000, 0.000, 11:59:59.126
60, -51217.90, -63666.59, -111991.47, -106356.55, -71458.79, -63493.75, -91025.76, -92933.79, 0.000, 0.000, 0.000, 11:59:59.126
61, -51211.38, -63660.43, -112052.66, -106407.20, -71510.36, -63537.76, -91045.55, -92983.37, 0.000, 0.000, 0.000, 11:59:59.126
62, -51144.23, -63591.43, -112040.15, -106622.82, -71504.50, -63524.53, -90993.59, -92983.70, 0.000, 0.000, 0.000, 11:59:59.126
63, -51144.07, -63591.80, -111977.59, -106621.59, -71454.99, -63476.36, -90966.61, -92935.20, 0.000, 0.000, 0.000, 11:59:59.126
64, -51227.34, -63679.38, -111994.62, -106381.49, -71462.46, -63494.38, -91039.81, -92934.28, 0.000, 0.000, 0.000, 11:59:59.126
65, -51233.23, -63681.64, -112063.06, -106380.69, -71516.62, -63551.06, -91070.33, -92993.00, 0.000, 0.000, 0.000, 11:59:59.126
66, -51163.68, -63603.27, -112056.65, -106592.67, -71522.02, -63549.18, -91023.09, -93012.09, 0.000, 0.000, 0.000, 11:59:59.126
67, -51134.73, -63580.63, -111991.42, -106651.14, -71475.16, -63499.43, -90984.16, -92961.64, 0.000, 0.000, 0.000, 11:59:59.127
68, -51220.90, -63668.41, -111987.02, -106414.38, -71463.27, -63497.88, -91032.95, -92940.52, 0.000, 0.000, 0.000, 11:59:59.127
69, -51245.55, -63685.44, -112055.82, -106362.41, -71522.12, -63543.17, -91074.88, -92986.27, 0.000, 0.000, 0.000, 11:59:59.127
70, -51178.65, -63619.41, -112057.38, -106551.68, -71531.64, -63553.85, -91028.46, -93008.89, 0.000, 0.000, 0.000, 11:59:59.127
71, -51130.82, -63571.76, -111992.79, -106660.24, -71487.09, -63514.25, -90971.73, -92975.20, 0.000, 0.000, 0.000, 11:59:59.127
72, -51194.68, -63638.70, -111962.34, -106448.80, -71460.89, -63488.47, -91005.82, -92929.68, 0.000, 0.000, 0.000, 11:59:59.127
73, -51243.81, -63685.17, -112036.51, -106346.38, -71514.38, -63532.89, -91065.02, -92965.41, 0.000, 0.000, 0.000, 11:59:59.127
74, -51194.16, -63629.85, -112059.77, -106511.65, -71533.18, -63550.41, -91037.24, -92996.13, 0.000, 0.000, 0.000, 11:59:59.595
75, -51139.94, -63573.72, -112012.34, -106666.14, -71499.36, -63519.39, -90982.35, -92975.07, 0.000, 0.000, 0.000, 11:59:59.595
76, -51197.74, -63636.04, -111977.90, -106504.94, -71468.16, -63506.63, -91012.12, -92944.32, 0.000, 0.000, 0.000, 11:59:59.595
77, -51253.64, -63694.89, -112040.98, -106345.39, -71510.07, -63541.98, -91071.11, -92971.05, 0.000, 0.000, 0.000, 11:59:59.596
78, -51214.04, -63647.46, -112074.55, -106470.19, -71542.03, -63568.40, -91054.77, -93008.87, 0.000, 0.000, 0.000, 11:59:59.596
79, -51145.57, -63577.97, -112033.91, -106667.30, -71514.88, -63537.74, -90994.53, -92997.11, 0.000, 0.000, 0.000, 11:59:59.596
80, -51174.83, -63610.65, -111973.23, -106551.74, -71468.74, -63499.18, -91002.15, -92948.20, 0.000, 0.000, 0.000, 11:59:59.596
81, -51253.22, -63692.37, -112024.64, -106342.24, -71502.45, -63533.65, -91064.63, -92964.23, 0.000, 0.000, 0.000, 11:59:59.596
82, -51230.82, -63663.13, -112077.61, -106429.02, -71539.17, -63570.19, -91054.70, -93005.74, 0.000, 0.000, 0.000, 11:59:59.596
83, -51159.21, -63583.69, -112047.23, -106643.50, -71526.34, -63547.04, -91002.91, -93000.40, 0.000, 0.000, 0.000, 11:59:59.596
84, -51178.88, -63608.39, -111993.50, -106595.00, -71488.45, -63517.00, -91003.36, -92962.76, 0.000, 0.000, 0.000, 11:59:59.596
85, -51249.24, -63685.64, -112025.02, -106369.98, -71508.91, -63541.29, -91063.28, -92967.70, 0.000, 0.000, 0.000, 11:59:59.596
86, -51236.99, -63667.46, -112075.91, -106413.79, -71554.28, -63568.83, -91066.77, -93001.49, 0.000, 0.000, 0.000, 11:59:59.596
87, -51168.53, -63592.14, -112061.63, -106635.30, -71543.02, -63557.52, -91015.97, -93009.16, 0.000, 0.000, 0.000, 11:59:59.597
88, -51159.34, -63584.61, -111992.80, -106650.72, -71488.34, -63512.79, -90988.49, -92964.68, 0.000, 0.000, 0.000, 11:59:59.597
89, -51240.07, -63671.04, -112003.96, -106405.63, -71486.66, -63521.98, -91044.95, -92948.79, 0.000, 0.000, 0.000, 11:59:59.597
90, -51261.18, -63690.94, -112080.29, -106389.36, -71554.91, -63577.86, -91085.95, -93004.55, 0.000, 0.000, 0.000, 11:59:59.597
91, -51172.02, -63597.28, -112064.47, -106598.95, -71545.90, -63564.29, -91024.13, -93014.48, 0.000, 0.000, 0.000, 11:59:59.597
92, -51153.87, -63578.46, -112003.65, -106676.65, -71499.56, -63524.75, -90986.88, -92974.09, 0.000, 0.000, 0.000, 11:59:59.597
93, -51237.57, -63663.00, -111998.64, -106442.71, -71481.23, -63524.39, -91037.83, -92950.09, 0.000, 0.000, 0.000, 11:59:59.597
94, -51260.86, -63682.15, -112068.00, -106377.70, -71536.33, -63570.57, -91080.25, -92996.76, 0.000, 0.000, 0.000, 11:59:59.597
95, -51196.20, -63617.40, -112077.84, -106564.76, -71551.30, -63579.40, -91046.01, -93022.68, 0.000, 0.000, 0.000, 11:59:59.598
96, -51142.62, -63566.06, -112017.09, -106687.13, -71508.81, -63538.41, -90989.59, -92986.31, 0.000, 0.000, 0.000, 11:59:59.598
97, -51209.99, -63636.91, -111986.20, -106487.69, -71476.30, -63519.63, -91022.38, -92947.42, 0.000, 0.000, 0.000, 11:59:59.598
98, -51268.73, -63692.95, -112063.15, -106366.77, -71534.38, -63568.45, -91089.57, -92990.34, 0.000, 0.000, 0.000, 11:59:59.598
99, -51215.82, -63638.57, -112089.05, -106523.47, -71552.94, -63590.06, -91061.27, -93026.08, 0.000, 0.000, 0.000, 11:59:59.598
100, -51154.29, -63571.06, -112032.33, -106691.22, -71512.70, -63551.86, -90999.38, -93000.94, 0.000, 0.000, 0.000, 11:59:59.598
101, -51211.38, -63633.69, -111986.77, -106538.98, -71471.69, -63527.72, -91017.35, -92961.23, 0.000, 0.000, 0.000, 11:59:59.598
102, -51264.84, -63690.51, -112046.66, -106367.34, -71514.16, -63561.14, -91075.76, -92984.13, 0.000, 0.000, 0.000, 11:59:59.598
103, -51225.19, -63642.10, -112082.91, -106490.16, -71548.16, -63587.96, -91061.96, -93023.91, 0.000, 0.000, 0.000, 11:59:59.598
104, -51168.02, -63582.11, -112055.04, -106687.35, -71522.88, -63572.81, -91013.64, -93019.42, 0.000, 0.000, 0.000, 11:59:59.599
105, -51191.24, -63612.50, -111995.18, -106596.72, -71473.91, -63521.78, -91005.98, -92959.92, 0.000, 0.000, 0.000, 11:59:59.599
106, -51265.82, -63687.96, -112039.10, -106381.96, -71495.88, -63546.90, -91068.76, -92967.34, 0.000, 0.000, 0.000, 11:59:59.599
107, -51240.61, -63655.13, -112087.71, -106458.70, -71544.69, -63592.52, -91078.55, -93018.77, 0.000, 0.000, 0.000, 11:59:59.599
108, -51166.79, -63577.28, -112055.15, -106667.75, -71526.07, -63573.25, -91016.21, -93015.13, 0.000, 0.000, 0.000, 11:59:59.599
109, -51181.43, -63594.20, -111993.01, -106629.48, -71474.04, -63534.94, -91001.64, -92969.46, 0.000, 0.000, 0.000, 11:59:59.599
110, -51265.27, -63685.64, -112027.30, -106392.40, -71485.41, -63553.70, -91059.06, -92965.46, 0.000, 0.000, 0.000, 11:59:59.599
111, -51266.99, -63680.72, -112093.97, -106424.79, -71545.12, -63594.42, -91087.20, -93017.54, 0.000, 0.000, 0.000, 11:59:59.599
112, -51193.88, -63602.02, -112076.13, -106636.77, -71535.88, -63585.70, -91026.67, -93026.48, 0.000, 0.000, 0.000, 11:59:59.599
113, -51171.95, -63582.33, -112007.47, -106672.16, -71482.15, -63534.52, -90990.55, -92975.88, 0.000, 0.000, 0.000, 11:59:59.599
114, -51258.00, -63674.44, -112012.48, -106433.68, -71483.38, -63542.48, -91053.31, -92959.98, 0.000, 0.000, 0.000, 11:59:59.600
115, -51268.55, -63681.95, -112077.21, -106408.13, -71527.88, -63589.13, -91078.77, -93006.12, 0.000, 0.000, 0.000, 11:59:59.600
116, -51200.67, -63609.40, -112072.45, -106609.52, -71523.50, -63590.44, -91028.39, -93024.98, 0.000, 0.000, 0.000, 11:59:59.600
117, -51162.47, -63571.31, -112010.09, -106700.88, -71476.79, -63548.24, -90982.57, -92988.87, 0.000, 0.000, 0.000, 11:59:59.600
118, -51242.69, -63662.50, -111996.12, -106465.87, -71458.32, -63542.99, -91038.25, -92958.48, 0.000, 0.000, 0.000, 11:59:59.600
119, -51271.35, -63688.95, -112072.47, -106392.89, -71517.06, -63587.07, -91081.12, -93001.11, 0.000, 0.000, 0.000, 11:59:59.600
120, -51212.18, -63618.45, -112078.05, -106572.29, -71530.14, -63597.44, -91044.82, -93027.94, 0.000, 0.000, 0.000, 11:59:59.600
121, -51165.42, -63569.95, -112023.97, -106704.90, -71483.88, -63557.65, -90993.45, -92997.76, 0.000, 0.000, 0.000, 11:59:59.600
122, -51228.39, -63645.23, -111988.47, -106511.80, -71442.79, -63533.42, -91017.87, -92954.24, 0.000, 0.000, 0.000, 11:59:59.600
123, -51285.18, -63705.26, -112060.53, -106373.31, -71489.30, -63577.95, -91079.82, -92990.92, 0.000, 0.000, 0.000, 11:59:59.600
124, -51230.80, -63640.60, -112087.45, -106523.29, -71515.74, -63597.84, -91056.34, -93024.72, 0.000, 0.000, 0.000, 11:59:59.601
125, -51167.32, -63576.32, -112039.26, -106699.89, -71480.07, -63565.09, -90997.99, -93003.26, 0.000, 0.000, 0.000, 11:59:59.601
126, -51221.19, -63635.48, -111994.75, -106553.51, -71443.91, -63541.69, -91023.92, -92968.63, 0.000, 0.000, 0.000, 11:59:59.601
127, -51284.80, -63696.75, -112059.04, -106377.60, -71484.03, -63578.73, -91080.98, -92991.81, 0.000, 0.000, 0.000, 11:59:59.601
128, -51247.65, -63650.25, -112090.24, -106489.74, -71512.75, -63596.43, -91058.77, -93016.63, 0.000, 0.000, 0.000, 11:59:59.601
129, -51169.45, -63573.75, -112046.52, -106686.68, -71487.05, -63563.84, -90991.18, -92999.70, 0.000, 0.000, 0.000, 11:59:59.601
130, -51194.90, -63604.43, -111984.94, -106604.95, -71437.20, -63529.38, -90993.99, -92959.59, 0.000, 0.000, 0.000, 11:59:59.601
131, -51275.39, -63688.03, -112027.03, -106389.59, -71459.95, -63558.55, -91065.72, -92973.22, 0.000, 0.000, 0.000, 11:59:59.601
132, -51254.61, -63664.18, -112076.54, -106449.51, -71502.27, -63600.75, -91073.23, -93019.40, 0.000, 0.000, 0.000, 11:59:59.601
133, -51187.88, -63592.99, -112055.86, -106663.21, -71487.60, -63588.50, -91015.97, -93023.29, 0.000, 0.000, 0.000, 11:59:59.601
134, -51193.34, -63603.12, -112000.16, -106647.81, -71444.91, -63548.60, -90999.23, -92981.27, 0.000, 0.000, 0.000, 11:59:59.601
135, -51263.43, -63677.61, -112020.10, -106410.20, -71448.16, -63560.00, -91049.65, -92972.30, 0.000, 0.000, 0.000, 11:59:59.602
136, -51270.34, -63677.37, -112081.34, -106425.73, -71497.22, -63598.67, -91072.63, -93017.20, 0.000, 0.000, 0.000, 11:59:59.602
137, -51207.42, -63608.08, -112079.24, -106634.18, -71506.38, -63594.64, -91029.06, -93019.71, 0.000, 0.000, 0.000, 11:59:59.602
138, -51188.42, -63589.75, -112017.55, -106681.27, -71460.83, -63555.42, -91001.55, -92982.07, 0.000, 0.000, 0.000, 11:59:59.602
139, -51261.20, -63671.20, -112013.91, -106444.39, -71450.12, -63549.72, -91049.13, -92960.25, 0.000, 0.000, 0.000, 11:59:59.602
140, -51274.09, -63688.48, -112077.21, -106403.02, -71502.91, -63597.44, -91087.80, -93007.02, 0.000, 0.000, 0.000, 11:59:59.602
141, -51223.85, -63631.52, -112089.01, -106589.77, -71514.65, -63608.48, -91057.41, -93033.08, 0.000, 0.000, 0.000, 11:59:59.602
142, -51195.82, -63599.14, -112041.52, -106699.13, -71483.09, -63572.81, -91022.40, -93008.76, 0.000, 0.000, 0.000, 11:59:59.602
143, -51264.20, -63672.43, -112014.96, -106483.23, -71460.29, -63559.73, -91068.83, -92981.47, 0.000, 0.000, 0.000, 11:59:59.602
144, -51297.23, -63705.75, -112084.05, -106389.70, -71506.89, -63603.43, -91105.73, -93019.66, 0.000, 0.000, 0.000, 11:59:59.602
145, -51242.29, -63646.12, -112098.73, -106559.95, -71523.55, -63616.32, -91063.84, -93046.45, 0.000, 0.000, 0.000, 11:59:59.603
146, -51203.80, -63599.09, -112054.23, -106704.45, -71494.98, -63584.99, -91021.27, -93024.18, 0.000, 0.000, 0.000, 11:59:59.603
147, -51260.57, -63658.70, -112019.27, -106532.23, -71458.95, -63562.35, -91040.06, -92982.56, 0.000, 0.000, 0.000, 11:59:59.603
148, -51308.02, -63708.77, -112077.86, -106391.26, -71502.09, -63602.98, -91096.95, -93012.71, 0.000, 0.000, 0.000, 11:59:59.603
149, -51258.72, -63659.87, -112104.21, -106523.90, -71520.39, -63625.20, -91078.93, -93047.56, 0.000, 0.000, 0.000, 11:59:59.603
150, -51189.54, -63585.30, -112060.29, -106709.41, -71486.06, -63586.11, -91014.71, -93026.99, 0.000, 0.000, 0.000, 11:59:59.603
151, -51228.45, -63627.12, -112006.69, -106582.44, -71443.88, -63550.12, -91021.66, -92981.04, 0.000, 0.000, 0.000, 11:59:59.603
152, -51291.98, -63692.79, -112056.42, -106384.71, -71480.45, -63582.11, -91087.20, -92998.50, 0.000, 0.000, 0.000, 11:59:59.603
153, -51269.45, -63664.96, -112103.23, -106486.86, -71524.33, -63617.87, -91090.59, -93043.31, 0.000, 0.000, 0.000, 11:59:59.603
154, -51201.00, -63594.67, -112073.81, -106695.06, -71500.32, -63596.12, -91029.47, -93039.22, 0.000, 0.000, 0.000, 11:59:59.603
155, -51207.20, -63608.93, -112004.01, -106628.14, -71434.98, -63542.36, -90997.95, -92979.70, 0.000, 0.000, 0.000, 11:59:59.604
156, -51281.07, -63686.69, -112044.20, -106408.65, -71456.00, -63565.03, -91065.27, -92987.92, 0.000, 0.000, 0.000, 11:59:59.604
157, -51278.63, -63679.54, -112105.41, -106460.39, -71514.25, -63614.49, -91089.10, -93034.13, 0.000, 0.000, 0.000, 11:59:59.604
158, -51207.51, -63595.83, -112087.06, -106672.78, -71503.48, -63597.48, -91030.00, -93032.88, 0.000, 0.000, 0.000, 11:59:59.604
159, -51199.73, -63593.19, -112020.41, -106672.47, -71456.78, -63552.33, -91005.75, -92989.42, 0.000, 0.000, 0.000, 11:59:59.604
160, -51280.15, -63679.47, -112039.03, -106429.37, -71466.02, -63565.61, -91068.42, -92981.76, 0.000, 0.000, 0.000, 11:59:59.604
161, -51281.92, -63678.42, -112101.04, -106420.83, -71511.74, -63609.69, -91096.37, -93027.71, 0.000, 0.000, 0.000, 11:59:59.604
162, -51219.22, -63609.98, -112098.38, -106630.76, -71511.54, -63609.84, -91047.34, -93044.99, 0.000, 0.000, 0.000, 11:59:59.604
163, -51210.30, -63598.06, -112041.73, -106694.51, -71470.05, -63569.63, -91014.00, -93010.92, 0.000, 0.000, 0.000, 11:59:59.604
