%OpenBCI Raw EEG Data
%
%Sample Rate = 250.0 Hz
%First Column = SampleIndex
%5 Columns before Timestamp are Frequency Power factors DELTA THETA ALPHA BETA GAMMA
%Last Column = Timestamp 
%Other Columns = EEG data in microvolts followed by Accel Data (in G) interleaved with Aux Data
0.000000, 0.000000, 0.000000, 0.000000, 0.000000, 0.000000, 0.000000, 0.000000, 1, 256, 1,0.0,0.0,0.0,0.0,0.0, 14:13:11.692
86152.984375, 114085.023438, 147945.921875, 151492.750000, 98142.882813, 104943.132813, 141647.250000, 144868.328125, 1, 256, 1,0.0,0.0,0.0,0.0,0.0, 14:13:12.171
86136.781250, 114058.804688, 147995.875000, 151617.468750, 98179.140625, 105051.023438, 141703.531250, 144878.484375, 1, 256, 1,0.0,0.0,0.0,0.0,0.0, 14:13:12.173
86057.609375, 113972.906250, 148025.937500, 151777.750000, 98195.546875, 105182.992188, 141747.359375, 144824.062500, 1, 256, 1,0.0,0.0,0.0,0.0,0.0, 14:13:12.174
86056.359375, 113982.828125, 147977.171875, 151674.281250, 98158.554688, 105095.125000, 141696.359375, 144803.296875, 1, 256, 1,0.0,0.0,0.0,0.0,0.0, 14:13:12.174
86129.765625, 114067.359375, 147940.890625, 151495.062500, 98133.695313, 104945.617188, 141647.218750, 144854.296875, 1, 256, 1,0.0,0.0,0.0,0.0,0.0, 14:13:12.175
86122.562500, 114045.617188, 147983.156250, 151573.812500, 98156.093750, 105013.718750, 141678.046875, 144868.359375, 1, 256, 1,0.0,0.0,0.0,0.0,0.0, 14:13:12.176
86056.492188, 113969.640625, 148018.484375, 151757.234375, 98179.453125, 105166.656250, 141731.781250, 144825.906250, 1, 256, 1,0.0,0.0,0.0,0.0,0.0, 14:13:12.177
86041.562500, 113971.812500, 147982.203125, 151707.187500, 98153.593750, 105119.601563, 141698.125000, 144797.343750, 1, 256, 1,0.0,0.0,0.0,0.0,0.0, 14:13:12.177
86121.781250, 114057.796875, 147938.125000, 151517.468750, 98128.734375, 104958.335938, 141643.015625, 144844.640625, 1, 256, 1,0.0,0.0,0.0,0.0,0.0, 14:13:12.178
86147.601563, 114060.609375, 147976.406250, 151555.031250, 98158.148438, 104987.484375, 141674.656250, 144879.671875, 1, 256, 1,0.0,0.0,0.0,0.0,0.0, 14:13:12.179
86072.742188, 113981.914063, 148017.937500, 151745.000000, 98186.335938, 105143.921875, 141732.968750, 144834.296875, 1, 256, 1,0.0,0.0,0.0,0.0,0.0, 14:13:12.179
86046.140625, 113961.796875, 147998.062500, 151741.156250, 98169.726563, 105141.726563, 141717.359375, 144797.750000, 1, 256, 1,0.0,0.0,0.0,0.0,0.0, 14:13:12.180
86117.398438, 114042.531250, 147946.968750, 151548.218750, 98140.828125, 104983.437500, 141656.812500, 144839.234375, 1, 256, 1,0.0,0.0,0.0,0.0,0.0, 14:13:12.180
86152.492188, 114087.929688, 147968.515625, 151526.140625, 98159.156250, 104970.804688, 141671.765625, 144890.218750, 1, 256, 1,0.0,0.0,0.0,0.0,0.0, 14:13:12.181
86079.335938, 114004.304688, 148022.343750, 151714.859375, 98186.515625, 105131.226563, 141726.531250, 144847.484375, 1, 256, 1,0.0,0.0,0.0,0.0,0.0, 14:13:12.181
86035.304688, 113960.390625, 148010.906250, 151761.828125, 98177.640625, 105167.101563, 141727.531250, 144800.109375, 1, 256, 1,0.0,0.0,0.0,0.0,0.0, 14:13:12.181
86096.257813, 114034.726563, 147958.500000, 151580.078125, 98143.156250, 105016.804688, 141665.312500, 144829.109375, 1, 256, 1,0.0,0.0,0.0,0.0,0.0, 14:13:12.182
86155.265625, 114091.078125, 147962.234375, 151505.062500, 98145.031250, 104957.195313, 141656.281250, 144885.968750, 1, 256, 1,0.0,0.0,0.0,0.0,0.0, 14:13:12.182
86104.328125, 114027.289063, 148021.718750, 151685.656250, 98186.117188, 105107.195313, 141724.343750, 144866.500000, 1, 256, 1,0.0,0.0,0.0,0.0,0.0, 14:13:12.183
86040.398438, 113961.328125, 148027.125000, 151776.468750, 98183.835938, 105174.382813, 141734.343750, 144805.375000, 1, 256, 1,0.0,0.0,0.0,0.0,0.0, 14:13:12.183
86087.609375, 114021.031250, 147971.250000, 151612.500000, 98150.554688, 105045.507813, 141676.375000, 144823.468750, 1, 256, 1,0.0,0.0,0.0,0.0,0.0, 14:13:12.183
86152.382813, 114090.320313, 147954.546875, 151489.453125, 98145.031250, 104944.632813, 141650.578125, 144878.343750, 1, 256, 1,0.0,0.0,0.0,0.0,0.0, 14:13:12.184
86118.429688, 114036.718750, 148002.562500, 151638.000000, 98179.007813, 105073.671875, 141709.203125, 144869.421875, 1, 256, 1,0.0,0.0,0.0,0.0,0.0, 14:13:12.184
86048.179688, 113957.367188, 148025.703125, 151778.265625, 98186.742188, 105180.734375, 141738.046875, 144809.906250, 1, 256, 1,0.0,0.0,0.0,0.0,0.0, 14:13:12.185
86076.320313, 114005.156250, 147977.953125, 151652.671875, 98154.171875, 105077.492188, 141685.062500, 144811.937500, 1, 256, 1,0.0,0.0,0.0,0.0,0.0, 14:13:12.186
86142.414063, 114085.445313, 147952.500000, 151495.250000, 98132.984375, 104942.375000, 141640.250000, 144861.656250, 1, 256, 1,0.0,0.0,0.0,0.0,0.0, 14:13:12.187
86123.031250, 114056.093750, 147994.890625, 151605.593750, 98164.210938, 105039.000000, 141688.421875, 144870.546875, 1, 256, 1,0.0,0.0,0.0,0.0,0.0, 14:13:12.188
86062.859375, 113979.859375, 148033.296875, 151776.984375, 98195.296875, 105182.703125, 141743.687500, 144827.296875, 1, 256, 1,0.0,0.0,0.0,0.0,0.0, 14:13:12.189
86066.929688, 113994.500000, 147999.593750, 151691.562500, 98169.460938, 105106.304688, 141701.718750, 144801.796875, 1, 256, 1,0.0,0.0,0.0,0.0,0.0, 14:13:12.189
86133.875000, 114076.703125, 147955.156250, 151500.875000, 98134.437500, 104945.125000, 141641.218750, 144845.203125, 1, 256, 1,0.0,0.0,0.0,0.0,0.0, 14:13:12.190
86138.679688, 114071.070313, 147982.375000, 151560.843750, 98160.835938, 105003.976563, 141685.484375, 144873.859375, 1, 256, 1,0.0,0.0,0.0,0.0,0.0, 14:13:12.190
86070.062500, 113989.312500, 148027.421875, 151749.593750, 98194.984375, 105164.484375, 141744.515625, 144832.750000, 1, 256, 1,0.0,0.0,0.0,0.0,0.0, 14:13:12.191
86051.914063, 113972.257813, 147999.171875, 151710.781250, 98170.023438, 105126.085938, 141707.640625, 144795.015625, 1, 256, 1,0.0,0.0,0.0,0.0,0.0, 14:13:12.192
86109.664063, 114039.648438, 147943.203125, 151511.921875, 98136.937500, 104957.750000, 141641.187500, 144828.609375, 1, 256, 1,0.0,0.0,0.0,0.0,0.0, 14:13:12.192
86135.843750, 114063.765625, 147959.953125, 151524.906250, 98155.156250, 104977.398438, 141665.500000, 144870.843750, 1, 256, 1,0.0,0.0,0.0,0.0,0.0, 14:13:12.192
86073.703125, 113995.835938, 148007.015625, 151719.609375, 98193.023438, 105144.523438, 141735.000000, 144840.125000, 1, 256, 1,0.0,0.0,0.0,0.0,0.0, 14:13:12.193
86039.234375, 113967.117188, 147993.593750, 151735.109375, 98179.007813, 105152.703125, 141723.062500, 144800.968750, 1, 256, 1,0.0,0.0,0.0,0.0,0.0, 14:13:12.193
86104.726563, 114044.609375, 147945.500000, 151545.578125, 98150.554688, 104995.101563, 141662.796875, 144836.390625, 1, 256, 1,0.0,0.0,0.0,0.0,0.0, 14:13:12.193
86137.851563, 114068.796875, 147955.171875, 151503.140625, 98153.773438, 104957.710938, 141657.890625, 144872.265625, 1, 256, 1,0.0,0.0,0.0,0.0,0.0, 14:13:12.193
86079.781250, 113996.039063, 147998.500000, 151682.531250, 98187.320313, 105117.500000, 141721.515625, 144847.656250, 1, 256, 1,0.0,0.0,0.0,0.0,0.0, 14:13:12.194
86037.718750, 113956.031250, 147999.953125, 151747.171875, 98188.390625, 105169.671875, 141729.671875, 144803.218750, 1, 256, 1,0.0,0.0,0.0,0.0,0.0, 14:13:12.194
86085.257813, 114019.531250, 147945.500000, 151569.500000, 98147.890625, 105014.726563, 141661.578125, 144813.296875, 1, 256, 1,0.0,0.0,0.0,0.0,0.0, 14:13:12.194
86142.031250, 114081.601563, 147943.859375, 151484.156250, 98144.046875, 104937.632813, 141649.531250, 144867.953125, 1, 256, 1,0.0,0.0,0.0,0.0,0.0, 14:13:12.195
86088.992188, 114014.437500, 147999.093750, 151658.609375, 98177.304688, 105082.632813, 141710.078125, 144845.984375, 1, 256, 1,0.0,0.0,0.0,0.0,0.0, 14:13:12.195
86031.859375, 113950.484375, 148007.750000, 151763.250000, 98181.687500, 105168.773438, 141728.046875, 144794.625000, 1, 256, 1,0.0,0.0,0.0,0.0,0.0, 14:13:12.195
86073.726563, 114006.968750, 147952.156250, 151608.015625, 98148.671875, 105045.796875, 141673.515625, 144811.671875, 1, 256, 1,0.0,0.0,0.0,0.0,0.0, 14:13:12.196
86137.296875, 114078.625000, 147935.703125, 151477.546875, 98137.187500, 104938.375000, 141641.656250, 144866.875000, 1, 256, 1,0.0,0.0,0.0,0.0,0.0, 14:13:12.196
86104.882813, 114027.242188, 147983.343750, 151615.453125, 98177.976563, 105062.406250, 141708.156250, 144865.968750, 1, 256, 1,0.0,0.0,0.0,0.0,0.0, 14:13:12.196
86040.023438, 113956.054688, 148015.578125, 151763.906250, 98194.921875, 105182.140625, 141742.390625, 144810.359375, 1, 256, 1,0.0,0.0,0.0,0.0,0.0, 14:13:12.197
86064.156250, 113996.460938, 147966.671875, 151640.125000, 98159.445313, 105080.867188, 141685.468750, 144806.640625, 1, 256, 1,0.0,0.0,0.0,0.0,0.0, 14:13:12.197
86133.804688, 114076.726563, 147934.953125, 151474.390625, 98140.406250, 104943.359375, 141640.625000, 144862.437500, 1, 256, 1,0.0,0.0,0.0,0.0,0.0, 14:13:12.207
86117.781250, 114053.367188, 147979.718750, 151576.984375, 98170.398438, 105028.429688, 141686.968750, 144867.546875, 1, 256, 1,0.0,0.0,0.0,0.0,0.0, 14:13:12.208
86051.507813, 113980.390625, 148014.453125, 151747.625000, 98189.890625, 105166.898438, 141737.078125, 144815.734375, 1, 256, 1,0.0,0.0,0.0,0.0,0.0, 14:13:12.209
86052.468750, 113986.921875, 147984.218750, 151678.171875, 98171.117188, 105103.734375, 141705.937500, 144795.125000, 1, 256, 1,0.0,0.0,0.0,0.0,0.0, 14:13:12.209
86133.468750, 114083.390625, 147938.531250, 151493.234375, 98141.570313, 104948.390625, 141642.546875, 144844.703125, 1, 256, 1,0.0,0.0,0.0,0.0,0.0, 14:13:12.210
86144.539063, 114088.421875, 147969.640625, 151550.953125, 98163.515625, 104997.898438, 141671.031250, 144869.296875, 1, 256, 1,0.0,0.0,0.0,0.0,0.0, 14:13:12.210
86072.031250, 114000.195313, 148014.765625, 151742.843750, 98189.804688, 105154.312500, 141729.046875, 144824.218750, 1, 256, 1,0.0,0.0,0.0,0.0,0.0, 14:13:12.211
86048.335938, 113980.187500, 147990.046875, 151717.515625, 98170.242188, 105128.898438, 141706.656250, 144795.093750, 1, 256, 1,0.0,0.0,0.0,0.0,0.0, 14:13:12.211
86112.554688, 114054.156250, 147935.812500, 151521.062500, 98135.445313, 104963.632813, 141642.828125, 144835.296875, 1, 256, 1,0.0,0.0,0.0,0.0,0.0, 14:13:12.212
86137.070313, 114076.171875, 147952.812500, 151520.968750, 98152.921875, 104968.390625, 141660.859375, 144873.812500, 1, 256, 1,0.0,0.0,0.0,0.0,0.0, 14:13:12.212
86070.773438, 113996.171875, 148003.078125, 151717.531250, 98188.976563, 105134.734375, 141725.015625, 144838.875000, 1, 256, 1,0.0,0.0,0.0,0.0,0.0, 14:13:12.212
86041.273438, 113965.281250, 147996.390625, 151744.625000, 98182.468750, 105153.843750, 141717.515625, 144798.078125, 1, 256, 1,0.0,0.0,0.0,0.0,0.0, 14:13:12.213
86104.148438, 114042.351563, 147938.125000, 151548.062500, 98148.492188, 104996.015625, 141654.000000, 144834.828125, 1, 256, 1,0.0,0.0,0.0,0.0,0.0, 14:13:12.213
86139.640625, 114078.132813, 147950.062500, 151501.437500, 98159.093750, 104958.804688, 141656.484375, 144883.890625, 1, 256, 1,0.0,0.0,0.0,0.0,0.0, 14:13:12.214
86071.804688, 113999.703125, 147996.968750, 151676.765625, 98184.523438, 105106.328125, 141712.109375, 144843.546875, 1, 256, 1,0.0,0.0,0.0,0.0,0.0, 14:13:12.214
86019.968750, 113952.187500, 147995.078125, 151744.125000, 98178.671875, 105162.070313, 141721.906250, 144795.796875, 1, 256, 1,0.0,0.0,0.0,0.0,0.0, 14:13:12.217
86073.367188, 114016.046875, 147945.593750, 151574.734375, 98144.359375, 105014.726563, 141662.828125, 144812.281250, 1, 256, 1,0.0,0.0,0.0,0.0,0.0, 14:13:12.217
86143.890625, 114081.843750, 147951.437500, 151483.265625, 98149.679688, 104934.101563, 141652.390625, 144867.375000, 1, 256, 1,0.0,0.0,0.0,0.0,0.0, 14:13:12.217
86109.648438, 114034.796875, 148011.484375, 151653.921875, 98191.320313, 105081.421875, 141715.390625, 144860.906250, 1, 256, 1,0.0,0.0,0.0,0.0,0.0, 14:13:12.217
86055.578125, 113969.257813, 148042.687500, 151778.828125, 98204.531250, 105176.953125, 141746.203125, 144811.515625, 1, 256, 1,0.0,0.0,0.0,0.0,0.0, 14:13:12.218
86072.921875, 114002.093750, 147991.718750, 151632.421875, 98163.335938, 105045.039063, 141677.953125, 144802.843750, 1, 256, 1,0.0,0.0,0.0,0.0,0.0, 14:13:12.218
86132.914063, 114076.257813, 147961.953125, 151489.750000, 98146.148438, 104925.320313, 141639.453125, 144856.265625, 1, 256, 1,0.0,0.0,0.0,0.0,0.0, 14:13:12.218
86107.117188, 114037.164063, 148009.625000, 151626.156250, 98179.273438, 105044.054688, 141698.812500, 144863.109375, 1, 256, 1,0.0,0.0,0.0,0.0,0.0, 14:13:12.218
86044.648438, 113963.429688, 148043.484375, 151783.875000, 98200.734375, 105170.406250, 141744.640625, 144813.437500, 1, 256, 1,0.0,0.0,0.0,0.0,0.0, 14:13:12.218
86059.171875, 113996.734375, 148001.828125, 151676.937500, 98173.750000, 105083.570313, 141699.921875, 144809.281250, 1, 256, 1,0.0,0.0,0.0,0.0,0.0, 14:13:12.219
86140.851563, 114084.062500, 147966.546875, 151507.250000, 98152.828125, 104942.039063, 141651.359375, 144860.734375, 1, 256, 1,0.0,0.0,0.0,0.0,0.0, 14:13:12.220
86134.476563, 114058.828125, 148005.515625, 151598.828125, 98182.742188, 105023.039063, 141694.125000, 144874.968750, 1, 256, 1,0.0,0.0,0.0,0.0,0.0, 14:13:12.220
86063.179688, 113975.742188, 148038.953125, 151772.312500, 98205.156250, 105170.406250, 141744.828125, 144826.484375, 1, 256, 1,0.0,0.0,0.0,0.0,0.0, 14:13:12.220
86058.328125, 113983.882813, 147999.703125, 151707.812500, 98183.523438, 105117.078125, 141712.515625, 144808.906250, 1, 256, 1,0.0,0.0,0.0,0.0,0.0, 14:13:12.221
86116.375000, 114061.257813, 147948.671875, 151516.687500, 98148.406250, 104950.507813, 141646.906250, 144845.093750, 1, 256, 1,0.0,0.0,0.0,0.0,0.0, 14:13:12.221
86129.781250, 114063.382813, 147983.312500, 151561.500000, 98175.273438, 104992.132813, 141683.656250, 144880.156250, 1, 256, 1,5.9290364E-6,7.8538305E-6,9.653887E-6,3.0371311E-5,3.8574926E-5, 14:13:12.221
86061.765625, 113971.429688, 148032.515625, 151755.390625, 98205.671875, 105151.406250, 141742.640625, 144838.000000, 1, 256, 1,5.9290364E-6,7.8538305E-6,9.653887E-6,3.0371311E-5,3.8574926E-5, 14:13:12.221
86039.101563, 113961.304688, 148008.859375, 151739.578125, 98183.585938, 105134.507813, 141723.218750, 144803.687500, 1, 256, 1,5.9290364E-6,7.8538305E-6,9.653887E-6,3.0371311E-5,3.8574926E-5, 14:13:12.222
86098.421875, 114044.476563, 147953.437500, 151539.640625, 98140.250000, 104969.312500, 141649.375000, 144833.750000, 1, 256, 1,5.9290364E-6,7.8538305E-6,9.653887E-6,3.0371311E-5,3.8574926E-5, 14:13:12.222
86135.882813, 114070.335938, 147974.000000, 151531.203125, 98156.476563, 104967.789063, 141667.875000, 144880.921875, 1, 256, 1,5.9290364E-6,7.8538305E-6,9.653887E-6,3.0371311E-5,3.8574926E-5, 14:13:12.223
86083.898438, 113999.796875, 148029.093750, 151724.953125, 98191.414063, 105126.445313, 141735.359375, 144845.218750, 1, 256, 1,5.9290364E-6,7.8538305E-6,9.653887E-6,3.0371311E-5,3.8574926E-5, 14:13:12.223
86043.437500, 113971.539063, 148018.875000, 151758.328125, 98176.750000, 105152.750000, 141723.828125, 144800.718750, 1, 256, 1,5.9290364E-6,7.8538305E-6,9.653887E-6,3.0371311E-5,3.8574926E-5, 14:13:12.223
86098.492188, 114040.609375, 147957.593750, 151565.406250, 98135.085938, 104996.531250, 141654.265625, 144824.859375, 1, 256, 1,5.9290364E-6,7.8538305E-6,9.653887E-6,3.0371311E-5,3.8574926E-5, 14:13:12.224
86143.601563, 114080.820313, 147960.093750, 151501.765625, 98142.484375, 104947.382813, 141650.687500, 144873.546875, 1, 256, 1,5.9290364E-6,7.8538305E-6,9.653887E-6,3.0371311E-5,3.8574926E-5, 14:13:12.224
86093.890625, 114006.945313, 148010.984375, 151684.671875, 98184.078125, 105103.531250, 141721.437500, 144853.359375, 1, 256, 1,5.9290364E-6,7.8538305E-6,9.653887E-6,3.0371311E-5,3.8574926E-5, 14:13:12.224
86034.742188, 113946.125000, 148009.265625, 151760.968750, 98185.960938, 105167.281250, 141735.984375, 144802.000000, 1, 256, 1,5.9290364E-6,7.8538305E-6,9.653887E-6,3.0371311E-5,3.8574926E-5, 14:13:12.225
86072.406250, 113998.992188, 147956.859375, 151593.140625, 98154.929688, 105028.898438, 141676.265625, 144816.281250, 1, 256, 1,5.9290364E-6,7.8538305E-6,9.653887E-6,3.0371311E-5,3.8574926E-5, 14:13:12.225
86141.093750, 114069.015625, 147948.468750, 151485.515625, 98151.335938, 104937.796875, 141651.140625, 144873.406250, 1, 256, 1,5.9290364E-6,7.8538305E-6,9.653887E-6,3.0371311E-5,3.8574926E-5, 14:13:12.226
86101.507813, 114010.812500, 147997.359375, 151642.312500, 98179.968750, 105069.359375, 141702.390625, 144856.937500, 1, 256, 1,5.9290364E-6,7.8538305E-6,9.653887E-6,3.0371311E-5,3.8574926E-5, 14:13:12.226
86040.156250, 113946.773438, 148018.593750, 151768.453125, 98190.921875, 105172.929688, 141735.484375, 144806.937500, 1, 256, 1,5.9290364E-6,7.8538305E-6,9.653887E-6,3.0371311E-5,3.8574926E-5, 14:13:12.227
86072.031250, 113997.875000, 147976.593750, 151638.671875, 98164.117188, 105063.273438, 141688.593750, 144815.421875, 1, 256, 1,5.9290364E-6,7.8538305E-6,9.653887E-6,3.0371311E-5,3.8574926E-5, 14:13:12.227
86135.460938, 114073.328125, 147948.687500, 151489.281250, 98147.156250, 104933.929688, 141648.296875, 144865.390625, 1, 256, 1,5.9290364E-6,7.8538305E-6,9.653887E-6,3.0371311E-5,3.8574926E-5, 14:13:12.227
86104.929688, 114032.335938, 147995.203125, 151613.906250, 98180.929688, 105038.375000, 141699.640625, 144863.437500, 1, 256, 1,5.9290364E-6,7.8538305E-6,9.653887E-6,3.0371311E-5,3.8574926E-5, 14:13:12.228
86034.250000, 113949.859375, 148021.359375, 151769.437500, 98197.867188, 105169.734375, 141743.828125, 144817.218750, 1, 256, 1,5.9290364E-6,7.8538305E-6,9.653887E-6,3.0371311E-5,3.8574926E-5, 14:13:12.228
86050.773438, 113968.726563, 147984.640625, 151672.937500, 98170.625000, 105086.656250, 141696.468750, 144800.453125, 1, 256, 1,5.9290364E-6,7.8538305E-6,9.653887E-6,3.0371311E-5,3.8574926E-5, 14:13:12.229
86133.804688, 114066.398438, 147948.921875, 151494.187500, 98150.929688, 104937.007813, 141648.515625, 144854.281250, 1, 256, 1,5.9290364E-6,7.8538305E-6,9.653887E-6,3.0371311E-5,3.8574926E-5, 14:13:12.229
86132.687500, 114054.687500, 147989.828125, 151579.578125, 98188.390625, 105015.914063, 141700.109375, 144880.687500, 1, 256, 1,5.9290364E-6,7.8538305E-6,9.653887E-6,3.0371311E-5,3.8574926E-5, 14:13:12.229
86057.835938, 113966.687500, 148028.765625, 151761.093750, 98209.312500, 105162.070313, 141749.812500, 144826.984375, 1, 256, 1,5.9290364E-6,7.8538305E-6,9.653887E-6,3.0371311E-5,3.8574926E-5, 14:13:12.230
86047.710938, 113966.625000, 147995.343750, 151705.218750, 98182.804688, 105116.179688, 141718.031250, 144801.328125, 1, 256, 1,5.9290364E-6,7.8538305E-6,9.653887E-6,3.0371311E-5,3.8574926E-5, 14:13:12.230
86112.820313, 114045.726563, 147951.421875, 151513.171875, 98151.890625, 104955.828125, 141657.937500, 144846.921875, 1, 256, 1,5.9290364E-6,7.8538305E-6,9.653887E-6,3.0371311E-5,3.8574926E-5, 14:13:12.230
86122.453125, 114051.757813, 147980.406250, 151545.921875, 98165.703125, 104982.945313, 141677.906250, 144875.062500, 1, 256, 1,5.9290364E-6,7.8538305E-6,9.653887E-6,3.0371311E-5,3.8574926E-5, 14:13:12.231
86052.445313, 113970.710938, 148022.015625, 151735.921875, 98192.796875, 105139.632813, 141733.546875, 144832.593750, 1, 256, 1,5.9290364E-6,7.8538305E-6,9.653887E-6,3.0371311E-5,3.8574926E-5, 14:13:12.231
86031.437500, 113956.250000, 147995.828125, 151729.890625, 98176.953125, 105136.234375, 141715.781250, 144800.703125, 1, 256, 1,5.9290364E-6,7.8538305E-6,9.653887E-6,3.0371311E-5,3.8574926E-5, 14:13:12.231
86112.773438, 114038.750000, 147950.890625, 151542.750000, 98157.992188, 104983.546875, 141667.046875, 144843.359375, 1, 256, 1,5.9290364E-6,7.8538305E-6,9.653887E-6,3.0371311E-5,3.8574926E-5, 14:13:12.232
86144.046875, 114060.992188, 147966.515625, 151520.843750, 98170.445313, 104962.468750, 141673.578125, 144879.359375, 1, 256, 1,5.9290364E-6,7.8538305E-6,9.653887E-6,3.0371311E-5,3.8574926E-5, 14:13:12.232
86076.921875, 113988.390625, 148012.546875, 151706.734375, 98198.945313, 105121.835938, 141735.625000, 144847.093750, 1, 256, 1,5.9290364E-6,7.8538305E-6,9.653887E-6,3.0371311E-5,3.8574926E-5, 14:13:12.233
86040.601563, 113954.085938, 148008.421875, 151755.984375, 98193.421875, 105161.687500, 141737.812500, 144807.109375, 1, 256, 1,5.9290364E-6,7.8538305E-6,9.653887E-6,3.0371311E-5,3.8574926E-5, 14:13:12.233
86097.437500, 114025.070313, 147954.953125, 151572.578125, 98159.289063, 105009.367188, 141671.625000, 144833.515625, 1, 256, 1,5.9290364E-6,7.8538305E-6,9.653887E-6,3.0371311E-5,3.8574926E-5, 14:13:12.233
86145.164063, 114074.492188, 147961.343750, 151499.203125, 98162.867188, 104946.687500, 141663.921875, 144881.359375, 1, 256, 1,5.9290364E-6,7.8538305E-6,9.653887E-6,3.0371311E-5,3.8574926E-5, 14:13:12.234
86096.632813, 114006.609375, 148014.234375, 151677.031250, 98191.789063, 105097.429688, 141721.234375, 144858.609375, 1, 256, 1,5.9290364E-6,7.8538305E-6,9.653887E-6,3.0371311E-5,3.8574926E-5, 14:13:12.234
86039.390625, 113952.609375, 148016.234375, 151768.390625, 98190.468750, 105173.289063, 141739.625000, 144809.859375, 1, 256, 1,5.9290364E-6,7.8538305E-6,9.653887E-6,3.0371311E-5,3.8574926E-5, 14:13:12.234
86072.406250, 114012.671875, 147956.453125, 151608.125000, 98155.382813, 105040.054688, 141680.750000, 144826.265625, 1, 256, 1,5.9290364E-6,7.8538305E-6,9.653887E-6,3.0371311E-5,3.8574926E-5, 14:13:12.235
86138.945313, 114089.242188, 147942.218750, 151495.468750, 98154.304688, 104946.507813, 141660.593750, 144887.062500, 1, 256, 1,5.9290364E-6,7.8538305E-6,9.653887E-6,3.0371311E-5,3.8574926E-5, 14:13:12.235
86101.015625, 114033.945313, 147998.859375, 151651.343750, 98195.054688, 105076.375000, 141721.875000, 144873.078125, 1, 256, 1,5.9290364E-6,7.8538305E-6,9.653887E-6,3.0371311E-5,3.8574926E-5, 14:13:12.236
86032.578125, 113943.062500, 148012.843750, 151777.078125, 98195.632813, 105173.023438, 141736.921875, 144804.859375, 1, 256, 1,5.9290364E-6,7.8538305E-6,9.653887E-6,3.0371311E-5,3.8574926E-5, 14:13:12.236
86055.289063, 113984.703125, 147955.093750, 151640.843750, 98155.539063, 105058.203125, 141677.687500, 144800.625000, 1, 256, 1,0.0,0.0,0.0,0.0,0.0, 14:13:12.650
86130.140625, 114070.601563, 147927.859375, 151485.015625, 98140.828125, 104928.828125, 141640.812500, 144860.671875, 1, 256, 1,0.0,0.0,0.0,0.0,0.0, 14:13:12.651
86107.812500, 114034.664063, 147980.078125, 151603.078125, 98176.796875, 105028.320313, 141693.890625, 144865.390625, 1, 256, 1,0.0,0.0,0.0,0.0,0.0, 14:13:12.651
86034.140625, 113956.296875, 148010.390625, 151761.453125, 98192.796875, 105162.273438, 141739.000000, 144815.890625, 1, 256, 1,0.0,0.0,0.0,0.0,0.0, 14:13:12.651
86051.578125, 113980.929688, 147975.859375, 151678.859375, 98171.476563, 105096.960938, 141703.328125, 144814.109375, 1, 256, 1,0.0,0.0,0.0,0.0,0.0, 14:13:12.651
86125.937500, 114061.218750, 147944.421875, 151503.671875, 98154.914063, 104949.750000, 141654.437500, 144862.281250, 1, 256, 1,0.0,0.0,0.0,0.0,0.0, 14:13:12.652
86123.726563, 114051.109375, 147978.203125, 151569.859375, 98174.289063, 105007.531250, 141683.687500, 144875.984375, 1, 256, 1,0.0,0.0,0.0,0.0,0.0, 14:13:12.653
86060.718750, 113980.414063, 148011.796875, 151751.203125, 98199.343750, 105162.312500, 141741.953125, 144837.750000, 1, 256, 1,0.0,0.0,0.0,0.0,0.0, 14:13:12.653
86037.312500, 113962.507813, 147980.140625, 151707.875000, 98174.421875, 105121.835938, 141708.218750, 144803.250000, 1, 256, 1,0.0,0.0,0.0,0.0,0.0, 14:13:12.653
86103.187500, 114042.351563, 147929.765625, 151512.796875, 98142.664063, 104959.812500, 141646.125000, 144848.703125, 1, 256, 1,0.0,0.0,0.0,0.0,0.0, 14:13:12.654
86117.648438, 114054.375000, 147960.156250, 151534.296875, 98161.234375, 104979.812500, 141668.843750, 144880.687500, 1, 256, 1,0.0,0.0,0.0,0.0,0.0, 14:13:12.654
86050.500000, 113973.085938, 148008.015625, 151728.265625, 98186.875000, 105138.335938, 141724.828125, 144833.875000, 1, 256, 1,0.0,0.0,0.0,0.0,0.0, 14:13:12.655
86033.625000, 113959.093750, 147989.515625, 151735.187500, 98176.210938, 105141.398438, 141717.359375, 144802.031250, 1, 256, 1,0.0,0.0,0.0,0.0,0.0, 14:13:12.655
86108.953125, 114049.257813, 147938.343750, 151545.046875, 98151.468750, 104987.679688, 141661.812500, 144843.328125, 1, 256, 1,0.0,0.0,0.0,0.0,0.0, 14:13:12.655
86137.359375, 114072.078125, 147955.625000, 151516.015625, 98159.828125, 104959.562500, 141665.953125, 144880.421875, 1, 256, 1,0.0,0.0,0.0,0.0,0.0, 14:13:12.656
86076.046875, 113991.101563, 148000.015625, 151700.328125, 98191.968750, 105115.445313, 141728.312500, 144849.718750, 1, 256, 1,0.0,0.0,0.0,0.0,0.0, 14:13:12.657
86037.132813, 113952.921875, 148000.265625, 151759.421875, 98186.492188, 105159.140625, 141730.031250, 144801.031250, 1, 256, 1,0.0,0.0,0.0,0.0,0.0, 14:13:12.658
86088.679688, 114031.421875, 147943.703125, 151579.593750, 98151.578125, 105012.601563, 141669.156250, 144827.031250, 1, 256, 1,0.0,0.0,0.0,0.0,0.0, 14:13:12.658
86145.320313, 114090.476563, 147939.468750, 151493.500000, 98156.031250, 104941.703125, 141659.359375, 144877.765625, 1, 256, 1,0.0,0.0,0.0,0.0,0.0, 14:13:12.658
86097.687500, 114027.242188, 147991.156250, 151664.781250, 98197.156250, 105091.125000, 141726.953125, 144862.812500, 1, 256, 1,0.0,0.0,0.0,0.0,0.0, 14:13:12.659
86036.710938, 113965.617188, 148003.765625, 151769.328125, 98197.492188, 105173.132813, 141739.937500, 144808.562500, 1, 256, 1,0.0,0.0,0.0,0.0,0.0, 14:13:12.659
86067.625000, 114009.781250, 147953.750000, 151613.984375, 98156.679688, 105038.085938, 141675.312500, 144812.156250, 1, 256, 1,0.0,0.0,0.0,0.0,0.0, 14:13:12.660
86142.632813, 114082.851563, 147942.656250, 151489.437500, 98152.187500, 104933.257813, 141647.265625, 144873.968750, 1, 256, 1,0.0,0.0,0.0,0.0,0.0, 14:13:12.661
86102.421875, 114029.742188, 147990.843750, 151633.359375, 98186.046875, 105054.203125, 141700.687500, 144861.515625, 1, 256, 1,0.0,0.0,0.0,0.0,0.0, 14:13:12.661
86039.304688, 113954.460938, 148010.718750, 151771.046875, 98196.953125, 105170.093750, 141738.687500, 144812.078125, 1, 256, 1,0.0,0.0,0.0,0.0,0.0, 14:13:12.662
86063.468750, 113991.101563, 147969.750000, 151652.718750, 98162.867188, 105066.359375, 141688.953125, 144804.046875, 1, 256, 1,0.0,0.0,0.0,0.0,0.0, 14:13:12.662
86133.312500, 114079.210938, 147944.625000, 151492.500000, 98145.546875, 104931.421875, 141649.687500, 144860.406250, 1, 256, 1,0.0,0.0,0.0,0.0,0.0, 14:13:12.662
86118.382813, 114053.882813, 147986.421875, 151600.765625, 98180.500000, 105025.125000, 141702.078125, 144874.687500, 1, 256, 1,0.0,0.0,0.0,0.0,0.0, 14:13:12.663
86058.617188, 113985.328125, 148019.765625, 151771.171875, 98205.226563, 105167.929688, 141752.796875, 144830.984375, 1, 256, 1,0.0,0.0,0.0,0.0,0.0, 14:13:12.663
86059.843750, 113995.210938, 147985.187500, 151693.468750, 98169.843750, 105097.382813, 141703.906250, 144803.156250, 1, 256, 1,0.0,0.0,0.0,0.0,0.0, 14:13:12.663
86127.390625, 114077.421875, 147939.218750, 151505.781250, 98137.406250, 104940.296875, 141647.109375, 144850.671875, 1, 256, 1,0.0,0.0,0.0,0.0,0.0, 14:13:12.663
86125.156250, 114073.507813, 147975.625000, 151566.921875, 98163.179688, 104994.921875, 141682.562500, 144879.281250, 1, 256, 1,0.0,0.0,0.0,0.0,0.0, 14:13:12.664
86060.937500, 113992.750000, 148023.703125, 151757.703125, 98191.859375, 105151.523438, 141740.046875, 144836.968750, 1, 256, 1,0.0,0.0,0.0,0.0,0.0, 14:13:12.665
86051.125000, 113983.429688, 148001.953125, 151729.562500, 98174.492188, 105122.929688, 141716.109375, 144803.250000, 1, 256, 1,0.0,0.0,0.0,0.0,0.0, 14:13:12.666
86128.625000, 114070.250000, 147944.062500, 151530.765625, 98143.015625, 104957.125000, 141653.296875, 144844.578125, 1, 256, 1,0.0,0.0,0.0,0.0,0.0, 14:13:12.666
86158.750000, 114092.171875, 147972.359375, 151544.015625, 98168.390625, 104975.117188, 141678.765625, 144888.937500, 1, 256, 1,0.0,0.0,0.0,0.0,0.0, 14:13:12.667
86080.164063, 114007.054688, 148016.937500, 151731.437500, 98193.156250, 105130.445313, 141733.390625, 144840.312500, 1, 256, 1,0.0,0.0,0.0,0.0,0.0, 14:13:12.667
86051.687500, 113978.875000, 148001.984375, 151746.953125, 98179.476563, 105143.632813, 141725.296875, 144803.203125, 1, 256, 1,0.0,0.0,0.0,0.0,0.0, 14:13:12.668
86111.476563, 114052.031250, 147948.203125, 151557.359375, 98148.203125, 104987.859375, 141664.375000, 144835.281250, 1, 256, 1,0.0,0.0,0.0,0.0,0.0, 14:13:12.668
86152.984375, 114099.773438, 147960.343750, 151513.109375, 98157.546875, 104951.695313, 141668.906250, 144880.000000, 1, 256, 1,0.0,0.0,0.0,0.0,0.0, 14:13:12.669
86090.710938, 114026.390625, 148012.484375, 151698.484375, 98192.820313, 105107.171875, 141732.578125, 144854.718750, 1, 256, 1,0.0,0.0,0.0,0.0,0.0, 14:13:12.669
86041.382813, 113970.671875, 148012.593750, 151767.015625, 98187.835938, 105156.257813, 141735.796875, 144803.296875, 1, 256, 1,0.0,0.0,0.0,0.0,0.0, 14:13:12.670
86090.109375, 114029.859375, 147955.531250, 151591.687500, 98151.890625, 105009.835938, 141670.843750, 144821.781250, 1, 256, 1,0.0,0.0,0.0,0.0,0.0, 14:13:12.670
86148.335938, 114091.031250, 147953.406250, 151496.453125, 98149.945313, 104931.937500, 141653.218750, 144874.562500, 1, 256, 1,0.0,0.0,0.0,0.0,0.0, 14:13:12.670
86107.656250, 114034.437500, 148010.859375, 151664.109375, 98189.843750, 105077.398438, 141722.265625, 144862.078125, 1, 256, 1,0.0,0.0,0.0,0.0,0.0, 14:13:12.670
86048.601563, 113967.492188, 148021.000000, 151775.312500, 98193.648438, 105169.492188, 141745.062500, 144810.515625, 1, 256, 1,0.0,0.0,0.0,0.0,0.0, 14:13:12.671
86082.625000, 114020.000000, 147961.687500, 151623.640625, 98156.656250, 105046.625000, 141680.234375, 144817.859375, 1, 256, 1,0.0,0.0,0.0,0.0,0.0, 14:13:12.671
86147.937500, 114097.875000, 147943.984375, 151486.078125, 98141.992188, 104934.148438, 141644.546875, 144873.406250, 1, 256, 1,0.0,0.0,0.0,0.0,0.0, 14:13:12.671
86120.437500, 114056.609375, 147995.593750, 151626.265625, 98177.820313, 105052.437500, 141703.328125, 144874.062500, 1, 256, 1,0.0,0.0,0.0,0.0,0.0, 14:13:12.672
86045.250000, 113975.046875, 148017.828125, 151776.140625, 98190.562500, 105170.992188, 141741.734375, 144819.781250, 1, 256, 1,0.0,0.0,0.0,0.0,0.0, 14:13:12.672
86056.601563, 113997.734375, 147970.906250, 151663.312500, 98155.625000, 105075.234375, 141692.703125, 144809.609375, 1, 256, 1,0.0,0.0,0.0,0.0,0.0, 14:13:12.672
86130.140625, 114077.578125, 147937.046875, 151492.562500, 98132.718750, 104932.648438, 141643.781250, 144858.984375, 1, 256, 1,0.0,0.0,0.0,0.0,0.0, 14:13:12.673
86125.718750, 114056.117188, 147975.937500, 151584.812500, 98165.257813, 105017.992188, 141693.656250, 144874.140625, 1, 256, 1,0.0,0.0,0.0,0.0,0.0, 14:13:12.673
86050.835938, 113971.117188, 148015.843750, 151760.531250, 98192.460938, 105164.148438, 141746.062500, 144822.515625, 1, 256, 1,0.0,0.0,0.0,0.0,0.0, 14:13:12.673
86045.093750, 113984.367188, 147975.500000, 151693.484375, 98171.117188, 105105.632813, 141712.000000, 144807.406250, 1, 256, 1,0.0,0.0,0.0,0.0,0.0, 14:13:12.674
86116.218750, 114075.898438, 147925.656250, 151497.921875, 98139.328125, 104947.226563, 141653.062500, 144855.187500, 1, 256, 1,0.0,0.0,0.0,0.0,0.0, 14:13:12.674
86126.007813, 114076.078125, 147964.390625, 151546.343750, 98165.859375, 104994.765625, 141687.640625, 144884.875000, 1, 256, 1,0.0,0.0,0.0,0.0,0.0, 14:13:12.675
86055.890625, 113980.031250, 148012.640625, 151740.203125, 98190.742188, 105150.671875, 141741.328125, 144834.406250, 1, 256, 1,0.0,0.0,0.0,0.0,0.0, 14:13:12.675
86037.093750, 113975.500000, 147988.453125, 151719.093750, 98169.437500, 105128.343750, 141715.953125, 144798.750000, 1, 256, 1,0.0,0.0,0.0,0.0,0.0, 14:13:12.676
86113.468750, 114075.992188, 147938.390625, 151521.593750, 98140.585938, 104973.375000, 141658.437500, 144846.187500, 1, 256, 1,0.0,0.0,0.0,0.0,0.0, 14:13:12.676
86146.078125, 114103.125000, 147967.000000, 151523.046875, 98165.375000, 104978.671875, 141686.937500, 144894.328125, 1, 256, 1,0.0,0.0,0.0,0.0,0.0, 14:13:12.677
86076.835938, 114012.242188, 148023.328125, 151720.187500, 98194.632813, 105139.140625, 141740.500000, 144850.406250, 1, 256, 1,0.0,0.0,0.0,0.0,0.0, 14:13:12.677
86039.750000, 113970.468750, 148015.421875, 151752.687500, 98185.265625, 105159.007813, 141730.078125, 144804.625000, 1, 256, 1,0.0,0.0,0.0,0.0,0.0, 14:13:12.678
86102.515625, 114052.898438, 147957.609375, 151561.078125, 98147.203125, 105002.679688, 141666.625000, 144834.921875, 1, 256, 1,0.0,0.0,0.0,0.0,0.0, 14:13:12.678
86149.562500, 114101.898438, 147964.609375, 151503.265625, 98151.851563, 104955.492188, 141665.156250, 144883.437500, 1, 256, 1,0.0,0.0,0.0,0.0,0.0, 14:13:12.678
86090.828125, 114026.835938, 148015.343750, 151686.687500, 98186.875000, 105109.523438, 141728.421875, 144857.375000, 1, 256, 1,0.0,0.0,0.0,0.0,0.0, 14:13:12.679
86032.351563, 113964.968750, 148014.234375, 151764.515625, 98181.640625, 105163.437500, 141732.562500, 144795.640625, 1, 256, 1,0.0,0.0,0.0,0.0,0.0, 14:13:12.679
86079.601563, 114031.468750, 147957.390625, 151594.078125, 98150.593750, 105023.984375, 141675.796875, 144817.859375, 1, 256, 1,0.0,0.0,0.0,0.0,0.0, 14:13:12.679
86142.882813, 114101.273438, 147948.109375, 151489.812500, 98148.648438, 104938.734375, 141656.203125, 144873.937500, 1, 256, 1,0.0,0.0,0.0,0.0,0.0, 14:13:12.679
86097.773438, 114036.117188, 147999.453125, 151654.218750, 98186.851563, 105072.484375, 141713.625000, 144855.453125, 1, 256, 1,0.0,0.0,0.0,0.0,0.0, 14:13:12.680
86037.937500, 113970.242188, 148010.984375, 151772.265625, 98196.976563, 105167.945313, 141741.656250, 144803.062500, 1, 256, 1,0.0,0.0,0.0,0.0,0.0, 14:13:12.680
86068.898438, 114024.875000, 147961.250000, 151633.484375, 98165.859375, 105052.257813, 141687.765625, 144809.015625, 1, 256, 1,0.0,0.0,0.0,0.0,0.0, 14:13:12.681
86141.117188, 114103.726563, 147943.515625, 151490.312500, 98152.609375, 104927.664063, 141648.781250, 144859.125000, 1, 256, 1,0.0,0.0,0.0,0.0,0.0, 14:13:12.681
86117.960938, 114062.421875, 147995.812500, 151618.218750, 98185.375000, 105036.367188, 141698.390625, 144852.640625, 1, 256, 1,0.0,0.0,0.0,0.0,0.0, 14:13:12.681
86054.234375, 113989.554688, 148025.625000, 151771.171875, 98200.039063, 105164.015625, 141740.500000, 144803.953125, 1, 256, 1,0.0,0.0,0.0,0.0,0.0, 14:13:12.682
86071.757813, 114010.367188, 147988.859375, 151674.375000, 98171.406250, 105080.195313, 141694.546875, 144795.953125, 1, 256, 1,0.0,0.0,0.0,0.0,0.0, 14:13:12.682
86143.687500, 114094.164063, 147947.937500, 151502.109375, 98148.945313, 104937.187500, 141646.671875, 144851.968750, 1, 256, 1,0.0,0.0,0.0,0.0,0.0, 14:13:12.683
86134.367188, 114075.718750, 147989.578125, 151590.890625, 98176.992188, 105011.601563, 141688.109375, 144863.140625, 1, 256, 1,0.0,0.0,0.0,0.0,0.0, 14:13:12.683
86067.937500, 113999.390625, 148025.968750, 151768.718750, 98197.062500, 105157.820313, 141738.484375, 144816.984375, 1, 256, 1,0.0,0.0,0.0,0.0,0.0, 14:13:12.687
86063.648438, 113998.007813, 147995.609375, 151715.500000, 98177.617188, 105114.484375, 141710.921875, 144799.328125, 1, 256, 1,0.0,0.0,0.0,0.0,0.0, 14:13:12.687
86123.812500, 114073.148438, 147944.875000, 151522.968750, 98143.531250, 104950.843750, 141642.484375, 144837.562500, 1, 256, 1,0.0,0.0,0.0,0.0,0.0, 14:13:12.688
86138.296875, 114086.812500, 147969.015625, 151555.968750, 98164.765625, 104983.234375, 141670.609375, 144870.921875, 1, 256, 1,0.0,0.0,0.0,0.0,0.0, 14:13:12.688
86071.625000, 114005.601563, 148021.859375, 151752.093750, 98199.281250, 105147.117188, 141734.640625, 144832.531250, 1, 256, 1,0.0,0.0,0.0,0.0,0.0, 14:13:12.696
86054.906250, 113994.250000, 148008.750000, 151745.671875, 98187.343750, 105139.984375, 141722.218750, 144801.187500, 1, 256, 1,0.0,0.0,0.0,0.0,0.0, 14:13:12.697
86122.140625, 114079.453125, 147966.593750, 151557.546875, 98158.015625, 104979.343750, 141662.921875, 144841.171875, 1, 256, 1,0.0,0.0,0.0,0.0,0.0, 14:13:12.697
86156.828125, 114113.117188, 147987.031250, 151544.578125, 98174.468750, 104970.273438, 141677.781250, 144884.531250, 1, 256, 1,0.0,0.0,0.0,0.0,0.0, 14:13:12.698
86093.750000, 114032.765625, 148040.562500, 151736.078125, 98205.265625, 105131.492188, 141735.406250, 144848.937500, 1, 256, 1,0.0,0.0,0.0,0.0,0.0, 14:13:12.698
86059.820313, 114001.156250, 148030.656250, 151774.843750, 98196.281250, 105162.359375, 141734.328125, 144806.234375, 1, 256, 1,0.0,0.0,0.0,0.0,0.0, 14:13:12.698
86111.429688, 114065.281250, 147973.375000, 151587.218750, 98157.234375, 105007.421875, 141670.328125, 144830.500000, 1, 256, 1,0.0,0.0,0.0,0.0,0.0, 14:13:12.699
86165.187500, 114112.914063, 147973.281250, 151515.453125, 98163.406250, 104952.429688, 141667.156250, 144882.687500, 1, 256, 1,0.0,0.0,0.0,0.0,0.0, 14:13:12.699
86121.539063, 114054.937500, 148025.968750, 151695.312500, 98206.210938, 105110.171875, 141734.390625, 144867.109375, 1, 256, 1,0.0,0.0,0.0,0.0,0.0, 14:13:12.699
86062.390625, 113998.164063, 148038.546875, 151788.859375, 98208.757813, 105181.562500, 141748.656250, 144814.484375, 1, 256, 1,0.0,0.0,0.0,0.0,0.0, 14:13:12.699
86089.554688, 114042.101563, 147982.531250, 151621.468750, 98165.750000, 105039.203125, 141683.281250, 144815.406250, 1, 256, 1,0.0,0.0,0.0,0.0,0.0, 14:13:12.700
86151.937500, 114110.125000, 147965.562500, 151503.375000, 98156.031250, 104940.585938, 141658.171875, 144869.515625, 1, 256, 1,0.0,0.0,0.0,0.0,0.0, 14:13:12.700
86119.570313, 114063.562500, 148017.656250, 151658.921875, 98194.476563, 105075.500000, 141720.421875, 144864.593750, 1, 256, 1,0.0,0.0,0.0,0.0,0.0, 14:13:12.700
86051.445313, 113991.835938, 148040.421875, 151792.234375, 98202.968750, 105178.656250, 141746.640625, 144807.000000, 1, 256, 1,0.0,0.0,0.0,0.0,0.0, 14:13:12.701
86076.140625, 114029.789063, 147988.296875, 151659.015625, 98163.718750, 105064.507813, 141687.921875, 144805.093750, 1, 256, 1,0.0,0.0,0.0,0.0,0.0, 14:13:12.701
86146.281250, 114104.625000, 147960.921875, 151508.546875, 98149.234375, 104938.554688, 141650.687500, 144862.046875, 1, 256, 1,0.0,0.0,0.0,0.0,0.0, 14:13:12.701
86134.453125, 114071.070313, 147999.078125, 151624.375000, 98184.703125, 105044.632813, 141705.937500, 144873.453125, 1, 256, 1,0.0,0.0,0.0,0.0,0.0, 14:13:12.702
86062.195313, 113988.101563, 148027.656250, 151785.296875, 98201.781250, 105175.773438, 141744.156250, 144816.859375, 1, 256, 1,0.0,0.0,0.0,0.0,0.0, 14:13:12.703
86069.164063, 114014.367188, 147988.734375, 151693.843750, 98176.929688, 105095.507813, 141707.281250, 144804.046875, 1, 256, 1,0.0,0.0,0.0,0.0,0.0, 14:13:12.704
86138.343750, 114100.820313, 147947.421875, 151512.609375, 98148.359375, 104941.078125, 141649.421875, 144851.390625, 1, 256, 1,0.0,0.0,0.0,0.0,0.0, 14:13:12.705
86143.218750, 114100.710938, 147987.671875, 151589.375000, 98180.367188, 105012.468750, 141693.453125, 144878.296875, 1, 256, 1,0.0,0.0,0.0,0.0,0.0, 14:13:12.705
86080.187500, 114019.085938, 148029.875000, 151776.984375, 98210.031250, 105163.414063, 141748.968750, 144831.390625, 1, 256, 1,0.0,0.0,0.0,0.0,0.0, 14:13:12.706
86064.468750, 114013.312500, 147999.500000, 151731.171875, 98184.507813, 105118.328125, 141716.265625, 144800.203125, 1, 256, 1,0.0,0.0,0.0,0.0,0.0, 14:13:12.707
86137.429688, 114096.289063, 147949.500000, 151536.687500, 98153.750000, 104956.859375, 141656.562500, 144844.640625, 1, 256, 1,0.0,0.0,0.0,0.0,0.0, 14:13:12.708
86157.570313, 114107.171875, 147982.734375, 151566.750000, 98180.500000, 104984.351563, 141687.234375, 144880.000000, 1, 256, 1,0.0,0.0,0.0,0.0,0.0, 14:13:12.709
86087.562500, 114019.734375, 148031.531250, 151759.421875, 98212.937500, 105144.101563, 141750.671875, 144838.578125, 1, 256, 1,0.0,0.0,0.0,0.0,0.0, 14:13:12.710
86051.398438, 113990.359375, 148011.593750, 151760.312500, 98198.406250, 105138.242188, 141734.500000, 144796.359375, 1, 256, 1,0.0,0.0,0.0,0.0,0.0, 14:13:12.711
86116.710938, 114076.703125, 147951.421875, 151562.296875, 98160.226563, 104975.992188, 141666.625000, 144829.312500, 1, 256, 1,0.0,0.0,0.0,0.0,0.0, 14:13:12.711
86159.398438, 114111.843750, 147963.421875, 151531.328125, 98169.414063, 104954.445313, 141670.765625, 144871.468750, 1, 256, 1,0.0,0.0,0.0,0.0,0.0, 14:13:12.712
86106.828125, 114033.500000, 148013.890625, 151722.140625, 98208.265625, 105114.796875, 141737.796875, 144841.562500, 1, 256, 1,0.0,0.0,0.0,0.0,0.0, 14:13:12.712
86067.890625, 114006.859375, 148004.281250, 151771.453125, 98197.804688, 105155.250000, 141739.140625, 144799.984375, 1, 256, 1,0.0,0.0,0.0,0.0,0.0, 14:13:12.713
86123.976563, 114082.984375, 147952.421875, 151594.109375, 98163.562500, 105011.328125, 141677.671875, 144829.000000, 1, 256, 1,0.0,0.0,0.0,0.0,0.0, 14:13:12.713
86170.820313, 114134.460938, 147956.781250, 151520.031250, 98170.203125, 104946.890625, 141670.625000, 144878.734375, 1, 256, 1,0.0,0.0,0.0,0.0,0.0, 14:13:12.713
86116.687500, 114064.437500, 148013.656250, 151697.234375, 98207.773438, 105097.093750, 141733.125000, 144857.843750, 1, 256, 1,0.0,0.0,0.0,0.0,0.0, 14:13:12.714
86057.898438, 113991.523438, 148028.937500, 151798.531250, 98206.656250, 105172.578125, 141747.843750, 144797.859375, 1, 256, 1,0.0,0.0,0.0,0.0,0.0, 14:13:12.714
86097.617188, 114048.210938, 147972.593750, 151638.453125, 98168.765625, 105040.656250, 141686.203125, 144809.968750, 1, 256, 1,0.0,0.0,0.0,0.0,0.0, 14:13:12.715
86166.867188, 114124.921875, 147954.812500, 151510.265625, 98158.328125, 104936.789063, 141656.078125, 144866.718750, 1, 256, 1,0.0,0.0,0.0,0.0,0.0, 14:13:12.715
86142.593750, 114083.656250, 148007.078125, 151659.484375, 98199.210938, 105065.867188, 141723.109375, 144869.406250, 1, 256, 1,0.0,0.0,0.0,0.0,0.0, 14:13:12.715
86064.023438, 113995.054688, 148034.484375, 151804.187500, 98207.617188, 105174.093750, 141749.734375, 144804.125000, 1, 256, 1,0.0,0.0,0.0,0.0,0.0, 14:13:13.132
86094.085938, 114034.507813, 147980.921875, 151676.921875, 98172.210938, 105072.375000, 141697.984375, 144808.281250, 1, 256, 1,0.0,0.0,0.0,0.0,0.0, 14:13:13.132
86166.531250, 114108.242188, 147957.296875, 151521.906250, 98155.578125, 104938.171875, 141654.328125, 144857.656250, 1, 256, 1,0.0,0.0,0.0,0.0,0.0, 14:13:13.132
86145.609375, 114088.101563, 148003.234375, 151631.484375, 98188.414063, 105027.515625, 141702.484375, 144861.031250, 1, 256, 1,0.0,0.0,0.0,0.0,0.0, 14:13:13.133
86071.914063, 114014.164063, 148031.000000, 151790.562500, 98209.156250, 105163.437500, 141752.609375, 144813.171875, 1, 256, 1,0.0,0.0,0.0,0.0,0.0, 14:13:13.133
86077.054688, 114026.015625, 147997.093750, 151711.765625, 98186.539063, 105096.375000, 141715.687500, 144801.078125, 1, 256, 1,0.0,0.0,0.0,0.0,0.0, 14:13:13.133
86161.101563, 114109.695313, 147957.343750, 151527.812500, 98161.546875, 104944.117188, 141662.765625, 144857.062500, 1, 256, 1,0.0,0.0,0.0,0.0,0.0, 14:13:13.133
86162.773438, 114100.421875, 147997.843750, 151594.078125, 98193.242188, 105007.796875, 141702.250000, 144881.437500, 1, 256, 1,0.0,0.0,0.0,0.0,0.0, 14:13:13.134
86079.875000, 114010.585938, 148038.531250, 151776.546875, 98216.156250, 105159.078125, 141749.625000, 144827.500000, 1, 256, 1,0.0,0.0,0.0,0.0,0.0, 14:13:13.134
86074.148438, 114008.625000, 148007.968750, 151740.125000, 98192.375000, 105125.593750, 141722.218750, 144799.265625, 1, 256, 1,0.0,0.0,0.0,0.0,0.0, 14:13:13.134
86144.781250, 114094.406250, 147956.343750, 151549.093750, 98159.937500, 104964.992188, 141660.703125, 144840.234375, 1, 256, 1,0.0,0.0,0.0,0.0,0.0, 14:13:13.135
86165.992188, 114109.539063, 147983.265625, 151562.078125, 98179.273438, 104975.632813, 141679.609375, 144871.437500, 1, 256, 1,0.0,0.0,0.0,0.0,0.0, 14:13:13.135
86100.390625, 114031.601563, 148032.093750, 151752.406250, 98210.140625, 105135.960938, 141736.671875, 144832.343750, 1, 256, 1,0.0,0.0,0.0,0.0,0.0, 14:13:13.135
86056.562500, 113991.140625, 148017.515625, 151766.500000, 98193.289063, 105139.093750, 141723.046875, 144782.906250, 1, 256, 1,0.0,0.0,0.0,0.0,0.0, 14:13:13.136
86118.320313, 114070.265625, 147958.890625, 151566.953125, 98154.460938, 104982.007813, 141659.031250, 144823.187500, 1, 256, 1,0.0,0.0,0.0,0.0,0.0, 14:13:13.137
86160.804688, 114107.906250, 147976.093750, 151530.093750, 98164.835938, 104955.492188, 141663.250000, 144869.046875, 1, 256, 1,0.0,0.0,0.0,0.0,0.0, 14:13:13.137
86105.960938, 114035.335938, 148024.781250, 151713.984375, 98201.695313, 105113.140625, 141728.984375, 144844.171875, 1, 256, 1,0.0,0.0,0.0,0.0,0.0, 14:13:13.138
86061.765625, 113988.976563, 148030.093750, 151780.359375, 98203.523438, 105163.570313, 141737.484375, 144800.046875, 1, 256, 1,0.0,0.0,0.0,0.0,0.0, 14:13:13.138
86114.875000, 114055.226563, 147976.390625, 151604.125000, 98169.304688, 105018.882813, 141675.968750, 144823.031250, 1, 256, 1,0.0,0.0,0.0,0.0,0.0, 14:13:13.138
86167.625000, 114112.960938, 147974.015625, 151517.234375, 98163.742188, 104944.679688, 141657.890625, 144873.859375, 1, 256, 1,0.0,0.0,0.0,0.0,0.0, 14:13:13.138
86120.148438, 114047.625000, 148026.281250, 151690.156250, 98200.507813, 105090.164063, 141721.468750, 144860.562500, 1, 256, 1,0.0,0.0,0.0,0.0,0.0, 14:13:13.138
86071.312500, 113994.945313, 148046.484375, 151800.609375, 98214.234375, 105178.406250, 141750.671875, 144811.937500, 1, 256, 1,0.0,0.0,0.0,0.0,0.0, 14:13:13.138
86111.140625, 114052.789063, 148002.109375, 151649.921875, 98180.656250, 105054.398438, 141691.078125, 144815.406250, 1, 256, 1,0.0,0.0,0.0,0.0,0.0, 14:13:13.139
86167.578125, 114108.515625, 147978.687500, 151512.562500, 98158.375000, 104934.640625, 141644.937500, 144856.359375, 1, 256, 1,0.0,0.0,0.0,0.0,0.0, 14:13:13.139
86138.281250, 114071.562500, 148021.421875, 151644.875000, 98193.937500, 105054.226563, 141707.312500, 144860.437500, 1, 256, 1,0.0,0.0,0.0,0.0,0.0, 14:13:13.139
86069.234375, 113997.468750, 148049.343750, 151788.125000, 98210.250000, 105175.617188, 141746.593750, 144810.515625, 1, 256, 1,0.0,0.0,0.0,0.0,0.0, 14:13:13.139
86080.523438, 114023.734375, 147996.937500, 151668.031250, 98175.187500, 105074.406250, 141694.656250, 144800.109375, 1, 256, 1,0.0,0.0,0.0,0.0,0.0, 14:13:13.139
86157.273438, 114104.687500, 147962.546875, 151501.812500, 98153.632813, 104932.023438, 141646.390625, 144853.296875, 1, 256, 1,0.0,0.0,0.0,0.0,0.0, 14:13:13.140
86148.781250, 114082.203125, 148014.203125, 151611.921875, 98187.945313, 105023.062500, 141696.531250, 144866.171875, 1, 256, 1,0.0,0.0,0.0,0.0,0.0, 14:13:13.140
86072.117188, 114001.226563, 148050.937500, 151786.828125, 98207.390625, 105159.882813, 141744.125000, 144810.125000, 1, 256, 1,0.0,0.0,0.0,0.0,0.0, 14:13:13.140
86075.203125, 114011.703125, 148016.734375, 151715.406250, 98184.484375, 105097.945313, 141709.250000, 144794.468750, 1, 256, 1,0.0,0.0,0.0,0.0,0.0, 14:13:13.140
86150.460938, 114099.523438, 147968.593750, 151526.875000, 98153.773438, 104942.085938, 141649.578125, 144845.156250, 1, 256, 1,0.0,0.0,0.0,0.0,0.0, 14:13:13.140
86153.765625, 114096.640625, 148003.406250, 151583.625000, 98179.562500, 104991.078125, 141684.484375, 144870.968750, 1, 256, 1,0.0,0.0,0.0,0.0,0.0, 14:13:13.140
86086.531250, 114013.046875, 148048.140625, 151770.125000, 98209.382813, 105150.250000, 141744.343750, 144830.531250, 1, 256, 1,0.0,0.0,0.0,0.0,0.0, 14:13:13.141
86058.953125, 113988.750000, 148025.609375, 151748.484375, 98187.585938, 105122.148438, 141711.906250, 144786.078125, 1, 256, 1,0.0,0.0,0.0,0.0,0.0, 14:13:13.141
86135.062500, 114073.890625, 147973.484375, 151551.171875, 98152.453125, 104962.671875, 141648.296875, 144829.578125, 1, 256, 1,0.0,0.0,0.0,0.0,0.0, 14:13:13.141
86174.242188, 114106.859375, 147998.218750, 151553.625000, 98172.453125, 104968.640625, 141671.921875, 144877.781250, 1, 256, 1,0.0,0.0,0.0,0.0,0.0, 14:13:13.141
86099.898438, 114016.375000, 148053.062500, 151752.218750, 98208.171875, 105129.367188, 141734.796875, 144836.171875, 1, 256, 1,0.0,0.0,0.0,0.0,0.0, 14:13:13.141
86061.570313, 113974.382813, 148037.765625, 151772.781250, 98195.523438, 105145.265625, 141729.328125, 144793.234375, 1, 256, 1,0.0,0.0,0.0,0.0,0.0, 14:13:13.141
86128.804688, 114070.382813, 147987.656250, 151588.125000, 98166.710938, 104994.453125, 141673.828125, 144831.406250, 1, 256, 1,0.0,0.0,0.0,0.0,0.0, 14:13:13.142
86173.171875, 114118.414063, 147997.062500, 151540.109375, 98174.601563, 104957.414063, 141670.625000, 144881.031250, 1, 256, 1,0.0,0.0,0.0,0.0,0.0, 14:13:13.142
86115.101563, 114038.507813, 148047.828125, 151722.500000, 98208.554688, 105111.289063, 141730.234375, 144852.625000, 1, 256, 1,0.0,0.0,0.0,0.0,0.0, 14:13:13.142
86066.101563, 113984.882813, 148045.812500, 151790.406250, 98209.937500, 105167.460938, 141740.921875, 144803.625000, 1, 256, 1,0.0,0.0,0.0,0.0,0.0, 14:13:13.142
86118.945313, 114054.890625, 147982.984375, 151613.703125, 98178.382813, 105027.984375, 141683.234375, 144828.328125, 1, 256, 1,0.0,0.0,0.0,0.0,0.0, 14:13:13.142
86176.742188, 114111.085938, 147976.234375, 151515.359375, 98175.742188, 104945.906250, 141666.406250, 144881.125000, 1, 256, 1,0.0,0.0,0.0,0.0,0.0, 14:13:13.142
86134.546875, 114059.312500, 148029.140625, 151677.437500, 98209.585938, 105085.921875, 141727.828125, 144868.156250, 1, 256, 1,0.0,0.0,0.0,0.0,0.0, 14:13:13.143
86082.039063, 114011.906250, 148053.453125, 151798.718750, 98221.984375, 105187.843750, 141756.250000, 144823.875000, 1, 256, 1,0.0,0.0,0.0,0.0,0.0, 14:13:13.144
86105.109375, 114053.328125, 148005.625000, 151660.375000, 98188.390625, 105067.476563, 141701.250000, 144822.453125, 1, 256, 1,0.0,0.0,0.0,0.0,0.0, 14:13:13.145
86177.414063, 114123.109375, 147980.750000, 151515.562500, 98173.484375, 104944.140625, 141665.828125, 144872.515625, 1, 256, 1,0.0,0.0,0.0,0.0,0.0, 14:13:13.145
86152.445313, 114084.843750, 148029.828125, 151645.765625, 98205.718750, 105057.375000, 141717.828125, 144874.609375, 1, 256, 1,0.0,0.0,0.0,0.0,0.0, 14:13:13.145
86079.781250, 114005.070313, 148060.312500, 151802.156250, 98223.421875, 105182.187500, 141758.609375, 144819.984375, 1, 256, 1,0.0,0.0,0.0,0.0,0.0, 14:13:13.146
86088.273438, 114029.343750, 148014.343750, 151697.343750, 98195.726563, 105092.710938, 141712.453125, 144809.484375, 1, 256, 1,0.0,0.0,0.0,0.0,0.0, 14:13:13.146
86155.218750, 114103.281250, 147977.375000, 151524.015625, 98172.523438, 104948.250000, 141664.390625, 144858.812500, 1, 256, 1,0.0,0.0,0.0,0.0,0.0, 14:13:13.147
86156.718750, 114090.656250, 148015.796875, 151611.250000, 98202.656250, 105029.125000, 141707.312500, 144876.687500, 1, 256, 1,0.0,0.0,0.0,0.0,0.0, 14:13:13.147
86086.960938, 114009.742188, 148054.000000, 151787.984375, 98223.554688, 105171.148438, 141755.859375, 144822.921875, 1, 256, 1,0.0,0.0,0.0,0.0,0.0, 14:13:13.147
86080.523438, 114017.023438, 148013.140625, 151722.578125, 98196.484375, 105114.593750, 141718.890625, 144800.031250, 1, 256, 1,0.0,0.0,0.0,0.0,0.0, 14:13:13.148
86155.601563, 114100.375000, 147967.406250, 151535.859375, 98170.734375, 104957.953125, 141661.437500, 144848.375000, 1, 256, 1,0.0,0.0,0.0,0.0,0.0, 14:13:13.148
86162.843750, 114099.906250, 147995.000000, 151576.921875, 98192.375000, 104998.140625, 141695.062500, 144882.296875, 1, 256, 1,0.0,0.0,0.0,0.0,0.0, 14:13:13.148
86085.101563, 114013.335938, 148041.453125, 151766.625000, 98219.125000, 105155.609375, 141749.593750, 144833.734375, 1, 256, 1,0.0,0.0,0.0,0.0,0.0, 14:13:13.148
86066.304688, 113999.414063, 148019.109375, 151751.515625, 98198.789063, 105139.406250, 141727.312500, 144795.937500, 1, 256, 1,0.0,0.0,0.0,0.0,0.0, 14:13:13.149
86144.335938, 114096.171875, 147973.437500, 151558.171875, 98172.546875, 104984.039063, 141672.750000, 144845.421875, 1, 256, 1,0.0,0.0,0.0,0.0,0.0, 14:13:13.149
86173.773438, 114119.710938, 147999.453125, 151554.187500, 98184.929688, 104975.945313, 141681.796875, 144879.046875, 1, 256, 1,0.0,0.0,0.0,0.0,0.0, 14:13:13.149
86111.390625, 114042.640625, 148048.562500, 151747.593750, 98213.695313, 105131.312500, 141734.312500, 144837.125000, 1, 256, 1,0.0,0.0,0.0,0.0,0.0, 14:13:13.149
86076.945313, 114001.578125, 148040.203125, 151786.125000, 98207.796875, 105160.101563, 141733.234375, 144797.296875, 1, 256, 1,0.0,0.0,0.0,0.0,0.0, 14:13:13.150
86128.171875, 114063.765625, 147979.453125, 151599.109375, 98169.664063, 105004.695313, 141667.359375, 144820.500000, 1, 256, 1,0.0,0.0,0.0,0.0,0.0, 14:13:13.150
86175.921875, 114117.898438, 147977.593750, 151531.015625, 98171.070313, 104953.398438, 141663.140625, 144871.687500, 1, 256, 1,0.0,0.0,0.0,0.0,0.0, 14:13:13.150
86124.710938, 114052.476563, 148029.656250, 151711.390625, 98209.695313, 105108.070313, 141733.453125, 144853.203125, 1, 256, 1,0.0,0.0,0.0,0.0,0.0, 14:13:13.151
86068.359375, 113995.054688, 148030.250000, 151792.093750, 98204.421875, 105171.570313, 141742.234375, 144800.343750, 1, 256, 1,0.0,0.0,0.0,0.0,0.0, 14:13:13.151
86105.625000, 114052.898438, 147978.093750, 151625.750000, 98166.156250, 105032.500000, 141679.828125, 144815.703125, 1, 256, 1,0.0,0.0,0.0,0.0,0.0, 14:13:13.151
86167.445313, 114115.554688, 147966.781250, 151514.000000, 98164.078125, 104940.742188, 141661.953125, 144876.265625, 1, 256, 1,0.0,0.0,0.0,0.0,0.0, 14:13:13.152
86132.492188, 114069.687500, 148016.531250, 151671.796875, 98199.859375, 105075.703125, 141721.453125, 144866.812500, 1, 256, 1,0.0,0.0,0.0,0.0,0.0, 14:13:13.152
86079.742188, 114010.429688, 148036.203125, 151799.359375, 98208.171875, 105172.953125, 141747.562500, 144808.234375, 1, 256, 1,0.0,0.0,0.0,0.0,0.0, 14:13:13.152
86107.882813, 114047.023438, 147991.250000, 151666.609375, 98177.375000, 105059.093750, 141697.265625, 144805.593750, 1, 256, 1,0.0,0.0,0.0,0.0,0.0, 14:13:13.153
86176.835938, 114127.554688, 147968.281250, 151518.781250, 98159.179688, 104933.078125, 141657.062500, 144860.625000, 1, 256, 1,0.0,0.0,0.0,0.0,0.0, 14:13:13.153
86154.664063, 114084.796875, 148017.984375, 151645.218750, 98192.125000, 105041.859375, 141707.328125, 144865.500000, 1, 256, 1,0.0,0.0,0.0,0.0,0.0, 14:13:13.153
86084.187500, 114006.835938, 148049.171875, 151802.312500, 98210.859375, 105173.757813, 141751.609375, 144814.750000, 1, 256, 1,0.0,0.0,0.0,0.0,0.0, 14:13:13.154
86100.859375, 114039.578125, 148003.921875, 151702.484375, 98186.046875, 105095.843750, 141713.765625, 144810.515625, 1, 256, 1,0.0,0.0,0.0,0.0,0.0, 14:13:13.154
86174.062500, 114122.796875, 147972.203125, 151531.140625, 98163.515625, 104948.968750, 141662.578125, 144861.031250, 1, 256, 1,0.0,0.0,0.0,0.0,0.0, 14:13:13.154
86163.625000, 114100.039063, 148014.078125, 151612.812500, 98189.578125, 105019.781250, 141701.312500, 144875.859375, 1, 256, 1,0.0,0.0,0.0,0.0,0.0, 14:13:13.155
86092.859375, 114016.335938, 148051.484375, 151791.937500, 98211.195313, 105167.656250, 141751.093750, 144826.718750, 1, 256, 1,0.0,0.0,0.0,0.0,0.0, 14:13:13.155
86076.273438, 114012.492188, 148021.734375, 151741.562500, 98188.460938, 105120.609375, 141719.421875, 144794.375000, 1, 256, 1,0.0,0.0,0.0,0.0,0.0, 14:13:13.156
86149.429688, 114105.984375, 147973.859375, 151544.421875, 98155.132813, 104957.148438, 141657.078125, 144838.375000, 1, 256, 1,0.0,0.0,0.0,0.0,0.0, 14:13:13.156
86164.296875, 114112.781250, 148004.968750, 151575.828125, 98176.031250, 104983.992188, 141682.671875, 144873.500000, 1, 256, 1,0.0,0.0,0.0,0.0,0.0, 14:13:13.156
86091.671875, 114023.109375, 148056.031250, 151770.625000, 98211.390625, 105140.882813, 141744.187500, 144829.078125, 1, 256, 1,0.0,0.0,0.0,0.0,0.0, 14:13:13.157
86072.382813, 114007.593750, 148038.906250, 151770.546875, 98195.632813, 105140.054688, 141730.015625, 144793.953125, 1, 256, 1,0.0,0.0,0.0,0.0,0.0, 14:13:13.157
86138.929688, 114085.023438, 147986.171875, 151581.171875, 98162.289063, 104980.687500, 141667.453125, 144831.718750, 1, 256, 1,0.0,0.0,0.0,0.0,0.0, 14:13:13.157
86178.398438, 114118.523438, 147993.625000, 151556.578125, 98178.468750, 104964.679688, 141681.421875, 144881.359375, 1, 256, 1,0.0,0.0,0.0,0.0,0.0, 14:13:13.158
86114.359375, 114039.851563, 148038.078125, 151742.234375, 98213.382813, 105122.218750, 141747.625000, 144849.984375, 1, 256, 1,0.0,0.0,0.0,0.0,0.0, 14:13:13.158
86065.500000, 113992.171875, 148032.046875, 151788.125000, 98207.546875, 105157.976563, 141749.640625, 144803.359375, 1, 256, 1,0.0,0.0,0.0,0.0,0.0, 14:13:13.159
86121.648438, 114065.640625, 147975.656250, 151606.093750, 98174.062500, 105011.890625, 141690.437500, 144834.984375, 1, 256, 1,0.0,0.0,0.0,0.0,0.0, 14:13:13.159
86168.250000, 114114.281250, 147980.921875, 151532.687500, 98178.382813, 104953.101563, 141684.546875, 144889.750000, 1, 256, 1,0.0,0.0,0.0,0.0,0.0, 14:13:13.159
86121.179688, 114052.031250, 148040.343750, 151709.734375, 98219.554688, 105105.031250, 141752.328125, 144873.671875, 1, 256, 1,0.0,0.0,0.0,0.0,0.0, 14:13:13.160
86066.171875, 113993.960938, 148051.937500, 151806.187500, 98225.187500, 105181.406250, 141772.218750, 144823.703125, 1, 256, 1,0.0,0.0,0.0,0.0,0.0, 14:13:13.160
86105.218750, 114049.484375, 147998.703125, 151649.812500, 98188.640625, 105052.992188, 141712.000000, 144838.812500, 1, 256, 1,0.0,0.0,0.0,0.0,0.0, 14:13:13.161
86165.078125, 114109.828125, 147983.468750, 151530.578125, 98172.882813, 104948.054688, 141672.296875, 144884.093750, 1, 256, 1,0.0,0.0,0.0,0.0,0.0, 14:13:13.161
86137.226563, 114071.429688, 148024.562500, 151674.281250, 98204.640625, 105076.710938, 141729.484375, 144881.234375, 1, 256, 1,0.0,0.0,0.0,0.0,0.0, 14:13:13.161
86068.296875, 114000.445313, 148047.515625, 151808.843750, 98210.187500, 105182.414063, 141756.593750, 144820.656250, 1, 256, 1,0.0,0.0,0.0,0.0,0.0, 14:13:13.162
86084.078125, 114027.484375, 147995.968750, 151678.890625, 98178.648438, 105076.015625, 141704.250000, 144818.468750, 1, 256, 1,0.0,0.0,0.0,0.0,0.0, 14:13:13.162
86159.757813, 114107.750000, 147961.718750, 151519.625000, 98159.875000, 104946.843750, 141661.234375, 144874.140625, 1, 256, 1,0.0,0.0,0.0,0.0,0.0, 14:13:13.162
86153.546875, 114088.015625, 148008.484375, 151635.609375, 98194.203125, 105049.218750, 141714.609375, 144885.546875, 1, 256, 1,0.0,0.0,0.0,0.0,0.0, 14:13:13.163
86070.507813, 113995.750000, 148044.187500, 151803.562500, 98213.765625, 105179.054688, 141753.843750, 144823.875000, 1, 256, 1,0.0,0.0,0.0,0.0,0.0, 14:13:13.163
86074.242188, 114018.968750, 147994.843750, 151708.906250, 98184.031250, 105102.414063, 141713.609375, 144810.843750, 1, 256, 1,0.0,0.0,0.0,0.0,0.0, 14:13:13.163
86155.109375, 114110.054688, 147959.156250, 151530.703125, 98165.820313, 104953.195313, 141669.843750, 144864.984375, 1, 256, 1,0.0,0.0,0.0,0.0,0.0, 14:13:13.163
86156.562500, 114092.843750, 147998.625000, 151601.375000, 98192.796875, 105009.585938, 141705.875000, 144881.921875, 1, 256, 1,0.0,0.0,0.0,0.0,0.0, 14:13:13.164
86087.515625, 114010.859375, 148040.265625, 151782.078125, 98216.265625, 105159.968750, 141758.578125, 144833.906250, 1, 256, 1,0.0,0.0,0.0,0.0,0.0, 14:13:13.164
86073.773438, 114013.203125, 148016.312500, 151744.421875, 98200.617188, 105127.601563, 141739.421875, 144810.000000, 1, 256, 1,0.0,0.0,0.0,0.0,0.0, 14:13:13.165
86136.156250, 114091.257813, 147968.671875, 151552.781250, 98175.203125, 104963.656250, 141679.515625, 144844.890625, 1, 256, 1,0.0,0.0,0.0,0.0,0.0, 14:13:13.167
86165.054688, 114110.726563, 147991.281250, 151566.531250, 98194.453125, 104978.093750, 141701.765625, 144880.671875, 1, 256, 1,0.0,0.0,0.0,0.0,0.0, 14:13:13.167
86094.179688, 114025.031250, 148036.093750, 151755.625000, 98218.296875, 105133.820313, 141752.593750, 144834.578125, 1, 256, 1,0.0,0.0,0.0,0.0,0.0, 14:13:13.168
86062.257813, 114001.312500, 148018.125000, 151765.546875, 98204.757813, 105140.992188, 141742.375000, 144798.687500, 1, 256, 1,0.0,0.0,0.0,0.0,0.0, 14:13:13.168
86124.554688, 114075.523438, 147969.421875, 151579.890625, 98172.414063, 104985.625000, 141682.078125, 144830.921875, 1, 256, 1,0.0,0.0,0.0,0.0,0.0, 14:13:13.169
86167.695313, 114108.828125, 147977.421875, 151541.531250, 98180.570313, 104954.398438, 141685.609375, 144873.546875, 1, 256, 1,0.0,0.0,0.0,0.0,0.0, 14:13:13.171
86122.429688, 114048.343750, 148024.781250, 151723.281250, 98217.117188, 105111.960938, 141752.250000, 144850.109375, 1, 256, 1,0.0,0.0,0.0,0.0,0.0, 14:13:13.172
86072.500000, 114001.539063, 148030.687500, 151787.468750, 98214.609375, 105160.507813, 141754.781250, 144801.062500, 1, 256, 1,0.0,0.0,0.0,0.0,0.0, 14:13:13.173
86129.335938, 114068.460938, 147975.890625, 151611.250000, 98180.171875, 105011.757813, 141693.109375, 144822.109375, 1, 256, 1,0.0,0.0,0.0,0.0,0.0, 14:13:13.173
86175.515625, 114113.539063, 147971.265625, 151528.656250, 98176.460938, 104937.812500, 141678.109375, 144870.406250, 1, 256, 1,0.0,0.0,0.0,0.0,0.0, 14:13:13.173
86128.507813, 114060.750000, 148025.625000, 151699.296875, 98214.210938, 105085.585938, 141742.234375, 144859.906250, 1, 256, 1,0.0,0.0,0.0,0.0,0.0, 14:13:13.173
86075.984375, 114011.570313, 148040.156250, 151804.015625, 98220.335938, 105171.367188, 141759.593750, 144810.531250, 1, 256, 1,0.0,0.0,0.0,0.0,0.0, 14:13:13.174
86112.531250, 114055.156250, 147990.421875, 151655.281250, 98187.210938, 105045.234375, 141700.625000, 144815.062500, 1, 256, 1,0.0,0.0,0.0,0.0,0.0, 14:13:13.174
86175.046875, 114125.078125, 147971.031250, 151525.015625, 98169.773438, 104935.781250, 141666.843750, 144869.046875, 1, 256, 1,0.0,0.0,0.0,0.0,0.0, 14:13:13.174
86149.187500, 114085.468750, 148018.406250, 151666.656250, 98206.945313, 105060.796875, 141730.031250, 144871.625000, 1, 256, 1,0.0,0.0,0.0,0.0,0.0, 14:13:13.610
86080.679688, 114001.156250, 148045.296875, 151811.390625, 98222.234375, 105176.625000, 141765.953125, 144814.640625, 1, 256, 1,0.0,0.0,0.0,0.0,0.0, 14:13:13.610
86094.046875, 114024.601563, 148000.593750, 151696.078125, 98185.664063, 105078.343750, 141710.859375, 144807.812500, 1, 256, 1,0.0,0.0,0.0,0.0,0.0, 14:13:13.611
86160.164063, 114100.890625, 147970.984375, 151532.390625, 98162.242188, 104939.226563, 141661.281250, 144857.156250, 1, 256, 1,0.0,0.0,0.0,0.0,0.0, 14:13:13.611
86162.281250, 114093.718750, 148010.906250, 151631.218750, 98190.406250, 105029.257813, 141707.906250, 144870.968750, 1, 256, 1,0.0,0.0,0.0,0.0,0.0, 14:13:13.611
86100.187500, 114018.187500, 148049.843750, 151801.125000, 98216.710938, 105174.476563, 141763.937500, 144828.343750, 1, 256, 1,0.0,0.0,0.0,0.0,0.0, 14:13:13.611
86094.000000, 114026.367188, 148016.171875, 151727.343750, 98194.945313, 105112.468750, 141729.046875, 144814.093750, 1, 256, 1,0.0,0.0,0.0,0.0,0.0, 14:13:13.612
86160.429688, 114106.187500, 147977.281250, 151546.078125, 98166.867188, 104954.867188, 141666.359375, 144853.015625, 1, 256, 1,0.0,0.0,0.0,0.0,0.0, 14:13:13.613
86168.585938, 114106.921875, 148011.187500, 151604.562500, 98196.953125, 105006.789063, 141707.578125, 144882.187500, 1, 256, 1,0.0,0.0,0.0,0.0,0.0, 14:13:13.613
86100.835938, 114022.882813, 148050.281250, 151791.718750, 98215.078125, 105155.945313, 141753.906250, 144826.093750, 1, 256, 1,0.0,0.0,0.0,0.0,0.0, 14:13:13.613
86085.726563, 114023.148438, 148014.515625, 151757.812500, 98188.859375, 105126.039063, 141725.921875, 144795.843750, 1, 256, 1,0.0,0.0,0.0,0.0,0.0, 14:13:13.614
86158.304688, 114111.062500, 147964.671875, 151566.656250, 98162.625000, 104968.234375, 141674.156250, 144845.062500, 1, 256, 1,0.0,0.0,0.0,0.0,0.0, 14:13:13.614
86183.117188, 114121.273438, 147993.578125, 151576.250000, 98184.414063, 104975.570313, 141695.859375, 144879.218750, 1, 256, 1,0.0,0.0,0.0,0.0,0.0, 14:13:13.614
86111.906250, 114033.726563, 148037.546875, 151761.812500, 98213.585938, 105131.828125, 141756.656250, 144840.890625, 1, 256, 1,0.0,0.0,0.0,0.0,0.0, 14:13:13.614
86079.046875, 114013.335938, 148024.250000, 151783.296875, 98204.242188, 105148.656250, 141750.046875, 144804.968750, 1, 256, 1,0.0,0.0,0.0,0.0,0.0, 14:13:13.615
86142.906250, 114092.484375, 147974.625000, 151599.937500, 98169.976563, 104996.039063, 141687.171875, 144835.906250, 1, 256, 1,0.0,0.0,0.0,0.0,0.0, 14:13:13.615
86185.437500, 114131.710938, 147981.156250, 151552.562500, 98177.640625, 104957.484375, 141688.984375, 144881.968750, 1, 256, 1,0.0,0.0,0.0,0.0,0.0, 14:13:13.615
86122.656250, 114054.421875, 148033.390625, 151736.406250, 98212.351563, 105110.078125, 141752.750000, 144853.328125, 1, 256, 1,0.0,0.0,0.0,0.0,0.0, 14:13:13.615
86066.062500, 114003.460938, 148035.953125, 151803.625000, 98204.328125, 105160.195313, 141755.296875, 144800.390625, 1, 256, 1,0.0,0.0,0.0,0.0,0.0, 14:13:13.616
86114.164063, 114061.570313, 147977.500000, 151626.671875, 98168.140625, 105017.367188, 141692.375000, 144820.515625, 1, 256, 1,0.0,0.0,0.0,0.0,0.0, 14:13:13.616
86178.335938, 114122.054688, 147969.796875, 151527.515625, 98165.929688, 104937.632813, 141674.109375, 144874.140625, 1, 256, 1,0.0,0.0,0.0,0.0,0.0, 14:13:13.616
86136.265625, 114067.585938, 148014.093750, 151688.750000, 98201.398438, 105073.062500, 141734.750000, 144857.984375, 1, 256, 1,0.0,0.0,0.0,0.0,0.0, 14:13:13.617
86061.742188, 113991.031250, 148024.015625, 151806.296875, 98205.625000, 105162.296875, 141751.828125, 144797.718750, 1, 256, 1,0.0,0.0,0.0,0.0,0.0, 14:13:13.617
86102.984375, 114044.945313, 147966.640625, 151657.343750, 98172.570313, 105042.445313, 141696.390625, 144809.484375, 1, 256, 1,0.0,0.0,0.0,0.0,0.0, 14:13:13.617
86172.835938, 114121.859375, 147953.328125, 151521.953125, 98164.742188, 104928.382813, 141667.296875, 144866.875000, 1, 256, 1,0.0,0.0,0.0,0.0,0.0, 14:13:13.617
86139.085938, 114082.226563, 148004.218750, 151656.781250, 98202.070313, 105044.703125, 141728.984375, 144867.703125, 1, 256, 1,0.0,0.0,0.0,0.0,0.0, 14:13:13.618
86071.226563, 114010.453125, 148028.359375, 151804.140625, 98210.078125, 105166.226563, 141760.171875, 144813.750000, 1, 256, 1,0.0,0.0,0.0,0.0,0.0, 14:13:13.618
86089.218750, 114033.367188, 147983.703125, 151696.046875, 98181.171875, 105076.265625, 141716.062500, 144809.015625, 1, 256, 1,0.0,0.0,0.0,0.0,0.0, 14:13:13.618
86157.523438, 114105.898438, 147949.968750, 151524.390625, 98159.875000, 104931.710938, 141667.812500, 144860.671875, 1, 256, 1,0.0,0.0,0.0,0.0,0.0, 14:13:13.618
86149.367188, 114086.335938, 147991.765625, 151617.515625, 98194.539063, 105017.453125, 141718.421875, 144881.125000, 1, 256, 1,0.0,0.0,0.0,0.0,0.0, 14:13:13.619
86073.968750, 114004.601563, 148028.984375, 151795.093750, 98211.750000, 105160.414063, 141760.718750, 144823.703125, 1, 256, 1,0.0,0.0,0.0,0.0,0.0, 14:13:13.619
86081.523438, 114016.265625, 147987.515625, 151724.187500, 98183.117188, 105099.890625, 141723.406250, 144799.515625, 1, 256, 1,0.0,0.0,0.0,0.0,0.0, 14:13:13.620
86153.703125, 114096.375000, 147949.125000, 151539.906250, 98157.617188, 104944.320313, 141667.156250, 144846.968750, 1, 256, 1,0.0,0.0,0.0,0.0,0.0, 14:13:13.621
86163.046875, 114101.000000, 147989.468750, 151586.421875, 98183.320313, 104983.500000, 141701.406250, 144872.515625, 1, 256, 1,0.0,0.0,0.0,0.0,0.0, 14:13:13.621
86097.640625, 114025.945313, 148033.312500, 151772.765625, 98209.804688, 105139.093750, 141755.343750, 144826.953125, 1, 256, 1,0.0,0.0,0.0,0.0,0.0, 14:13:13.621
86074.867188, 114006.296875, 148017.250000, 151758.750000, 98192.195313, 105126.195313, 141734.890625, 144795.484375, 1, 256, 1,0.0,0.0,0.0,0.0,0.0, 14:13:13.622
86142.078125, 114088.437500, 147966.781250, 151564.718750, 98159.382813, 104969.085938, 141671.781250, 144837.671875, 1, 256, 1,0.0,0.0,0.0,0.0,0.0, 14:13:13.622
86173.953125, 114114.281250, 147983.468750, 151556.062500, 98172.257813, 104968.390625, 141686.000000, 144878.187500, 1, 256, 1,0.0,0.0,0.0,0.0,0.0, 14:13:13.622
86115.414063, 114040.945313, 148036.421875, 151748.093750, 98207.679688, 105130.843750, 141751.453125, 144846.671875, 1, 256, 1,0.0,0.0,0.0,0.0,0.0, 14:13:13.622
86074.265625, 114006.945313, 148037.406250, 151789.312500, 98203.148438, 105154.695313, 141748.921875, 144798.937500, 1, 256, 1,0.0,0.0,0.0,0.0,0.0, 14:13:13.623
86131.375000, 114077.265625, 147984.859375, 151602.531250, 98168.164063, 104997.335938, 141679.875000, 144823.562500, 1, 256, 1,0.0,0.0,0.0,0.0,0.0, 14:13:13.623
86185.843750, 114126.593750, 147983.265625, 151534.921875, 98170.601563, 104948.742188, 141677.906250, 144879.781250, 1, 256, 1,0.0,0.0,0.0,0.0,0.0, 14:13:13.623
86138.750000, 114061.398438, 148039.484375, 151717.781250, 98207.281250, 105101.789063, 141737.500000, 144852.781250, 1, 256, 1,0.0,0.0,0.0,0.0,0.0, 14:13:13.623
86073.367188, 113994.296875, 148051.062500, 151802.968750, 98208.062500, 105159.742188, 141746.312500, 144792.609375, 1, 256, 1,0.0,0.0,0.0,0.0,0.0, 14:13:13.624
86113.468750, 114062.601563, 147998.359375, 151635.281250, 98175.562500, 105020.273438, 141688.828125, 144809.546875, 1, 256, 1,0.0,0.0,0.0,0.0,0.0, 14:13:13.624
86181.234375, 114135.468750, 147987.000000, 151530.468750, 98173.484375, 104931.601563, 141671.296875, 144867.890625, 1, 256, 1,0.0,0.0,0.0,0.0,0.0, 14:13:13.624
86142.796875, 114079.523438, 148038.765625, 151690.281250, 98209.382813, 105067.585938, 141730.890625, 144857.000000, 1, 256, 1,0.0,0.0,0.0,0.0,0.0, 14:13:13.624
86077.679688, 114007.953125, 148059.609375, 151812.500000, 98215.867188, 105164.976563, 141753.656250, 144794.234375, 1, 256, 1,0.0,0.0,0.0,0.0,0.0, 14:13:13.624
86100.617188, 114042.375000, 148008.750000, 151674.593750, 98178.265625, 105046.648438, 141693.406250, 144790.453125, 1, 256, 1,0.0,0.0,0.0,0.0,0.0, 14:13:13.625
86170.890625, 114121.007813, 147982.468750, 151526.250000, 98162.242188, 104922.390625, 141657.546875, 144847.484375, 1, 256, 1,0.0,0.0,0.0,0.0,0.0, 14:13:13.625
86159.312500, 114092.710938, 148028.375000, 151649.046875, 98199.476563, 105032.320313, 141717.187500, 144857.265625, 1, 256, 1,0.0,0.0,0.0,0.0,0.0, 14:13:13.625
86094.046875, 114023.062500, 148049.390625, 151804.546875, 98212.468750, 105162.648438, 141754.046875, 144810.796875, 1, 256, 1,0.0,0.0,0.0,0.0,0.0, 14:13:13.625
86093.843750, 114036.117188, 148011.187500, 151712.593750, 98188.078125, 105084.421875, 141711.531250, 144795.250000, 1, 256, 1,0.0,0.0,0.0,0.0,0.0, 14:13:13.625
86156.718750, 114111.281250, 147975.734375, 151537.875000, 98162.625000, 104938.062500, 141658.828125, 144841.515625, 1, 256, 1,0.0,0.0,0.0,0.0,0.0, 14:13:13.626
86157.007813, 114096.867188, 148009.468750, 151614.468750, 98186.515625, 105011.218750, 141698.359375, 144861.531250, 1, 256, 1,0.0,0.0,0.0,0.0,0.0, 14:13:13.626
86089.148438, 114017.515625, 148046.640625, 151789.812500, 98209.742188, 105160.843750, 141746.421875, 144815.656250, 1, 256, 1,0.0,0.0,0.0,0.0,0.0, 14:13:13.626
86080.296875, 114019.101563, 148013.578125, 151733.468750, 98187.476563, 105116.070313, 141717.156250, 144796.734375, 1, 256, 1,0.0,0.0,0.0,0.0,0.0, 14:13:13.627
86148.742188, 114094.453125, 147969.609375, 151547.187500, 98156.921875, 104954.554688, 141656.546875, 144833.796875, 1, 256, 1,0.0,0.0,0.0,0.0,0.0, 14:13:13.629
86162.507813, 114103.687500, 147994.187500, 151578.218750, 98178.625000, 104983.617188, 141684.781250, 144866.687500, 1, 256, 1,0.0,0.0,0.0,0.0,0.0, 14:13:13.629
86098.492188, 114022.484375, 148042.437500, 151769.765625, 98212.468750, 105145.375000, 141748.593750, 144830.968750, 1, 256, 1,0.0,0.0,0.0,0.0,0.0, 14:13:13.629
86078.484375, 114010.882813, 148030.031250, 151768.250000, 98201.757813, 105140.101563, 141736.812500, 144796.765625, 1, 256, 1,0.0,0.0,0.0,0.0,0.0, 14:13:13.630
86143.039063, 114092.484375, 147982.921875, 151578.593750, 98172.257813, 104976.015625, 141675.125000, 144826.765625, 1, 256, 1,0.0,0.0,0.0,0.0,0.0, 14:13:13.630
86178.960938, 114122.125000, 147997.171875, 151560.578125, 98185.328125, 104964.992188, 141688.312500, 144876.046875, 1, 256, 1,0.0,0.0,0.0,0.0,0.0, 14:13:13.630
86115.570313, 114036.000000, 148047.125000, 151752.562500, 98216.515625, 105123.085938, 141748.546875, 144839.203125, 1, 256, 1,0.0,0.0,0.0,0.0,0.0, 14:13:13.630
86065.765625, 113996.867188, 148037.593750, 151794.218750, 98203.500000, 105157.109375, 141744.000000, 144792.562500, 1, 256, 1,0.0,0.0,0.0,0.0,0.0, 14:13:13.631
86125.359375, 114071.539063, 147980.234375, 151607.765625, 98168.835938, 105005.406250, 141680.640625, 144817.546875, 1, 256, 1,0.0,0.0,0.0,0.0,0.0, 14:13:13.631
86179.468750, 114121.343750, 147981.265625, 151535.296875, 98175.117188, 104946.039063, 141674.718750, 144868.406250, 1, 256, 1,0.0,0.0,0.0,0.0,0.0, 14:13:13.631
86130.140625, 114062.109375, 148032.218750, 151708.078125, 98214.031250, 105097.296875, 141745.375000, 144855.078125, 1, 256, 1,0.0,0.0,0.0,0.0,0.0, 14:13:13.632
86067.109375, 114001.468750, 148042.578125, 151802.734375, 98211.507813, 105165.757813, 141752.859375, 144794.968750, 1, 256, 1,0.0,0.0,0.0,0.0,0.0, 14:13:13.632
86108.171875, 114060.257813, 147985.468750, 151640.421875, 98170.828125, 105029.437500, 141690.625000, 144806.937500, 1, 256, 1,0.0,0.0,0.0,0.0,0.0, 14:13:13.632
86174.156250, 114121.500000, 147974.375000, 151523.281250, 98163.539063, 104931.578125, 141668.718750, 144862.968750, 1, 256, 1,0.0,0.0,0.0,0.0,0.0, 14:13:13.632
86134.812500, 114067.742188, 148024.671875, 151671.375000, 98195.812500, 105055.679688, 141723.375000, 144847.234375, 1, 256, 1,0.0,0.0,0.0,0.0,0.0, 14:13:13.633
86075.804688, 114010.257813, 148049.234375, 151806.312500, 98210.429688, 105164.890625, 141757.578125, 144799.453125, 1, 256, 1,0.0,0.0,0.0,0.0,0.0, 14:13:13.633
86100.054688, 114053.882813, 148005.562500, 151678.531250, 98180.617188, 105061.484375, 141708.468750, 144803.578125, 1, 256, 1,0.0,0.0,0.0,0.0,0.0, 14:13:13.633
86168.007813, 114127.531250, 147976.250000, 151521.687500, 98161.570313, 104928.273438, 141665.171875, 144852.390625, 1, 256, 1,0.0,0.0,0.0,0.0,0.0, 14:13:13.634
86158.640625, 114105.023438, 148015.578125, 151634.671875, 98200.015625, 105036.187500, 141725.015625, 144872.734375, 1, 256, 1,0.0,0.0,0.0,0.0,0.0, 14:13:13.634
86083.539063, 114018.726563, 148051.640625, 151801.890625, 98219.578125, 105173.578125, 141767.031250, 144819.562500, 1, 256, 1,0.0,0.0,0.0,0.0,0.0, 14:13:13.635
86083.804688, 114032.539063, 148007.796875, 151708.812500, 98186.875000, 105094.007813, 141720.843750, 144801.234375, 1, 256, 1,0.0,0.0,0.0,0.0,0.0, 14:13:13.635
86165.125000, 114120.648438, 147969.421875, 151528.343750, 98165.195313, 104944.765625, 141673.015625, 144855.343750, 1, 256, 1,0.0,0.0,0.0,0.0,0.0, 14:13:13.635
86161.101563, 114107.414063, 148002.718750, 151598.843750, 98194.320313, 105007.421875, 141713.562500, 144875.125000, 1, 256, 1,0.0,0.0,0.0,0.0,0.0, 14:13:13.636
86087.312500, 114022.500000, 148036.453125, 151784.343750, 98216.757813, 105158.539063, 141764.593750, 144825.390625, 1, 256, 1,0.0,0.0,0.0,0.0,0.0, 14:13:13.636
86082.757813, 114022.593750, 148004.500000, 151743.859375, 98192.617188, 105122.265625, 141732.812500, 144799.671875, 1, 256, 1,0.0,0.0,0.0,0.0,0.0, 14:13:13.637
86146.882813, 114097.289063, 147958.015625, 151553.515625, 98160.968750, 104962.179688, 141669.796875, 144837.640625, 1, 256, 1,0.0,0.0,0.0,0.0,0.0, 14:13:13.637
86166.914063, 114121.476563, 147985.703125, 151573.703125, 98180.031250, 104982.164063, 141695.421875, 144874.390625, 1, 256, 1,0.0,0.0,0.0,0.0,0.0, 14:13:13.638
86104.171875, 114043.445313, 148040.843750, 151769.531250, 98216.218750, 105143.515625, 141761.390625, 144834.406250, 1, 256, 1,0.0,0.0,0.0,0.0,0.0, 14:13:13.638
86073.234375, 114016.062500, 148034.812500, 151784.859375, 98200.757813, 105146.203125, 141745.546875, 144795.328125, 1, 256, 1,0.0,0.0,0.0,0.0,0.0, 14:13:13.638
86141.875000, 114100.890625, 147982.578125, 151592.156250, 98162.445313, 104987.796875, 141678.046875, 144836.500000, 1, 256, 1,0.0,0.0,0.0,0.0,0.0, 14:13:13.639
86180.164063, 114130.437500, 148004.890625, 151559.531250, 98176.304688, 104961.171875, 141685.046875, 144878.453125, 1, 256, 1,0.0,0.0,0.0,0.0,0.0, 14:13:13.639
86119.570313, 114061.078125, 148055.203125, 151742.953125, 98207.773438, 105118.593750, 141747.843750, 144847.140625, 1, 256, 1,0.0,0.0,0.0,0.0,0.0, 14:13:13.639
86080.945313, 114017.968750, 148050.437500, 151800.656250, 98204.265625, 105162.960938, 141754.109375, 144800.421875, 1, 256, 1,0.0,0.0,0.0,0.0,0.0, 14:13:13.639
86126.945313, 114073.820313, 147994.203125, 151619.546875, 98170.156250, 105010.101563, 141692.546875, 144819.718750, 1, 256, 1,0.0,0.0,0.0,0.0,0.0, 14:13:13.640
86184.390625, 114135.312500, 147989.203125, 151532.390625, 98174.046875, 104940.992188, 141680.015625, 144874.406250, 1, 256, 1,0.0,0.0,0.0,0.0,0.0, 14:13:13.640
86142.500000, 114076.078125, 148044.515625, 151704.171875, 98210.390625, 105089.382813, 141741.390625, 144858.500000, 1, 256, 1,0.0,0.0,0.0,0.0,0.0, 14:13:13.640
86078.328125, 114013.945313, 148056.656250, 151806.250000, 98217.609375, 105171.570313, 141764.390625, 144809.593750, 1, 256, 1,0.0,0.0,0.0,0.0,0.0, 14:13:13.640
86120.734375, 114067.164063, 148006.343750, 151655.796875, 98187.898438, 105047.429688, 141712.531250, 144824.437500, 1, 256, 1,0.0,0.0,0.0,0.0,0.0, 14:13:13.641
86193.914063, 114136.007813, 147989.953125, 151530.968750, 98176.703125, 104940.921875, 141682.812500, 144875.890625, 1, 256, 1,0.0,0.0,0.0,0.0,0.0, 14:13:13.641
86160.765625, 114082.648438, 148039.218750, 151674.078125, 98208.640625, 105064.640625, 141737.343750, 144871.531250, 1, 256, 1,0.0,0.0,0.0,0.0,0.0, 14:13:13.641
86092.703125, 114013.742188, 148061.546875, 151810.546875, 98218.859375, 105175.703125, 141769.437500, 144817.906250, 1, 256, 1,0.0,0.0,0.0,0.0,0.0, 14:13:13.641
86108.843750, 114047.492188, 148013.562500, 151688.593750, 98184.859375, 105072.734375, 141717.031250, 144811.937500, 1, 256, 1,0.0,0.0,0.0,0.0,0.0, 14:13:13.641
86172.093750, 114120.601563, 147985.031250, 151528.171875, 98165.148438, 104933.789063, 141670.375000, 144858.562500, 1, 256, 1,0.0,0.0,0.0,0.0,0.0, 14:13:13.641
86155.398438, 114094.429688, 148024.593750, 151631.687500, 98195.054688, 105026.148438, 141719.156250, 144869.937500, 1, 256, 1,0.0,0.0,0.0,0.0,0.0, 14:13:13.642
86085.148438, 114016.734375, 148051.578125, 151797.421875, 98212.554688, 105166.203125, 141763.671875, 144821.437500, 1, 256, 1,0.0,0.0,0.0,0.0,0.0, 14:13:13.642
86088.992188, 114028.515625, 148017.531250, 151723.171875, 98189.531250, 105102.750000, 141727.953125, 144805.796875, 1, 256, 1,0.0,0.0,0.0,0.0,0.0, 14:13:13.642
86156.742188, 114107.484375, 147972.093750, 151535.718750, 98164.078125, 104942.820313, 141672.531250, 144848.281250, 1, 256, 1,0.0,0.0,0.0,0.0,0.0, 14:13:13.642
86164.226563, 114108.445313, 147999.750000, 151590.359375, 98190.875000, 104994.546875, 141708.890625, 144874.031250, 1, 256, 1,0.0,0.0,0.0,0.0,0.0, 14:13:13.643
86096.367188, 114029.476563, 148044.531250, 151777.687500, 98220.109375, 105153.132813, 141766.187500, 144830.562500, 1, 256, 1,0.0,0.0,0.0,0.0,0.0, 14:13:13.644
86079.335938, 114014.164063, 148019.953125, 151747.312500, 98199.414063, 105125.148438, 141737.187500, 144797.031250, 1, 256, 1,0.0,0.0,0.0,0.0,0.0, 14:13:13.644
86156.226563, 114102.859375, 147970.875000, 151555.968750, 98170.335938, 104967.093750, 141676.906250, 144841.796875, 1, 256, 1,0.0,0.0,0.0,0.0,0.0, 14:13:13.645
86170.484375, 114120.335938, 147990.140625, 151562.640625, 98185.171875, 104973.218750, 141690.031250, 144874.765625, 1, 256, 1,0.0,0.0,0.0,0.0,0.0, 14:13:13.645
86108.796875, 114039.000000, 148041.296875, 151759.781250, 98216.492188, 105133.015625, 141752.437500, 144835.750000, 1, 256, 1,0.0,0.0,0.0,0.0,0.0, 14:13:13.645
86088.210938, 114018.617188, 148028.046875, 151779.468750, 98207.031250, 105149.578125, 141750.593750, 144803.296875, 1, 256, 1,0.0,0.0,0.0,0.0,0.0, 14:13:13.645
86147.843750, 114092.062500, 147983.718750, 151593.453125, 98173.890625, 104993.000000, 141688.984375, 144832.234375, 1, 256, 1,0.0,0.0,0.0,0.0,0.0, 14:13:13.645
86188.304688, 114134.796875, 147990.687500, 151547.484375, 98181.398438, 104955.117188, 141692.703125, 144881.562500, 1, 256, 1,0.0,0.0,0.0,0.0,0.0, 14:13:13.646
86123.859375, 114063.898438, 148041.187500, 151734.078125, 98217.453125, 105113.117188, 141754.515625, 144853.656250, 1, 256, 1,0.0,0.0,0.0,0.0,0.0, 14:13:13.646
86076.656250, 114011.906250, 148039.593750, 151801.890625, 98214.273438, 105170.789063, 141758.203125, 144806.671875, 1, 256, 1,0.0,0.0,0.0,0.0,0.8932304, 14:13:13.647
86128.734375, 114074.265625, 147987.562500, 151627.640625, 98179.382813, 105026.617188, 141694.718750, 144824.484375, 1, 256, 1,0.0,0.0,0.0,0.0,0.8932304, 14:13:13.648
86184.523438, 114130.554688, 147987.906250, 151533.125000, 98177.242188, 104944.992188, 141676.656250, 144873.250000, 1, 256, 1,0.0,0.0,0.0,0.0,0.8932304, 14:13:13.648
86144.382813, 114079.093750, 148042.343750, 151699.140625, 98213.718750, 105086.546875, 141739.765625, 144858.671875, 1, 256, 1,0.0,0.0,0.0,0.0,0.8932304, 14:13:13.648
86085.414063, 114017.898438, 148063.250000, 151815.812500, 98223.351563, 105177.960938, 141764.609375, 144807.468750, 1, 256, 1,0.0,0.0,0.0,0.0,0.8932304, 14:13:13.648
86112.593750, 114057.484375, 148008.265625, 151668.031250, 98184.664063, 105051.945313, 141700.531250, 144810.937500, 1, 256, 1,0.0,0.0,0.0,0.0,0.8932304, 14:13:13.648
86178.421875, 114132.898438, 147983.109375, 151531.203125, 98167.718750, 104936.117188, 141665.593750, 144865.203125, 1, 256, 1,0.014813535,0.06573174,0.038263246,0.06071906,0.028218795, 14:13:14.091
86160.585938, 114098.031250, 148034.390625, 151670.265625, 98204.953125, 105058.718750, 141719.937500, 144866.750000, 1, 256, 1,0.014813535,0.06573174,0.038263246,0.06071906,0.028218795, 14:13:14.092
86099.226563, 114028.046875, 148063.375000, 151820.390625, 98225.382813, 105180.976563, 141764.296875, 144818.890625, 1, 256, 1,0.014813535,0.06573174,0.038263246,0.06071906,0.028218795, 14:13:14.092
86114.562500, 114055.742188, 148020.468750, 151709.625000, 98194.828125, 105083.015625, 141715.281250, 144809.375000, 1, 256, 1,0.014813535,0.06573174,0.038263246,0.06071906,0.028218795, 14:13:14.092
86180.523438, 114131.671875, 147986.921875, 151539.437500, 98169.414063, 104939.046875, 141664.656250, 144859.843750, 1, 256, 1,0.014813535,0.06573174,0.038263246,0.06071906,0.028218795, 14:13:14.092
86170.953125, 114114.031250, 148030.796875, 151635.687500, 98201.335938, 105023.867188, 141713.078125, 144873.906250, 1, 256, 1,0.014813535,0.06573174,0.038263246,0.06071906,0.028218795, 14:13:14.092
86096.773438, 114035.375000, 148059.562500, 151806.468750, 98218.164063, 105162.945313, 141755.390625, 144818.796875, 1, 256, 1,0.014813535,0.06573174,0.038263246,0.06071906,0.028218795, 14:13:14.092
86093.976563, 114040.968750, 148019.296875, 151739.593750, 98194.023438, 105105.875000, 141721.296875, 144800.468750, 1, 256, 1,0.014813535,0.06573174,0.038263246,0.06071906,0.028218795, 14:13:14.093
86159.132813, 114109.742188, 147972.140625, 151553.343750, 98167.226563, 104947.093750, 141664.140625, 144842.968750, 1, 256, 1,0.014813535,0.06573174,0.038263246,0.06071906,0.028218795, 14:13:14.093
86165.343750, 114115.843750, 147995.406250, 151591.359375, 98187.429688, 104988.242188, 141694.781250, 144870.687500, 1, 256, 1,0.014813535,0.06573174,0.038263246,0.06071906,0.028218795, 14:13:14.093
86092.296875, 114034.593750, 148040.156250, 151777.015625, 98217.382813, 105146.023438, 141756.078125, 144827.390625, 1, 256, 1,0.014813535,0.06573174,0.038263246,0.06071906,0.028218795, 14:13:14.093
86081.507813, 114017.179688, 148022.343750, 151761.359375, 98200.843750, 105128.523438, 141736.031250, 144795.203125, 1, 256, 1,0.014813535,0.06573174,0.038263246,0.06071906,0.028218795, 14:13:14.093
86156.828125, 114107.484375, 147974.890625, 151569.953125, 98163.921875, 104967.273438, 141668.609375, 144832.062500, 1, 256, 1,0.014813535,0.06573174,0.038263246,0.06071906,0.028218795, 14:13:14.094
86189.867188, 114139.335938, 147995.281250, 151564.937500, 98176.546875, 104967.476563, 141682.812500, 144874.406250, 1, 256, 1,0.014813535,0.06573174,0.038263246,0.06071906,0.028218795, 14:13:14.094
86119.210938, 114059.429688, 148046.640625, 151757.437500, 98214.117188, 105128.164063, 141749.234375, 144838.093750, 1, 256, 1,0.014813535,0.06573174,0.038263246,0.06071906,0.028218795, 14:13:14.094
86081.835938, 114025.226563, 148034.187500, 151788.343750, 98204.867188, 105147.382813, 141744.859375, 144794.593750, 1, 256, 1,0.014813535,0.06573174,0.038263246,0.06071906,0.028218795, 14:13:14.094
86148.265625, 114097.312500, 147981.078125, 151600.234375, 98170.421875, 104992.914063, 141681.828125, 144826.484375, 1, 256, 1,0.014813535,0.06573174,0.038263246,0.06071906,0.028218795, 14:13:14.094
86193.289063, 114140.320313, 147986.562500, 151545.500000, 98175.273438, 104946.328125, 141679.015625, 144874.484375, 1, 256, 1,0.014813535,0.06573174,0.038263246,0.06071906,0.028218795, 14:13:14.095
86136.359375, 114068.304688, 148036.562500, 151731.031250, 98212.976563, 105099.734375, 141743.421875, 144849.000000, 1, 256, 1,0.014813535,0.06573174,0.038263246,0.06071906,0.028218795, 14:13:14.095
86086.734375, 114017.945313, 148035.281250, 151809.781250, 98213.539063, 105162.179688, 141754.687500, 144800.656250, 1, 256, 1,0.014813535,0.06573174,0.038263246,0.06071906,0.028218795, 14:13:14.095
86133.539063, 114081.757813, 147977.312500, 151640.796875, 98176.500000, 105021.546875, 141696.312500, 144816.203125, 1, 256, 1,0.014813535,0.06573174,0.038263246,0.06071906,0.028218795, 14:13:14.095
86195.585938, 114154.289063, 147971.375000, 151533.281250, 98174.960938, 104936.429688, 141679.453125, 144877.359375, 1, 256, 1,0.014813535,0.06573174,0.038263246,0.06071906,0.028218795, 14:13:14.095
86156.562500, 114094.835938, 148028.687500, 151695.937500, 98213.960938, 105075.835938, 141739.578125, 144867.468750, 1, 256, 1,0.014813535,0.06573174,0.038263246,0.06071906,0.028218795, 14:13:14.096
86088.726563, 114022.187500, 148049.609375, 151818.453125, 98224.851563, 105174.742188, 141767.468750, 144811.500000, 1, 256, 1,0.014813535,0.06573174,0.038263246,0.06071906,0.028218795, 14:13:14.097
86122.585938, 114069.929688, 148001.890625, 151677.125000, 98195.992188, 105061.468750, 141716.484375, 144821.734375, 1, 256, 1,0.014813535,0.06573174,0.038263246,0.06071906,0.028218795, 14:13:14.098
86188.343750, 114143.000000, 147987.000000, 151536.218750, 98183.140625, 104943.492188, 141680.140625, 144877.937500, 1, 256, 1,0.014813535,0.06573174,0.038263246,0.06071906,0.028218795, 14:13:14.098
86165.773438, 114104.843750, 148035.578125, 151661.390625, 98214.101563, 105052.148438, 141732.234375, 144875.375000, 1, 256, 1,0.014813535,0.06573174,0.038263246,0.06071906,0.028218795, 14:13:14.098
86089.687500, 114029.007813, 148065.750000, 151817.890625, 98229.789063, 105175.882813, 141770.812500, 144819.359375, 1, 256, 1,0.014813535,0.06573174,0.038263246,0.06071906,0.028218795, 14:13:14.099
86104.593750, 114059.609375, 148021.671875, 151715.562500, 98203.906250, 105090.968750, 141727.687500, 144813.390625, 1, 256, 1,0.014813535,0.06573174,0.038263246,0.06071906,0.028218795, 14:13:14.099
86180.812500, 114138.578125, 147985.234375, 151539.062500, 98184.015625, 104945.726563, 141679.453125, 144864.625000, 1, 256, 1,0.014813535,0.06573174,0.038263246,0.06071906,0.028218795, 14:13:14.099
86168.562500, 114117.046875, 148021.421875, 151623.031250, 98207.234375, 105019.421875, 141717.453125, 144873.937500, 1, 256, 1,0.014813535,0.06573174,0.038263246,0.06071906,0.028218795, 14:13:14.099
86103.968750, 114046.125000, 148052.578125, 151794.250000, 98225.679688, 105167.546875, 141763.671875, 144831.234375, 1, 256, 1,0.014813535,0.06573174,0.038263246,0.06071906,0.028218795, 14:13:14.099
86092.453125, 114041.210938, 148028.421875, 151746.921875, 98207.523438, 105123.109375, 141737.015625, 144811.468750, 1, 256, 1,0.014813535,0.06573174,0.038263246,0.06071906,0.028218795, 14:13:14.100
86163.937500, 114117.500000, 147980.765625, 151554.921875, 98172.187500, 104955.789063, 141675.546875, 144846.765625, 1, 256, 1,0.014813535,0.06573174,0.038263246,0.06071906,0.028218795, 14:13:14.100
86187.070313, 114127.960938, 148006.562500, 151588.000000, 98192.257813, 104987.906250, 141704.671875, 144879.828125, 1, 256, 1,0.014813535,0.06573174,0.038263246,0.06071906,0.028218795, 14:13:14.100
86113.265625, 114041.593750, 148055.265625, 151779.531250, 98223.171875, 105144.968750, 141762.453125, 144833.203125, 1, 256, 1,0.014813535,0.06573174,0.038263246,0.06071906,0.028218795, 14:13:14.101
86087.539063, 114034.617188, 148036.921875, 151772.656250, 98209.132813, 105139.000000, 141745.421875, 144802.343750, 1, 256, 1,0.014813535,0.06573174,0.038263246,0.06071906,0.028218795, 14:13:14.101
86145.226563, 114108.421875, 147986.171875, 151582.687500, 98175.539063, 104977.062500, 141681.281250, 144833.953125, 1, 256, 1,0.014813535,0.06573174,0.038263246,0.06071906,0.028218795, 14:13:14.101
86188.031250, 114141.929688, 147997.406250, 151559.546875, 98186.742188, 104962.000000, 141694.125000, 144880.843750, 1, 256, 1,0.014813535,0.06573174,0.038263246,0.06071906,0.028218795, 14:13:14.101
86137.968750, 114079.054688, 148053.406250, 151755.281250, 98225.429688, 105128.320313, 141765.625000, 144854.984375, 1, 256, 1,0.014813535,0.06573174,0.038263246,0.06071906,0.028218795, 14:13:14.102
86090.023438, 114037.632813, 148050.437500, 151800.250000, 98214.726563, 105159.078125, 141756.906250, 144803.328125, 1, 256, 1,0.014813535,0.06573174,0.038263246,0.06071906,0.028218795, 14:13:14.102
86137.453125, 114105.203125, 147988.796875, 151609.906250, 98174.937500, 105003.617188, 141692.375000, 144830.171875, 1, 256, 1,0.014813535,0.06573174,0.038263246,0.06071906,0.028218795, 14:13:14.102
86185.710938, 114151.335938, 147994.718750, 151545.421875, 98176.835938, 104946.328125, 141684.031250, 144877.250000, 1, 256, 1,0.014813535,0.06573174,0.038263246,0.06071906,0.028218795, 14:13:14.103
86138.789063, 114082.046875, 148050.500000, 151726.109375, 98214.992188, 105095.375000, 141750.046875, 144854.140625, 1, 256, 1,0.014813535,0.06573174,0.038263246,0.06071906,0.028218795, 14:13:14.103
86086.984375, 114023.843750, 148058.593750, 151814.406250, 98218.031250, 105164.773438, 141764.234375, 144803.921875, 1, 256, 1,0.014813535,0.06573174,0.038263246,0.06071906,0.028218795, 14:13:14.103
86127.796875, 114080.507813, 148007.406250, 151645.984375, 98178.914063, 105024.984375, 141700.828125, 144813.531250, 1, 256, 1,0.014813535,0.06573174,0.038263246,0.06071906,0.028218795, 14:13:14.103
86185.171875, 114147.609375, 147998.031250, 151531.906250, 98174.492188, 104927.757813, 141678.765625, 144868.046875, 1, 256, 1,0.014813535,0.06573174,0.038263246,0.06071906,0.028218795, 14:13:14.104
86145.609375, 114095.390625, 148047.625000, 151685.078125, 98214.031250, 105059.898438, 141738.843750, 144859.421875, 1, 256, 1,0.014813535,0.06573174,0.038263246,0.06071906,0.028218795, 14:13:14.104
86090.492188, 114033.343750, 148062.734375, 151813.562500, 98218.320313, 105167.414063, 141764.390625, 144810.593750, 1, 256, 1,0.014813535,0.06573174,0.038263246,0.06071906,0.028218795, 14:13:14.104
86123.796875, 114076.523438, 148019.234375, 151691.875000, 98193.468750, 105065.171875, 141715.734375, 144813.187500, 1, 256, 1,0.014813535,0.06573174,0.038263246,0.06071906,0.028218795, 14:13:14.105
86187.671875, 114151.695313, 147992.921875, 151541.406250, 98175.226563, 104934.890625, 141669.390625, 144859.890625, 1, 256, 1,0.014813535,0.06573174,0.038263246,0.06071906,0.028218795, 14:13:14.105
86165.343750, 114118.054688, 148030.500000, 151651.593750, 98204.289063, 105035.250000, 141719.125000, 144866.968750, 1, 256, 1,0.014813535,0.06573174,0.038263246,0.06071906,0.028218795, 14:13:14.106
86093.015625, 114034.906250, 148059.937500, 151812.890625, 98223.484375, 105165.109375, 141763.546875, 144809.968750, 1, 256, 1,0.014813535,0.06573174,0.038263246,0.06071906,0.028218795, 14:13:14.106
86102.671875, 114052.765625, 148014.437500, 151719.656250, 98198.695313, 105091.328125, 141724.265625, 144804.125000, 1, 256, 1,0.014813535,0.06573174,0.038263246,0.06071906,0.028218795, 14:13:14.106
86170.867188, 114131.781250, 147972.500000, 151536.312500, 98168.945313, 104938.085938, 141665.859375, 144849.953125, 1, 256, 1,0.014813535,0.06573174,0.038263246,0.06071906,0.028218795, 14:13:14.107
86162.257813, 114123.062500, 148003.609375, 151602.984375, 98196.062500, 104999.750000, 141704.562500, 144866.234375, 1, 256, 1,0.014813535,0.06573174,0.038263246,0.06071906,0.028218795, 14:13:14.107
86090.648438, 114028.914063, 148042.265625, 151783.468750, 98221.007813, 105150.828125, 141758.671875, 144819.140625, 1, 256, 1,0.014813535,0.06573174,0.038263246,0.06071906,0.028218795, 14:13:14.107
86087.335938, 114040.203125, 148012.359375, 151736.562500, 98201.046875, 105114.687500, 141736.250000, 144800.546875, 1, 256, 1,0.014813535,0.06573174,0.038263246,0.06071906,0.028218795, 14:13:14.108
86153.164063, 114122.210938, 147969.281250, 151549.109375, 98168.210938, 104956.882813, 141673.546875, 144843.562500, 1, 256, 1,0.014813535,0.06573174,0.038263246,0.06071906,0.028218795, 14:13:14.108
86166.953125, 114123.398438, 147994.843750, 151576.500000, 98190.515625, 104978.000000, 141700.796875, 144875.546875, 1, 256, 1,0.014813535,0.06573174,0.038263246,0.06071906,0.028218795, 14:13:14.109
86099.609375, 114044.429688, 148037.078125, 151766.656250, 98220.398438, 105135.828125, 141758.171875, 144832.812500, 1, 256, 1,0.014813535,0.06573174,0.038263246,0.06071906,0.028218795, 14:13:14.109
86077.187500, 114030.687500, 148017.312500, 151770.031250, 98206.703125, 105137.375000, 141744.656250, 144797.765625, 1, 256, 1,0.014813535,0.06573174,0.038263246,0.06071906,0.028218795, 14:13:14.109
86147.843750, 114110.296875, 147966.015625, 151579.781250, 98173.507813, 104977.335938, 141683.843750, 144835.078125, 1, 256, 1,0.014813535,0.06573174,0.038263246,0.06071906,0.028218795, 14:13:14.109
86189.578125, 114144.390625, 147988.406250, 151556.125000, 98189.687500, 104958.625000, 141697.578125, 144884.921875, 1, 256, 1,0.014813535,0.06573174,0.038263246,0.06071906,0.028218795, 14:13:14.110
86134.367188, 114071.296875, 148051.843750, 151750.921875, 98225.226563, 105119.984375, 141760.750000, 144853.015625, 1, 256, 1,0.014813535,0.06573174,0.038263246,0.06071906,0.028218795, 14:13:14.110
86084.632813, 114019.820313, 148047.750000, 151800.546875, 98218.234375, 105156.773438, 141762.578125, 144805.437500, 1, 256, 1,0.014813535,0.06573174,0.038263246,0.06071906,0.028218795, 14:13:14.110
86133.335938, 114089.445313, 147989.421875, 151615.593750, 98180.859375, 105005.007813, 141696.593750, 144824.546875, 1, 256, 1,0.014813535,0.06573174,0.038263246,0.06071906,0.028218795, 14:13:14.111
86186.218750, 114146.265625, 147982.328125, 151532.218750, 98173.843750, 104936.273438, 141676.609375, 144872.921875, 1, 256, 1,0.014813535,0.06573174,0.038263246,0.06071906,0.028218795, 14:13:14.111
86136.179688, 114082.117188, 148038.734375, 151708.921875, 98211.773438, 105087.531250, 141740.937500, 144853.984375, 1, 256, 1,0.014813535,0.06573174,0.038263246,0.06071906,0.028218795, 14:13:14.111
86076.609375, 114022.148438, 148047.671875, 151806.609375, 98213.468750, 105164.796875, 141755.968750, 144799.359375, 1, 256, 1,0.014813535,0.06573174,0.038263246,0.06071906,0.028218795, 14:13:14.112
86120.687500, 114079.007813, 147993.687500, 151650.046875, 98182.562500, 105037.234375, 141701.968750, 144815.203125, 1, 256, 1,0.014813535,0.06573174,0.038263246,0.06071906,0.028218795, 14:13:14.112
86190.875000, 114141.929688, 147979.250000, 151526.468750, 98170.554688, 104928.789063, 141670.218750, 144865.109375, 1, 256, 1,0.014813535,0.06573174,0.038263246,0.06071906,0.028218795, 14:13:14.113
86157.632813, 114098.789063, 148032.578125, 151677.078125, 98208.484375, 105056.437500, 141734.859375, 144867.390625, 1, 256, 1,0.014813535,0.06573174,0.038263246,0.06071906,0.028218795, 14:13:14.113
86089.039063, 114027.468750, 148061.656250, 151821.015625, 98224.109375, 105171.320313, 141769.203125, 144814.218750, 1, 256, 1,0.014813535,0.06573174,0.038263246,0.06071906,0.028218795, 14:13:14.114
86112.726563, 114063.492188, 148011.437500, 151697.906250, 98194.851563, 105069.554688, 141719.703125, 144813.609375, 1, 256, 1,0.014813535,0.06573174,0.038263246,0.06071906,0.028218795, 14:13:14.114
86181.906250, 114152.117188, 147975.875000, 151536.812500, 98174.242188, 104934.867188, 141676.843750, 144868.296875, 1, 256, 1,0.014813535,0.06573174,0.038263246,0.06071906,0.028218795, 14:13:14.114
86174.328125, 114127.375000, 148024.578125, 151649.734375, 98213.695313, 105035.312500, 141732.718750, 144882.281250, 1, 256, 1,0.014813535,0.06573174,0.038263246,0.06071906,0.028218795, 14:13:14.114
86101.867188, 114043.890625, 148067.140625, 151823.703125, 98238.570313, 105174.585938, 141783.546875, 144829.328125, 1, 256, 1,0.014813535,0.06573174,0.038263246,0.06071906,0.028218795, 14:13:14.115
86107.765625, 114059.828125, 148026.343750, 151739.546875, 98208.468750, 105101.164063, 141741.906250, 144810.328125, 1, 256, 1,0.014813535,0.06573174,0.038263246,0.06071906,0.028218795, 14:13:14.115
86169.750000, 114139.625000, 147980.531250, 151549.812500, 98176.593750, 104945.437500, 141678.968750, 144855.125000, 1, 256, 1,0.014813535,0.06573174,0.038263246,0.06071906,0.028218795, 14:13:14.115
86169.414063, 114122.750000, 148015.656250, 151610.781250, 98199.523438, 105004.023438, 141715.109375, 144879.109375, 1, 256, 1,0.014813535,0.06573174,0.038263246,0.06071906,0.028218795, 14:13:14.115
86104.929688, 114037.632813, 148050.625000, 151790.937500, 98221.453125, 105154.828125, 141767.234375, 144831.625000, 1, 256, 1,0.014813535,0.06573174,0.038263246,0.06071906,0.028218795, 14:13:14.115
86082.062500, 114024.226563, 148024.890625, 151759.328125, 98201.085938, 105123.335938, 141743.312500, 144802.468750, 1, 256, 1,0.014813535,0.06573174,0.038263246,0.06071906,0.028218795, 14:13:14.115
86156.429688, 114116.804688, 147975.562500, 151568.843750, 98175.382813, 104965.976563, 141689.359375, 144851.140625, 1, 256, 1,0.014813535,0.06573174,0.038263246,0.06071906,0.028218795, 14:13:14.116
86186.781250, 114141.125000, 148002.781250, 151588.609375, 98201.468750, 104979.414063, 141712.921875, 144888.046875, 1, 256, 1,0.014813535,0.06573174,0.038263246,0.06071906,0.028218795, 14:13:14.116
86116.039063, 114052.656250, 148047.359375, 151781.296875, 98230.523438, 105135.273438, 141765.703125, 144844.484375, 1, 256, 1,0.014813535,0.06573174,0.038263246,0.06071906,0.028218795, 14:13:14.116
86082.015625, 114024.406250, 148036.109375, 151796.437500, 98214.078125, 105138.445313, 141748.437500, 144795.796875, 1, 256, 1,0.014813535,0.06573174,0.038263246,0.06071906,0.028218795, 14:13:14.116
86145.609375, 114104.578125, 147978.468750, 151599.375000, 98175.515625, 104975.453125, 141682.875000, 144826.468750, 1, 256, 1,0.014813535,0.06573174,0.038263246,0.06071906,0.028218795, 14:13:14.116
86188.617188, 114139.023438, 147996.890625, 151558.437500, 98190.156250, 104943.468750, 141690.468750, 144875.781250, 1, 256, 1,0.014813535,0.06573174,0.038263246,0.06071906,0.028218795, 14:13:14.116
86139.953125, 114070.156250, 148059.500000, 151749.828125, 98234.796875, 105108.601563, 141761.046875, 144854.343750, 1, 256, 1,0.014813535,0.06573174,0.038263246,0.06071906,0.028218795, 14:13:14.116
86081.414063, 114014.632813, 148063.359375, 151817.937500, 98231.195313, 105159.812500, 141764.343750, 144803.171875, 1, 256, 1,0.014813535,0.06573174,0.038263246,0.06071906,0.028218795, 14:13:14.117
86119.750000, 114075.789063, 147996.281250, 151635.390625, 98185.976563, 105009.296875, 141693.828125, 144816.359375, 1, 256, 1,0.014813535,0.06573174,0.038263246,0.06071906,0.028218795, 14:13:14.117
86180.257813, 114135.851563, 147987.750000, 151542.046875, 98184.031250, 104937.164063, 141681.359375, 144872.062500, 1, 256, 1,0.014813535,0.06573174,0.038263246,0.06071906,0.028218795, 14:13:14.117
86139.953125, 114080.039063, 148042.437500, 151711.203125, 98223.039063, 105084.312500, 141746.406250, 144860.250000, 1, 256, 1,0.014813535,0.06573174,0.038263246,0.06071906,0.028218795, 14:13:14.117
86084.585938, 114020.984375, 148058.593750, 151823.234375, 98233.367188, 105176.625000, 141775.296875, 144814.015625, 1, 256, 1,0.014813535,0.06573174,0.038263246,0.06071906,0.028218795, 14:13:14.117
86106.804688, 114058.421875, 148011.375000, 151676.078125, 98198.562500, 105048.726563, 141716.468750, 144814.640625, 1, 256, 1,0.014813535,0.06573174,0.038263246,0.06071906,0.028218795, 14:13:14.118
86164.093750, 114127.421875, 147982.468750, 151533.359375, 98175.296875, 104926.054688, 141672.953125, 144859.796875, 1, 256, 1,0.014813535,0.06573174,0.038263246,0.06071906,0.028218795, 14:13:14.118
86145.632813, 114087.257813, 148036.406250, 151672.890625, 98216.218750, 105046.625000, 141736.453125, 144861.578125, 1, 256, 1,0.014813535,0.06573174,0.038263246,0.06071906,0.028218795, 14:13:14.118
86086.804688, 114013.250000, 148066.093750, 151817.796875, 98236.312500, 105164.710938, 141777.000000, 144810.171875, 1, 256, 1,0.014813535,0.06573174,0.038263246,0.06071906,0.028218795, 14:13:14.118
86103.523438, 114043.851563, 148020.781250, 151706.453125, 98205.265625, 105069.062500, 141726.937500, 144802.781250, 1, 256, 1,0.014813535,0.06573174,0.038263246,0.06071906,0.028218795, 14:13:14.118
86184.437500, 114147.585938, 147983.718750, 151540.015625, 98186.046875, 104932.515625, 141684.375000, 144865.000000, 1, 256, 1,0.014813535,0.06573174,0.038263246,0.06071906,0.028218795, 14:13:14.119
86169.304688, 114123.218750, 148026.921875, 151642.828125, 98219.843750, 105021.031250, 141729.343750, 144877.656250, 1, 256, 1,0.014813535,0.06573174,0.038263246,0.06071906,0.028218795, 14:13:14.119
86095.695313, 114040.070313, 148056.250000, 151813.312500, 98240.296875, 105161.734375, 141778.421875, 144825.796875, 1, 256, 1,0.014813535,0.06573174,0.038263246,0.06071906,0.028218795, 14:13:14.119
86094.203125, 114048.921875, 148019.921875, 151745.828125, 98216.890625, 105102.523438, 141745.265625, 144807.921875, 1, 256, 1,0.014813535,0.06573174,0.038263246,0.06071906,0.028218795, 14:13:14.119
86159.937500, 114133.773438, 147975.984375, 151560.953125, 98184.953125, 104941.437500, 141680.687500, 144850.343750, 1, 256, 1,0.014813535,0.06573174,0.038263246,0.06071906,0.028218795, 14:13:14.119
86169.906250, 114124.406250, 148007.375000, 151610.203125, 98206.273438, 104987.054688, 141713.156250, 144877.562500, 1, 256, 1,0.014813535,0.06573174,0.038263246,0.06071906,0.028218795, 14:13:14.120
86118.945313, 114044.429688, 148050.156250, 151795.109375, 98235.492188, 105145.195313, 141770.875000, 144835.796875, 1, 256, 1,0.014813535,0.06573174,0.038263246,0.06071906,0.028218795, 14:13:14.120
86096.101563, 114038.242188, 148030.015625, 151776.312500, 98217.335938, 105124.164063, 141747.421875, 144801.453125, 1, 256, 1,0.014813535,0.06573174,0.038263246,0.06071906,0.028218795, 14:13:14.120
86153.585938, 114112.156250, 147980.187500, 151583.984375, 98185.640625, 104960.187500, 141684.015625, 144837.640625, 1, 256, 1,0.014813535,0.06573174,0.038263246,0.06071906,0.028218795, 14:13:14.120
86176.835938, 114131.890625, 148001.593750, 151578.812500, 98199.679688, 104958.695313, 141698.296875, 144875.312500, 1, 256, 1,0.014813535,0.06573174,0.038263246,0.06071906,0.028218795, 14:13:14.120
86109.289063, 114039.421875, 148053.500000, 151768.250000, 98233.273438, 105117.945313, 141761.156250, 144834.046875, 1, 256, 1,0.014813535,0.06573174,0.038263246,0.06071906,0.028218795, 14:13:14.120
86075.648438, 114017.273438, 148040.656250, 151793.156250, 98221.609375, 105138.000000, 141753.500000, 144794.265625, 1, 256, 1,0.014813535,0.06573174,0.038263246,0.06071906,0.028218795, 14:13:14.121
86135.437500, 114098.429688, 147990.156250, 151607.656250, 98187.078125, 104984.218750, 141691.593750, 144826.296875, 1, 256, 1,0.014813535,0.06573174,0.038263246,0.06071906,0.028218795, 14:13:14.121
86183.320313, 114142.890625, 147997.906250, 151555.484375, 98195.882813, 104939.000000, 141694.671875, 144876.062500, 1, 256, 1,0.014813535,0.06573174,0.038263246,0.06071906,0.028218795, 14:13:14.121
86125.421875, 114063.765625, 148043.109375, 151736.906250, 98222.679688, 105088.914063, 141749.390625, 144843.125000, 1, 256, 1,0.014813535,0.06573174,0.038263246,0.06071906,0.028218795, 14:13:14.121
86076.992188, 114010.898438, 148041.406250, 151811.250000, 98221.320313, 105146.132813, 141754.515625, 144793.968750, 1, 256, 1,0.014813535,0.06573174,0.038263246,0.06071906,0.028218795, 14:13:14.121
86117.265625, 114067.562500, 147986.328125, 151641.265625, 98186.070313, 105003.460938, 141689.562500, 144809.062500, 1, 256, 1,0.014813535,0.06573174,0.038263246,0.06071906,0.028218795, 14:13:14.121
86181.257813, 114130.414063, 147983.828125, 151539.218750, 98185.218750, 104921.453125, 141676.656250, 144868.125000, 1, 256, 1,0.014813535,0.06573174,0.038263246,0.06071906,0.028218795, 14:13:14.121
86138.414063, 114070.492188, 148044.375000, 151700.296875, 98223.773438, 105064.281250, 141740.515625, 144859.328125, 1, 256, 1,0.014813535,0.06573174,0.038263246,0.06071906,0.028218795, 14:13:14.122
86074.929688, 114006.898438, 148062.312500, 151816.421875, 98233.250000, 105165.515625, 141768.375000, 144813.343750, 1, 256, 1,0.014813535,0.06573174,0.038263246,0.06071906,0.028218795, 14:13:14.122
86101.171875, 114042.906250, 148016.171875, 151678.953125, 98198.718750, 105048.367188, 141714.343750, 144815.265625, 1, 256, 1,0.014813535,0.06573174,0.038263246,0.06071906,0.028218795, 14:13:14.122
86170.796875, 114118.148438, 147996.796875, 151533.718750, 98182.132813, 104925.273438, 141677.062500, 144869.890625, 1, 256, 1,0.0022733437,0.01612144,0.01254046,0.016053569,0.0073217475, 14:13:14.569
86159.156250, 114087.078125, 148050.109375, 151666.328125, 98225.203125, 105043.945313, 141744.562500, 144880.734375, 1, 256, 1,0.0022733437,0.01612144,0.01254046,0.016053569,0.0073217475, 14:13:14.570
86092.390625, 114003.929688, 148079.406250, 151822.187500, 98243.203125, 105167.812500, 141782.781250, 144824.187500, 1, 256, 1,0.0022733437,0.01612144,0.01254046,0.016053569,0.0073217475, 14:13:14.571
86098.515625, 114019.554688, 148038.421875, 151719.796875, 98211.687500, 105077.695313, 141731.453125, 144807.312500, 1, 256, 1,0.0022733437,0.01612144,0.01254046,0.016053569,0.0073217475, 14:13:14.571
86171.421875, 114099.507813, 148001.671875, 151545.656250, 98189.015625, 104929.921875, 141681.359375, 144857.453125, 1, 256, 1,0.0022733437,0.01612144,0.01254046,0.016053569,0.0073217475, 14:13:14.572
86166.421875, 114083.187500, 148037.703125, 151629.687500, 98211.304688, 105004.382813, 141719.984375, 144873.312500, 1, 256, 1,0.0022733437,0.01612144,0.01254046,0.016053569,0.0073217475, 14:13:14.572
86088.453125, 113999.187500, 148075.406250, 151810.625000, 98235.085938, 105147.679688, 141770.468750, 144820.718750, 1, 256, 1,0.0022733437,0.01612144,0.01254046,0.016053569,0.0073217475, 14:13:14.573
86083.312500, 114002.859375, 148039.640625, 151755.734375, 98212.781250, 105093.000000, 141738.578125, 144796.046875, 1, 256, 1,0.0022733437,0.01612144,0.01254046,0.016053569,0.0073217475, 14:13:14.573
86156.789063, 114085.156250, 147992.296875, 151567.984375, 98186.023438, 104935.828125, 141683.250000, 144845.250000, 1, 256, 1,0.0022733437,0.01612144,0.01254046,0.016053569,0.0073217475, 14:13:14.573
86169.234375, 114096.421875, 148019.968750, 151603.578125, 98205.132813, 104971.968750, 141710.875000, 144874.593750, 1, 256, 1,0.0022733437,0.01612144,0.01254046,0.016053569,0.0073217475, 14:13:14.573
86109.468750, 114022.148438, 148072.234375, 151795.437500, 98242.328125, 105135.492188, 141776.531250, 144837.890625, 1, 256, 1,0.0022733437,0.01612144,0.01254046,0.016053569,0.0073217475, 14:13:14.573
86089.015625, 114007.351563, 148049.078125, 151789.750000, 98227.289063, 105127.093750, 141758.093750, 144809.343750, 1, 256, 1,0.0022733437,0.01612144,0.01254046,0.016053569,0.0073217475, 14:13:14.573
86150.750000, 114086.179688, 147993.468750, 151599.812500, 98190.789063, 104965.148438, 141690.968750, 144841.328125, 1, 256, 1,0.0022733437,0.01612144,0.01254046,0.016053569,0.0073217475, 14:13:14.573
86176.992188, 114106.968750, 148007.140625, 151582.531250, 98200.195313, 104955.718750, 141700.421875, 144879.359375, 1, 256, 1,0.0022733437,0.01612144,0.01254046,0.016053569,0.0073217475, 14:13:14.574
86109.492188, 114021.835938, 148049.031250, 151766.484375, 98231.039063, 105117.281250, 141764.953125, 144846.312500, 1, 256, 1,0.0022733437,0.01612144,0.01254046,0.016053569,0.0073217475, 14:13:14.574
86065.968750, 113973.015625, 148034.640625, 151800.062500, 98219.242188, 105145.085938, 141759.437500, 144800.421875, 1, 256, 1,0.0022733437,0.01612144,0.01254046,0.016053569,0.0073217475, 14:13:14.574
86117.890625, 114039.671875, 147975.890625, 151614.000000, 98181.664063, 104987.726563, 141692.703125, 144820.250000, 1, 256, 1,0.0022733437,0.01612144,0.01254046,0.016053569,0.0073217475, 14:13:14.574
86169.171875, 114091.257813, 147973.328125, 151545.296875, 98180.007813, 104930.531250, 141682.656250, 144870.234375, 1, 256, 1,0.0022733437,0.01612144,0.01254046,0.016053569,0.0073217475, 14:13:14.574
86124.039063, 114032.742188, 148030.234375, 151727.281250, 98219.906250, 105084.937500, 141744.640625, 144852.281250, 1, 256, 1,0.0022733437,0.01612144,0.01254046,0.016053569,0.0073217475, 14:13:14.574
86082.109375, 113986.132813, 148048.359375, 151818.359375, 98228.023438, 105159.054688, 141764.453125, 144806.687500, 1, 256, 1,0.0022733437,0.01612144,0.01254046,0.016053569,0.0073217475, 14:13:14.574
86120.351563, 114034.531250, 147998.203125, 151654.140625, 98193.492188, 105019.335938, 141702.250000, 144816.484375, 1, 256, 1,0.0022733437,0.01612144,0.01254046,0.016053569,0.0073217475, 14:13:14.575
86182.984375, 114097.226563, 147984.718750, 151536.156250, 98187.210938, 104919.015625, 141677.796875, 144865.656250, 1, 256, 1,0.0022733437,0.01612144,0.01254046,0.016053569,0.0073217475, 14:13:14.575
86149.187500, 114048.070313, 148036.250000, 151688.359375, 98229.632813, 105051.828125, 141743.718750, 144858.140625, 1, 256, 1,0.0022733437,0.01612144,0.01254046,0.016053569,0.0073217475, 14:13:14.575
86090.359375, 113981.914063, 148054.578125, 151814.578125, 98241.500000, 105152.679688, 141774.062500, 144802.843750, 1, 256, 1,0.0022733437,0.01612144,0.01254046,0.016053569,0.0073217475, 14:13:14.575
86113.023438, 114023.554688, 148006.296875, 151684.437500, 98205.851563, 105031.515625, 141717.859375, 144793.406250, 1, 256, 1,0.0022733437,0.01612144,0.01254046,0.016053569,0.0073217475, 14:13:14.575
86179.671875, 114101.898438, 147980.843750, 151534.812500, 98187.078125, 104898.390625, 141671.750000, 144842.734375, 1, 256, 1,0.0022733437,0.01612144,0.01254046,0.016053569,0.0073217475, 14:13:14.575
86157.726563, 114071.476563, 148019.421875, 151649.546875, 98215.750000, 105005.515625, 141721.515625, 144853.171875, 1, 256, 1,0.0022733437,0.01612144,0.01254046,0.016053569,0.0073217475, 14:13:14.575
86080.968750, 113986.335938, 148048.656250, 151808.500000, 98233.765625, 105141.507813, 141765.375000, 144803.171875, 1, 256, 1,0.0022733437,0.01612144,0.01254046,0.016053569,0.0073217475, 14:13:14.575
86087.671875, 114002.968750, 148007.546875, 151710.937500, 98206.164063, 105061.960938, 141722.390625, 144790.500000, 1, 256, 1,0.0022733437,0.01612144,0.01254046,0.016053569,0.0073217475, 14:13:14.575
86165.773438, 114086.335938, 147973.140625, 151533.875000, 98183.679688, 104916.671875, 141670.312500, 144842.265625, 1, 256, 1,0.0022733437,0.01612144,0.01254046,0.016053569,0.0073217475, 14:13:14.576
86167.359375, 114069.914063, 148017.468750, 151609.843750, 98212.398438, 104987.031250, 141711.625000, 144863.500000, 1, 256, 1,0.0022733437,0.01612144,0.01254046,0.016053569,0.0073217475, 14:13:14.576
86091.070313, 113985.890625, 148059.562500, 151790.609375, 98233.968750, 105135.296875, 141764.843750, 144813.843750, 1, 256, 1,0.0022733437,0.01612144,0.01254046,0.016053569,0.0073217475, 14:13:14.576
86077.101563, 113991.921875, 148031.593750, 151742.187500, 98212.601563, 105093.296875, 141734.906250, 144791.781250, 1, 256, 1,0.0022733437,0.01612144,0.01254046,0.016053569,0.0073217475, 14:13:14.576
86156.382813, 114081.687500, 147984.687500, 151553.406250, 98182.984375, 104935.312500, 141678.609375, 144839.359375, 1, 256, 1,0.0022733437,0.01612144,0.01254046,0.016053569,0.0073217475, 14:13:14.576
86177.953125, 114090.609375, 148010.390625, 151583.296875, 98203.210938, 104962.695313, 141704.734375, 144873.750000, 1, 256, 1,0.0022733437,0.01612144,0.01254046,0.016053569,0.0073217475, 14:13:14.576
86102.093750, 114006.500000, 148059.265625, 151777.187500, 98230.796875, 105121.593750, 141760.406250, 144830.937500, 1, 256, 1,0.0022733437,0.01612144,0.01254046,0.016053569,0.0073217475, 14:13:14.576
86080.320313, 113985.132813, 148041.609375, 151779.609375, 98216.335938, 105117.992188, 141746.062500, 144793.515625, 1, 256, 1,0.0022733437,0.01612144,0.01254046,0.016053569,0.0073217475, 14:13:14.576
86149.390625, 114068.460938, 147985.750000, 151588.609375, 98186.335938, 104955.562500, 141687.015625, 144827.046875, 1, 256, 1,0.0022733437,0.01612144,0.01254046,0.016053569,0.0073217475, 14:13:14.577
86187.562500, 114100.648438, 147996.687500, 151562.750000, 98195.234375, 104942.195313, 141691.906250, 144874.546875, 1, 256, 1,0.0022733437,0.01612144,0.01254046,0.016053569,0.0073217475, 14:13:14.577
86121.046875, 114016.375000, 148046.546875, 151749.593750, 98228.539063, 105102.656250, 141754.562500, 144840.265625, 1, 256, 1,0.0022733437,0.01612144,0.01254046,0.016053569,0.0073217475, 14:13:14.577
86081.703125, 113977.664063, 148038.750000, 151795.750000, 98224.421875, 105139.382813, 141759.875000, 144797.562500, 1, 256, 1,0.0022733437,0.01612144,0.01254046,0.016053569,0.0073217475, 14:13:14.577
86141.250000, 114052.343750, 147988.218750, 151617.890625, 98195.390625, 104986.968750, 141703.437500, 144821.421875, 1, 256, 1,0.0022733437,0.01612144,0.01254046,0.016053569,0.0073217475, 14:13:14.577
86196.750000, 114100.890625, 147995.156250, 151544.156250, 98203.679688, 104921.406250, 141693.531250, 144870.968750, 1, 256, 1,0.0022733437,0.01612144,0.01254046,0.016053569,0.0073217475, 14:13:14.577
86138.703125, 114041.656250, 148044.093750, 151712.921875, 98236.828125, 105067.390625, 141753.171875, 144848.953125, 1, 256, 1,0.0022733437,0.01612144,0.01254046,0.016053569,0.0073217475, 14:13:14.578
86069.500000, 113978.109375, 148052.156250, 151809.328125, 98238.460938, 105145.820313, 141771.546875, 144795.843750, 1, 256, 1,0.0022733437,0.01612144,0.01254046,0.016053569,0.0073217475, 14:13:14.578
86116.750000, 114033.367188, 147998.765625, 151651.796875, 98201.648438, 105013.164063, 141712.312500, 144808.609375, 1, 256, 1,0.0022733437,0.01612144,0.01254046,0.016053569,0.0073217475, 14:13:14.579
86187.671875, 114104.781250, 147986.640625, 151533.312500, 98197.359375, 104914.320313, 141690.046875, 144868.046875, 1, 256, 1,0.0022733437,0.01612144,0.01254046,0.016053569,0.0073217475, 14:13:14.579
86146.078125, 114050.242188, 148032.578125, 151683.890625, 98230.484375, 105044.812500, 141745.375000, 144860.578125, 1, 256, 1,0.0022733437,0.01612144,0.01254046,0.016053569,0.0073217475, 14:13:14.579
86081.101563, 113981.757813, 148055.250000, 151820.000000, 98242.593750, 105155.992188, 141779.921875, 144810.718750, 1, 256, 1,0.0022733437,0.01612144,0.01254046,0.016053569,0.0073217475, 14:13:14.579
86108.750000, 114017.789063, 148009.468750, 151696.125000, 98212.492188, 105050.828125, 141728.578125, 144811.562500, 1, 256, 1,0.0022733437,0.01612144,0.01254046,0.016053569,0.0073217475, 14:13:14.580
86179.804688, 114091.007813, 147977.796875, 151538.359375, 98190.023438, 104917.093750, 141680.531250, 144861.109375, 1, 256, 1,0.0022733437,0.01612144,0.01254046,0.016053569,0.0073217475, 14:13:14.580
86168.140625, 114061.820313, 148020.203125, 151649.000000, 98220.648438, 105016.093750, 141731.265625, 144869.859375, 1, 256, 1,0.0022733437,0.01612144,0.01254046,0.016053569,0.0073217475, 14:13:14.580
86097.617188, 113988.125000, 148050.078125, 151813.312500, 98239.468750, 105154.273438, 141777.046875, 144823.046875, 1, 256, 1,0.0022733437,0.01612144,0.01254046,0.016053569,0.0073217475, 14:13:14.580
86098.242188, 114004.195313, 148011.593750, 151733.718750, 98214.187500, 105085.492188, 141740.093750, 144810.890625, 1, 256, 1,0.0022733437,0.01612144,0.01254046,0.016053569,0.0073217475, 14:13:14.580
86168.968750, 114077.132813, 147968.000000, 151551.906250, 98185.890625, 104929.414063, 141682.500000, 144855.484375, 1, 256, 1,0.0022733437,0.01612144,0.01254046,0.016053569,0.0073217475, 14:13:14.581
86172.007813, 114067.453125, 148004.000000, 151617.750000, 98210.500000, 104985.625000, 141717.546875, 144875.484375, 1, 256, 1,0.0022733437,0.01612144,0.01254046,0.016053569,0.0073217475, 14:13:14.581
86094.421875, 113984.304688, 148043.843750, 151796.687500, 98234.257813, 105133.234375, 141770.828125, 144825.578125, 1, 256, 1,0.0022733437,0.01612144,0.01254046,0.016053569,0.0073217475, 14:13:14.581
86082.507813, 113984.906250, 148016.234375, 151757.718750, 98217.000000, 105100.734375, 141747.984375, 144800.203125, 1, 256, 1,0.0022733437,0.01612144,0.01254046,0.016053569,0.0073217475, 14:13:14.581
86160.250000, 114074.585938, 147970.750000, 151565.937500, 98186.562500, 104940.250000, 141686.718750, 144839.609375, 1, 256, 1,0.0022733437,0.01612144,0.01254046,0.016053569,0.0073217475, 14:13:14.581
86179.070313, 114085.914063, 147997.328125, 151584.296875, 98203.414063, 104951.117188, 141703.890625, 144866.203125, 1, 256, 1,0.0022733437,0.01612144,0.01254046,0.016053569,0.0073217475, 14:13:14.582
86108.101563, 113995.031250, 148037.703125, 151772.093750, 98229.742188, 105102.546875, 141759.031250, 144818.531250, 1, 256, 1,0.0022733437,0.01612144,0.01254046,0.016053569,0.0073217475, 14:13:14.582
86080.367188, 113971.070313, 148018.031250, 151780.234375, 98217.671875, 105108.289063, 141746.406250, 144779.265625, 1, 256, 1,0.0022733437,0.01612144,0.01254046,0.016053569,0.0073217475, 14:13:14.582
86142.460938, 114058.039063, 147962.484375, 151587.781250, 98187.007813, 104953.882813, 141688.578125, 144819.828125, 1, 256, 1,0.0022733437,0.01612144,0.01254046,0.016053569,0.0073217475, 14:13:14.582
86179.359375, 114087.703125, 147975.781250, 151551.078125, 98194.406250, 104927.828125, 141691.750000, 144867.031250, 1, 256, 1,0.0022733437,0.01612144,0.01254046,0.016053569,0.0073217475, 14:13:14.582
86125.648438, 114019.976563, 148022.171875, 151733.937500, 98226.859375, 105088.554688, 141755.156250, 144843.234375, 1, 256, 1,0.0022733437,0.01612144,0.01254046,0.016053569,0.0073217475, 14:13:14.582
86081.750000, 113973.710938, 148019.531250, 151796.953125, 98221.632813, 105136.007813, 141758.312500, 144794.968750, 1, 256, 1,0.0022733437,0.01612144,0.01254046,0.016053569,0.0073217475, 14:13:14.583
86130.585938, 114041.968750, 147966.109375, 151621.625000, 98188.015625, 104993.742188, 141698.906250, 144823.453125, 1, 256, 1,0.0022733437,0.01612144,0.01254046,0.016053569,0.0073217475, 14:13:14.583
86188.210938, 114100.156250, 147965.953125, 151533.562500, 98187.898438, 104923.351563, 141685.328125, 144875.062500, 1, 256, 1,0.0022733437,0.01612144,0.01254046,0.016053569,0.0073217475, 14:13:14.583
86137.164063, 114035.218750, 148011.093750, 151697.156250, 98220.109375, 105065.132813, 141743.218750, 144854.968750, 1, 256, 1,0.0022733437,0.01612144,0.01254046,0.016053569,0.0073217475, 14:13:14.583
86073.796875, 113970.132813, 148022.093750, 151802.296875, 98225.273438, 105147.656250, 141764.843750, 144801.234375, 1, 256, 1,0.0022733437,0.01612144,0.01254046,0.016053569,0.0073217475, 14:13:14.583
86109.914063, 114023.617188, 147972.671875, 151652.375000, 98193.242188, 105020.695313, 141709.031250, 144810.328125, 1, 256, 1,0.0022733437,0.01612144,0.01254046,0.016053569,0.0073217475, 14:13:14.583
86185.929688, 114099.507813, 147958.625000, 151525.984375, 98184.593750, 104910.390625, 141679.765625, 144865.671875, 1, 256, 1,0.0022733437,0.01612144,0.01254046,0.016053569,0.0073217475, 14:13:14.584
86156.429688, 114049.148438, 148012.156250, 151668.703125, 98226.679688, 105031.492188, 141742.437500, 144863.531250, 1, 256, 1,0.0022733437,0.01612144,0.01254046,0.016053569,0.0073217475, 14:13:14.584
86092.187500, 113973.578125, 148041.390625, 151812.953125, 98239.648438, 105148.750000, 141771.125000, 144809.687500, 1, 256, 1,0.0022733437,0.01612144,0.01254046,0.016053569,0.0073217475, 14:13:14.584
86103.367188, 113999.078125, 148002.234375, 151700.125000, 98210.859375, 105050.109375, 141725.281250, 144804.656250, 1, 256, 1,0.0022733437,0.01612144,0.01254046,0.016053569,0.0073217475, 14:13:14.584
86172.546875, 114079.765625, 147971.000000, 151535.031250, 98189.265625, 104907.015625, 141679.296875, 144855.546875, 1, 256, 1,0.0022733437,0.01612144,0.01254046,0.016053569,0.0073217475, 14:13:14.584
86161.296875, 114067.632813, 148002.937500, 151631.031250, 98205.718750, 104989.914063, 141714.796875, 144859.171875, 1, 256, 1,0.0022733437,0.01612144,0.01254046,0.016053569,0.0073217475, 14:13:14.585
86084.390625, 113982.023438, 148037.515625, 151797.484375, 98223.664063, 105129.304688, 141759.312500, 144804.906250, 1, 256, 1,0.0022733437,0.01612144,0.01254046,0.016053569,0.0073217475, 14:13:14.585
