%OpenBCI Raw EEG Data
%
%Sample Rate = 250.0 Hz
%First Column = SampleIndex
%5 Columns before Timestamp are Frequency Power factors DELTA THETA ALPHA BETA GAMMA
%Last Column = Timestamp 
%Other Columns = EEG data in microvolts followed by Accel Data (in G) interleaved with Aux Data
0.000000, 0.000000, 0.000000, 0.000000, 0.000000, 0.000000, 0.000000, 0.000000, 0.152, 0.244, 0.944,0.0,0.0,0.0,0.0,0.0, 13:02:05.896
79870.226563, 77033.273438, 115487.125000, 101531.656250, 91155.929688, 91590.335938, 109459.617188, 173080.125000, 0.000, 0.000, 0.000,0.0,0.0,0.0,0.0,0.0, 13:02:06.380
79723.593750, 76876.851563, 115700.132813, 102103.703125, 91334.476563, 92329.531250, 109697.171875, 172916.265625, 0.000, 0.000, 0.000,0.0,0.0,0.0,0.0,0.0, 13:02:06.381
79745.429688, 76900.460938, 115678.296875, 102054.304688, 91232.734375, 92244.906250, 109623.546875, 172944.875000, 0.000, 0.000, 0.000,0.0,0.0,0.0,0.0,0.0, 13:02:06.382
79882.453125, 77040.851563, 115484.914063, 101483.375000, 91067.820313, 91517.445313, 109392.804688, 173103.578125, 0.000, 0.000, 0.000,0.0,0.0,0.0,0.0,0.0, 13:02:06.382
79879.898438, 77036.070313, 115487.796875, 101454.812500, 91142.742188, 91507.523438, 109432.328125, 173098.671875, 0.000, 0.000, 0.000,0.0,0.0,0.0,0.0,0.0, 13:02:06.383
79740.156250, 76888.835938, 115675.171875, 102013.046875, 91324.015625, 92237.132813, 109677.953125, 172943.671875, 0.000, 0.000, 0.000,0.0,0.0,0.0,0.0,0.0, 13:02:06.384
79720.445313, 76868.093750, 115723.898438, 102132.937500, 91292.476563, 92359.062500, 109689.171875, 172920.703125, 0.162, 0.238, 0.946,0.0,0.0,0.0,0.0,0.0, 13:02:06.384
79866.179688, 77023.820313, 115514.726563, 101562.523438, 91096.632813, 91636.070313, 109427.453125, 173086.062500, 0.000, 0.000, 0.000,0.0,0.0,0.0,0.0,0.0, 13:02:06.385
79901.828125, 77065.507813, 115447.429688, 101379.062500, 91133.890625, 91442.281250, 109395.023438, 173128.359375, 0.000, 0.000, 0.000,0.0,0.0,0.0,0.0,0.0, 13:02:06.385
79754.976563, 76911.921875, 115629.234375, 101906.960938, 91346.148438, 92151.390625, 109632.820313, 172967.109375, 0.000, 0.000, 0.000,0.0,0.0,0.0,0.0,0.0, 13:02:06.385
79690.562500, 76842.750000, 115728.476563, 102163.296875, 91363.734375, 92458.617188, 109701.820313, 172899.656250, 0.000, 0.000, 0.000,0.0,0.0,0.0,0.0,0.0, 13:02:06.386
79827.757813, 76987.296875, 115549.148438, 101657.320313, 91157.179688, 91804.132813, 109467.710938, 173052.140625, 0.000, 0.000, 0.000,0.0,0.0,0.0,0.0,0.0, 13:02:06.386
79908.062500, 77073.617188, 115411.195313, 101324.453125, 91103.132813, 91405.507813, 109361.671875, 173140.765625, 0.000, 0.000, 0.000,0.0,0.0,0.0,0.0,0.0, 13:02:06.387
79779.117188, 76940.937500, 115568.101563, 101781.437500, 91302.828125, 92009.859375, 109586.445313, 173002.093750, 0.000, 0.000, 0.000,0.0,0.0,0.0,0.0,0.0, 13:02:06.387
79679.320313, 76835.437500, 115724.718750, 102172.078125, 91377.484375, 92478.242188, 109724.195313, 172894.359375, 0.000, 0.000, 0.000,0.0,0.0,0.0,0.0,0.0, 13:02:06.387
79796.820313, 76955.015625, 115581.132813, 101754.125000, 91184.968750, 91926.773438, 109519.250000, 173022.031250, 0.000, 0.000, 0.000,0.0,0.0,0.0,0.0,0.0, 13:02:06.389
79906.320313, 77071.765625, 115410.343750, 101313.078125, 91084.671875, 91378.265625, 109355.546875, 173140.546875, 0.178, 0.234, 0.948,0.0,0.0,0.0,0.0,0.0, 13:02:06.389
79807.015625, 76975.070313, 115530.398438, 101665.406250, 91266.976563, 91864.078125, 109552.625000, 173036.453125, 0.000, 0.000, 0.000,0.0,0.0,0.0,0.0,0.0, 13:02:06.390
79678.335938, 76839.390625, 115709.187500, 102151.804688, 91388.992188, 92475.023438, 109735.859375, 172898.531250, 0.000, 0.000, 0.000,0.0,0.0,0.0,0.0,0.0, 13:02:06.390
79758.937500, 76924.351563, 115600.914063, 101855.132813, 91228.531250, 92079.882813, 109565.187500, 172993.109375, 0.000, 0.000, 0.000,0.0,0.0,0.0,0.0,0.0, 13:02:06.390
79890.250000, 77061.343750, 115405.804688, 101329.437500, 91098.218750, 91428.648438, 109362.320313, 173139.281250, 0.000, 0.000, 0.000,0.0,0.0,0.0,0.0,0.0, 13:02:06.391
79822.164063, 76986.085938, 115484.507813, 101556.960938, 91250.453125, 91762.000000, 109507.648438, 173056.125000, 0.000, 0.000, 0.000,0.0,0.0,0.0,0.0,0.0, 13:02:06.391
79678.312500, 76838.414063, 115699.062500, 102113.289063, 91402.406250, 92468.601563, 109731.726563, 172897.265625, 0.000, 0.000, 0.000,0.0,0.0,0.0,0.0,0.0, 13:02:06.391
79736.851563, 76904.437500, 115642.984375, 101945.718750, 91259.421875, 92236.390625, 109616.546875, 172958.015625, 0.000, 0.000, 0.000,0.0,0.0,0.0,0.0,0.0, 13:02:06.392
79880.484375, 77053.296875, 115422.031250, 101360.507813, 91082.906250, 91499.390625, 109376.492188, 173120.046875, 0.000, 0.000, 0.000,0.0,0.0,0.0,0.0,0.0, 13:02:06.392
79846.460938, 77015.882813, 115457.593750, 101447.500000, 91203.875000, 91639.179688, 109466.679688, 173081.984375, 0.190, 0.238, 0.938,0.0,0.0,0.0,0.0,0.0, 13:02:06.392
79692.750000, 76857.070313, 115663.835938, 102022.570313, 91387.382813, 92381.992188, 109709.218750, 172925.250000, 0.000, 0.000, 0.000,0.0,0.0,0.0,0.0,0.0, 13:02:06.393
79703.296875, 76870.640625, 115656.843750, 102012.062500, 91305.664063, 92351.101563, 109656.335938, 172941.406250, 0.000, 0.000, 0.000,0.0,0.0,0.0,0.0,0.0, 13:02:06.393
79850.757813, 77027.062500, 115449.507813, 101430.070313, 91117.304688, 91616.375000, 109404.992188, 173106.234375, 0.000, 0.000, 0.000,0.0,0.0,0.0,0.0,0.0, 13:02:06.393
79854.484375, 77032.757813, 115422.859375, 101363.414063, 91175.156250, 91558.640625, 109424.171875, 173113.265625, 0.000, 0.000, 0.000,0.0,0.0,0.0,0.0,0.0, 13:02:06.394
79700.710938, 76872.742188, 115634.960938, 101945.703125, 91378.156250, 92299.804688, 109678.640625, 172943.109375, 0.000, 0.000, 0.000,0.0,0.0,0.0,0.0,0.0, 13:02:06.394
79676.609375, 76843.882813, 115683.039063, 102081.125000, 91327.796875, 92446.476563, 109681.546875, 172919.437500, 0.000, 0.000, 0.000,0.0,0.0,0.0,0.0,0.0, 13:02:06.394
79823.484375, 76994.312500, 115481.218750, 101524.906250, 91123.968750, 91736.984375, 109433.062500, 173082.421875, 0.000, 0.000, 0.000,0.0,0.0,0.0,0.0,0.0, 13:02:06.395
79876.664063, 77053.929688, 115398.523438, 101307.265625, 91133.132813, 91485.242188, 109384.898438, 173134.968750, 0.000, 0.000, 0.000,0.0,0.0,0.0,0.0,0.0, 13:02:06.395
79726.343750, 76898.179688, 115604.960938, 101844.242188, 91362.304688, 92187.953125, 109645.070313, 172969.421875, 0.000, 0.000, 0.000,0.0,0.0,0.0,0.0,0.0, 13:02:06.396
79665.414063, 76832.289063, 115710.906250, 102123.554688, 91376.679688, 92519.476563, 109721.515625, 172903.171875, 0.186, 0.240, 0.944,0.0,0.0,0.0,0.0,0.0, 13:02:06.396
79797.710938, 76972.343750, 115536.476563, 101635.125000, 91174.039063, 91874.515625, 109489.859375, 173049.531250, 0.000, 0.000, 0.000,0.0,0.0,0.0,0.0,0.0, 13:02:06.397
79880.234375, 77062.132813, 115401.250000, 101276.328125, 91118.828125, 91438.617188, 109379.734375, 173146.843750, 0.000, 0.000, 0.000,0.0,0.0,0.0,0.0,0.0, 13:02:06.397
79755.648438, 76930.250000, 115559.226563, 101714.539063, 91320.593750, 92027.742188, 109609.398438, 173012.859375, 0.000, 0.000, 0.000,0.0,0.0,0.0,0.0,0.0, 13:02:06.397
79656.335938, 76820.554688, 115709.992188, 102121.226563, 91395.343750, 92525.625000, 109751.687500, 172903.750000, 0.000, 0.000, 0.000,0.0,0.0,0.0,0.0,0.0, 13:02:06.397
79764.187500, 76931.976563, 115572.953125, 101734.992188, 91220.039063, 92012.250000, 109555.148438, 173016.484375, 0.000, 0.000, 0.000,0.0,0.0,0.0,0.0,0.0, 13:02:06.398
79871.250000, 77049.390625, 115408.179688, 101274.320313, 91123.585938, 91440.000000, 109383.640625, 173138.328125, 0.000, 0.000, 0.000,0.0,0.0,0.0,0.0,0.0, 13:02:06.398
79779.226563, 76953.585938, 115514.031250, 101591.671875, 91298.000000, 91889.492188, 109555.039063, 173037.203125, 0.000, 0.000, 0.000,0.0,0.0,0.0,0.0,0.0, 13:02:06.398
79659.984375, 76827.101563, 115704.515625, 102095.992188, 91429.625000, 92532.421875, 109745.046875, 172901.625000, 0.000, 0.000, 0.000,0.0,0.0,0.0,0.0,0.0, 13:02:06.399
79740.445313, 76911.632813, 115610.101563, 101826.609375, 91268.359375, 92174.992188, 109585.187500, 172988.750000, 0.000, 0.000, 0.000,0.0,0.0,0.0,0.0,0.0, 13:02:06.399
79869.242188, 77045.273438, 115420.406250, 101294.640625, 91132.437500, 91507.859375, 109380.601563, 173136.187500, 0.186, 0.240, 0.948,0.0,0.0,0.0,0.0,0.0, 13:02:06.399
79809.226563, 76978.625000, 115496.421875, 101500.851563, 91283.695313, 91802.164063, 109514.718750, 173067.703125, 0.000, 0.000, 0.000,0.0,0.0,0.0,0.0,0.0, 13:02:06.399
79660.765625, 76834.835938, 115702.546875, 102058.664063, 91437.406250, 92520.617188, 109734.585938, 172910.203125, 0.000, 0.000, 0.000,0.0,0.0,0.0,0.0,0.0, 13:02:06.400
79699.414063, 76878.757813, 115663.679688, 101932.351563, 91315.570313, 92341.781250, 109635.640625, 172948.718750, 0.000, 0.000, 0.000,0.0,0.0,0.0,0.0,0.0, 13:02:06.407
79854.796875, 77037.695313, 115452.656250, 101351.812500, 91144.484375, 91625.562500, 109397.656250, 173116.406250, 0.000, 0.000, 0.000,0.0,0.0,0.0,0.0,0.0, 13:02:06.407
79824.000000, 77005.000000, 115473.156250, 101407.875000, 91248.179688, 91740.898438, 109469.609375, 173091.203125, 0.000, 0.000, 0.000,0.0,0.0,0.0,0.0,0.0, 13:02:06.407
79675.093750, 76847.218750, 115673.109375, 101985.843750, 91422.164063, 92489.078125, 109710.132813, 172928.375000, 0.000, 0.000, 0.000,0.0,0.0,0.0,0.0,0.0, 13:02:06.408
79673.859375, 76841.539063, 115700.132813, 102024.804688, 91356.515625, 92507.695313, 109682.664063, 172926.546875, 0.000, 0.000, 0.000,0.0,0.0,0.0,0.0,0.0, 13:02:06.408
79825.875000, 77001.625000, 115491.437500, 101438.273438, 91155.640625, 91753.773438, 109433.578125, 173091.812500, 0.000, 0.000, 0.000,0.0,0.0,0.0,0.0,0.0, 13:02:06.408
79848.656250, 77028.554688, 115443.984375, 101327.023438, 91196.210938, 91636.781250, 109437.023438, 173113.734375, 0.184, 0.242, 0.948,0.0,0.0,0.0,0.0,0.0, 13:02:06.409
79691.945313, 76868.429688, 115644.546875, 101897.148438, 91400.929688, 92365.718750, 109685.054688, 172946.031250, 0.000, 0.000, 0.000,0.0,0.0,0.0,0.0,0.0, 13:02:06.409
79655.289063, 76831.640625, 115700.023438, 102067.335938, 91374.398438, 92549.453125, 109703.585938, 172911.859375, 0.000, 0.000, 0.000,0.0,0.0,0.0,0.0,0.0, 13:02:06.409
79798.476563, 76979.453125, 115504.445313, 101526.539063, 91182.906250, 91849.375000, 109466.476563, 173075.625000, 0.000, 0.000, 0.000,0.0,0.0,0.0,0.0,0.0, 13:02:06.409
79846.929688, 77031.687500, 115426.375000, 101288.937500, 91188.609375, 91571.718750, 109413.062500, 173132.203125, 0.000, 0.000, 0.000,0.0,0.0,0.0,0.0,0.0, 13:02:06.409
79707.929688, 76889.570313, 115618.890625, 101804.570313, 91403.250000, 92250.250000, 109656.562500, 172978.109375, 0.000, 0.000, 0.000,0.0,0.0,0.0,0.0,0.0, 13:02:06.410
79634.281250, 76812.148438, 115746.828125, 102122.679688, 91442.210938, 92633.765625, 109749.718750, 172893.156250, 0.000, 0.000, 0.000,0.0,0.0,0.0,0.0,0.0, 13:02:06.411
79761.992188, 76936.984375, 115567.656250, 101637.109375, 91226.875000, 92007.960938, 109518.203125, 173037.921875, 0.000, 0.000, 0.000,0.0,0.0,0.0,0.0,0.0, 13:02:06.411
79852.250000, 77027.484375, 115428.585938, 101257.023438, 91159.351563, 91540.468750, 109391.085938, 173140.546875, 0.000, 0.000, 0.000,0.0,0.0,0.0,0.0,0.0, 13:02:06.412
79735.109375, 76910.179688, 115573.515625, 101674.843750, 91356.023438, 92092.851563, 109599.382813, 173011.921875, 0.000, 0.000, 0.000,0.0,0.0,0.0,0.0,0.0, 13:02:06.413
79632.914063, 76804.523438, 115737.734375, 102109.492188, 91450.460938, 92616.953125, 109750.390625, 172896.640625, 0.186, 0.248, 0.940,0.0,0.0,0.0,0.0,0.0, 13:02:06.413
79736.023438, 76912.507813, 115611.328125, 101743.703125, 91282.062500, 92126.468750, 109566.078125, 173011.531250, 0.000, 0.000, 0.000,0.0,0.0,0.0,0.0,0.0, 13:02:06.413
79853.992188, 77040.335938, 115426.640625, 101248.390625, 91166.640625, 91517.828125, 109384.335938, 173147.828125, 0.000, 0.000, 0.000,0.0,0.0,0.0,0.0,0.0, 13:02:06.414
79764.726563, 76950.726563, 115532.429688, 101554.164063, 91339.640625, 91939.000000, 109558.164063, 173050.687500, 0.000, 0.000, 0.000,0.0,0.0,0.0,0.0,0.0, 13:02:06.414
79634.140625, 76814.804688, 115724.031250, 102080.570313, 91470.796875, 92589.750000, 109755.625000, 172908.593750, 0.000, 0.000, 0.000,5.727002E-6,7.586187E-6,9.32484E-6,2.9335448E-5,3.7270944E-5, 13:02:06.415
79711.054688, 76892.437500, 115640.859375, 101842.765625, 91324.953125, 92261.828125, 109612.859375, 172989.390625, 0.000, 0.000, 0.000,5.727002E-6,7.586187E-6,9.32484E-6,2.9335448E-5,3.7270944E-5, 13:02:06.415
79845.968750, 77031.890625, 115452.234375, 101301.210938, 91188.273438, 91580.906250, 109405.750000, 173138.437500, 0.000, 0.000, 0.000,5.727002E-6,7.586187E-6,9.32484E-6,2.9335448E-5,3.7270944E-5, 13:02:06.415
79791.078125, 76971.937500, 115511.664063, 101467.796875, 91322.320313, 91830.328125, 109520.773438, 173082.000000, 0.000, 0.000, 0.000,5.727002E-6,7.586187E-6,9.32484E-6,2.9335448E-5,3.7270944E-5, 13:02:06.416
79645.859375, 76813.601563, 115723.046875, 102040.429688, 91486.132813, 92562.414063, 109754.304688, 172923.531250, 0.000, 0.000, 0.000,5.727002E-6,7.586187E-6,9.32484E-6,2.9335448E-5,3.7270944E-5, 13:02:06.416
79673.125000, 76844.937500, 115697.382813, 101954.304688, 91375.070313, 92426.117188, 109675.890625, 172959.375000, 0.194, 0.244, 0.934,5.727002E-6,7.586187E-6,9.32484E-6,2.9335448E-5,3.7270944E-5, 13:02:06.417
79822.343750, 77001.710938, 115494.210938, 101377.335938, 91204.367188, 91690.226563, 109439.945313, 173122.953125, 0.000, 0.000, 0.000,5.727002E-6,7.586187E-6,9.32484E-6,2.9335448E-5,3.7270944E-5, 13:02:06.417
79810.234375, 76988.164063, 115489.539063, 101388.601563, 91291.359375, 91730.906250, 109492.343750, 173109.468750, 0.000, 0.000, 0.000,5.727002E-6,7.586187E-6,9.32484E-6,2.9335448E-5,3.7270944E-5, 13:02:06.418
79656.070313, 76832.304688, 115686.750000, 101963.648438, 91472.187500, 92465.812500, 109733.851563, 172941.234375, 0.000, 0.000, 0.000,5.727002E-6,7.586187E-6,9.32484E-6,2.9335448E-5,3.7270944E-5, 13:02:06.418
79650.328125, 76828.601563, 115705.414063, 102021.093750, 91411.343750, 92519.546875, 109707.945313, 172936.687500, 0.000, 0.000, 0.000,5.727002E-6,7.586187E-6,9.32484E-6,2.9335448E-5,3.7270944E-5, 13:02:06.419
79799.343750, 76984.632813, 115510.484375, 101452.796875, 91234.250000, 91802.546875, 109469.945313, 173098.140625, 0.000, 0.000, 0.000,5.727002E-6,7.586187E-6,9.32484E-6,2.9335448E-5,3.7270944E-5, 13:02:06.419
79818.437500, 77008.171875, 115477.781250, 101330.578125, 91281.281250, 91668.726563, 109463.617188, 173119.937500, 0.000, 0.000, 0.000,5.727002E-6,7.586187E-6,9.32484E-6,2.9335448E-5,3.7270944E-5, 13:02:06.419
79672.476563, 76852.937500, 115668.664063, 101883.960938, 91475.609375, 92382.257813, 109707.070313, 172958.218750, 0.000, 0.000, 0.000,5.727002E-6,7.586187E-6,9.32484E-6,2.9335448E-5,3.7270944E-5, 13:02:06.420
79628.757813, 76803.140625, 115746.023438, 102091.054688, 91460.007813, 92622.500000, 109748.562500, 172906.265625, 0.000, 0.000, 0.000,5.727002E-6,7.586187E-6,9.32484E-6,2.9335448E-5,3.7270944E-5, 13:02:06.420
79769.906250, 76954.234375, 115556.210938, 101559.062500, 91261.921875, 91942.984375, 109509.218750, 173064.359375, 0.000, 0.000, 0.000,5.727002E-6,7.586187E-6,9.32484E-6,2.9335448E-5,3.7270944E-5, 13:02:06.421
79839.023438, 77025.875000, 115454.265625, 101282.968750, 91245.023438, 91621.453125, 109434.718750, 173137.921875, 0.194, 0.244, 0.942,5.727002E-6,7.586187E-6,9.32484E-6,2.9335448E-5,3.7270944E-5, 13:02:06.421
79704.015625, 76877.414063, 115620.453125, 101770.750000, 91443.460938, 92270.125000, 109658.148438, 172987.968750, 0.000, 0.000, 0.000,5.727002E-6,7.586187E-6,9.32484E-6,2.9335448E-5,3.7270944E-5, 13:02:06.422
79615.593750, 76784.054688, 115741.773438, 102109.226563, 91487.742188, 92682.867188, 109755.867188, 172894.406250, 0.000, 0.000, 0.000,5.727002E-6,7.586187E-6,9.32484E-6,2.9335448E-5,3.7270944E-5, 13:02:06.422
79744.156250, 76920.664063, 115563.093750, 101648.218750, 91287.070313, 92087.148438, 109532.531250, 173036.734375, 0.000, 0.000, 0.000,5.727002E-6,7.586187E-6,9.32484E-6,2.9335448E-5,3.7270944E-5, 13:02:06.423
79837.164063, 77018.320313, 115429.117188, 101258.296875, 91235.125000, 91607.414063, 109409.171875, 173143.734375, 0.000, 0.000, 0.000,5.727002E-6,7.586187E-6,9.32484E-6,2.9335448E-5,3.7270944E-5, 13:02:06.424
79720.265625, 76897.867188, 115574.585938, 101655.820313, 91432.531250, 92137.734375, 109613.195313, 173024.218750, 0.000, 0.000, 0.000,5.727002E-6,7.586187E-6,9.32484E-6,2.9335448E-5,3.7270944E-5, 13:02:06.424
79611.593750, 76785.750000, 115721.882813, 102096.101563, 91519.195313, 92690.515625, 109765.726563, 172904.546875, 0.000, 0.000, 0.000,5.727002E-6,7.586187E-6,9.32484E-6,2.9335448E-5,3.7270944E-5, 13:02:06.424
79698.648438, 76879.468750, 115597.812500, 101756.023438, 91354.367188, 92250.382813, 109589.031250, 173001.046875, 0.000, 0.000, 0.000,5.727002E-6,7.586187E-6,9.32484E-6,2.9335448E-5,3.7270944E-5, 13:02:06.425
79820.398438, 77008.101563, 115430.531250, 101270.812500, 91244.062500, 91646.148438, 109407.492188, 173131.687500, 0.000, 0.000, 0.000,5.727002E-6,7.586187E-6,9.32484E-6,2.9335448E-5,3.7270944E-5, 13:02:06.425
79744.296875, 76927.148438, 115524.203125, 101543.789063, 91403.812500, 92031.468750, 109561.632813, 173044.671875, 0.192, 0.246, 0.934,5.727002E-6,7.586187E-6,9.32484E-6,2.9335448E-5,3.7270944E-5, 13:02:06.426
79615.656250, 76793.101563, 115710.507813, 102075.875000, 91540.250000, 92699.875000, 109760.070313, 172902.625000, 0.000, 0.000, 0.000,5.727002E-6,7.586187E-6,9.32484E-6,2.9335448E-5,3.7270944E-5, 13:02:06.426
79682.109375, 76861.117188, 115633.906250, 101869.617188, 91398.421875, 92416.656250, 109625.734375, 172974.062500, 0.000, 0.000, 0.000,5.727002E-6,7.586187E-6,9.32484E-6,2.9335448E-5,3.7270944E-5, 13:02:06.427
79827.289063, 77013.132813, 115409.695313, 101297.898438, 91232.914063, 91708.804688, 109395.828125, 173135.312500, 0.000, 0.000, 0.000,5.727002E-6,7.586187E-6,9.32484E-6,2.9335448E-5,3.7270944E-5, 13:02:06.427
79790.273438, 76971.289063, 115455.000000, 101439.164063, 91369.148438, 91929.234375, 109508.140625, 173084.062500, 0.000, 0.000, 0.000,5.727002E-6,7.586187E-6,9.32484E-6,2.9335448E-5,3.7270944E-5, 13:02:06.427
79646.906250, 76815.429688, 115668.015625, 102022.609375, 91546.507813, 92660.875000, 109746.343750, 172914.968750, 0.000, 0.000, 0.000,5.727002E-6,7.586187E-6,9.32484E-6,2.9335448E-5,3.7270944E-5, 13:02:06.428
79680.414063, 76850.343750, 115654.250000, 101967.312500, 91447.039063, 92551.617188, 109677.679688, 172944.312500, 0.000, 0.000, 0.000,5.727002E-6,7.586187E-6,9.32484E-6,2.9335448E-5,3.7270944E-5, 13:02:06.428
79848.921875, 77025.273438, 115428.226563, 101376.710938, 91261.523438, 91801.000000, 109438.070313, 173119.500000, 0.000, 0.000, 0.000,5.727002E-6,7.586187E-6,9.32484E-6,2.9335448E-5,3.7270944E-5, 13:02:06.429
79848.968750, 77024.085938, 115436.632813, 101374.968750, 91353.679688, 91824.250000, 109493.054688, 173101.609375, 0.000, 0.000, 0.000,5.727002E-6,7.586187E-6,9.32484E-6,2.9335448E-5,3.7270944E-5, 13:02:06.429
79707.343750, 76871.179688, 115644.320313, 101950.039063, 91545.656250, 92563.351563, 109733.492188, 172930.187500, 0.000, 0.000, 0.000,5.727002E-6,7.586187E-6,9.32484E-6,2.9335448E-5,3.7270944E-5, 13:02:06.430
79715.640625, 76878.242188, 115664.375000, 102031.687500, 91488.007813, 92641.476563, 109717.828125, 172930.281250, 0.192, 0.258, 0.950,5.727002E-6,7.586187E-6,9.32484E-6,2.9335448E-5,3.7270944E-5, 13:02:06.430
79880.367188, 77041.703125, 115467.140625, 101473.765625, 91305.554688, 91926.171875, 109483.710938, 173096.843750, 0.000, 0.000, 0.000,5.727002E-6,7.586187E-6,9.32484E-6,2.9335448E-5,3.7270944E-5, 13:02:06.431
79920.875000, 77085.148438, 115422.414063, 101317.617188, 91343.125000, 91755.453125, 109464.960938, 173132.921875, 0.000, 0.000, 0.000,5.727002E-6,7.586187E-6,9.32484E-6,2.9335448E-5,3.7270944E-5, 13:02:06.431
79787.250000, 76949.500000, 115613.765625, 101856.335938, 91539.351563, 92465.046875, 109701.265625, 172975.734375, 0.000, 0.000, 0.000,5.727002E-6,7.586187E-6,9.32484E-6,2.9335448E-5,3.7270944E-5, 13:02:06.431
79740.562500, 76894.867188, 115706.531250, 102093.085938, 91539.640625, 92748.585938, 109753.250000, 172917.250000, 0.000, 0.000, 0.000,5.727002E-6,7.586187E-6,9.32484E-6,2.9335448E-5,3.7270944E-5, 13:02:06.432
79881.312500, 77038.570313, 115528.164063, 101587.242188, 91343.906250, 92087.328125, 109519.679688, 173077.078125, 0.000, 0.000, 0.000,5.727002E-6,7.586187E-6,9.32484E-6,2.9335448E-5,3.7270944E-5, 13:02:06.432
79957.195313, 77127.242188, 115411.734375, 101281.984375, 91311.273438, 91718.773438, 109430.468750, 173162.015625, 0.000, 0.000, 0.000,5.727002E-6,7.586187E-6,9.32484E-6,2.9335448E-5,3.7270944E-5, 13:02:06.433
79829.382813, 77001.242188, 115577.875000, 101762.593750, 91513.445313, 92344.039063, 109664.273438, 173016.328125, 0.000, 0.000, 0.000,5.727002E-6,7.586187E-6,9.32484E-6,2.9335448E-5,3.7270944E-5, 13:02:06.434
79721.742188, 76894.312500, 115723.250000, 102139.843750, 91568.367188, 92791.054688, 109788.906250, 172910.031250, 0.000, 0.000, 0.000,5.727002E-6,7.586187E-6,9.32484E-6,2.9335448E-5,3.7270944E-5, 13:02:06.434
79837.992188, 77018.632813, 115558.023438, 101701.414063, 91366.015625, 92218.171875, 109574.750000, 173049.609375, 0.000, 0.000, 0.000,5.727002E-6,7.586187E-6,9.32484E-6,2.9335448E-5,3.7270944E-5, 13:02:06.435
79934.773438, 77124.421875, 115418.796875, 101286.906250, 91300.414063, 91706.007813, 109438.695313, 173157.328125, 0.190, 0.258, 0.944,5.727002E-6,7.586187E-6,9.32484E-6,2.9335448E-5,3.7270944E-5, 13:02:06.435
79817.632813, 77006.960938, 115544.742188, 101645.757813, 91477.593750, 92192.093750, 109620.570313, 173034.890625, 0.000, 0.000, 0.000,5.727002E-6,7.586187E-6,9.32484E-6,2.9335448E-5,3.7270944E-5, 13:02:06.436
79695.054688, 76883.226563, 115679.039063, 102085.640625, 91559.093750, 92752.585938, 109772.695313, 172913.718750, 0.000, 0.000, 0.000,5.727002E-6,7.586187E-6,9.32484E-6,2.9335448E-5,3.7270944E-5, 13:02:06.436
79769.867188, 76963.695313, 115576.593750, 101784.523438, 91405.039063, 92344.062500, 109614.625000, 173005.000000, 0.000, 0.000, 0.000,5.727002E-6,7.586187E-6,9.32484E-6,2.9335448E-5,3.7270944E-5, 13:02:06.437
79885.000000, 77084.328125, 115395.390625, 101275.882813, 91274.617188, 91702.921875, 109422.382813, 173142.546875, 0.000, 0.000, 0.000,5.727002E-6,7.586187E-6,9.32484E-6,2.9335448E-5,3.7270944E-5, 13:02:06.437
79808.554688, 77010.812500, 115482.250000, 101523.921875, 91430.210938, 92049.195313, 109571.375000, 173065.734375, 0.000, 0.000, 0.000,5.727002E-6,7.586187E-6,9.32484E-6,2.9335448E-5,3.7270944E-5, 13:02:06.437
79669.148438, 76874.773438, 115681.382813, 102071.960938, 91575.406250, 92733.070313, 109777.679688, 172914.875000, 0.000, 0.000, 0.000,5.727002E-6,7.586187E-6,9.32484E-6,2.9335448E-5,3.7270944E-5, 13:02:06.438
79703.570313, 76908.257813, 115613.031250, 101894.468750, 91430.703125, 92472.984375, 109656.289063, 172967.468750, 0.000, 0.000, 0.000,5.727002E-6,7.586187E-6,9.32484E-6,2.9335448E-5,3.7270944E-5, 13:02:06.438
79832.828125, 77043.195313, 115413.765625, 101329.148438, 91267.507813, 91756.273438, 109434.429688, 173125.671875, 0.000, 0.000, 0.000,0.0,0.0,0.0,0.0,0.0, 13:02:06.860
79789.843750, 76994.648438, 115446.484375, 101427.429688, 91386.601563, 91914.546875, 109524.507813, 173086.671875, 0.184, 0.258, 0.946,0.0,0.0,0.0,0.0,0.0, 13:02:06.860
79627.390625, 76821.625000, 115668.507813, 102019.054688, 91582.937500, 92655.796875, 109769.281250, 172911.093750, 0.000, 0.000, 0.000,0.0,0.0,0.0,0.0,0.0, 13:02:06.860
79638.460938, 76840.492188, 115659.343750, 101993.843750, 91486.398438, 92589.125000, 109709.664063, 172933.343750, 0.000, 0.000, 0.000,0.0,0.0,0.0,0.0,0.0, 13:02:06.861
79783.585938, 76998.203125, 115444.789063, 101411.671875, 91296.703125, 91859.539063, 109472.289063, 173106.046875, 0.000, 0.000, 0.000,0.0,0.0,0.0,0.0,0.0, 13:02:06.861
79781.578125, 77002.046875, 115430.929688, 101364.843750, 91367.710938, 91842.085938, 109506.351563, 173106.343750, 0.000, 0.000, 0.000,0.0,0.0,0.0,0.0,0.0, 13:02:06.862
79625.179688, 76835.953125, 115621.476563, 101921.914063, 91549.476563, 92571.914063, 109739.953125, 172940.046875, 0.000, 0.000, 0.000,0.0,0.0,0.0,0.0,0.0, 13:02:06.862
79596.390625, 76804.390625, 115651.539063, 102038.929688, 91500.484375, 92703.882813, 109741.335938, 172921.046875, 0.000, 0.000, 0.000,0.0,0.0,0.0,0.0,0.0, 13:02:06.862
79735.242188, 76951.312500, 115470.601563, 101502.195313, 91316.039063, 92008.046875, 109511.609375, 173083.515625, 0.000, 0.000, 0.000,0.0,0.0,0.0,0.0,0.0, 13:02:06.863
79779.562500, 77002.960938, 115407.062500, 101308.296875, 91332.109375, 91781.445313, 109473.523438, 173136.062500, 0.000, 0.000, 0.000,0.0,0.0,0.0,0.0,0.0, 13:02:06.863
79630.367188, 76844.890625, 115587.101563, 101822.851563, 91533.812500, 92458.390625, 109704.773438, 172975.390625, 0.000, 0.000, 0.000,0.0,0.0,0.0,0.0,0.0, 13:02:06.863
79570.867188, 76776.250000, 115670.898438, 102077.085938, 91535.687500, 92755.757813, 109767.671875, 172908.484375, 0.178, 0.254, 0.950,0.0,0.0,0.0,0.0,0.0, 13:02:06.864
79705.890625, 76919.617188, 115500.039063, 101592.453125, 91340.781250, 92113.257813, 109543.125000, 173055.046875, 0.000, 0.000, 0.000,0.0,0.0,0.0,0.0,0.0, 13:02:06.864
79779.562500, 77002.023438, 115393.984375, 101276.781250, 91306.132813, 91716.312500, 109446.812500, 173134.140625, 0.000, 0.000, 0.000,0.0,0.0,0.0,0.0,0.0, 13:02:06.865
79654.101563, 76871.601563, 115548.164063, 101720.976563, 91494.156250, 92304.250000, 109657.500000, 172993.687500, 0.000, 0.000, 0.000,0.0,0.0,0.0,0.0,0.0, 13:02:06.865
79562.085938, 76771.781250, 115665.445313, 102088.773438, 91542.304688, 92758.125000, 109770.890625, 172896.062500, 0.000, 0.000, 0.000,0.0,0.0,0.0,0.0,0.0, 13:02:06.865
79665.906250, 76881.367188, 115536.187500, 101700.296875, 91371.828125, 92237.890625, 109579.000000, 173015.343750, 0.000, 0.000, 0.000,0.0,0.0,0.0,0.0,0.0, 13:02:06.866
79769.257813, 76988.500000, 115392.640625, 101266.007813, 91285.953125, 91692.750000, 109429.156250, 173131.390625, 0.000, 0.000, 0.000,0.0,0.0,0.0,0.0,0.0, 13:02:06.866
79660.812500, 76876.875000, 115526.375000, 101612.296875, 91477.234375, 92168.867188, 109621.578125, 173019.500000, 0.000, 0.000, 0.000,0.0,0.0,0.0,0.0,0.0, 13:02:06.866
79539.437500, 76751.039063, 115698.210938, 102093.734375, 91592.281250, 92777.507813, 109799.835938, 172897.015625, 0.000, 0.000, 0.000,0.0,0.0,0.0,0.0,0.0, 13:02:06.867
79610.921875, 76823.882813, 115600.492188, 101817.085938, 91439.757813, 92404.945313, 109647.328125, 172983.546875, 0.176, 0.248, 0.946,0.0,0.0,0.0,0.0,0.0, 13:02:06.867
79742.796875, 76962.460938, 115393.984375, 101282.101563, 91286.804688, 91744.117188, 109438.695313, 173135.000000, 0.000, 0.000, 0.000,0.0,0.0,0.0,0.0,0.0, 13:02:06.867
79684.101563, 76903.273438, 115469.195313, 101494.593750, 91443.914063, 92073.648438, 109586.398438, 173075.921875, 0.000, 0.000, 0.000,0.0,0.0,0.0,0.0,0.0, 13:02:06.868
79544.046875, 76758.164063, 115669.398438, 102046.039063, 91608.085938, 92784.968750, 109810.804688, 172923.125000, 0.000, 0.000, 0.000,0.0,0.0,0.0,0.0,0.0, 13:02:06.868
79587.023438, 76799.140625, 115610.460938, 101901.578125, 91471.875000, 92566.414063, 109696.789063, 172968.203125, 0.000, 0.000, 0.000,0.0,0.0,0.0,0.0,0.0, 13:02:06.868
79729.250000, 76948.601563, 115422.773438, 101346.070313, 91311.054688, 91848.367188, 109466.414063, 173118.687500, 0.000, 0.000, 0.000,0.0,0.0,0.0,0.0,0.0, 13:02:06.868
79709.242188, 76933.273438, 115451.945313, 101412.296875, 91413.398438, 91956.859375, 109537.875000, 173091.671875, 0.000, 0.000, 0.000,0.0,0.0,0.0,0.0,0.0, 13:02:06.869
79559.710938, 76775.757813, 115648.570313, 101978.914063, 91586.539063, 92671.203125, 109762.640625, 172928.437500, 0.000, 0.000, 0.000,0.0,0.0,0.0,0.0,0.0, 13:02:06.869
79566.015625, 76784.367188, 115636.054688, 101980.234375, 91498.695313, 92629.359375, 109707.859375, 172933.609375, 0.000, 0.000, 0.000,0.0,0.0,0.0,0.0,0.0, 13:02:06.869
79710.562500, 76939.593750, 115449.570313, 101426.804688, 91317.023438, 91902.593750, 109471.507813, 173081.937500, 0.000, 0.000, 0.000,0.0,0.0,0.0,0.0,0.0, 13:02:06.870
79719.195313, 76949.718750, 115439.875000, 101355.210938, 91379.648438, 91835.109375, 109488.945313, 173098.093750, 0.160, 0.240, 0.948,0.0,0.0,0.0,0.0,0.0, 13:02:06.870
79562.617188, 76782.421875, 115634.421875, 101905.398438, 91574.890625, 92554.007813, 109722.765625, 172939.515625, 0.000, 0.000, 0.000,0.0,0.0,0.0,0.0,0.0, 13:02:06.870
79519.812500, 76736.375000, 115673.781250, 102046.687500, 91536.562500, 92714.500000, 109731.210938, 172903.812500, 0.000, 0.000, 0.000,0.0,0.0,0.0,0.0,0.0, 13:02:06.871
79668.031250, 76884.703125, 115474.539063, 101500.226563, 91338.765625, 92012.875000, 109497.640625, 173076.171875, 0.000, 0.000, 0.000,0.0,0.0,0.0,0.0,0.0, 13:02:06.871
79724.687500, 76952.046875, 115391.593750, 101273.445313, 91342.679688, 91747.585938, 109456.531250, 173141.250000, 0.000, 0.000, 0.000,0.0,0.0,0.0,0.0,0.0, 13:02:06.871
79577.843750, 76806.335938, 115559.742188, 101769.078125, 91539.710938, 92407.406250, 109685.328125, 172981.062500, 0.000, 0.000, 0.000,0.0,0.0,0.0,0.0,0.0, 13:02:06.872
79513.710938, 76731.164063, 115656.640625, 102053.101563, 91575.812500, 92749.835938, 109763.867188, 172908.750000, 0.000, 0.000, 0.000,0.0,0.0,0.0,0.0,0.0, 13:02:06.872
79648.515625, 76870.257813, 115507.304688, 101598.484375, 91410.296875, 92141.820313, 109559.015625, 173048.468750, 0.000, 0.000, 0.000,0.0,0.0,0.0,0.0,0.0, 13:02:06.872
79736.742188, 76965.031250, 115401.117188, 101256.773438, 91369.320313, 91706.429688, 109452.398438, 173134.531250, 0.000, 0.000, 0.000,0.0,0.0,0.0,0.0,0.0, 13:02:06.873
79625.179688, 76845.250000, 115543.453125, 101670.640625, 91558.195313, 92269.203125, 109654.570313, 173004.218750, 0.144, 0.242, 0.954,0.0,0.0,0.0,0.0,0.0, 13:02:06.873
79529.718750, 76742.140625, 115668.507813, 102064.453125, 91623.953125, 92764.007813, 109785.867188, 172896.859375, 0.000, 0.000, 0.000,0.0,0.0,0.0,0.0,0.0, 13:02:06.873
79628.648438, 76847.578125, 115545.351563, 101707.250000, 91453.078125, 92282.187500, 109607.320313, 173007.687500, 0.000, 0.000, 0.000,0.0,0.0,0.0,0.0,0.0, 13:02:06.874
79748.406250, 76975.093750, 115411.195313, 101274.476563, 91367.085938, 91732.046875, 109454.835938, 173133.750000, 0.000, 0.000, 0.000,0.0,0.0,0.0,0.0,0.0, 13:02:06.874
79666.304688, 76892.367188, 115516.539063, 101576.515625, 91528.312500, 92156.304688, 109615.367188, 173043.906250, 0.000, 0.000, 0.000,0.0,0.0,0.0,0.0,0.0, 13:02:06.874
79538.593750, 76755.906250, 115677.960938, 102057.031250, 91637.273438, 92770.734375, 109794.492188, 172907.031250, 0.000, 0.000, 0.000,0.0,0.0,0.0,0.0,0.0, 13:02:06.875
79601.664063, 76817.492188, 115603.398438, 101821.203125, 91489.601563, 92439.234375, 109660.132813, 172985.484375, 0.000, 0.000, 0.000,0.0,0.0,0.0,0.0,0.0, 13:02:06.875
79734.054688, 76958.953125, 115441.328125, 101312.046875, 91354.031250, 91793.203125, 109466.031250, 173138.796875, 0.000, 0.000, 0.000,0.0,0.0,0.0,0.0,0.0, 13:02:06.875
79685.460938, 76908.843750, 115501.429688, 101479.109375, 91477.593750, 92065.804688, 109579.242188, 173086.343750, 0.000, 0.000, 0.000,0.0,0.0,0.0,0.0,0.0, 13:02:06.876
79532.015625, 76749.875000, 115668.421875, 102000.218750, 91609.273438, 92753.500000, 109778.710938, 172927.781250, 0.000, 0.000, 0.000,0.0,0.0,0.0,0.0,0.0, 13:02:06.876
79569.054688, 76785.343750, 115613.992188, 101879.492188, 91494.156250, 92575.937500, 109689.078125, 172972.250000, 0.138, 0.254, 0.954,0.0,0.0,0.0,0.0,0.0, 13:02:06.876
79728.710938, 76944.515625, 115409.296875, 101318.937500, 91342.835938, 91859.117188, 109473.406250, 173147.578125, 0.000, 0.000, 0.000,0.0,0.0,0.0,0.0,0.0, 13:02:06.877
79710.875000, 76936.218750, 115429.789063, 101361.875000, 91463.421875, 91955.007813, 109549.156250, 173121.156250, 0.000, 0.000, 0.000,0.0,0.0,0.0,0.0,0.0, 13:02:06.877
79551.062500, 76772.117188, 115641.726563, 101934.101563, 91663.648438, 92702.179688, 109785.039063, 172942.531250, 0.000, 0.000, 0.000,0.0,0.0,0.0,0.0,0.0, 13:02:06.877
79555.085938, 76777.296875, 115633.257813, 101954.820313, 91574.601563, 92708.906250, 109732.484375, 172940.671875, 0.000, 0.000, 0.000,0.0,0.0,0.0,0.0,0.0, 13:02:06.878
79706.515625, 76935.664063, 115426.015625, 101392.156250, 91381.390625, 91974.968750, 109493.343750, 173104.468750, 0.000, 0.000, 0.000,0.0,0.0,0.0,0.0,0.0, 13:02:06.878
79716.328125, 76943.578125, 115418.929688, 101299.976563, 91451.289063, 91878.226563, 109513.242188, 173116.375000, 0.000, 0.000, 0.000,0.0,0.0,0.0,0.0,0.0, 13:02:06.878
79572.679688, 76794.468750, 115625.726563, 101848.445313, 91657.281250, 92606.875000, 109756.609375, 172962.281250, 0.000, 0.000, 0.000,0.0,0.0,0.0,0.0,0.0, 13:02:06.879
79527.210938, 76748.109375, 115685.117188, 102024.687500, 91619.820313, 92808.171875, 109777.953125, 172920.750000, 0.000, 0.000, 0.000,0.0,0.0,0.0,0.0,0.0, 13:02:06.879
79671.359375, 76898.132813, 115493.429688, 101497.007813, 91412.484375, 92120.632813, 109540.601563, 173078.515625, 0.000, 0.000, 0.000,0.0,0.0,0.0,0.0,0.0, 13:02:06.879
79734.617188, 76960.515625, 115429.632813, 101259.101563, 91422.187500, 91845.953125, 109489.414063, 173144.046875, 0.134, 0.258, 0.948,0.0,0.0,0.0,0.0,0.0, 13:02:06.880
79596.367188, 76817.398438, 115595.257813, 101732.820313, 91611.460938, 92512.976563, 109709.000000, 172995.015625, 0.000, 0.000, 0.000,0.0,0.0,0.0,0.0,0.0, 13:02:06.880
79514.476563, 76727.921875, 115684.218750, 102030.320313, 91624.578125, 92906.320313, 109782.984375, 172911.375000, 0.000, 0.000, 0.000,0.0,0.0,0.0,0.0,0.0, 13:02:06.881
79641.140625, 76862.484375, 115526.867188, 101588.656250, 91446.992188, 92340.062500, 109578.195313, 173052.656250, 0.000, 0.000, 0.000,0.0,0.0,0.0,0.0,0.0, 13:02:06.881
79735.507813, 76959.828125, 115424.875000, 101235.156250, 91409.156250, 91912.117188, 109473.609375, 173152.390625, 0.000, 0.000, 0.000,0.0,0.0,0.0,0.0,0.0, 13:02:06.881
79613.554688, 76835.054688, 115573.960938, 101628.929688, 91587.765625, 92465.523438, 109670.976563, 173021.140625, 0.000, 0.000, 0.000,0.0,0.0,0.0,0.0,0.0, 13:02:06.882
79510.296875, 76731.570313, 115688.984375, 102020.156250, 91636.156250, 92977.484375, 109794.539063, 172913.890625, 0.000, 0.000, 0.000,0.0,0.0,0.0,0.0,0.0, 13:02:06.882
79604.414063, 76827.726563, 115589.000000, 101701.437500, 91487.835938, 92537.515625, 109634.273438, 173020.250000, 0.000, 0.000, 0.000,0.0,0.0,0.0,0.0,0.0, 13:02:06.883
79722.593750, 76952.585938, 115443.539063, 101246.492188, 91391.500000, 91949.398438, 109467.218750, 173146.015625, 0.000, 0.000, 0.000,0.0,0.0,0.0,0.0,0.0, 13:02:06.883
79645.070313, 76874.976563, 115546.867188, 101522.335938, 91548.875000, 92337.984375, 109624.570313, 173048.453125, 0.144, 0.268, 0.954,0.0,0.0,0.0,0.0,0.0, 13:02:06.883
79514.476563, 76736.890625, 115714.867188, 102013.890625, 91661.257813, 92961.484375, 109805.867188, 172902.265625, 0.000, 0.000, 0.000,0.0,0.0,0.0,0.0,0.0, 13:02:06.884
79575.648438, 76800.968750, 115642.421875, 101803.562500, 91525.695313, 92650.343750, 109683.851563, 172976.875000, 0.000, 0.000, 0.000,0.0,0.0,0.0,0.0,0.0, 13:02:06.884
79719.148438, 76951.625000, 115441.640625, 101264.437500, 91372.382813, 91959.367188, 109472.562500, 173136.062500, 0.000, 0.000, 0.000,0.0,0.0,0.0,0.0,0.0, 13:02:06.885
79673.171875, 76903.453125, 115489.914063, 101412.226563, 91494.226563, 92192.046875, 109582.906250, 173082.312500, 0.000, 0.000, 0.000,0.0,0.0,0.0,0.0,0.0, 13:02:06.885
79520.593750, 76741.601563, 115670.273438, 101956.671875, 91646.796875, 92900.687500, 109801.132813, 172919.953125, 0.000, 0.000, 0.000,0.0,0.0,0.0,0.0,0.0, 13:02:06.886
79540.000000, 76761.187500, 115649.398438, 101888.453125, 91546.796875, 92781.687500, 109725.382813, 172946.218750, 0.000, 0.000, 0.000,0.0,0.0,0.0,0.0,0.0, 13:02:06.886
79701.468750, 76928.640625, 115442.757813, 101322.328125, 91367.468750, 92058.156250, 109493.859375, 173121.250000, 0.000, 0.000, 0.000,0.0,0.0,0.0,0.0,0.0, 13:02:06.886
79695.320313, 76924.039063, 115442.953125, 101324.570313, 91462.148438, 92104.945313, 109550.835938, 173117.515625, 0.000, 0.000, 0.000,0.0,0.0,0.0,0.0,0.0, 13:02:06.887
79546.656250, 76765.992188, 115637.882813, 101880.921875, 91650.171875, 92838.054688, 109788.945313, 172932.562500, 0.000, 0.000, 0.000,0.0,0.0,0.0,0.0,0.0, 13:02:06.887
79531.906250, 76752.515625, 115651.742188, 101948.960938, 91582.445313, 92903.281250, 109773.031250, 172942.609375, 0.150, 0.270, 0.956,0.0,0.0,0.0,0.0,0.0, 13:02:06.887
79667.109375, 76896.500000, 115483.460938, 101416.164063, 91405.914063, 92216.656250, 109554.656250, 173106.859375, 0.000, 0.000, 0.000,0.0,0.0,0.0,0.0,0.0, 13:02:06.888
79691.406250, 76924.062500, 115454.421875, 101282.054688, 91438.164063, 92073.289063, 109546.726563, 173129.359375, 0.000, 0.000, 0.000,0.0,0.0,0.0,0.0,0.0, 13:02:06.888
79558.726563, 76781.367188, 115620.585938, 101791.359375, 91619.726563, 92747.781250, 109763.085938, 172979.515625, 0.000, 0.000, 0.000,0.0,0.0,0.0,0.0,0.0, 13:02:06.888
79513.781250, 76735.414063, 115675.726563, 101984.882813, 91613.406250, 92973.039063, 109800.015625, 172935.484375, 0.000, 0.000, 0.000,0.0,0.0,0.0,0.0,0.0, 13:02:06.889
79641.429688, 76867.445313, 115524.718750, 101502.328125, 91449.406250, 92333.132813, 109597.281250, 173074.843750, 0.000, 0.000, 0.000,0.0,0.0,0.0,0.0,0.0, 13:02:06.889
79710.789063, 76939.218750, 115431.804688, 101223.085938, 91420.085938, 91998.812500, 109517.421875, 173145.531250, 0.000, 0.000, 0.000,0.0,0.0,0.0,0.0,0.0, 13:02:06.889
79576.921875, 76806.109375, 115583.234375, 101679.625000, 91607.593750, 92627.835938, 109731.859375, 173001.687500, 0.000, 0.000, 0.000,0.0,0.0,0.0,0.0,0.0, 13:02:06.890
79488.921875, 76716.078125, 115691.710938, 102014.632813, 91640.046875, 93044.742188, 109828.351563, 172911.234375, 0.000, 0.000, 0.000,0.0,0.0,0.0,0.0,0.0, 13:02:06.890
79613.867188, 76836.265625, 115554.804688, 101605.726563, 91467.382813, 92504.125000, 109646.906250, 173049.703125, 0.162, 0.274, 0.960,0.0,0.0,0.0,0.0,0.0, 13:02:06.890
79713.468750, 76944.648438, 115429.609375, 101210.460938, 91400.679688, 92030.265625, 109521.132813, 173156.031250, 0.000, 0.000, 0.000,0.0,0.0,0.0,0.0,0.0, 13:02:06.890
79598.156250, 76835.750000, 115555.453125, 101567.593750, 91569.882813, 92546.031250, 109699.765625, 173028.203125, 0.000, 0.000, 0.000,0.0,0.0,0.0,0.0,0.0, 13:02:06.891
79488.921875, 76716.859375, 115717.703125, 102012.820313, 91660.296875, 93101.984375, 109856.875000, 172905.093750, 0.000, 0.000, 0.000,0.0,0.0,0.0,0.0,0.0, 13:02:06.891
79583.562500, 76811.296875, 115621.414063, 101709.640625, 91507.500000, 92677.125000, 109700.476563, 173008.046875, 0.000, 0.000, 0.000,0.0,0.0,0.0,0.0,0.0, 13:02:06.891
79701.492188, 76934.164063, 115448.078125, 101218.171875, 91395.875000, 92060.101563, 109515.921875, 173143.000000, 0.000, 0.000, 0.000,0.0,0.0,0.0,0.0,0.0, 13:02:06.892
79619.546875, 76851.265625, 115526.171875, 101456.171875, 91541.140625, 92403.132813, 109651.773438, 173054.281250, 0.000, 0.000, 0.000,0.0,0.0,0.0,0.0,0.0, 13:02:06.892
79485.570313, 76710.671875, 115713.210938, 101976.320313, 91680.437500, 93065.578125, 109848.492188, 172906.921875, 0.000, 0.000, 0.000,0.0,0.0,0.0,0.0,0.0, 13:02:06.892
79551.171875, 76779.828125, 115638.468750, 101791.898438, 91545.726563, 92809.648438, 109728.039063, 172987.718750, 0.000, 0.000, 0.000,0.0,0.0,0.0,0.0,0.0, 13:02:06.893
79687.117188, 76922.945313, 115459.320313, 101265.312500, 91406.921875, 92140.171875, 109528.375000, 173142.734375, 0.000, 0.000, 0.000,0.0,0.0,0.0,0.0,0.0, 13:02:06.893
79650.390625, 76884.765625, 115510.546875, 101383.531250, 91528.312500, 92324.929688, 109621.710938, 173097.765625, 0.150, 0.278, 0.960,0.0,0.0,0.0,0.0,0.0, 13:02:06.893
79513.867188, 76738.250000, 115688.734375, 101922.500000, 91681.601563, 93023.734375, 109826.656250, 172940.375000, 0.000, 0.000, 0.000,0.0,0.0,0.0,0.0,0.0, 13:02:06.893
79531.859375, 76755.460938, 115677.226563, 101887.476563, 91591.992188, 92955.289063, 109766.171875, 172962.578125, 0.000, 0.000, 0.000,0.0,0.0,0.0,0.0,0.0, 13:02:06.894
79668.296875, 76900.593750, 115488.710938, 101334.671875, 91426.679688, 92259.859375, 109544.867188, 173119.843750, 0.000, 0.000, 0.000,0.0,0.0,0.0,0.0,0.0, 13:02:06.894
79681.328125, 76909.664063, 115478.359375, 101305.187500, 91498.406250, 92273.851563, 109585.570313, 173128.531250, 0.000, 0.000, 0.000,0.0,0.0,0.0,0.0,0.0, 13:02:06.894
79543.460938, 76759.617188, 115667.882813, 101859.218750, 91688.640625, 93004.242188, 109820.015625, 172971.046875, 0.000, 0.000, 0.000,0.0,0.0,0.0,0.0,0.0, 13:02:06.895
79514.742188, 76735.953125, 115679.882813, 101946.796875, 91623.734375, 93090.742188, 109802.515625, 172944.093750, 0.000, 0.000, 0.000,0.0,0.0,0.0,0.0,0.0, 13:02:06.895
79645.210938, 76879.406250, 115507.593750, 101420.390625, 91450.171875, 92405.593750, 109584.992188, 173091.250000, 0.000, 0.000, 0.000,0.0,0.0,0.0,0.0,0.0, 13:02:06.895
79685.328125, 76924.781250, 115455.609375, 101251.656250, 91473.171875, 92218.242188, 109558.773438, 173132.984375, 0.000, 0.000, 0.000,0.0,0.0,0.0,0.0,0.0, 13:02:06.896
79548.156250, 76781.234375, 115636.320313, 101766.531250, 91665.304688, 92898.179688, 109785.398438, 172978.562500, 0.134, 0.270, 0.950,0.0,0.0,0.0,0.0,0.0, 13:02:06.896
79493.414063, 76721.843750, 115716.695313, 102004.570313, 91662.179688, 93167.453125, 109841.765625, 172919.062500, 0.000, 0.000, 0.000,0.0,0.0,0.0,0.0,0.0, 13:02:06.897
79616.796875, 76854.546875, 115547.023438, 101523.765625, 91473.773438, 92527.812500, 109632.039063, 173065.218750, 0.000, 0.000, 0.000,0.0,0.0,0.0,0.0,0.0, 13:02:06.897
79696.195313, 76939.820313, 115455.164063, 101232.343750, 91454.039063, 92164.867188, 109553.023438, 173145.640625, 0.000, 0.000, 0.000,0.0,0.0,0.0,0.0,0.0, 13:02:06.897
79573.257813, 76809.578125, 115599.125000, 101665.812500, 91637.585938, 92748.109375, 109751.085938, 173006.875000, 0.000, 0.000, 0.000,0.0,0.0,0.0,0.0,0.0, 13:02:06.898
79478.304688, 76707.609375, 115723.851563, 102030.031250, 91693.359375, 93186.210938, 109869.390625, 172908.750000, 0.000, 0.000, 0.000,0.0,0.0,0.0,0.0,0.0, 13:02:06.898
79589.062500, 76824.257813, 115585.539063, 101634.875000, 91515.437500, 92645.164063, 109683.046875, 173034.234375, 0.000, 0.000, 0.000,0.0,0.0,0.0,0.0,0.0, 13:02:06.898
79704.125000, 76941.921875, 115449.125000, 101227.492188, 91446.125000, 92135.500000, 109554.968750, 173154.890625, 0.000, 0.000, 0.000,0.0,0.0,0.0,0.0,0.0, 13:02:06.898
79605.531250, 76836.710938, 115569.062500, 101569.406250, 91618.164063, 92609.757813, 109731.593750, 173046.687500, 0.000, 0.000, 0.000,0.0,0.0,0.0,0.0,0.0, 13:02:06.899
79491.671875, 76716.703125, 115714.304688, 102020.351563, 91710.789063, 93168.843750, 109890.468750, 172922.828125, 0.000, 0.000, 0.000,0.0,0.0,0.0,0.0,0.0, 13:02:06.900
79561.789063, 76791.585938, 115623.515625, 101743.953125, 91567.429688, 92781.125000, 109745.656250, 173005.109375, 0.132, 0.266, 0.946,0.0,0.0,0.0,0.0,0.0, 13:02:06.900
79682.359375, 76922.875000, 115463.070313, 101253.351563, 91455.000000, 92168.468750, 109565.875000, 173143.718750, 0.000, 0.000, 0.000,0.0,0.0,0.0,0.0,0.0, 13:02:06.900
79621.406250, 76856.828125, 115535.421875, 101466.585938, 91597.218750, 92491.718750, 109694.851563, 173071.765625, 0.000, 0.000, 0.000,0.0,0.0,0.0,0.0,0.0, 13:02:06.900
79491.695313, 76721.171875, 115709.117188, 101981.281250, 91728.468750, 93145.125000, 109891.703125, 172927.078125, 0.000, 0.000, 0.000,0.0,0.0,0.0,0.0,0.0, 13:02:06.901
79534.632813, 76768.921875, 115646.421875, 101824.062500, 91595.476563, 92915.039063, 109785.328125, 172979.500000, 0.000, 0.000, 0.000,0.0,0.0,0.0,0.0,0.0, 13:02:07.340
79677.570313, 76920.710938, 115465.953125, 101288.085938, 91448.898438, 92236.125000, 109577.632813, 173139.000000, 0.000, 0.000, 0.000,0.0,0.0,0.0,0.0,0.0, 13:02:07.340
79649.523438, 76889.398438, 115504.359375, 101380.781250, 91567.117188, 92384.273438, 109664.406250, 173106.078125, 0.000, 0.000, 0.000,0.0,0.0,0.0,0.0,0.0, 13:02:07.341
79485.414063, 76722.960938, 115681.203125, 101926.406250, 91719.578125, 93081.085938, 109874.820313, 172931.078125, 0.000, 0.000, 0.000,0.0,0.0,0.0,0.0,0.0, 13:02:07.341
79498.914063, 76736.242188, 115664.062500, 101908.390625, 91617.765625, 93024.289063, 109821.226563, 172950.437500, 0.000, 0.000, 0.000,0.0,0.0,0.0,0.0,0.0, 13:02:07.341
79651.492188, 76892.945313, 115474.468750, 101356.085938, 91446.171875, 92316.164063, 109601.640625, 173120.562500, 0.000, 0.000, 0.000,0.0,0.0,0.0,0.0,0.0, 13:02:07.341
79661.546875, 76904.906250, 115459.742188, 101294.125000, 91514.679688, 92269.156250, 109621.156250, 173126.281250, 0.134, 0.268, 0.946,0.0,0.0,0.0,0.0,0.0, 13:02:07.342
79514.562500, 76754.726563, 115640.945313, 101835.351563, 91701.937500, 92981.757813, 109853.500000, 172968.343750, 0.000, 0.000, 0.000,0.0,0.0,0.0,0.0,0.0, 13:02:07.342
79477.703125, 76719.656250, 115685.851563, 101975.562500, 91667.968750, 93128.296875, 109865.500000, 172927.546875, 0.000, 0.000, 0.000,0.0,0.0,0.0,0.0,0.0, 13:02:07.342
79609.960938, 76857.273438, 115517.812500, 101459.664063, 91485.734375, 92443.015625, 109642.500000, 173080.296875, 0.000, 0.000, 0.000,0.0,0.0,0.0,0.0,0.0, 13:02:07.342
79673.414063, 76921.984375, 115439.312500, 101249.015625, 91483.656250, 92209.882813, 109604.234375, 173150.265625, 0.000, 0.000, 0.000,0.0,0.0,0.0,0.0,0.0, 13:02:07.342
79541.828125, 76784.296875, 115603.242188, 101749.875000, 91674.468750, 92878.085938, 109824.289063, 172997.203125, 0.000, 0.000, 0.000,0.0,0.0,0.0,0.0,0.0, 13:02:07.342
79471.601563, 76717.375000, 115666.718750, 102004.304688, 91676.593750, 93186.453125, 109876.210938, 172925.656250, 0.000, 0.000, 0.000,0.0,0.0,0.0,0.0,0.0, 13:02:07.343
79590.226563, 76846.210938, 115503.101563, 101542.335938, 91502.609375, 92589.039063, 109669.593750, 173059.359375, 0.000, 0.000, 0.000,0.0,0.0,0.0,0.0,0.0, 13:02:07.343
79671.984375, 76929.046875, 115404.664063, 101220.406250, 91464.875000, 92199.601563, 109566.414063, 173150.109375, 0.000, 0.000, 0.000,0.0,0.0,0.0,0.0,0.0, 13:02:07.343
79557.031250, 76808.343750, 115552.304688, 101643.210938, 91658.109375, 92775.492188, 109768.500000, 173022.093750, 0.148, 0.272, 0.942,0.0,0.0,0.0,0.0,0.0, 13:02:07.344
79459.601563, 76707.453125, 115693.031250, 102035.062500, 91720.984375, 93246.781250, 109894.335938, 172914.921875, 0.000, 0.000, 0.000,0.0,0.0,0.0,0.0,0.0, 13:02:07.344
79561.789063, 76814.000000, 115558.539063, 101659.820313, 91539.468750, 92732.179688, 109710.046875, 173032.875000, 0.000, 0.000, 0.000,0.0,0.0,0.0,0.0,0.0, 13:02:07.344
79677.976563, 76932.265625, 115410.453125, 101226.820313, 91457.500000, 92190.976563, 109569.078125, 173162.593750, 0.000, 0.000, 0.000,0.0,0.0,0.0,0.0,0.0, 13:02:07.344
79587.453125, 76835.078125, 115513.945313, 101537.531250, 91622.679688, 92623.476563, 109734.390625, 173061.437500, 0.000, 0.000, 0.000,0.0,0.0,0.0,0.0,0.0, 13:02:07.345
79461.835938, 76703.070313, 115670.476563, 102004.890625, 91724.671875, 93208.000000, 109893.375000, 172926.765625, 0.000, 0.000, 0.000,0.0,0.0,0.0,0.0,0.0, 13:02:07.345
79546.500000, 76789.664063, 115582.117188, 101752.023438, 91582.156250, 92849.679688, 109752.250000, 173021.093750, 0.000, 0.000, 0.000,0.0,0.0,0.0,0.0,0.0, 13:02:07.346
79657.007813, 76910.984375, 115429.343750, 101257.625000, 91473.617188, 92213.773438, 109572.765625, 173139.093750, 0.000, 0.000, 0.000,0.0,0.0,0.0,0.0,0.0, 13:02:07.346
79591.632813, 76844.914063, 115503.773438, 101441.398438, 91605.312500, 92485.796875, 109690.468750, 173058.515625, 0.000, 0.000, 0.000,0.0,0.0,0.0,0.0,0.0, 13:02:07.347
79455.578125, 76703.046875, 115676.148438, 101960.812500, 91734.257813, 93153.218750, 109886.132813, 172943.953125, 0.000, 0.000, 0.000,0.0,0.0,0.0,0.0,0.0, 13:02:07.347
79496.210938, 76745.851563, 115627.960938, 101835.750000, 91617.046875, 92967.875000, 109796.546875, 172985.468750, 0.160, 0.272, 0.944,0.0,0.0,0.0,0.0,0.0, 13:02:07.348
79648.585938, 76904.281250, 115445.507813, 101288.539063, 91473.820313, 92262.054688, 109589.343750, 173143.000000, 0.000, 0.000, 0.000,0.0,0.0,0.0,0.0,0.0, 13:02:07.348
79628.375000, 76884.656250, 115480.437500, 101349.531250, 91583.679688, 92354.234375, 109660.203125, 173110.875000, 0.000, 0.000, 0.000,0.0,0.0,0.0,0.0,0.0, 13:02:07.348
79473.726563, 76724.351563, 115668.640625, 101898.601563, 91747.093750, 93056.812500, 109874.242188, 172948.468750, 0.000, 0.000, 0.000,0.0,0.0,0.0,0.0,0.0, 13:02:07.349
79478.578125, 76724.867188, 115657.351563, 101908.328125, 91663.851563, 93033.343750, 109831.195313, 172962.484375, 0.000, 0.000, 0.000,0.0,0.0,0.0,0.0,0.0, 13:02:07.349
79624.687500, 76875.781250, 115476.726563, 101364.507813, 91502.140625, 92318.890625, 109620.796875, 173120.421875, 0.000, 0.000, 0.000,0.0,0.0,0.0,0.0,0.0, 13:02:07.349
79644.601563, 76895.500000, 115464.679688, 101282.546875, 91567.515625, 92227.140625, 109643.171875, 173138.484375, 0.000, 0.000, 0.000,0.0,0.0,0.0,0.0,0.0, 13:02:07.349
79494.531250, 76737.828125, 115646.515625, 101812.546875, 91748.226563, 92917.984375, 109861.187500, 172973.796875, 0.000, 0.000, 0.000,0.0,0.0,0.0,0.0,0.0, 13:02:07.350
79464.828125, 76710.648438, 115682.945313, 101960.968750, 91711.148438, 93082.046875, 109870.843750, 172945.515625, 0.000, 0.000, 0.000,0.0,0.0,0.0,0.0,0.0, 13:02:07.350
79607.859375, 76860.273438, 115509.359375, 101450.406250, 91540.250000, 92406.625000, 109658.187500, 173101.890625, 0.166, 0.276, 0.942,0.0,0.0,0.0,0.0,0.0, 13:02:07.350
79657.570313, 76912.843750, 115456.835938, 101236.679688, 91557.484375, 92144.078125, 109618.937500, 173151.890625, 0.000, 0.000, 0.000,0.0,0.0,0.0,0.0,0.0, 13:02:07.350
79524.820313, 76777.500000, 115602.640625, 101702.828125, 91726.171875, 92772.453125, 109822.296875, 173011.750000, 0.000, 0.000, 0.000,0.0,0.0,0.0,0.0,0.0, 13:02:07.351
79442.968750, 76689.882813, 115706.820313, 102003.007813, 91759.695313, 93142.820313, 109911.460938, 172928.531250, 0.000, 0.000, 0.000,0.0,0.0,0.0,0.0,0.0, 13:02:07.351
79566.304688, 76815.546875, 115556.500000, 101555.257813, 91587.765625, 92559.289063, 109710.585938, 173060.812500, 0.000, 0.000, 0.000,0.0,0.0,0.0,0.0,0.0, 13:02:07.352
79653.007813, 76902.601563, 115437.859375, 101199.304688, 91539.242188, 92127.625000, 109602.085938, 173150.265625, 0.000, 0.000, 0.000,0.0,0.0,0.0,0.0,0.0, 13:02:07.352
79552.179688, 76798.804688, 115567.945313, 101596.585938, 91721.812500, 92668.164063, 109794.984375, 173039.421875, 0.000, 0.000, 0.000,0.0,0.0,0.0,0.0,0.0, 13:02:07.352
79445.609375, 76690.507813, 115701.945313, 102002.335938, 91792.937500, 93166.898438, 109922.765625, 172924.953125, 0.000, 0.000, 0.000,0.0,0.0,0.0,0.0,0.0, 13:02:07.352
79533.468750, 76780.968750, 115587.484375, 101657.695313, 91625.742188, 92705.195313, 109750.500000, 173034.859375, 0.000, 0.000, 0.000,0.0,0.0,0.0,0.0,0.0, 13:02:07.352
79647.242188, 76901.531250, 115439.890625, 101207.507813, 91535.664063, 92136.906250, 109595.226563, 173160.953125, 0.000, 0.000, 0.000,0.0,0.0,0.0,0.0,0.0, 13:02:07.353
79563.734375, 76813.484375, 115545.640625, 101503.492188, 91703.281250, 92544.757813, 109754.257813, 173059.875000, 0.170, 0.276, 0.942,0.0,0.0,0.0,0.0,0.0, 13:02:07.353
79437.804688, 76679.914063, 115691.375000, 101979.070313, 91803.257813, 93155.453125, 109912.351563, 172922.281250, 0.000, 0.000, 0.000,0.0,0.0,0.0,0.0,0.0, 13:02:07.353
79506.468750, 76756.359375, 115609.117188, 101757.921875, 91668.679688, 92838.484375, 109778.375000, 172996.593750, 0.000, 0.000, 0.000,0.0,0.0,0.0,0.0,0.0, 13:02:07.353
79641.523438, 76897.062500, 115442.375000, 101249.953125, 91544.000000, 92182.148438, 109594.937500, 173146.171875, 0.000, 0.000, 0.000,0.0,0.0,0.0,0.0,0.0, 13:02:07.353
79586.625000, 76839.796875, 115515.625000, 101420.007813, 91681.531250, 92440.304688, 109713.468750, 173086.671875, 0.000, 0.000, 0.000,0.0,0.0,0.0,0.0,0.0, 13:02:07.354
79448.242188, 76694.734375, 115685.070313, 101946.054688, 91810.679688, 93137.546875, 109905.109375, 172931.328125, 0.000, 0.000, 0.000,0.0,0.0,0.0,0.0,0.0, 13:02:07.354
79477.257813, 76725.000000, 115636.703125, 101844.851563, 91689.937500, 93003.078125, 109819.257813, 172966.593750, 0.000, 0.000, 0.000,0.0,0.0,0.0,0.0,0.0, 13:02:07.354
79632.804688, 76881.414063, 115459.984375, 101304.070313, 91542.687500, 92315.203125, 109618.515625, 173132.781250, 0.000, 0.000, 0.000,0.0,0.0,0.0,0.0,0.0, 13:02:07.354
79617.625000, 76864.492188, 115496.976563, 101345.398438, 91644.789063, 92391.734375, 109688.859375, 173116.531250, 0.000, 0.000, 0.000,0.0,0.0,0.0,0.0,0.0, 13:02:07.354
79468.851563, 76713.398438, 115666.585938, 101878.554688, 91793.781250, 93095.031250, 109896.148438, 172959.671875, 0.000, 0.000, 0.000,0.0,0.0,0.0,0.0,0.0, 13:02:07.354
79464.898438, 76708.500000, 115682.476563, 101930.078125, 91731.085938, 93142.195313, 109876.210938, 172952.515625, 0.170, 0.276, 0.946,0.0,0.0,0.0,0.0,0.0, 13:02:07.354
79599.523438, 76855.710938, 115491.882813, 101378.007813, 91549.007813, 92434.117188, 109648.203125, 173109.406250, 0.000, 0.000, 0.000,0.0,0.0,0.0,0.0,0.0, 13:02:07.355
79617.781250, 76878.625000, 115459.023438, 101255.726563, 91588.039063, 92308.007813, 109642.500000, 173134.796875, 0.000, 0.000, 0.000,0.0,0.0,0.0,0.0,0.0, 13:02:07.355
79473.078125, 76729.046875, 115642.648438, 101783.625000, 91771.031250, 93012.398438, 109867.250000, 172973.906250, 0.000, 0.000, 0.000,0.0,0.0,0.0,0.0,0.0, 13:02:07.355
79415.453125, 76667.460938, 115690.343750, 101959.312500, 91740.296875, 93226.976563, 109892.820313, 172923.500000, 0.000, 0.000, 0.000,0.0,0.0,0.0,0.0,0.0, 13:02:07.355
79552.359375, 76802.984375, 115530.710938, 101463.640625, 91566.687500, 92580.500000, 109685.750000, 173071.187500, 0.000, 0.000, 0.000,0.0,0.0,0.0,0.0,0.0, 13:02:07.355
79629.140625, 76882.554688, 115442.195313, 101198.164063, 91552.164063, 92271.843750, 109618.585938, 173151.562500, 0.000, 0.000, 0.000,0.0,0.0,0.0,0.0,0.0, 13:02:07.355
79492.281250, 76745.453125, 115600.289063, 101668.265625, 91736.828125, 92901.554688, 109825.898438, 172998.156250, 0.000, 0.000, 0.000,0.0,0.0,0.0,0.0,0.0, 13:02:07.355
79407.992188, 76657.515625, 115699.867188, 101987.789063, 91758.515625, 93289.632813, 109906.023438, 172904.703125, 0.000, 0.000, 0.000,0.0,0.0,0.0,0.0,0.0, 13:02:07.356
79524.796875, 76776.789063, 115556.835938, 101566.812500, 91590.000000, 92739.039063, 109717.671875, 173039.203125, 0.162, 0.282, 0.946,0.0,0.0,0.0,0.0,0.0, 13:02:07.356
79617.226563, 76873.210938, 115451.585938, 101202.367188, 91546.039063, 92302.914063, 109614.226563, 173147.578125, 0.000, 0.000, 0.000,0.0,0.0,0.0,0.0,0.0, 13:02:07.356
79513.601563, 76764.203125, 115570.273438, 101568.156250, 91708.937500, 92816.710938, 109784.750000, 173032.265625, 0.000, 0.000, 0.000,0.0,0.0,0.0,0.0,0.0, 13:02:07.356
79407.406250, 76649.898438, 115710.062500, 101991.656250, 91782.984375, 93344.992188, 109920.085938, 172907.796875, 0.000, 0.000, 0.000,0.0,0.0,0.0,0.0,0.0, 13:02:07.357
79505.195313, 76751.171875, 115606.343750, 101676.539063, 91632.757813, 92912.218750, 109770.953125, 173019.234375, 0.000, 0.000, 0.000,0.0,0.0,0.0,0.0,0.0, 13:02:07.357
79624.289063, 76876.187500, 115472.148438, 101226.710938, 91548.312500, 92333.468750, 109623.570313, 173150.109375, 0.000, 0.000, 0.000,0.0,0.0,0.0,0.0,0.0, 13:02:07.357
79535.570313, 76786.820313, 115567.367188, 101487.375000, 91697.960938, 92689.554688, 109763.398438, 173059.406250, 0.000, 0.000, 0.000,0.0,0.0,0.0,0.0,0.0, 13:02:07.358
79407.453125, 76648.195313, 115712.671875, 101971.695313, 91799.015625, 93297.671875, 109925.960938, 172918.812500, 0.000, 0.000, 0.000,0.0,0.0,0.0,0.0,0.0, 13:02:07.358
79469.210938, 76709.265625, 115638.000000, 101773.859375, 91667.921875, 93021.765625, 109806.382813, 172986.312500, 0.000, 0.000, 0.000,0.0,0.0,0.0,0.0,0.0, 13:02:07.358
79611.187500, 76861.968750, 115471.117188, 101257.312500, 91544.335938, 92367.101563, 109618.226563, 173139.875000, 0.000, 0.000, 0.000,0.0,0.0,0.0,0.0,0.0, 13:02:07.358
79567.203125, 76818.898438, 115525.656250, 101391.445313, 91667.898438, 92572.359375, 109722.203125, 173094.046875, 0.154, 0.286, 0.940,0.0,0.0,0.0,0.0,0.0, 13:02:07.358
79422.789063, 76670.210938, 115705.859375, 101927.546875, 91811.976563, 93261.804688, 109918.632813, 172933.406250, 0.000, 0.000, 0.000,0.0,0.0,0.0,0.0,0.0, 13:02:07.358
79442.476563, 76688.093750, 115682.726563, 101868.453125, 91716.132813, 93172.531250, 109843.242188, 172959.953125, 0.000, 0.000, 0.000,0.0,0.0,0.0,0.0,0.0, 13:02:07.358
79590.265625, 76839.101563, 115496.156250, 101316.812500, 91552.695313, 92490.085938, 109627.367188, 173127.578125, 0.000, 0.000, 0.000,0.0,0.0,0.0,0.0,0.0, 13:02:07.359
79583.828125, 76835.437500, 115495.726563, 101301.476563, 91628.671875, 92512.992188, 109670.437500, 173120.937500, 0.000, 0.000, 0.000,0.0,0.0,0.0,0.0,0.0, 13:02:07.359
79435.031250, 76684.585938, 115671.460938, 101838.882813, 91794.343750, 93219.867188, 109886.890625, 172957.593750, 0.000, 0.000, 0.000,0.0,0.0,0.0,0.0,0.0, 13:02:07.359
79419.703125, 76667.171875, 115699.867188, 101925.000000, 91745.390625, 93309.882813, 109885.109375, 172945.750000, 0.000, 0.000, 0.000,0.0,0.0,0.0,0.0,0.0, 13:02:07.359
79564.921875, 76819.656250, 115528.023438, 101395.062500, 91580.617188, 92642.765625, 109678.015625, 173110.031250, 0.000, 0.000, 0.000,0.0,0.0,0.0,0.0,0.0, 13:02:07.359
79594.421875, 76853.875000, 115486.226563, 101244.148438, 91615.867188, 92491.046875, 109662.546875, 173143.718750, 0.000, 0.000, 0.000,0.0,0.0,0.0,0.0,0.0, 13:02:07.360
79458.820313, 76711.992188, 115641.820313, 101745.718750, 91782.945313, 93160.414063, 109869.593750, 172992.187500, 0.154, 0.288, 0.948,0.0,0.0,0.0,0.0,0.0, 13:02:07.360
79403.921875, 76653.000000, 115718.460938, 101972.429688, 91781.312500, 93418.460938, 109922.835938, 172931.781250, 0.000, 0.000, 0.000,0.0,0.0,0.0,0.0,0.0, 13:02:07.360
79538.750000, 76794.671875, 115553.843750, 101482.437500, 91598.718750, 92780.570313, 109711.679688, 173077.531250, 0.000, 0.000, 0.000,0.0,0.0,0.0,0.0,0.0, 13:02:07.360
79610.179688, 76868.250000, 115484.375000, 101213.882813, 91586.648438, 92447.054688, 109643.750000, 173149.062500, 0.000, 0.000, 0.000,0.0,0.0,0.0,0.0,0.0, 13:02:07.360
79477.304688, 76731.500000, 115631.695313, 101654.765625, 91755.070313, 93015.414063, 109839.304688, 173010.187500, 0.000, 0.000, 0.000,0.0,0.0,0.0,0.0,0.0, 13:02:07.360
79387.914063, 76642.765625, 115730.734375, 101987.476563, 91787.007813, 93400.984375, 109929.921875, 172916.843750, 0.000, 0.000, 0.000,0.0,0.0,0.0,0.0,0.0, 13:02:07.361
79499.523438, 76757.968750, 115600.265625, 101590.304688, 91618.054688, 92850.195313, 109745.429688, 173044.453125, 0.000, 0.000, 0.000,0.0,0.0,0.0,0.0,0.0, 13:02:07.361
79603.296875, 76868.070313, 115469.960938, 101190.234375, 91543.976563, 92344.460938, 109618.585938, 173153.343750, 0.000, 0.000, 0.000,0.0,0.0,0.0,0.0,0.0, 13:02:07.361
79499.164063, 76760.851563, 115588.601563, 101539.414063, 91706.429688, 92829.898438, 109793.437500, 173042.031250, 0.000, 0.000, 0.000,0.0,0.0,0.0,0.0,0.0, 13:02:07.361
79380.453125, 76635.390625, 115734.804688, 101980.921875, 91791.640625, 93371.234375, 109926.257813, 172915.640625, 0.000, 0.000, 0.000,0.0,0.0,0.0,0.0,0.0, 13:02:07.361
79475.734375, 76733.398438, 115632.164063, 101683.085938, 91630.078125, 92945.125000, 109767.781250, 173010.515625, 0.160, 0.286, 0.940,0.0,0.0,0.0,0.0,0.0, 13:02:07.361
79608.398438, 76868.984375, 115484.843750, 101209.414063, 91525.406250, 92336.531250, 109613.640625, 173145.593750, 0.000, 0.000, 0.000,0.0,0.0,0.0,0.0,0.0, 13:02:07.361
79540.335938, 76796.765625, 115571.656250, 101447.234375, 91665.078125, 92680.921875, 109751.304688, 173075.812500, 0.000, 0.000, 0.000,0.0,0.0,0.0,0.0,0.0, 13:02:07.362
79390.625000, 76640.578125, 115722.953125, 101944.671875, 91775.570313, 93330.062500, 109927.867188, 172923.750000, 0.000, 0.000, 0.000,0.0,0.0,0.0,0.0,0.0, 13:02:07.362
79435.101563, 76686.976563, 115666.070313, 101777.773438, 91650.773438, 93103.039063, 109822.320313, 172973.140625, 0.000, 0.000, 0.000,0.0,0.0,0.0,0.0,0.0, 13:02:07.363
79592.125000, 76851.867188, 115485.875000, 101237.062500, 91501.578125, 92433.867188, 109621.914063, 173147.093750, 0.000, 0.000, 0.000,0.0,0.0,0.0,0.0,0.0, 13:02:07.363
79554.257813, 76812.593750, 115544.257813, 101350.765625, 91626.968750, 92619.054688, 109718.539063, 173107.640625, 0.000, 0.000, 0.000,0.0,0.0,0.0,0.0,0.0, 13:02:07.363
79404.523438, 76658.031250, 115724.164063, 101894.265625, 91779.500000, 93320.828125, 109913.804688, 172939.953125, 0.000, 0.000, 0.000,0.0,0.0,0.0,0.0,0.0, 13:02:07.363
79419.679688, 76674.617188, 115691.242188, 101852.406250, 91683.992188, 93251.898438, 109844.960938, 172958.828125, 0.000, 0.000, 0.000,0.0,0.0,0.0,0.0,0.0, 13:02:07.364
79549.945313, 76804.859375, 115541.257813, 101322.507813, 91549.921875, 92584.406250, 109653.968750, 173113.453125, 0.162, 0.292, 0.938,0.0,0.0,0.0,0.0,0.0, 13:02:07.364
79557.585938, 76814.718750, 115543.250000, 101279.859375, 91607.148438, 92564.093750, 109681.437500, 173105.515625, 0.000, 0.000, 0.000,0.0,0.0,0.0,0.0,0.0, 13:02:07.364
79428.640625, 76682.304688, 115696.132813, 101799.718750, 91751.828125, 93248.210938, 109881.773438, 172955.468750, 0.000, 0.000, 0.000,0.0,0.0,0.0,0.0,0.0, 13:02:07.365
79407.140625, 76656.734375, 115722.218750, 101913.890625, 91708.960938, 93364.773438, 109879.898438, 172930.500000, 0.000, 0.000, 0.000,0.0,0.0,0.0,0.0,0.0, 13:02:07.365
79549.945313, 76808.437500, 115556.304688, 101399.335938, 91549.210938, 92694.312500, 109676.671875, 173102.125000, 0.000, 0.000, 0.000,0.0,0.0,0.0,0.0,0.0, 13:02:07.365
79581.171875, 76842.140625, 115515.468750, 101222.578125, 91578.203125, 92502.867188, 109655.242188, 173166.578125, 0.000, 0.000, 0.000,0.0,0.0,0.0,0.0,0.0, 13:02:07.366
79448.359375, 76706.132813, 115684.890625, 101722.828125, 91759.984375, 93173.156250, 109866.445313, 173015.500000, 0.000, 0.000, 0.000,0.0,0.0,0.0,0.0,0.0, 13:02:07.366
79393.843750, 76651.195313, 115755.968750, 101966.398438, 91755.179688, 93460.085938, 109919.640625, 172949.171875, 0.000, 0.000, 0.000,0.0,0.0,0.0,0.0,0.0, 13:02:07.366
79516.507813, 76777.031250, 115611.421875, 101503.515625, 91593.843750, 92864.632813, 109726.031250, 173084.015625, 0.000, 0.000, 0.000,0.0,0.0,0.0,0.0,0.0, 13:02:07.367
79592.593750, 76854.437500, 115525.281250, 101198.992188, 91568.296875, 92509.867188, 109633.914063, 173133.593750, 0.000, 0.000, 0.000,0.0,0.0,0.0,0.0,0.0, 13:02:07.368
79471.757813, 76726.429688, 115671.812500, 101622.781250, 91740.007813, 93093.851563, 109819.054688, 173025.765625, 0.170, 0.298, 0.936,0.0,0.0,0.0,0.0,0.0, 13:02:07.368
79385.390625, 76636.375000, 115787.109375, 101980.523438, 91787.367188, 93539.296875, 109934.007813, 172954.593750, 0.000, 0.000, 0.000,0.0,0.0,0.0,0.0,0.0, 13:02:07.368
79491.335938, 76749.046875, 115667.992188, 101604.140625, 91630.796875, 93035.132813, 109767.335938, 173070.046875, 0.000, 0.000, 0.000,0.0,0.0,0.0,0.0,0.0, 13:02:07.369
79596.773438, 76865.835938, 115521.140625, 101173.132813, 91544.406250, 92505.687500, 109622.671875, 173177.109375, 0.000, 0.000, 0.000,0.0,0.0,0.0,0.0,0.0, 13:02:07.369
79497.531250, 76761.523438, 115628.031250, 101498.437500, 91702.210938, 92953.617188, 109774.890625, 173043.484375, 0.000, 0.000, 0.000,0.0,0.0,0.0,0.0,0.0, 13:02:07.369
79375.335938, 76631.101563, 115773.625000, 101954.171875, 91784.664063, 93514.796875, 109920.578125, 172911.296875, 0.000, 0.000, 0.000,0.0,0.0,0.0,0.0,0.0, 13:02:07.369
79457.789063, 76713.304688, 115677.781250, 101684.164063, 91642.304688, 93137.796875, 109780.164063, 173002.468750, 0.000, 0.000, 0.000,0.0,0.0,0.0,0.0,0.0, 13:02:07.370
79583.429688, 76846.007813, 115526.820313, 101194.437500, 91551.000000, 92527.367188, 109614.382813, 173146.750000, 0.000, 0.000, 0.000,0.0,0.0,0.0,0.0,0.0, 13:02:07.370
79519.789063, 76783.179688, 115590.835938, 101395.664063, 91688.773438, 92829.046875, 109723.523438, 173069.906250, 0.000, 0.000, 0.000,0.0,0.0,0.0,0.0,0.0, 13:02:07.370
79386.937500, 76642.500000, 115762.851563, 101921.960938, 91825.765625, 93481.359375, 109907.679688, 172950.625000, 0.000, 0.000, 0.000,0.0,0.0,0.0,0.0,0.0, 13:02:07.819
79433.468750, 76691.335938, 115709.593750, 101777.148438, 91709.273438, 93265.601563, 109809.179688, 172995.453125, 0.178, 0.312, 0.940,0.0,0.0,0.0,0.0,0.0, 13:02:07.819
79560.250000, 76823.523438, 115547.046875, 101237.507813, 91578.242188, 92594.492188, 109620.531250, 173137.812500, 0.000, 0.000, 0.000,0.0,0.0,0.0,0.0,0.0, 13:02:07.820
79539.101563, 76804.750000, 115587.148438, 101306.750000, 91675.992188, 92721.937500, 109695.429688, 173111.140625, 0.000, 0.000, 0.000,0.0,0.0,0.0,0.0,0.0, 13:02:07.820
79408.500000, 76666.328125, 115749.804688, 101838.585938, 91810.257813, 93410.750000, 109894.273438, 172963.890625, 0.000, 0.000, 0.000,0.0,0.0,0.0,0.0,0.0, 13:02:07.820
79413.890625, 76666.796875, 115727.984375, 101829.695313, 91727.062500, 93375.546875, 109847.734375, 172973.812500, 0.000, 0.000, 0.000,0.0,0.0,0.0,0.0,0.0, 13:02:07.820
79551.085938, 76812.593750, 115537.210938, 101276.531250, 91570.085938, 92671.156250, 109636.062500, 173132.984375, 0.000, 0.000, 0.000,0.0,0.0,0.0,0.0,0.0, 13:02:07.820
79571.335938, 76840.664063, 115529.281250, 101211.781250, 91638.750000, 92622.984375, 109666.234375, 173149.734375, 0.000, 0.000, 0.000,0.0,0.0,0.0,0.0,0.0, 13:02:07.820
79415.500000, 76674.796875, 115703.578125, 101748.625000, 91811.171875, 93320.226563, 109876.750000, 172980.796875, 0.000, 0.000, 0.000,0.0,0.0,0.0,0.0,0.0, 13:02:07.820
79372.250000, 76625.468750, 115751.500000, 101894.554688, 91780.039063, 93479.101563, 109888.812500, 172938.906250, 0.000, 0.000, 0.000,0.0,0.0,0.0,0.0,0.0, 13:02:07.821
79515.812500, 76774.867188, 115574.695313, 101365.625000, 91603.906250, 92809.289063, 109678.351563, 173098.562500, 0.190, 0.310, 0.932,0.0,0.0,0.0,0.0,0.0, 13:02:07.821
79572.117188, 76834.390625, 115527.445313, 101162.781250, 91628.757813, 92588.117188, 109647.593750, 173156.921875, 0.000, 0.000, 0.000,0.0,0.0,0.0,0.0,0.0, 13:02:07.821
79434.992188, 76694.468750, 115699.398438, 101652.625000, 91808.335938, 93233.414063, 109851.648438, 173005.890625, 0.000, 0.000, 0.000,0.0,0.0,0.0,0.0,0.0, 13:02:07.821
79360.265625, 76617.554688, 115787.109375, 101925.601563, 91808.421875, 93547.835938, 109907.882813, 172926.015625, 0.000, 0.000, 0.000,0.0,0.0,0.0,0.0,0.0, 13:02:07.821
79489.328125, 76748.195313, 115619.179688, 101463.148438, 91628.601563, 92938.617188, 109704.148438, 173066.625000, 0.000, 0.000, 0.000,0.0,0.0,0.0,0.0,0.0, 13:02:07.822
79575.914063, 76837.960938, 115508.984375, 101128.476563, 91595.679688, 92530.117188, 109614.250000, 173162.828125, 0.000, 0.000, 0.000,0.0,0.0,0.0,0.0,0.0, 13:02:07.822
79465.078125, 76728.085938, 115636.679688, 101538.273438, 91768.835938, 93067.320313, 109799.343750, 173044.562500, 0.000, 0.000, 0.000,0.0,0.0,0.0,0.0,0.0, 13:02:07.822
79358.210938, 76612.320313, 115747.703125, 101919.750000, 91820.562500, 93524.437500, 109907.906250, 172933.046875, 0.000, 0.000, 0.000,0.0,0.0,0.0,0.0,0.0, 13:02:07.822
79462.195313, 76719.585938, 115633.546875, 101560.132813, 91663.585938, 93041.773438, 109746.125000, 173049.296875, 0.000, 0.000, 0.000,0.0,0.0,0.0,0.0,0.0, 13:02:07.823
79574.734375, 76840.578125, 115510.281250, 101128.718750, 91585.734375, 92513.914063, 109617.015625, 173170.734375, 0.000, 0.000, 0.000,0.0,0.0,0.0,0.0,0.0, 13:02:07.823
79475.132813, 76737.046875, 115624.765625, 101435.703125, 91738.039063, 92954.460938, 109774.937500, 173064.437500, 0.188, 0.302, 0.930,0.0,0.0,0.0,0.0,0.0, 13:02:07.823
79350.367188, 76606.421875, 115777.250000, 101904.437500, 91822.859375, 93559.234375, 109919.640625, 172924.531250, 0.000, 0.000, 0.000,0.0,0.0,0.0,0.0,0.0, 13:02:07.823
79425.375000, 76679.265625, 115697.875000, 101660.335938, 91681.445313, 93245.398438, 109792.257813, 173000.656250, 0.000, 0.000, 0.000,0.0,0.0,0.0,0.0,0.0, 13:02:07.824
79569.929688, 76833.226563, 115533.640625, 101148.703125, 91563.492188, 92611.968750, 109620.304688, 173135.281250, 0.000, 0.000, 0.000,0.0,0.0,0.0,0.0,0.0, 13:02:07.824
79517.578125, 76780.359375, 115597.093750, 101329.570313, 91691.453125, 92877.773438, 109736.421875, 173117.109375, 0.000, 0.000, 0.000,0.0,0.0,0.0,0.0,0.0, 13:02:07.824
79365.765625, 76623.164063, 115771.593750, 101866.085938, 91818.484375, 93555.796875, 109924.398438, 172956.453125, 0.000, 0.000, 0.000,0.0,0.0,0.0,0.0,0.0, 13:02:07.824
79383.203125, 76646.007813, 115737.062500, 101762.820313, 91712.781250, 93397.742188, 109835.414063, 172983.625000, 0.000, 0.000, 0.000,0.0,0.0,0.0,0.0,0.0, 13:02:07.824
79534.968750, 76804.546875, 115549.437500, 101208.851563, 91565.148438, 92714.656250, 109629.421875, 173150.000000, 0.000, 0.000, 0.000,0.0,0.0,0.0,0.0,0.0, 13:02:07.824
79514.632813, 76783.312500, 115565.492188, 101245.820313, 91658.601563, 92812.375000, 109692.656250, 173128.203125, 0.000, 0.000, 0.000,0.0,0.0,0.0,0.0,0.0, 13:02:07.824
79365.117188, 76628.906250, 115734.203125, 101789.726563, 91807.304688, 93517.101563, 109894.335938, 172966.828125, 0.184, 0.294, 0.932,0.0,0.0,0.0,0.0,0.0, 13:02:07.824
79364.468750, 76628.390625, 115728.882813, 101819.476563, 91734.257813, 93530.554688, 109857.968750, 172964.078125, 0.000, 0.000, 0.000,0.0,0.0,0.0,0.0,0.0, 13:02:07.825
79500.679688, 76769.320313, 115543.179688, 101271.500000, 91574.937500, 92830.726563, 109649.742188, 173123.359375, 0.000, 0.000, 0.000,0.0,0.0,0.0,0.0,0.0, 13:02:07.825
79517.734375, 76787.492188, 115509.453125, 101160.171875, 91621.515625, 92718.765625, 109652.671875, 173144.234375, 0.000, 0.000, 0.000,0.0,0.0,0.0,0.0,0.0, 13:02:07.825
79370.617188, 76632.882813, 115689.898438, 101694.531250, 91795.437500, 93405.054688, 109862.109375, 172984.531250, 0.000, 0.000, 0.000,0.0,0.0,0.0,0.0,0.0, 13:02:07.825
79321.781250, 76583.085938, 115755.210938, 101874.687500, 91775.054688, 93611.382813, 109888.125000, 172934.640625, 0.000, 0.000, 0.000,0.0,0.0,0.0,0.0,0.0, 13:02:07.825
79460.335938, 76726.562500, 115587.687500, 101361.875000, 91606.320313, 92968.414063, 109685.523438, 173083.828125, 0.000, 0.000, 0.000,0.0,0.0,0.0,0.0,0.0, 13:02:07.825
79525.226563, 76795.695313, 115516.757813, 101122.281250, 91621.476563, 92702.718750, 109642.945313, 173160.796875, 0.000, 0.000, 0.000,0.0,0.0,0.0,0.0,0.0, 13:02:07.826
79387.289063, 76654.414063, 115681.875000, 101605.796875, 91814.078125, 93332.742188, 109853.476563, 173010.703125, 0.000, 0.000, 0.000,0.0,0.0,0.0,0.0,0.0, 13:02:07.826
79311.945313, 76575.710938, 115770.320313, 101904.843750, 91831.468750, 93680.093750, 109919.390625, 172922.968750, 0.000, 0.000, 0.000,0.0,0.0,0.0,0.0,0.0, 13:02:07.826
79435.351563, 76703.296875, 115620.023438, 101467.304688, 91671.406250, 93110.460938, 109728.132813, 173059.250000, 0.184, 0.296, 0.930,0.0,0.0,0.0,0.0,0.0, 13:02:07.826
79523.125000, 76792.320313, 115520.335938, 101116.429688, 91642.796875, 92682.289063, 109637.046875, 173148.593750, 0.000, 0.000, 0.000,0.0,0.0,0.0,0.0,0.0, 13:02:07.826
79407.343750, 76673.429688, 115648.187500, 101503.046875, 91809.671875, 93195.773438, 109817.046875, 173030.921875, 0.000, 0.000, 0.000,0.0,0.0,0.0,0.0,0.0, 13:02:07.826
79297.976563, 76562.078125, 115770.117188, 101905.937500, 91871.210938, 93679.601563, 109933.296875, 172918.156250, 0.000, 0.000, 0.000,0.0,0.0,0.0,0.0,0.0, 13:02:07.826
79389.171875, 76653.718750, 115665.242188, 101576.429688, 91727.242188, 93237.929688, 109781.570313, 173024.218750, 0.000, 0.000, 0.000,0.0,0.0,0.0,0.0,0.0, 13:02:07.826
79506.671875, 76778.890625, 115527.085938, 101127.757813, 91645.789063, 92678.867188, 109639.976563, 173153.734375, 0.000, 0.000, 0.000,0.0,0.0,0.0,0.0,0.0, 13:02:07.827
79433.359375, 76709.171875, 115601.117188, 101390.367188, 91777.421875, 93038.101563, 109776.921875, 173071.031250, 0.000, 0.000, 0.000,0.0,0.0,0.0,0.0,0.0, 13:02:07.827
79299.132813, 76566.210938, 115749.445313, 101876.609375, 91887.882813, 93637.351563, 109940.203125, 172930.390625, 0.000, 0.000, 0.000,0.0,0.0,0.0,0.0,0.0, 13:02:07.827
79358.101563, 76622.312500, 115684.109375, 101670.843750, 91779.609375, 93349.351563, 109827.906250, 172997.218750, 0.000, 0.000, 0.000,0.0,0.0,0.0,0.0,0.0, 13:02:07.827
79494.398438, 76766.171875, 115516.921875, 101149.531250, 91659.695313, 92703.679688, 109645.359375, 173146.421875, 0.184, 0.304, 0.938,0.0,0.0,0.0,0.0,0.0, 13:02:07.827
79449.179688, 76718.648438, 115571.054688, 101296.515625, 91776.304688, 92921.828125, 109743.953125, 173093.828125, 0.000, 0.000, 0.000,0.0,0.0,0.0,0.0,0.0, 13:02:07.827
79310.046875, 76571.976563, 115746.429688, 101836.757813, 91912.445313, 93584.937500, 109932.203125, 172942.125000, 0.000, 0.000, 0.000,0.0,0.0,0.0,0.0,0.0, 13:02:07.827
79338.031250, 76599.335938, 115717.437500, 101754.726563, 91806.632813, 93445.375000, 109855.492188, 172972.796875, 0.000, 0.000, 0.000,0.0,0.0,0.0,0.0,0.0, 13:02:07.828
79483.828125, 76750.968750, 115552.414063, 101213.257813, 91670.335938, 92763.734375, 109663.804688, 173135.328125, 0.000, 0.000, 0.000,0.0,0.0,0.0,0.0,0.0, 13:02:07.828
79476.007813, 76746.007813, 115570.406250, 101229.078125, 91749.703125, 92817.742188, 109716.125000, 173126.125000, 0.000, 0.000, 0.000,0.0,0.0,0.0,0.0,0.0, 13:02:07.828
79320.234375, 76583.601563, 115749.640625, 101777.054688, 91890.500000, 93521.257813, 109915.750000, 172955.578125, 0.000, 0.000, 0.000,0.0,0.0,0.0,0.0,0.0, 13:02:07.828
79308.101563, 76568.804688, 115766.812500, 101843.507813, 91826.796875, 93574.367188, 109895.250000, 172946.750000, 0.000, 0.000, 0.000,0.0,0.0,0.0,0.0,0.0, 13:02:07.828
79453.226563, 76719.429688, 115588.468750, 101303.578125, 91666.156250, 92889.578125, 109686.804688, 173110.968750, 0.000, 0.000, 0.000,0.0,0.0,0.0,0.0,0.0, 13:02:07.828
79483.226563, 76751.773438, 115559.382813, 101177.156250, 91713.539063, 92753.007813, 109684.859375, 173146.234375, 0.000, 0.000, 0.000,0.0,0.0,0.0,0.0,0.0, 13:02:07.829
79342.562500, 76607.828125, 115722.109375, 101696.234375, 91877.648438, 93411.828125, 109885.281250, 172987.250000, 0.188, 0.304, 0.938,0.0,0.0,0.0,0.0,0.0, 13:02:07.829
79290.867188, 76548.820313, 115765.242188, 101887.851563, 91846.468750, 93625.351563, 109904.171875, 172934.281250, 0.000, 0.000, 0.000,0.0,0.0,0.0,0.0,0.0, 13:02:07.829
79423.281250, 76688.429688, 115610.929688, 101400.804688, 91689.359375, 93004.781250, 109707.296875, 173080.812500, 0.000, 0.000, 0.000,0.0,0.0,0.0,0.0,0.0, 13:02:07.829
79489.414063, 76759.445313, 115536.992188, 101142.132813, 91697.156250, 92699.382813, 109649.898438, 173157.125000, 0.000, 0.000, 0.000,0.0,0.0,0.0,0.0,0.0, 13:02:07.829
79361.921875, 76624.953125, 115692.554688, 101600.234375, 91878.921875, 93304.648438, 109847.218750, 173016.750000, 0.000, 0.000, 0.000,0.0,0.0,0.0,0.0,0.0, 13:02:07.829
79278.843750, 76534.406250, 115805.414063, 101930.343750, 91906.773438, 93692.851563, 109926.992188, 172921.875000, 0.000, 0.000, 0.000,0.0,0.0,0.0,0.0,0.0, 13:02:07.830
79401.148438, 76664.445313, 115658.273438, 101511.828125, 91735.710938, 93147.742188, 109739.710938, 173051.250000, 0.000, 0.000, 0.000,0.0,0.0,0.0,0.0,0.0, 13:02:07.830
79498.156250, 76769.835938, 115542.804688, 101132.789063, 91688.953125, 92689.687500, 109634.140625, 173154.468750, 0.000, 0.000, 0.000,0.0,0.0,0.0,0.0,0.0, 13:02:07.830
79393.148438, 76662.367188, 115667.101563, 101499.515625, 91854.289063, 93188.085938, 109809.445313, 173038.859375, 0.000, 0.000, 0.000,0.0,0.0,0.0,0.0,0.0, 13:02:07.830
79286.484375, 76550.742188, 115803.648438, 101931.351563, 91917.054688, 93717.757813, 109941.343750, 172920.890625, 0.000, 0.000, 0.000,0.0,0.0,0.0,0.0,0.0, 13:02:07.830
79377.945313, 76645.265625, 115686.500000, 101608.656250, 91758.335938, 93289.945313, 109785.750000, 173025.718750, 0.190, 0.308, 0.942,0.0,0.0,0.0,0.0,0.0, 13:02:07.830
79494.554688, 76767.312500, 115542.867188, 101138.804688, 91676.101563, 92712.710938, 109636.109375, 173159.375000, 0.000, 0.000, 0.000,0.0,0.0,0.0,0.0,0.0, 13:02:07.830
79419.703125, 76696.078125, 115634.218750, 101391.734375, 91821.273438, 93077.757813, 109769.953125, 173080.296875, 0.000, 0.000, 0.000,0.0,0.0,0.0,0.0,0.0, 13:02:07.831
79279.218750, 76547.632813, 115810.484375, 101897.195313, 91938.171875, 93720.328125, 109945.273438, 172931.390625, 0.000, 0.000, 0.000,0.0,0.0,0.0,0.0,0.0, 13:02:07.831
79330.609375, 76596.382813, 115753.554688, 101705.484375, 91809.320313, 93461.265625, 109822.945313, 172978.781250, 0.000, 0.000, 0.000,0.0,0.0,0.0,0.0,0.0, 13:02:07.831
79465.296875, 76737.226563, 115595.257813, 101182.453125, 91689.132813, 92810.343750, 109637.156250, 173124.765625, 0.000, 0.000, 0.000,0.0,0.0,0.0,0.0,0.0, 13:02:07.831
79432.554688, 76704.320313, 115626.773438, 101290.078125, 91792.039063, 92985.132813, 109723.007813, 173095.906250, 0.000, 0.000, 0.000,0.0,0.0,0.0,0.0,0.0, 13:02:07.831
79287.828125, 76550.273438, 115787.640625, 101824.421875, 91921.632813, 93662.273438, 109909.578125, 172928.781250, 0.000, 0.000, 0.000,0.0,0.0,0.0,0.0,0.0, 13:02:07.831
79306.843750, 76572.242188, 115761.398438, 101772.718750, 91819.601563, 93573.007813, 109845.789063, 172947.015625, 0.000, 0.000, 0.000,0.0,0.0,0.0,0.0,0.0, 13:02:07.831
79449.968750, 76722.226563, 115583.281250, 101225.679688, 91675.898438, 92896.398438, 109650.296875, 173111.421875, 0.182, 0.304, 0.938,0.0,0.0,0.0,0.0,0.0, 13:02:07.831
79450.148438, 76721.289063, 115593.984375, 101211.757813, 91760.773438, 92919.796875, 109696.234375, 173114.515625, 0.000, 0.000, 0.000,0.0,0.0,0.0,0.0,0.0, 13:02:07.832
79301.593750, 76569.117188, 115775.257813, 101757.968750, 91927.132813, 93618.804688, 109903.968750, 172952.296875, 0.000, 0.000, 0.000,0.0,0.0,0.0,0.0,0.0, 13:02:07.832
79284.164063, 76550.273438, 115796.585938, 101845.898438, 91864.664063, 93701.304688, 109889.867188, 172939.156250, 0.000, 0.000, 0.000,0.0,0.0,0.0,0.0,0.0, 13:02:07.832
79422.921875, 76696.679688, 115606.054688, 101300.875000, 91692.218750, 93022.304688, 109678.734375, 173102.609375, 0.000, 0.000, 0.000,0.0,0.0,0.0,0.0,0.0, 13:02:07.832
79457.210938, 76737.625000, 115568.882813, 101144.609375, 91732.921875, 92861.523438, 109666.437500, 173141.687500, 0.000, 0.000, 0.000,0.0,0.0,0.0,0.0,0.0, 13:02:07.832
79311.007813, 76585.367188, 115743.945313, 101659.375000, 91909.140625, 93540.484375, 109876.007813, 172983.359375, 0.000, 0.000, 0.000,0.0,0.0,0.0,0.0,0.0, 13:02:07.832
79257.179688, 76525.125000, 115812.367188, 101889.843750, 91892.156250, 93809.484375, 109920.156250, 172923.546875, 0.000, 0.000, 0.000,0.0,0.0,0.0,0.0,0.0, 13:02:07.832
79391.585938, 76665.921875, 115637.015625, 101394.796875, 91712.375000, 93189.937500, 109715.007813, 173072.093750, 0.000, 0.000, 0.000,0.0,0.0,0.0,0.0,0.0, 13:02:07.832
79461.765625, 76744.085938, 115547.804688, 101106.796875, 91698.835938, 92849.296875, 109648.109375, 173149.453125, 0.000, 0.000, 0.000,0.0,0.0,0.0,0.0,0.0, 13:02:07.833
79339.976563, 76617.039063, 115694.210938, 101551.593750, 91873.062500, 93426.531250, 109841.187500, 173013.765625, 0.172, 0.302, 0.934,0.0,0.0,0.0,0.0,0.0, 13:02:07.833
79257.203125, 76526.695313, 115803.312500, 101904.687500, 91915.156250, 93843.101563, 109938.664063, 172919.031250, 0.000, 0.000, 0.000,0.0,0.0,0.0,0.0,0.0, 13:02:07.833
79366.125000, 76638.515625, 115666.226563, 101504.562500, 91751.492188, 93324.093750, 109761.750000, 173030.640625, 0.000, 0.000, 0.000,0.0,0.0,0.0,0.0,0.0, 13:02:07.833
79469.750000, 76749.515625, 115544.273438, 101102.234375, 91690.671875, 92833.671875, 109637.585938, 173133.968750, 0.000, 0.000, 0.000,0.0,0.0,0.0,0.0,0.0, 13:02:07.833
79373.656250, 76648.015625, 115687.078125, 101464.648438, 91868.171875, 93318.218750, 109811.906250, 173051.765625, 0.000, 0.000, 0.000,0.0,0.0,0.0,0.0,0.0, 13:02:07.833
79255.796875, 76522.398438, 115822.625000, 101903.546875, 91931.250000, 93856.070313, 109938.148438, 172921.031250, 0.000, 0.000, 0.000,0.0,0.0,0.0,0.0,0.0, 13:02:07.833
79340.531250, 76613.484375, 115692.085938, 101596.898438, 91764.007813, 93444.617188, 109778.820313, 173016.953125, 0.000, 0.000, 0.000,0.0,0.0,0.0,0.0,0.0, 13:02:07.834
79461.765625, 76737.648438, 115554.468750, 101131.226563, 91682.804688, 92852.273438, 109630.031250, 173147.312500, 0.000, 0.000, 0.000,0.0,0.0,0.0,0.0,0.0, 13:02:07.834
79395.492188, 76667.375000, 115638.804688, 101358.921875, 91813.562500, 93168.593750, 109762.281250, 173075.546875, 0.000, 0.000, 0.000,0.0,0.0,0.0,0.0,0.0, 13:02:07.834
79256.734375, 76524.343750, 115806.773438, 101877.953125, 91917.343750, 93809.242188, 109943.015625, 172926.515625, 0.170, 0.300, 0.934,0.0,0.0,0.0,0.0,0.0, 13:02:07.834
79301.484375, 76572.648438, 115748.101563, 101722.023438, 91779.921875, 93588.781250, 109841.367188, 172982.828125, 0.000, 0.000, 0.000,0.0,0.0,0.0,0.0,0.0, 13:02:07.834
79446.296875, 76721.648438, 115569.242188, 101180.734375, 91638.507813, 92929.742188, 109647.617188, 173148.750000, 0.000, 0.000, 0.000,0.0,0.0,0.0,0.0,0.0, 13:02:07.834
79413.156250, 76688.070313, 115609.523438, 101276.195313, 91748.992188, 93097.515625, 109732.820313, 173114.390625, 0.000, 0.000, 0.000,0.0,0.0,0.0,0.0,0.0, 13:02:07.834
79267.281250, 76535.585938, 115788.828125, 101820.375000, 91884.843750, 93789.414063, 109925.898438, 172943.421875, 0.000, 0.000, 0.000,0.0,0.0,0.0,0.0,0.0, 13:02:07.835
79283.218750, 76552.062500, 115770.921875, 101795.492188, 91790.835938, 93724.796875, 109863.804688, 172959.375000, 0.000, 0.000, 0.000,0.0,0.0,0.0,0.0,0.0, 13:02:07.835
79426.585938, 76702.468750, 115604.625000, 101259.234375, 91647.578125, 93042.914063, 109670.773438, 173125.515625, 0.000, 0.000, 0.000,0.0,0.0,0.0,0.0,0.0, 13:02:07.835
79433.132813, 76708.101563, 115613.093750, 101218.281250, 91718.257813, 93027.820313, 109705.554688, 173124.296875, 0.000, 0.000, 0.000,0.0,0.0,0.0,0.0,0.0, 13:02:07.835
79285.414063, 76550.632813, 115785.968750, 101746.968750, 91869.375000, 93706.960938, 109903.703125, 172955.531250, 0.000, 0.000, 0.000,0.0,0.0,0.0,0.0,0.0, 13:02:07.835
79253.250000, 76515.046875, 115809.500000, 101859.375000, 91816.421875, 93810.085938, 109897.734375, 172933.718750, 0.000, 0.000, 0.000,0.0,0.0,0.0,0.0,0.0, 13:02:07.835
79392.859375, 76659.398438, 115634.195313, 101334.695313, 91654.460938, 93140.500000, 109692.570313, 173090.250000, 0.170, 0.302, 0.934,0.0,0.0,0.0,0.0,0.0, 13:02:07.836
79435.171875, 76705.531250, 115594.140625, 101154.734375, 91691.523438, 92935.398438, 109673.632813, 173131.953125, 0.000, 0.000, 0.000,0.0,0.0,0.0,0.0,0.0, 13:02:07.836
79305.125000, 76571.867188, 115758.320313, 101649.937500, 91867.546875, 93577.320313, 109883.320313, 172991.703125, 0.000, 0.000, 0.000,0.0,0.0,0.0,0.0,0.0, 13:02:07.836
79239.414063, 76502.460938, 115825.820313, 101893.109375, 91863.632813, 93860.625000, 109926.031250, 172925.187500, 0.000, 0.000, 0.000,0.0,0.0,0.0,0.0,0.0, 13:02:07.836
79359.617188, 76628.484375, 115674.054688, 101431.296875, 91710.367188, 93259.273438, 109730.992188, 173061.859375, 0.000, 0.000, 0.000,0.0,0.0,0.0,0.0,0.0, 13:02:07.836
79439.953125, 76714.179688, 115581.359375, 101121.367188, 91694.031250, 92885.039063, 109656.648438, 173150.328125, 0.000, 0.000, 0.000,0.0,0.0,0.0,0.0,0.0, 13:02:07.836
79319.453125, 76590.414063, 115727.117188, 101546.007813, 91860.304688, 93440.992188, 109844.109375, 173017.531250, 0.000, 0.000, 0.000,0.0,0.0,0.0,0.0,0.0, 13:02:07.836
79225.953125, 76493.765625, 115832.367188, 101907.968750, 91896.132813, 93875.289063, 109941.765625, 172918.343750, 0.000, 0.000, 0.000,0.0,0.0,0.0,0.0,0.0, 13:02:07.837
79330.562500, 76606.820313, 115701.945313, 101533.937500, 91743.937500, 93384.179688, 109770.734375, 173032.359375, 0.000, 0.000, 0.000,0.0,0.0,0.0,0.0,0.0, 13:02:07.837
79444.710938, 76732.687500, 115576.507813, 101122.281250, 91680.210938, 92885.289063, 109646.101563, 173154.390625, 0.176, 0.310, 0.928,0.0,0.0,0.0,0.0,0.0, 13:02:07.837
79352.984375, 76642.789063, 115684.000000, 101436.835938, 91828.476563, 93320.406250, 109800.640625, 173047.765625, 0.000, 0.000, 0.000,0.0,0.0,0.0,0.0,0.0, 13:02:07.837
79229.195313, 76517.687500, 115831.718750, 101894.070313, 91919.039063, 93892.546875, 109948.984375, 172919.890625, 0.000, 0.000, 0.000,0.0,0.0,0.0,0.0,0.0, 13:02:07.837
79309.148438, 76604.726563, 115729.640625, 101623.703125, 91772.210938, 93536.835938, 109806.453125, 173018.281250, 0.000, 0.000, 0.000,0.0,0.0,0.0,0.0,0.0, 13:02:07.837
79434.609375, 76742.187500, 115580.617188, 101139.070313, 91678.898438, 92929.585938, 109646.031250, 173166.140625, 0.000, 0.000, 0.000,0.0,0.0,0.0,0.0,0.0, 13:02:07.837
79372.625000, 76678.484375, 115675.484375, 101356.687500, 91830.375000, 93213.562500, 109773.640625, 173083.312500, 0.000, 0.000, 0.000,0.103545964,0.3105952,0.1229908,0.15413436,0.07197475, 13:02:08.300
79233.000000, 76534.648438, 115843.765625, 101875.289063, 91945.617188, 93854.125000, 109945.968750, 172923.343750, 0.000, 0.000, 0.000,0.103545964,0.3105952,0.1229908,0.15413436,0.07197475, 13:02:08.300
79275.039063, 76580.765625, 115790.187500, 101748.515625, 91827.312500, 93666.210938, 109856.273438, 172973.265625, 0.000, 0.000, 0.000,0.103545964,0.3105952,0.1229908,0.15413436,0.07197475, 13:02:08.300
79420.796875, 76731.500000, 115616.296875, 101215.757813, 91689.890625, 93003.570313, 109669.750000, 173139.625000, 0.000, 0.000, 0.000,0.103545964,0.3105952,0.1229908,0.15413436,0.07197475, 13:02:08.300
79396.187500, 76704.054688, 115638.242188, 101270.210938, 91785.757813, 93117.093750, 109736.242188, 173113.546875, 0.000, 0.000, 0.000,0.103545964,0.3105952,0.1229908,0.15413436,0.07197475, 13:02:08.301
79252.015625, 76554.476563, 115811.960938, 101811.234375, 91934.976563, 93809.710938, 109935.015625, 172956.265625, 0.174, 0.320, 0.926,0.103545964,0.3105952,0.1229908,0.15413436,0.07197475, 13:02:08.301
79258.632813, 76561.000000, 115800.851563, 101816.148438, 91854.132813, 93781.367188, 109887.632813, 172967.875000, 0.000, 0.000, 0.000,0.103545964,0.3105952,0.1229908,0.15413436,0.07197475, 13:02:08.301
79408.125000, 76716.906250, 115621.210938, 101272.148438, 91697.382813, 93086.921875, 109682.484375, 173125.250000, 0.000, 0.000, 0.000,0.103545964,0.3105952,0.1229908,0.15413436,0.07197475, 13:02:08.301
79415.835938, 76727.101563, 115617.945313, 101206.210938, 91760.703125, 93042.039063, 109700.320313, 173133.906250, 0.000, 0.000, 0.000,0.103545964,0.3105952,0.1229908,0.15413436,0.07197475, 13:02:08.301
79269.117188, 76576.093750, 115805.703125, 101746.968750, 91929.750000, 93748.710938, 109913.382813, 172975.656250, 0.000, 0.000, 0.000,0.103545964,0.3105952,0.1229908,0.15413436,0.07197475, 13:02:08.301
79232.281250, 76539.453125, 115846.046875, 101893.195313, 91889.960938, 93915.101563, 109924.890625, 172942.921875, 0.000, 0.000, 0.000,0.103545964,0.3105952,0.1229908,0.15413436,0.07197475, 13:02:08.301
79372.468750, 76687.398438, 115673.875000, 101380.492188, 91713.382813, 93265.085938, 109721.601563, 173101.453125, 0.000, 0.000, 0.000,0.103545964,0.3105952,0.1229908,0.15413436,0.07197475, 13:02:08.302
79430.382813, 76752.085938, 115605.585938, 101161.171875, 91719.281250, 93016.242188, 109678.820313, 173156.906250, 0.000, 0.000, 0.000,0.103545964,0.3105952,0.1229908,0.15413436,0.07197475, 13:02:08.302
79297.773438, 76619.007813, 115769.421875, 101646.859375, 91904.156250, 93644.171875, 109886.468750, 173003.437500, 0.000, 0.000, 0.000,0.103545964,0.3105952,0.1229908,0.15413436,0.07197475, 13:02:08.302
79218.335938, 76536.796875, 115859.859375, 101927.210938, 91914.101563, 93961.898438, 109949.453125, 172926.296875, 0.000, 0.000, 0.000,0.103545964,0.3105952,0.1229908,0.15413436,0.07197475, 13:02:08.302
79340.218750, 76659.890625, 115692.335938, 101463.953125, 91731.289063, 93363.656250, 109743.351563, 173067.656250, 0.170, 0.320, 0.932,0.103545964,0.3105952,0.1229908,0.15413436,0.07197475, 13:02:08.303
79423.570313, 76754.929688, 115591.796875, 101130.109375, 91708.734375, 92976.679688, 109650.992188, 173165.375000, 0.000, 0.000, 0.000,0.103545964,0.3105952,0.1229908,0.15413436,0.07197475, 13:02:08.303
79307.250000, 76636.414063, 115734.914063, 101537.289063, 91880.351563, 93525.976563, 109833.023438, 173037.968750, 0.000, 0.000, 0.000,0.103545964,0.3105952,0.1229908,0.15413436,0.07197475, 13:02:08.303
79212.117188, 76533.976563, 115848.437500, 101920.820313, 91927.890625, 93993.710938, 109940.335938, 172929.828125, 0.000, 0.000, 0.000,0.103545964,0.3105952,0.1229908,0.15413436,0.07197475, 13:02:08.303
79306.023438, 76632.664063, 115731.000000, 101578.484375, 91777.648438, 93537.976563, 109779.000000, 173037.968750, 0.000, 0.000, 0.000,0.103545964,0.3105952,0.1229908,0.15413436,0.07197475, 13:02:08.303
79415.031250, 76748.781250, 115619.000000, 101162.273438, 91706.523438, 93024.804688, 109652.960938, 173153.421875, 0.000, 0.000, 0.000,0.103545964,0.3105952,0.1229908,0.15413436,0.07197475, 13:02:08.303
79339.328125, 76672.179688, 115708.468750, 101441.867188, 91837.031250, 93430.195313, 109793.195313, 173068.859375, 0.000, 0.000, 0.000,0.103545964,0.3105952,0.1229908,0.15413436,0.07197475, 13:02:08.303
79206.960938, 76533.640625, 115855.703125, 101915.992188, 91936.343750, 94040.062500, 109949.945313, 172929.765625, 0.000, 0.000, 0.000,0.103545964,0.3105952,0.1229908,0.15413436,0.07197475, 13:02:08.303
79266.007813, 76597.125000, 115797.390625, 101703.335938, 91813.296875, 93752.312500, 109830.429688, 172995.406250, 0.000, 0.000, 0.000,0.103545964,0.3105952,0.1229908,0.15413436,0.07197475, 13:02:08.303
79406.382813, 76744.976563, 115621.234375, 101188.375000, 91678.875000, 93118.390625, 109641.781250, 173148.140625, 0.176, 0.326, 0.928,0.103545964,0.3105952,0.1229908,0.15413436,0.07197475, 13:02:08.304
79352.531250, 76687.828125, 115681.132813, 101357.023438, 91810.210938, 93370.921875, 109747.734375, 173087.515625, 0.000, 0.000, 0.000,0.103545964,0.3105952,0.1229908,0.15413436,0.07197475, 13:02:08.304
79223.765625, 76553.742188, 115836.992188, 101873.484375, 91937.015625, 94003.656250, 109926.570313, 172940.250000, 0.000, 0.000, 0.000,0.103545964,0.3105952,0.1229908,0.15413436,0.07197475, 13:02:08.305
79261.382813, 76594.507813, 115795.265625, 101774.218750, 91839.828125, 93828.304688, 109848.625000, 172981.328125, 0.000, 0.000, 0.000,0.103545964,0.3105952,0.1229908,0.15413436,0.07197475, 13:02:08.305
79403.515625, 76742.718750, 115627.070313, 101237.242188, 91707.125000, 93142.148438, 109657.585938, 173139.562500, 0.000, 0.000, 0.000,0.103545964,0.3105952,0.1229908,0.15413436,0.07197475, 13:02:08.305
79378.437500, 76720.257813, 115661.843750, 101277.781250, 91809.382813, 93203.640625, 109729.898438, 173112.484375, 0.000, 0.000, 0.000,0.103545964,0.3105952,0.1229908,0.15413436,0.07197475, 13:02:08.305
79236.195313, 76574.796875, 115834.000000, 101813.867188, 91960.367188, 93869.992188, 109931.171875, 172960.093750, 0.000, 0.000, 0.000,0.103545964,0.3105952,0.1229908,0.15413436,0.07197475, 13:02:08.305
79233.687500, 76572.242188, 115848.281250, 101858.171875, 91912.046875, 93894.734375, 109907.617188, 172955.250000, 0.000, 0.000, 0.000,0.103545964,0.3105952,0.1229908,0.15413436,0.07197475, 13:02:08.305
79369.898438, 76715.859375, 115671.054688, 101315.289063, 91750.710938, 93218.617188, 109694.984375, 173109.765625, 0.000, 0.000, 0.000,0.103545964,0.3105952,0.1229908,0.15413436,0.07197475, 13:02:08.306
79398.468750, 76747.328125, 115647.898438, 101207.445313, 91797.648438, 93107.460938, 109701.601563, 173138.796875, 0.000, 0.000, 0.000,0.103545964,0.3105952,0.1229908,0.15413436,0.07197475, 13:02:08.306
79255.976563, 76600.054688, 115820.007813, 101729.421875, 91968.640625, 93748.312500, 109910.523438, 172978.453125, 0.184, 0.324, 0.930,0.103545964,0.3105952,0.1229908,0.15413436,0.07197475, 13:02:08.306
79207.625000, 76554.320313, 115874.054688, 101907.273438, 91939.070313, 93916.234375, 109933.382813, 172927.968750, 0.000, 0.000, 0.000,0.103545964,0.3105952,0.1229908,0.15413436,0.07197475, 13:02:08.307
79349.960938, 76703.406250, 115701.429688, 101402.015625, 91756.882813, 93247.812500, 109724.953125, 173087.921875, 0.000, 0.000, 0.000,0.103545964,0.3105952,0.1229908,0.15413436,0.07197475, 13:02:08.307
79403.695313, 76761.945313, 115646.625000, 101174.296875, 91769.867188, 92960.812500, 109685.859375, 173154.468750, 0.000, 0.000, 0.000,0.103545964,0.3105952,0.1229908,0.15413436,0.07197475, 13:02:08.307
79282.062500, 76636.953125, 115783.398438, 101628.750000, 91929.726563, 93547.906250, 109876.906250, 173010.343750, 0.000, 0.000, 0.000,0.103545964,0.3105952,0.1229908,0.15413436,0.07197475, 13:02:08.307
79198.265625, 76547.054688, 115891.687500, 101949.093750, 91969.398438, 93912.953125, 109961.906250, 172913.671875, 0.000, 0.000, 0.000,0.103545964,0.3105952,0.1229908,0.15413436,0.07197475, 13:02:08.307
79321.398438, 76675.804688, 115748.859375, 101517.570313, 91798.812500, 93347.382813, 109769.031250, 173049.906250, 0.000, 0.000, 0.000,0.103545964,0.3105952,0.1229908,0.15413436,0.07197475, 13:02:08.307
79422.804688, 76786.351563, 115622.554688, 101147.812500, 91744.718750, 92892.859375, 109661.585938, 173162.515625, 0.000, 0.000, 0.000,0.103545964,0.3105952,0.1229908,0.15413436,0.07197475, 13:02:08.307
79303.335938, 76666.414063, 115754.648438, 101535.390625, 91910.281250, 93396.335938, 109845.007813, 173034.968750, 0.000, 0.000, 0.000,0.103545964,0.3105952,0.1229908,0.15413436,0.07197475, 13:02:08.308
79194.375000, 76554.992188, 115877.296875, 101938.367188, 91955.539063, 93894.062500, 109955.335938, 172914.593750, 0.186, 0.324, 0.920,0.103545964,0.3105952,0.1229908,0.15413436,0.07197475, 13:02:08.308
79294.554688, 76658.476563, 115760.398438, 101608.453125, 91797.492188, 93466.921875, 109792.593750, 173024.218750, 0.000, 0.000, 0.000,0.103545964,0.3105952,0.1229908,0.15413436,0.07197475, 13:02:08.308
79409.867188, 76780.296875, 115625.031250, 101164.304688, 91724.335938, 92914.210938, 109655.976563, 173154.171875, 0.000, 0.000, 0.000,0.103545964,0.3105952,0.1229908,0.15413436,0.07197475, 13:02:08.308
79326.070313, 76696.117188, 115729.546875, 101434.250000, 91878.203125, 93278.656250, 109804.257813, 173060.296875, 0.000, 0.000, 0.000,0.103545964,0.3105952,0.1229908,0.15413436,0.07197475, 13:02:08.308
79206.289063, 76572.625000, 115859.679688, 101892.992188, 91958.804688, 93854.390625, 109947.601563, 172931.000000, 0.000, 0.000, 0.000,0.103545964,0.3105952,0.1229908,0.15413436,0.07197475, 13:02:08.308
79270.031250, 76637.468750, 115789.523438, 101694.312500, 91842.312500, 93574.210938, 109832.867188, 172997.406250, 0.000, 0.000, 0.000,0.103545964,0.3105952,0.1229908,0.15413436,0.07197475, 13:02:08.308
79409.039063, 76781.523438, 115638.398438, 101195.773438, 91735.671875, 92953.171875, 109664.515625, 173152.718750, 0.000, 0.000, 0.000,0.103545964,0.3105952,0.1229908,0.15413436,0.07197475, 13:02:08.309
79358.617188, 76730.789063, 115705.968750, 101347.320313, 91856.414063, 93181.109375, 109766.867188, 173093.109375, 0.000, 0.000, 0.000,0.103545964,0.3105952,0.1229908,0.15413436,0.07197475, 13:02:08.309
79215.046875, 76581.898438, 115864.242188, 101864.296875, 91961.312500, 93847.726563, 109941.140625, 172933.875000, 0.000, 0.000, 0.000,0.103545964,0.3105952,0.1229908,0.15413436,0.07197475, 13:02:08.309
79244.578125, 76614.625000, 115815.359375, 101781.656250, 91837.882813, 93729.601563, 109864.992188, 172968.562500, 0.000, 0.000, 0.000,0.103545964,0.3105952,0.1229908,0.15413436,0.07197475, 13:02:08.309
79385.367188, 76762.484375, 115644.257813, 101248.820313, 91700.625000, 93074.335938, 109675.179688, 173124.250000, 0.186, 0.328, 0.916,0.103545964,0.3105952,0.1229908,0.15413436,0.07197475, 13:02:08.309
79379.851563, 76758.656250, 115659.273438, 101255.570313, 91782.945313, 93128.382813, 109724.242188, 173118.609375, 0.000, 0.000, 0.000,0.103545964,0.3105952,0.1229908,0.15413436,0.07197475, 13:02:08.309
79230.648438, 76603.382813, 115840.703125, 101799.429688, 91937.054688, 93830.585938, 109930.812500, 172956.984375, 0.000, 0.000, 0.000,0.103545964,0.3105952,0.1229908,0.15413436,0.07197475, 13:02:08.309
79211.828125, 76582.882813, 115846.585938, 101860.203125, 91863.140625, 93896.546875, 109905.289063, 172940.156250, 0.000, 0.000, 0.000,0.103545964,0.3105952,0.1229908,0.15413436,0.07197475, 13:02:08.309
79351.953125, 76728.437500, 115688.421875, 101338.468750, 91714.789063, 93253.460938, 109707.562500, 173088.906250, 0.000, 0.000, 0.000,0.103545964,0.3105952,0.1229908,0.15413436,0.07197475, 13:02:08.310
79389.460938, 76768.742188, 115665.914063, 101205.585938, 91757.281250, 93129.343750, 109705.710938, 173128.890625, 0.000, 0.000, 0.000,0.103545964,0.3105952,0.1229908,0.15413436,0.07197475, 13:02:08.310
79253.335938, 76630.312500, 115818.867188, 101699.179688, 91910.617188, 93788.273438, 109897.914063, 172977.656250, 0.000, 0.000, 0.000,0.103545964,0.3105952,0.1229908,0.15413436,0.07197475, 13:02:08.310
79197.304688, 76575.085938, 115870.812500, 101899.367188, 91894.968750, 94045.453125, 109930.125000, 172923.343750, 0.000, 0.000, 0.000,0.103545964,0.3105952,0.1229908,0.15413436,0.07197475, 13:02:08.310
79325.265625, 76707.609375, 115717.460938, 101418.648438, 91739.539063, 93447.523438, 109740.554688, 173069.953125, 0.000, 0.000, 0.000,0.103545964,0.3105952,0.1229908,0.15413436,0.07197475, 13:02:08.310
79396.007813, 76784.742188, 115641.242188, 101152.007813, 91743.781250, 93143.156250, 109688.585938, 173145.906250, 0.198, 0.336, 0.918,0.103545964,0.3105952,0.1229908,0.15413436,0.07197475, 13:02:08.310
79274.390625, 76661.828125, 115780.781250, 101593.007813, 91909.585938, 93729.242188, 109880.523438, 173006.718750, 0.000, 0.000, 0.000,0.103545964,0.3105952,0.1229908,0.15413436,0.07197475, 13:02:08.310
79184.203125, 76567.328125, 115877.070313, 101912.593750, 91936.117188, 94101.781250, 109964.789063, 172912.218750, 0.000, 0.000, 0.000,0.103545964,0.3105952,0.1229908,0.15413436,0.07197475, 13:02:08.311
79297.437500, 76684.765625, 115749.804688, 101511.804688, 91782.562500, 93569.828125, 109788.835938, 173032.968750, 0.000, 0.000, 0.000,0.103545964,0.3105952,0.1229908,0.15413436,0.07197475, 13:02:08.311
79400.476563, 76794.578125, 115628.523438, 101128.968750, 91730.796875, 93104.687500, 109672.093750, 173149.125000, 0.000, 0.000, 0.000,0.103545964,0.3105952,0.1229908,0.15413436,0.07197475, 13:02:08.311
79293.328125, 76683.531250, 115750.765625, 101485.500000, 91896.710938, 93587.109375, 109840.023438, 173035.265625, 0.000, 0.000, 0.000,0.103545964,0.3105952,0.1229908,0.15413436,0.07197475, 13:02:08.311
79185.343750, 76571.351563, 115880.421875, 101905.171875, 91957.507813, 94118.875000, 109963.718750, 172914.968750, 0.000, 0.000, 0.000,0.103545964,0.3105952,0.1229908,0.15413436,0.07197475, 13:02:08.311
79273.859375, 76658.523438, 115780.156250, 101608.257813, 91811.148438, 93730.789063, 109817.179688, 173012.781250, 0.000, 0.000, 0.000,0.103545964,0.3105952,0.1229908,0.15413436,0.07197475, 13:02:08.311
79391.804688, 76780.453125, 115643.875000, 101156.437500, 91723.328125, 93180.750000, 109671.421875, 173144.343750, 0.000, 0.000, 0.000,0.103545964,0.3105952,0.1229908,0.15413436,0.07197475, 13:02:08.311
79319.921875, 76708.500000, 115727.179688, 101398.078125, 91858.382813, 93523.046875, 109801.625000, 173064.859375, 0.000, 0.000, 0.000,0.103545964,0.3105952,0.1229908,0.15413436,0.07197475, 13:02:08.312
79191.398438, 76573.320313, 115870.656250, 101881.843750, 91948.257813, 94121.765625, 109959.718750, 172925.921875, 0.190, 0.336, 0.924,0.103545964,0.3105952,0.1229908,0.15413436,0.07197475, 13:02:08.312
79240.218750, 76625.578125, 115812.140625, 101708.257813, 91822.570313, 93865.882813, 109859.914063, 172985.906250, 0.000, 0.000, 0.000,0.103545964,0.3105952,0.1229908,0.15413436,0.07197475, 13:02:08.312
79375.867188, 76768.562500, 115663.609375, 101199.914063, 91700.796875, 93215.648438, 109683.562500, 173137.359375, 0.000, 0.000, 0.000,0.103545964,0.3105952,0.1229908,0.15413436,0.07197475, 13:02:08.312
79341.289063, 76736.148438, 115723.203125, 101321.351563, 91819.351563, 93394.882813, 109773.570313, 173097.359375, 0.000, 0.000, 0.000,0.103545964,0.3105952,0.1229908,0.15413436,0.07197475, 13:02:08.312
79191.375000, 76584.718750, 115872.648438, 101829.515625, 91940.414063, 94054.617188, 109944.156250, 172942.343750, 0.000, 0.000, 0.000,0.103545964,0.3105952,0.1229908,0.15413436,0.07197475, 13:02:08.312
79207.429688, 76603.539063, 115843.835938, 101785.859375, 91852.125000, 93984.187500, 109883.296875, 172967.671875, 0.000, 0.000, 0.000,0.103545964,0.3105952,0.1229908,0.15413436,0.07197475, 13:02:08.312
79354.257813, 76754.929688, 115680.062500, 101263.054688, 91717.382813, 93340.812500, 109694.179688, 173123.687500, 0.000, 0.000, 0.000,0.103545964,0.3105952,0.1229908,0.15413436,0.07197475, 13:02:08.312
79354.679688, 76756.828125, 115689.359375, 101241.375000, 91801.335938, 93361.531250, 109733.585938, 173121.406250, 0.000, 0.000, 0.000,0.103545964,0.3105952,0.1229908,0.15413436,0.07197475, 13:02:08.313
79213.773438, 76612.835938, 115851.929688, 101757.476563, 91949.843750, 94027.390625, 109927.593750, 172967.828125, 0.000, 0.000, 0.000,0.103545964,0.3105952,0.1229908,0.15413436,0.07197475, 13:02:08.313
79187.289063, 76585.257813, 115885.875000, 101862.125000, 91906.125000, 94117.406250, 109925.273438, 172939.937500, 0.000, 0.000, 0.000,0.103545964,0.3105952,0.1229908,0.15413436,0.07197475, 13:02:08.313
79323.679688, 76726.296875, 115731.179688, 101358.023438, 91749.882813, 93476.421875, 109727.257813, 173096.187500, 0.180, 0.330, 0.928,0.103545964,0.3105952,0.1229908,0.15413436,0.07197475, 13:02:08.313
79367.687500, 76773.500000, 115683.593750, 101193.023438, 91772.328125, 93305.546875, 109702.890625, 173140.187500, 0.000, 0.000, 0.000,0.103545964,0.3105952,0.1229908,0.15413436,0.07197475, 13:02:08.313
79238.789063, 76643.390625, 115831.023438, 101678.171875, 91936.585938, 93945.296875, 109899.078125, 172994.406250, 0.000, 0.000, 0.000,0.103545964,0.3105952,0.1229908,0.15413436,0.07197475, 13:02:08.313
79179.351563, 76580.406250, 115894.437500, 101906.718750, 91936.812500, 94215.820313, 109947.468750, 172935.078125, 0.000, 0.000, 0.000,0.103545964,0.3105952,0.1229908,0.15413436,0.07197475, 13:02:08.313
79298.312500, 76707.007813, 115759.437500, 101454.921875, 91786.429688, 93631.898438, 109759.687500, 173069.031250, 0.000, 0.000, 0.000,0.103545964,0.3105952,0.1229908,0.15413436,0.07197475, 13:02:08.314
79374.664063, 76790.218750, 115690.453125, 101176.039063, 91769.710938, 93291.171875, 109685.703125, 173148.671875, 0.000, 0.000, 0.000,0.103545964,0.3105952,0.1229908,0.15413436,0.07197475, 13:02:08.314
79252.554688, 76661.382813, 115826.757813, 101591.445313, 91930.914063, 93852.156250, 109863.890625, 173011.703125, 0.000, 0.000, 0.000,0.103545964,0.3105952,0.1229908,0.15413436,0.07197475, 13:02:08.314
79163.039063, 76569.179688, 115914.937500, 101921.914063, 91959.656250, 94258.468750, 109947.531250, 172917.062500, 0.000, 0.000, 0.000,0.103545964,0.3105952,0.1229908,0.15413436,0.07197475, 13:02:08.314
79273.742188, 76683.179688, 115781.671875, 101543.367188, 91808.203125, 93754.593750, 109777.593750, 173038.390625, 0.000, 0.000, 0.000,0.103545964,0.3105952,0.1229908,0.15413436,0.07197475, 13:02:08.314
79381.304688, 76796.257813, 115668.664063, 101165.085938, 91760.007813, 93280.625000, 109667.000000, 173154.281250, 0.172, 0.328, 0.928,0.103545964,0.3105952,0.1229908,0.15413436,0.07197475, 13:02:08.314
79286.437500, 76701.414063, 115787.640625, 101497.140625, 91922.726563, 93740.734375, 109830.750000, 173042.390625, 0.000, 0.000, 0.000,0.103545964,0.3105952,0.1229908,0.15413436,0.07197475, 13:02:08.314
79165.156250, 76576.312500, 115934.156250, 101931.281250, 92006.726563, 94285.648438, 109967.250000, 172910.765625, 0.000, 0.000, 0.000,0.103545964,0.3105952,0.1229908,0.15413436,0.07197475, 13:02:08.315
79251.210938, 76666.390625, 115836.500000, 101652.757813, 91860.164063, 93920.554688, 109822.117188, 173014.359375, 0.000, 0.000, 0.000,0.103545964,0.3105952,0.1229908,0.15413436,0.07197475, 13:02:08.315
79384.046875, 76804.835938, 115688.781250, 101184.804688, 91763.898438, 93352.640625, 109665.164063, 173156.812500, 0.000, 0.000, 0.000,0.103545964,0.3105952,0.1229908,0.15413436,0.07197475, 13:02:08.315
79310.265625, 76726.296875, 115766.695313, 101398.507813, 91902.460938, 93677.093750, 109788.453125, 173072.718750, 0.000, 0.000, 0.000,0.103545964,0.3105952,0.1229908,0.15413436,0.07197475, 13:02:08.315
79176.984375, 76589.656250, 115909.664063, 101878.062500, 92003.601563, 94295.546875, 109951.289063, 172926.031250, 0.000, 0.000, 0.000,0.103545964,0.3105952,0.1229908,0.15413436,0.07197475, 13:02:08.315
79230.695313, 76646.859375, 115858.453125, 101732.640625, 91889.273438, 94079.828125, 109857.125000, 172982.984375, 0.000, 0.000, 0.000,0.103545964,0.3105952,0.1229908,0.15413436,0.07197475, 13:02:08.315
79375.601563, 76796.726563, 115697.851563, 101219.046875, 91763.343750, 93435.742188, 109677.679688, 173143.578125, 0.000, 0.000, 0.000,0.103545964,0.3105952,0.1229908,0.15413436,0.07197475, 13:02:08.316
79344.015625, 76764.742188, 115720.429688, 101290.234375, 91868.304688, 93568.351563, 109749.367188, 173110.078125, 0.000, 0.000, 0.000,0.103545964,0.3105952,0.1229908,0.15413436,0.07197475, 13:02:08.316
79187.351563, 76603.492188, 115895.648438, 101819.859375, 92022.867188, 94231.328125, 109944.875000, 172942.390625, 0.168, 0.328, 0.920,0.103545964,0.3105952,0.1229908,0.15413436,0.07197475, 13:02:08.316
79192.984375, 76614.289063, 115883.890625, 101812.437500, 91942.335938, 94179.476563, 109893.312500, 172953.140625, 0.000, 0.000, 0.000,0.103545964,0.3105952,0.1229908,0.15413436,0.07197475, 13:02:08.316
79333.359375, 76761.765625, 115711.601563, 101289.359375, 91791.234375, 93506.687500, 109695.007813, 173109.937500, 0.000, 0.000, 0.000,0.103545964,0.3105952,0.1229908,0.15413436,0.07197475, 13:02:08.316
79351.234375, 76780.632813, 115697.320313, 101229.796875, 91857.664063, 93470.054688, 109722.007813, 173130.546875, 0.000, 0.000, 0.000,0.103545964,0.3105952,0.1229908,0.15413436,0.07197475, 13:02:08.316
79214.203125, 76639.031250, 115861.070313, 101742.992188, 92025.460938, 94137.007813, 109930.859375, 172981.218750, 0.000, 0.000, 0.000,0.103545964,0.3105952,0.1229908,0.15413436,0.07197475, 13:02:08.316
79181.390625, 76602.781250, 115883.171875, 101859.218750, 91982.054688, 94256.945313, 109931.125000, 172949.437500, 0.000, 0.000, 0.000,0.103545964,0.3105952,0.1229908,0.15413436,0.07197475, 13:02:08.317
79311.742188, 76734.562500, 115727.070313, 101360.710938, 91826.906250, 93606.843750, 109734.234375, 173088.531250, 0.000, 0.000, 0.000,0.103545964,0.3105952,0.1229908,0.15413436,0.07197475, 13:02:08.317
79364.421875, 76792.343750, 115678.562500, 101171.679688, 91844.007813, 93371.593750, 109706.539063, 173143.765625, 0.000, 0.000, 0.000,0.103545964,0.3105952,0.1229908,0.15413436,0.07197475, 13:02:08.317
79232.546875, 76658.367188, 115832.523438, 101648.218750, 92017.906250, 93982.601563, 109904.890625, 172997.718750, 0.000, 0.000, 0.000,0.103545964,0.3105952,0.1229908,0.15413436,0.07197475, 13:02:08.317
79165.718750, 76590.929688, 115903.828125, 101899.742188, 92018.507813, 94270.867188, 109951.242188, 172928.437500, 0.168, 0.326, 0.922,0.103545964,0.3105952,0.1229908,0.15413436,0.07197475, 13:02:08.317
79281.429688, 76713.328125, 115746.984375, 101450.765625, 91855.320313, 93692.296875, 109757.429688, 173066.437500, 0.000, 0.000, 0.000,0.103545964,0.3105952,0.1229908,0.15413436,0.07197475, 13:02:08.317
79353.515625, 76795.023438, 115678.742188, 101160.257813, 91846.531250, 93339.585938, 109688.187500, 173144.109375, 0.000, 0.000, 0.000,0.103545964,0.3105952,0.1229908,0.15413436,0.07197475, 13:02:08.317
79240.750000, 76681.343750, 115805.570313, 101553.742188, 91995.593750, 93870.820313, 109861.125000, 173017.921875, 0.000, 0.000, 0.000,0.103545964,0.3105952,0.1229908,0.15413436,0.07197475, 13:02:08.318
79153.250000, 76589.500000, 115896.804688, 101896.031250, 92020.945313, 94292.195313, 109949.968750, 172920.234375, 0.000, 0.000, 0.000,0.103545964,0.3105952,0.1229908,0.15413436,0.07197475, 13:02:08.318
79255.906250, 76698.507813, 115785.320313, 101545.023438, 91877.648438, 93813.265625, 109795.500000, 173035.640625, 0.000, 0.000, 0.000,0.103545964,0.3105952,0.1229908,0.15413436,0.07197475, 13:02:08.318
79360.000000, 76801.734375, 115665.335938, 101141.773438, 91807.593750, 93301.406250, 109672.671875, 173151.000000, 0.000, 0.000, 0.000,0.103545964,0.3105952,0.1229908,0.15413436,0.07197475, 13:02:08.318
79274.078125, 76712.054688, 115775.351563, 101448.890625, 91957.843750, 93713.796875, 109831.125000, 173053.718750, 0.000, 0.000, 0.000,0.103545964,0.3105952,0.1229908,0.15413436,0.07197475, 13:02:08.318
79164.554688, 76602.781250, 115898.750000, 101879.960938, 92026.554688, 94236.984375, 109964.945313, 172932.359375, 0.000, 0.000, 0.000,0.103545964,0.3105952,0.1229908,0.15413436,0.07197475, 13:02:08.318
79239.859375, 76683.960938, 115803.515625, 101633.023438, 91896.109375, 93867.085938, 109829.765625, 173013.984375, 0.000, 0.000, 0.000,0.103545964,0.3105952,0.1229908,0.15413436,0.07197475, 13:02:08.318
79364.851563, 76808.929688, 115662.984375, 101168.726563, 91807.593750, 93244.921875, 109675.265625, 173150.703125, 0.172, 0.332, 0.928,0.103545964,0.3105952,0.1229908,0.15413436,0.07197475, 13:02:08.319
79308.078125, 76751.820313, 115733.484375, 101357.539063, 91936.562500, 93494.039063, 109787.070313, 173089.687500, 0.000, 0.000, 0.000,0.030769492,0.13646062,0.04415676,0.06341409,0.024597716, 13:02:08.779
79172.757813, 76609.078125, 115880.289063, 101849.320313, 92056.726563, 94116.015625, 109957.437500, 172945.343750, 0.000, 0.000, 0.000,0.030769492,0.13646062,0.04415676,0.06341409,0.024597716, 13:02:08.780
79206.820313, 76644.195313, 115837.375000, 101732.328125, 91953.773438, 93938.117188, 109872.164063, 172984.968750, 0.000, 0.000, 0.000,0.030769492,0.13646062,0.04415676,0.06341409,0.024597716, 13:02:08.780
79352.132813, 76798.781250, 115672.242188, 101218.531250, 91820.718750, 93300.203125, 109688.570313, 173146.156250, 0.000, 0.000, 0.000,0.030769492,0.13646062,0.04415676,0.06341409,0.024597716, 13:02:08.780
79328.929688, 76777.476563, 115712.539063, 101282.234375, 91923.648438, 93425.726563, 109764.898438, 173120.984375, 0.000, 0.000, 0.000,0.030769492,0.13646062,0.04415676,0.06341409,0.024597716, 13:02:08.780
79195.421875, 76640.867188, 115870.679688, 101790.625000, 92060.554688, 94100.218750, 109950.484375, 172967.875000, 0.000, 0.000, 0.000,0.030769492,0.13646062,0.04415676,0.06341409,0.024597716, 13:02:08.781
79191.445313, 76635.726563, 115869.359375, 101815.750000, 91991.953125, 94108.171875, 109913.226563, 172967.656250, 0.000, 0.000, 0.000,0.030769492,0.13646062,0.04415676,0.06341409,0.024597716, 13:02:08.781
79322.492188, 76769.898438, 115717.812500, 101312.695313, 91841.664063, 93461.335938, 109717.984375, 173116.515625, 0.000, 0.000, 0.000,0.030769492,0.13646062,0.04415676,0.06341409,0.024597716, 13:02:08.781
79341.406250, 76790.757813, 115707.687500, 101231.382813, 91885.695313, 93371.390625, 109728.554688, 173130.484375, 0.000, 0.000, 0.000,0.030769492,0.13646062,0.04415676,0.06341409,0.024597716, 13:02:08.782
79204.031250, 76648.734375, 115855.148438, 101720.078125, 92033.820313, 94001.242188, 109914.382813, 172974.796875, 0.168, 0.326, 0.926,0.030769492,0.13646062,0.04415676,0.06341409,0.024597716, 13:02:08.782
79173.921875, 76614.781250, 115901.437500, 101872.359375, 92012.804688, 94168.656250, 109934.007813, 172943.234375, 0.000, 0.000, 0.000,0.030769492,0.13646062,0.04415676,0.06341409,0.024597716, 13:02:08.782
79309.554688, 76756.984375, 115751.570313, 101395.710938, 91859.476563, 93549.242188, 109746.367188, 173089.718750, 0.000, 0.000, 0.000,0.030769492,0.13646062,0.04415676,0.06341409,0.024597716, 13:02:08.782
79358.500000, 76808.992188, 115700.093750, 101192.781250, 91873.710938, 93313.656250, 109710.609375, 173153.078125, 0.000, 0.000, 0.000,0.030769492,0.13646062,0.04415676,0.06341409,0.024597716, 13:02:08.783
79231.726563, 76678.351563, 115833.890625, 101636.531250, 92033.687500, 93922.562500, 109898.625000, 173015.953125, 0.000, 0.000, 0.000,0.030769492,0.13646062,0.04415676,0.06341409,0.024597716, 13:02:08.783
79162.703125, 76605.593750, 115899.734375, 101897.734375, 92041.617188, 94254.773438, 109959.312500, 172934.812500, 0.000, 0.000, 0.000,0.030769492,0.13646062,0.04415676,0.06341409,0.024597716, 13:02:08.783
79276.742188, 76725.601563, 115768.375000, 101487.132813, 91901.671875, 93718.421875, 109787.453125, 173066.796875, 0.000, 0.000, 0.000,0.030769492,0.13646062,0.04415676,0.06341409,0.024597716, 13:02:08.783
79369.390625, 76823.437500, 115693.140625, 101180.781250, 91883.796875, 93381.718750, 109705.687500, 173162.828125, 0.000, 0.000, 0.000,0.030769492,0.13646062,0.04415676,0.06341409,0.024597716, 13:02:08.784
79251.820313, 76701.460938, 115824.750000, 101558.210938, 92043.007813, 93949.007813, 109869.351563, 173037.156250, 0.000, 0.000, 0.000,0.030769492,0.13646062,0.04415676,0.06341409,0.024597716, 13:02:08.784
79150.070313, 76596.406250, 115916.007813, 101911.679688, 92075.820313, 94415.820313, 109964.054688, 172933.343750, 0.164, 0.324, 0.932,0.030769492,0.13646062,0.04415676,0.06341409,0.024597716, 13:02:08.784
79244.890625, 76695.226563, 115802.882813, 101585.789063, 91930.242188, 93996.750000, 109818.835938, 173040.140625, 0.000, 0.000, 0.000,0.030769492,0.13646062,0.04415676,0.06341409,0.024597716, 13:02:08.784
79357.203125, 76811.367188, 115701.273438, 101193.007813, 91873.023438, 93519.359375, 109704.304688, 173160.656250, 0.000, 0.000, 0.000,0.030769492,0.13646062,0.04415676,0.06341409,0.024597716, 13:02:08.785
79279.062500, 76728.953125, 115797.570313, 101463.039063, 92005.968750, 93912.976563, 109838.007813, 173072.140625, 0.000, 0.000, 0.000,0.030769492,0.13646062,0.04415676,0.06341409,0.024597716, 13:02:08.788
79161.070313, 76602.601563, 115930.382813, 101904.773438, 92088.421875, 94470.765625, 109977.109375, 172941.625000, 0.000, 0.000, 0.000,0.030769492,0.13646062,0.04415676,0.06341409,0.024597716, 13:02:08.788
79223.226563, 76666.835938, 115855.281250, 101693.351563, 91961.445313, 94165.148438, 109859.335938, 173012.375000, 0.000, 0.000, 0.000,0.030769492,0.13646062,0.04415676,0.06341409,0.024597716, 13:02:08.789
79350.031250, 76801.085938, 115723.742188, 101226.062500, 91862.023438, 93566.945313, 109702.515625, 173149.812500, 0.000, 0.000, 0.000,0.030769492,0.13646062,0.04415676,0.06341409,0.024597716, 13:02:08.789
79303.000000, 76755.375000, 115785.296875, 101373.789063, 91971.750000, 93766.460938, 109799.054688, 173095.687500, 0.000, 0.000, 0.000,0.030769492,0.13646062,0.04415676,0.06341409,0.024597716, 13:02:08.789
79172.242188, 76620.640625, 115937.648438, 101864.742188, 92088.648438, 94366.421875, 109970.687500, 172949.343750, 0.000, 0.000, 0.000,0.030769492,0.13646062,0.04415676,0.06341409,0.024597716, 13:02:08.789
79198.890625, 76650.562500, 115900.585938, 101778.554688, 91994.570313, 94218.117188, 109896.234375, 172986.562500, 0.000, 0.000, 0.000,0.030769492,0.13646062,0.04415676,0.06341409,0.024597716, 13:02:08.789
79331.968750, 76789.210938, 115739.671875, 101270.210938, 91858.179688, 93572.359375, 109712.125000, 173137.406250, 0.164, 0.326, 0.934,0.030769492,0.13646062,0.04415676,0.06341409,0.024597716, 13:02:08.790
79320.523438, 76777.835938, 115766.656250, 101297.406250, 91942.335938, 93637.828125, 109771.132813, 173126.296875, 0.000, 0.000, 0.000,0.030769492,0.13646062,0.04415676,0.06341409,0.024597716, 13:02:08.790
79181.718750, 76635.750000, 115917.460938, 101794.914063, 92080.507813, 94287.054688, 109946.750000, 172969.421875, 0.000, 0.000, 0.000,0.030769492,0.13646062,0.04415676,0.06341409,0.024597716, 13:02:08.790
79179.976563, 76633.757813, 115905.164063, 101829.156250, 92009.882813, 94317.359375, 109912.265625, 172968.046875, 0.000, 0.000, 0.000,0.030769492,0.13646062,0.04415676,0.06341409,0.024597716, 13:02:08.790
79325.218750, 76782.507813, 115753.265625, 101339.523438, 91880.796875, 93705.750000, 109736.242188, 173126.812500, 0.000, 0.000, 0.000,0.030769492,0.13646062,0.04415676,0.06341409,0.024597716, 13:02:08.790
79337.421875, 76798.179688, 115747.093750, 101245.976563, 91943.804688, 93632.976563, 109749.226563, 173149.140625, 0.000, 0.000, 0.000,0.030769492,0.13646062,0.04415676,0.06341409,0.024597716, 13:02:08.790
79190.218750, 76648.757813, 115904.992188, 101729.421875, 92109.546875, 94261.351563, 109940.312500, 172992.125000, 0.000, 0.000, 0.000,0.030769492,0.13646062,0.04415676,0.06341409,0.024597716, 13:02:08.791
79157.046875, 76612.320313, 115935.992188, 101891.632813, 92077.492188, 94423.625000, 109953.726563, 172958.734375, 0.000, 0.000, 0.000,0.030769492,0.13646062,0.04415676,0.06341409,0.024597716, 13:02:08.791
79283.960938, 76744.531250, 115804.765625, 101446.945313, 91937.796875, 93834.562500, 109781.390625, 173100.203125, 0.000, 0.000, 0.000,0.030769492,0.13646062,0.04415676,0.06341409,0.024597716, 13:02:08.791
79346.078125, 76813.195313, 115749.312500, 101218.015625, 91938.085938, 93567.281250, 109734.632813, 173165.890625, 0.156, 0.322, 0.936,0.030769492,0.13646062,0.04415676,0.06341409,0.024597716, 13:02:08.791
79220.570313, 76677.632813, 115867.328125, 101626.132813, 92087.101563, 94128.734375, 109904.570313, 173029.343750, 0.000, 0.000, 0.000,0.030769492,0.13646062,0.04415676,0.06341409,0.024597716, 13:02:08.791
79145.695313, 76600.898438, 115941.867188, 101909.375000, 92103.218750, 94461.687500, 109975.179688, 172949.671875, 0.000, 0.000, 0.000,0.030769492,0.13646062,0.04415676,0.06341409,0.024597716, 13:02:08.791
79263.664063, 76722.296875, 115810.304688, 101519.093750, 91953.664063, 93938.992188, 109811.125000, 173073.546875, 0.000, 0.000, 0.000,0.030769492,0.13646062,0.04415676,0.06341409,0.024597716, 13:02:08.792
79347.234375, 76811.742188, 115723.718750, 101194.187500, 91922.218750, 93538.539063, 109721.382813, 173162.375000, 0.000, 0.000, 0.000,0.030769492,0.13646062,0.04415676,0.06341409,0.024597716, 13:02:08.792
79247.015625, 76708.945313, 115839.273438, 101541.398438, 92076.976563, 94018.070313, 109881.195313, 173050.468750, 0.000, 0.000, 0.000,0.030769492,0.13646062,0.04415676,0.06341409,0.024597716, 13:02:08.792
79146.984375, 76606.648438, 115946.179688, 101919.125000, 92132.476563, 94487.500000, 109992.414063, 172939.890625, 0.000, 0.000, 0.000,0.030769492,0.13646062,0.04415676,0.06341409,0.024597716, 13:02:08.792
79228.257813, 76692.382813, 115831.921875, 101609.710938, 91987.976563, 94080.859375, 109840.132813, 173035.515625, 0.000, 0.000, 0.000,0.030769492,0.13646062,0.04415676,0.06341409,0.024597716, 13:02:08.792
79333.757813, 76805.773438, 115732.679688, 101210.351563, 91927.000000, 93590.195313, 109716.570313, 173154.171875, 0.000, 0.000, 0.000,0.030769492,0.13646062,0.04415676,0.06341409,0.024597716, 13:02:08.792
79267.148438, 76735.078125, 115833.039063, 101462.632813, 92069.046875, 93955.625000, 109851.507813, 173076.859375, 0.000, 0.000, 0.000,0.030769492,0.13646062,0.04415676,0.06341409,0.024597716, 13:02:08.792
79150.117188, 76613.593750, 115958.585938, 101901.484375, 92158.273438, 94505.500000, 109987.453125, 172941.875000, 0.146, 0.322, 0.938,0.030769492,0.13646062,0.04415676,0.06341409,0.024597716, 13:02:08.793
79208.296875, 76672.156250, 115880.421875, 101706.710938, 92041.015625, 94234.414063, 109879.093750, 173015.031250, 0.000, 0.000, 0.000,0.030769492,0.13646062,0.04415676,0.06341409,0.024597716, 13:02:08.793
79338.609375, 76802.867188, 115745.289063, 101238.046875, 91948.523438, 93657.023438, 109732.625000, 173162.359375, 0.000, 0.000, 0.000,0.030769492,0.13646062,0.04415676,0.06341409,0.024597716, 13:02:08.793
79296.656250, 76761.007813, 115809.500000, 101372.687500, 92070.164063, 93871.671875, 109831.953125, 173113.921875, 0.000, 0.000, 0.000,0.030769492,0.13646062,0.04415676,0.06341409,0.024597716, 13:02:08.793
79159.906250, 76619.500000, 115948.195313, 101852.109375, 92177.875000, 94502.343750, 109994.179688, 172967.718750, 0.000, 0.000, 0.000,0.030769492,0.13646062,0.04415676,0.06341409,0.024597716, 13:02:08.794
79187.023438, 76644.687500, 115907.578125, 101786.820313, 92079.039063, 94417.539063, 109922.500000, 172994.468750, 0.000, 0.000, 0.000,0.030769492,0.13646062,0.04415676,0.06341409,0.024597716, 13:02:08.794
