%OpenBCI Raw EEG Data
%
%Sample Rate = 250.0 Hz
%First Column = SampleIndex
%5 Columns before Timestamp are Frequency Power factors DELTA THETA ALPHA BETA GAMMA
%Last Column = Timestamp 
%Other Columns = EEG data in microvolts followed by Accel Data (in G) interleaved with Aux Data
0.000000, 0.000000, 0.000000, 0.000000, 0.000000, 0.000000, 0.000000, 0.000000, 0, 1, 1, 0, 1,0.0,0.0,0.0,0.0,0.0, 11:51:25.354
63530.917969, 66580.523438, 100177.187500, 123102.429688, 98077.617188, 80370.945313, 80315.382813, 142508.765625, 0, 1, 1, 0, 1,0.0,0.0,0.0,0.0,0.0, 11:51:25.369
63500.632813, 66549.140625, 100334.898438, 123307.460938, 97972.539063, 80496.273438, 80243.359375, 142430.812500, 0, 1, 1, 0, 1,0.0,0.0,0.0,0.0,0.0, 11:51:25.836
63731.550781, 66789.382813, 100099.421875, 123069.687500, 98077.867188, 80183.101563, 80088.156250, 142613.718750, 0, 1, 1, 0, 1,0.0,0.0,0.0,0.0,0.0, 11:51:25.836
63826.164063, 66883.992188, 99902.640625, 122826.562500, 98219.867188, 80011.085938, 80154.109375, 142749.046875, 0, 1, 1, 0, 1,0.0,0.0,0.0,0.0,0.0, 11:51:25.836
63604.816406, 66657.726563, 100097.500000, 123023.414063, 98136.468750, 80312.500000, 80326.445313, 142592.406250, 0, 1, 1, 0, 1,0.0,0.0,0.0,0.0,0.0, 11:51:25.836
63498.777344, 66547.710938, 100323.453125, 123291.125000, 97992.257813, 80524.953125, 80286.929688, 142442.562500, 0, 1, 1, 0, 1,0.0,0.0,0.0,0.0,0.0, 11:51:25.837
63675.468750, 66732.070313, 100165.695313, 123137.007813, 98038.101563, 80265.492188, 80104.578125, 142556.937500, 0, 1, 1, 0, 1,0.0,0.0,0.0,0.0,0.0, 11:51:25.837
63817.000000, 66874.203125, 99925.570313, 122851.085938, 98194.000000, 80013.117188, 80117.679688, 142727.640625, 0, 1, 1, 0, 1,0.0,0.0,0.0,0.0,0.0, 11:51:25.837
63656.738281, 66702.609375, 100054.203125, 122972.562500, 98168.945313, 80248.929688, 80302.507813, 142630.437500, 0, 1, 1, 0, 1,0.0,0.0,0.0,0.0,0.0, 11:51:25.837
63509.058594, 66550.687500, 100297.210938, 123262.710938, 98017.250000, 80521.757813, 80308.500000, 142465.203125, 0, 1, 1, 0, 1,0.0,0.0,0.0,0.0,0.0, 11:51:25.837
63648.890625, 66702.429688, 100204.562500, 123183.007813, 98037.875000, 80337.554688, 80139.718750, 142548.515625, 0, 1, 1, 0, 1,0.0,0.0,0.0,0.0,0.0, 11:51:25.837
63823.214844, 66886.117188, 99943.656250, 122876.007813, 98192.796875, 80034.757813, 80097.117188, 142723.531250, 0, 1, 1, 0, 1,0.0,0.0,0.0,0.0,0.0, 11:51:25.837
63703.585938, 66760.281250, 100006.039063, 122917.914063, 98201.179688, 80189.250000, 80271.750000, 142671.421875, 0, 1, 1, 0, 1,0.0,0.0,0.0,0.0,0.0, 11:51:25.837
63496.296875, 66545.546875, 100278.171875, 123230.546875, 98029.765625, 80507.429688, 80314.531250, 142466.031250, 0, 1, 1, 0, 1,0.0,0.0,0.0,0.0,0.0, 11:51:25.837
63612.527344, 66666.890625, 100258.007813, 123237.390625, 98019.015625, 80406.554688, 80162.671875, 142516.375000, 0, 1, 1, 0, 1,0.0,0.0,0.0,0.0,0.0, 11:51:25.838
63814.519531, 66873.468750, 99982.054688, 122924.328125, 98167.945313, 80075.343750, 80079.906250, 142709.453125, 0, 1, 1, 0, 1,0.0,0.0,0.0,0.0,0.0, 11:51:25.838
63736.242188, 66793.179688, 99964.304688, 122874.148438, 98208.531250, 80141.375000, 80225.125000, 142694.734375, 0, 1, 1, 0, 1,0.0,0.0,0.0,0.0,0.0, 11:51:25.838
63522.648438, 66572.187500, 100243.210938, 123189.265625, 98068.429688, 80494.460938, 80327.515625, 142494.328125, 0, 1, 1, 0, 1,0.0,0.0,0.0,0.0,0.0, 11:51:25.838
63569.074219, 66623.148438, 100296.320313, 123275.187500, 98013.648438, 80469.164063, 80194.007813, 142483.171875, 0, 1, 1, 0, 1,0.0,0.0,0.0,0.0,0.0, 11:51:25.838
63787.117188, 66849.796875, 100018.171875, 122970.171875, 98146.750000, 80100.960938, 80075.140625, 142674.375000, 0, 1, 1, 0, 1,0.0,0.0,0.0,0.0,0.0, 11:51:25.838
63775.605469, 66836.765625, 99930.328125, 122841.312500, 98229.585938, 80063.054688, 80204.781250, 142719.125000, 0, 1, 1, 0, 1,0.0,0.0,0.0,0.0,0.0, 11:51:25.838
63569.007813, 66621.070313, 100177.718750, 123113.781250, 98118.390625, 80414.062500, 80349.804688, 142543.703125, 0, 1, 1, 0, 1,0.0,0.0,0.0,0.0,0.0, 11:51:25.838
63576.027344, 66624.023438, 100297.664063, 123267.921875, 98039.914063, 80495.984375, 80264.531250, 142490.468750, 0, 1, 1, 0, 1,0.0,0.0,0.0,0.0,0.0, 11:51:25.838
63777.011719, 66831.062500, 100059.773438, 123007.546875, 98146.460938, 80167.343750, 80119.781250, 142657.968750, 0, 1, 1, 0, 1,0.0,0.0,0.0,0.0,0.0, 11:51:25.838
63788.792969, 66846.843750, 99924.992188, 122818.000000, 98228.250000, 80048.054688, 80187.640625, 142720.265625, 0, 1, 1, 0, 1,0.0,0.0,0.0,0.0,0.0, 11:51:25.839
63574.640625, 66626.257813, 100141.179688, 123049.945313, 98125.140625, 80360.148438, 80338.046875, 142558.390625, 0, 1, 1, 0, 1,0.0,0.0,0.0,0.0,0.0, 11:51:25.839
63527.878906, 66576.031250, 100318.046875, 123272.281250, 98020.109375, 80516.078125, 80285.273438, 142468.609375, 0, 1, 1, 0, 1,0.0,0.0,0.0,0.0,0.0, 11:51:25.839
63715.566406, 66769.375000, 100123.609375, 123071.492188, 98088.437500, 80226.265625, 80114.054688, 142596.390625, 0, 1, 1, 0, 1,0.0,0.0,0.0,0.0,0.0, 11:51:25.839
63800.750000, 66857.257813, 99920.031250, 122818.117188, 98210.570313, 80027.554688, 80146.359375, 142714.203125, 0, 1, 1, 0, 1,0.0,0.0,0.0,0.0,0.0, 11:51:25.839
63615.500000, 66662.000000, 100085.367188, 122988.031250, 98154.820313, 80302.234375, 80324.570313, 142586.640625, 0, 1, 1, 0, 1,0.0,0.0,0.0,0.0,0.0, 11:51:25.839
63495.917969, 66539.015625, 100315.679688, 123263.632813, 98014.406250, 80530.804688, 80304.695313, 142438.546875, 0, 1, 1, 0, 1,0.0,0.0,0.0,0.0,0.0, 11:51:25.839
63688.140625, 66740.226563, 100166.765625, 123126.054688, 98074.984375, 80291.289063, 80135.226563, 142570.984375, 0, 1, 1, 0, 1,0.0,0.0,0.0,0.0,0.0, 11:51:25.839
63817.445313, 66872.039063, 99923.937500, 122835.726563, 98215.234375, 80025.906250, 80126.507813, 142719.843750, 0, 1, 1, 0, 1,0.0,0.0,0.0,0.0,0.0, 11:51:25.839
63633.468750, 66682.539063, 100041.085938, 122938.140625, 98167.023438, 80230.804688, 80283.257813, 142599.078125, 0, 1, 1, 0, 1,0.0,0.0,0.0,0.0,0.0, 11:51:25.840
63473.296875, 66518.320313, 100302.000000, 123243.554688, 98019.679688, 80516.632813, 80312.164063, 142433.578125, 0, 1, 1, 0, 1,0.0,0.0,0.0,0.0,0.0, 11:51:25.840
63616.683594, 66664.703125, 100225.421875, 123186.695313, 98037.187500, 80353.265625, 80160.460938, 142515.453125, 0, 1, 1, 0, 1,0.0,0.0,0.0,0.0,0.0, 11:51:25.840
63789.285156, 66849.375000, 99958.695313, 122878.304688, 98186.718750, 80038.304688, 80113.921875, 142688.187500, 0, 1, 1, 0, 1,0.0,0.0,0.0,0.0,0.0, 11:51:25.840
63685.347656, 66740.179688, 99994.859375, 122891.875000, 98200.015625, 80159.523438, 80274.093750, 142642.765625, 0, 1, 1, 0, 1,0.0,0.0,0.0,0.0,0.0, 11:51:25.840
63514.960938, 66563.601563, 100255.859375, 123197.671875, 98064.562500, 80484.250000, 80345.937500, 142472.578125, 0, 1, 1, 0, 1,0.0,0.0,0.0,0.0,0.0, 11:51:25.840
63589.324219, 66637.859375, 100259.062500, 123225.742188, 98023.593750, 80407.734375, 80193.046875, 142480.875000, 0, 1, 1, 0, 1,0.0,0.0,0.0,0.0,0.0, 11:51:25.840
63772.386719, 66826.617188, 99989.875000, 122919.812500, 98149.125000, 80064.328125, 80088.242188, 142651.421875, 0, 1, 1, 0, 1,0.0,0.0,0.0,0.0,0.0, 11:51:25.840
63707.429688, 66757.953125, 99962.539063, 122858.148438, 98201.312500, 80100.085938, 80233.281250, 142654.125000, 0, 1, 1, 0, 1,0.0,0.0,0.0,0.0,0.0, 11:51:25.840
63507.113281, 66551.421875, 100224.031250, 123157.679688, 98079.382813, 80445.984375, 80356.062500, 142477.062500, 0, 1, 1, 0, 1,0.0,0.0,0.0,0.0,0.0, 11:51:25.841
63530.093750, 66580.929688, 100296.789063, 123265.710938, 98005.625000, 80453.890625, 80226.468750, 142443.843750, 0, 1, 1, 0, 1,0.0,0.0,0.0,0.0,0.0, 11:51:25.841
63749.675781, 66811.953125, 100030.289063, 122977.054688, 98133.187500, 80110.234375, 80093.140625, 142634.078125, 0, 1, 1, 0, 1,0.0,0.0,0.0,0.0,0.0, 11:51:25.841
63734.699219, 66796.843750, 99939.273438, 122837.937500, 98210.656250, 80058.226563, 80197.343750, 142670.125000, 0, 1, 1, 0, 1,0.0,0.0,0.0,0.0,0.0, 11:51:25.841
63540.171875, 66597.289063, 100167.867188, 123095.609375, 98104.578125, 80386.992188, 80337.195313, 142507.046875, 0, 1, 1, 0, 1,0.0,0.0,0.0,0.0,0.0, 11:51:25.841
63517.531250, 66574.687500, 100292.476563, 123264.437500, 98001.242188, 80472.671875, 80248.820313, 142428.703125, 0, 1, 1, 0, 1,0.0,0.0,0.0,0.0,0.0, 11:51:25.841
63737.785156, 66801.468750, 100051.679688, 123013.179688, 98106.585938, 80146.468750, 80096.265625, 142605.593750, 0, 1, 1, 0, 1,0.0,0.0,0.0,0.0,0.0, 11:51:25.841
63787.921875, 66849.570313, 99891.281250, 122801.195313, 98227.757813, 80011.125000, 80176.109375, 142703.437500, 0, 1, 1, 0, 1,5.6021527E-4,7.420827E-4,9.1216335E-4,0.0028696368,0.00364448, 11:51:25.841
63605.933594, 66655.492188, 100094.148438, 123013.578125, 98158.304688, 80322.218750, 80356.328125, 142567.609375, 0, 1, 1, 0, 1,5.6021527E-4,7.420827E-4,9.1216335E-4,0.0028696368,0.00364448, 11:51:25.848
63506.421875, 66551.039063, 100298.734375, 123252.367188, 98022.656250, 80504.093750, 80306.171875, 142432.218750, 0, 1, 1, 0, 1,5.6021527E-4,7.420827E-4,9.1216335E-4,0.0028696368,0.00364448, 11:51:25.848
63693.417969, 66751.625000, 100118.960938, 123068.679688, 98080.882813, 80227.000000, 80119.445313, 142565.015625, 0, 1, 1, 0, 1,5.6021527E-4,7.420827E-4,9.1216335E-4,0.0028696368,0.00364448, 11:51:25.848
63806.652344, 66873.984375, 99901.117188, 122802.382813, 98226.617188, 80008.312500, 80139.875000, 142710.453125, 0, 1, 1, 0, 1,5.6021527E-4,7.420827E-4,9.1216335E-4,0.0028696368,0.00364448, 11:51:25.848
63621.535156, 66683.406250, 100054.718750, 122953.835938, 98167.070313, 80267.304688, 80307.062500, 142589.859375, 0, 1, 1, 0, 1,5.6021527E-4,7.420827E-4,9.1216335E-4,0.0028696368,0.00364448, 11:51:25.849
63484.785156, 66542.796875, 100294.484375, 123237.968750, 98020.289063, 80518.492188, 80297.742188, 142434.203125, 0, 1, 1, 0, 1,5.6021527E-4,7.420827E-4,9.1216335E-4,0.0028696368,0.00364448, 11:51:25.849
63633.445313, 66695.164063, 100184.312500, 123134.390625, 98035.687500, 80303.828125, 80110.796875, 142519.171875, 0, 1, 1, 0, 1,5.6021527E-4,7.420827E-4,9.1216335E-4,0.0028696368,0.00364448, 11:51:25.849
63791.429688, 66855.585938, 99936.679688, 122843.484375, 98177.265625, 80021.859375, 80079.054688, 142684.296875, 0, 1, 1, 0, 1,5.6021527E-4,7.420827E-4,9.1216335E-4,0.0028696368,0.00364448, 11:51:25.849
63676.183594, 66733.234375, 100015.070313, 122914.492188, 98185.843750, 80206.460938, 80253.757813, 142634.125000, 0, 1, 1, 0, 1,5.6021527E-4,7.420827E-4,9.1216335E-4,0.0028696368,0.00364448, 11:51:25.850
63495.089844, 66544.898438, 100284.476563, 123226.593750, 98029.382813, 80512.546875, 80288.781250, 142449.109375, 0, 1, 1, 0, 1,5.6021527E-4,7.420827E-4,9.1216335E-4,0.0028696368,0.00364448, 11:51:25.850
63614.984375, 66670.531250, 100236.593750, 123197.203125, 98018.921875, 80372.312500, 80118.195313, 142493.078125, 0, 1, 1, 0, 1,5.6021527E-4,7.420827E-4,9.1216335E-4,0.0028696368,0.00364448, 11:51:25.850
63824.687500, 66886.875000, 99956.257813, 122876.500000, 98190.804688, 80046.687500, 80067.210938, 142703.046875, 0, 1, 1, 0, 1,5.6021527E-4,7.420827E-4,9.1216335E-4,0.0028696368,0.00364448, 11:51:25.850
63716.640625, 66771.523438, 99986.187500, 122873.796875, 98214.882813, 80154.851563, 80235.156250, 142665.453125, 0, 1, 1, 0, 1,5.6021527E-4,7.420827E-4,9.1216335E-4,0.0028696368,0.00364448, 11:51:25.850
63500.343750, 66546.437500, 100270.968750, 123194.695313, 98056.453125, 80493.859375, 80315.851563, 142462.343750, 0, 1, 1, 0, 1,5.6021527E-4,7.420827E-4,9.1216335E-4,0.0028696368,0.00364448, 11:51:25.851
63578.707031, 66628.515625, 100292.789063, 123246.375000, 98011.414063, 80436.367188, 80164.687500, 142471.515625, 0, 1, 1, 0, 1,5.6021527E-4,7.420827E-4,9.1216335E-4,0.0028696368,0.00364448, 11:51:25.851
63793.710938, 66852.750000, 100017.187500, 122942.234375, 98156.945313, 80092.265625, 80059.921875, 142666.218750, 0, 1, 1, 0, 1,5.6021527E-4,7.420827E-4,9.1216335E-4,0.0028696368,0.00364448, 11:51:25.851
63739.214844, 66798.234375, 99974.320313, 122859.507813, 98216.179688, 80105.968750, 80197.945313, 142677.796875, 0, 1, 1, 0, 1,5.6021527E-4,7.420827E-4,9.1216335E-4,0.0028696368,0.00364448, 11:51:25.851
63516.457031, 66572.078125, 100240.687500, 123157.257813, 98081.617188, 80453.492188, 80315.648438, 142486.328125, 0, 1, 1, 0, 1,5.6021527E-4,7.420827E-4,9.1216335E-4,0.0028696368,0.00364448, 11:51:25.851
63530.339844, 66586.046875, 100337.421875, 123289.757813, 97999.031250, 80488.250000, 80192.578125, 142436.640625, 0, 1, 1, 0, 1,5.6021527E-4,7.420827E-4,9.1216335E-4,0.0028696368,0.00364448, 11:51:25.851
63768.964844, 66831.984375, 100070.882813, 123006.492188, 98137.500000, 80142.335938, 80059.031250, 142637.203125, 0, 1, 1, 0, 1,5.6021527E-4,7.420827E-4,9.1216335E-4,0.0028696368,0.00364448, 11:51:25.851
63766.597656, 66828.203125, 99953.242188, 122843.242188, 98229.406250, 80063.656250, 80161.601563, 142691.906250, 0, 1, 1, 0, 1,5.6021527E-4,7.420827E-4,9.1216335E-4,0.0028696368,0.00364448, 11:51:25.851
63544.152344, 66595.609375, 100186.171875, 123096.953125, 98108.687500, 80391.000000, 80303.828125, 142509.171875, 0, 1, 1, 0, 1,5.6021527E-4,7.420827E-4,9.1216335E-4,0.0028696368,0.00364448, 11:51:25.852
63515.316406, 66564.031250, 100332.554688, 123291.640625, 98004.953125, 80504.656250, 80213.835938, 142423.203125, 0, 1, 1, 0, 1,5.6021527E-4,7.420827E-4,9.1216335E-4,0.0028696368,0.00364448, 11:51:25.852
63749.296875, 66806.031250, 100101.859375, 123058.578125, 98114.546875, 80194.476563, 80054.734375, 142606.765625, 0, 1, 1, 0, 1,5.6021527E-4,7.420827E-4,9.1216335E-4,0.0028696368,0.00364448, 11:51:25.852
63830.121094, 66889.851563, 99916.609375, 122825.828125, 98255.539063, 80037.210938, 80132.812500, 142731.343750, 0, 1, 1, 0, 1,5.6021527E-4,7.420827E-4,9.1216335E-4,0.0028696368,0.00364448, 11:51:25.852
63603.609375, 66653.882813, 100113.367188, 123023.125000, 98167.898438, 80335.656250, 80296.203125, 142565.843750, 0, 1, 1, 0, 1,5.6021527E-4,7.420827E-4,9.1216335E-4,0.0028696368,0.00364448, 11:51:25.852
63494.910156, 66544.226563, 100324.640625, 123275.343750, 98026.187500, 80528.234375, 80247.585938, 142426.000000, 0, 1, 1, 0, 1,5.6021527E-4,7.420827E-4,9.1216335E-4,0.0028696368,0.00364448, 11:51:25.852
63681.457031, 66739.804688, 100160.843750, 123113.445313, 98082.312500, 80263.617188, 80071.257813, 142551.468750, 0, 1, 1, 0, 1,5.6021527E-4,7.420827E-4,9.1216335E-4,0.0028696368,0.00364448, 11:51:25.852
63831.347656, 66890.609375, 99923.851563, 122829.781250, 98244.984375, 80023.156250, 80090.234375, 142711.078125, 0, 1, 1, 0, 1,5.6021527E-4,7.420827E-4,9.1216335E-4,0.0028696368,0.00364448, 11:51:25.852
63656.828125, 66709.492188, 100055.054688, 122952.273438, 98205.515625, 80259.835938, 80261.515625, 142599.812500, 0, 1, 1, 0, 1,5.6021527E-4,7.420827E-4,9.1216335E-4,0.0028696368,0.00364448, 11:51:25.852
63503.382813, 66554.351563, 100299.851563, 123240.093750, 98058.351563, 80521.554688, 80263.257813, 142430.828125, 0, 1, 1, 0, 1,5.6021527E-4,7.420827E-4,9.1216335E-4,0.0028696368,0.00364448, 11:51:25.853
63646.007813, 66698.898438, 100207.382813, 123156.765625, 98076.164063, 80330.757813, 80089.070313, 142508.140625, 0, 1, 1, 0, 1,5.6021527E-4,7.420827E-4,9.1216335E-4,0.0028696368,0.00364448, 11:51:25.853
63802.875000, 66862.203125, 99952.773438, 122857.054688, 98218.679688, 80035.421875, 80046.375000, 142676.703125, 0, 1, 1, 0, 1,5.6021527E-4,7.420827E-4,9.1216335E-4,0.0028696368,0.00364448, 11:51:25.853
63677.031250, 66734.062500, 100020.562500, 122905.976563, 98227.773438, 80197.070313, 80219.828125, 142622.281250, 0, 1, 1, 0, 1,5.6021527E-4,7.420827E-4,9.1216335E-4,0.0028696368,0.00364448, 11:51:25.853
63523.343750, 66570.843750, 100276.335938, 123208.156250, 98096.125000, 80508.273438, 80282.320313, 142462.390625, 0, 1, 1, 0, 1,5.6021527E-4,7.420827E-4,9.1216335E-4,0.0028696368,0.00364448, 11:51:25.853
63621.867188, 66674.179688, 100244.375000, 123197.203125, 98077.796875, 80395.648438, 80125.164063, 142501.187500, 0, 1, 1, 0, 1,5.6021527E-4,7.420827E-4,9.1216335E-4,0.0028696368,0.00364448, 11:51:25.853
63816.464844, 66874.875000, 99971.992188, 122883.093750, 98223.710938, 80065.507813, 80037.171875, 142687.765625, 0, 1, 1, 0, 1,5.6021527E-4,7.420827E-4,9.1216335E-4,0.0028696368,0.00364448, 11:51:25.853
63758.214844, 66811.421875, 99963.281250, 122843.664063, 98285.109375, 80142.289063, 80206.703125, 142696.484375, 0, 1, 1, 0, 1,5.6021527E-4,7.420827E-4,9.1216335E-4,0.0028696368,0.00364448, 11:51:25.854
63517.777344, 66558.281250, 100252.640625, 123161.328125, 98113.960938, 80487.601563, 80287.531250, 142467.484375, 0, 1, 1, 0, 1,5.6021527E-4,7.420827E-4,9.1216335E-4,0.0028696368,0.00364448, 11:51:25.854
63565.183594, 66607.390625, 100298.710938, 123238.976563, 98054.640625, 80454.539063, 80135.671875, 142454.234375, 0, 1, 1, 0, 1,5.6021527E-4,7.420827E-4,9.1216335E-4,0.0028696368,0.00364448, 11:51:25.854
63802.203125, 66850.312500, 100020.117188, 122934.570313, 98204.867188, 80104.312500, 80015.914063, 142660.937500, 0, 1, 1, 0, 1,5.6021527E-4,7.420827E-4,9.1216335E-4,0.0028696368,0.00364448, 11:51:25.854
63783.941406, 66830.726563, 99940.257813, 122815.726563, 98304.351563, 80090.835938, 80157.734375, 142715.968750, 0, 1, 1, 0, 1,5.6021527E-4,7.420827E-4,9.1216335E-4,0.0028696368,0.00364448, 11:51:25.854
63549.046875, 66585.195313, 100201.281250, 123099.656250, 98164.992188, 80434.515625, 80284.445313, 142519.187500, 0, 1, 1, 0, 1,5.6021527E-4,7.420827E-4,9.1216335E-4,0.0028696368,0.00364448, 11:51:25.854
63536.550781, 66573.617188, 100309.906250, 123241.906250, 98068.992188, 80487.531250, 80178.812500, 142453.578125, 0, 1, 1, 0, 1,5.6021527E-4,7.420827E-4,9.1216335E-4,0.0028696368,0.00364448, 11:51:25.854
63753.183594, 66802.523438, 100054.812500, 122971.406250, 98170.960938, 80147.562500, 80022.796875, 142623.640625, 0, 1, 1, 0, 1,5.6021527E-4,7.420827E-4,9.1216335E-4,0.0028696368,0.00364448, 11:51:25.854
63779.000000, 66832.875000, 99899.085938, 122774.750000, 98283.945313, 80037.546875, 80112.609375, 142712.953125, 0, 1, 1, 0, 1,5.6021527E-4,7.420827E-4,9.1216335E-4,0.0028696368,0.00364448, 11:51:25.855
63549.738281, 66593.039063, 100117.257813, 123009.734375, 98173.460938, 80355.882813, 80262.429688, 142531.093750, 0, 1, 1, 0, 1,5.6021527E-4,7.420827E-4,9.1216335E-4,0.0028696368,0.00364448, 11:51:25.855
63502.488281, 66548.117188, 100278.726563, 123213.984375, 98061.617188, 80487.937500, 80198.210938, 142439.078125, 0, 1, 1, 0, 1,5.6021527E-4,7.420827E-4,9.1216335E-4,0.0028696368,0.00364448, 11:51:25.855
63696.324219, 66754.312500, 100068.398438, 122995.859375, 98148.984375, 80189.695313, 80029.992188, 142594.734375, 0, 1, 1, 0, 1,5.6021527E-4,7.420827E-4,9.1216335E-4,0.0028696368,0.00364448, 11:51:25.855
63757.945313, 66811.531250, 99879.593750, 122751.085938, 98272.031250, 80006.234375, 80067.742188, 142697.843750, 0, 1, 1, 0, 1,5.6021527E-4,7.420827E-4,9.1216335E-4,0.0028696368,0.00364448, 11:51:25.856
63565.656250, 66609.203125, 100055.140625, 122925.445313, 98204.265625, 80282.945313, 80233.414063, 142562.125000, 0, 1, 1, 0, 1,5.6021527E-4,7.420827E-4,9.1216335E-4,0.0028696368,0.00364448, 11:51:25.856
63447.769531, 66488.546875, 100274.882813, 123186.000000, 98067.289063, 80496.406250, 80211.671875, 142418.984375, 0, 1, 1, 0, 1,5.6021527E-4,7.420827E-4,9.1216335E-4,0.0028696368,0.00364448, 11:51:25.856
63619.523438, 66665.234375, 100130.023438, 123044.492188, 98111.054688, 80253.914063, 80042.265625, 142532.640625, 0, 1, 1, 0, 1,5.6021527E-4,7.420827E-4,9.1216335E-4,0.0028696368,0.00364448, 11:51:25.856
63761.300781, 66809.515625, 99889.476563, 122754.835938, 98259.765625, 79998.703125, 80046.804688, 142694.843750, 0, 1, 1, 0, 1,5.6021527E-4,7.420827E-4,9.1216335E-4,0.0028696368,0.00364448, 11:51:25.856
63628.195313, 66669.125000, 99989.070313, 122849.226563, 98253.859375, 80209.187500, 80237.218750, 142618.562500, 0, 1, 1, 0, 1,5.6021527E-4,7.420827E-4,9.1216335E-4,0.0028696368,0.00364448, 11:51:25.856
63454.609375, 66490.421875, 100244.578125, 123145.835938, 98098.648438, 80487.804688, 80258.984375, 142434.296875, 0, 1, 1, 0, 1,5.6021527E-4,7.420827E-4,9.1216335E-4,0.0028696368,0.00364448, 11:51:25.856
63586.242188, 66625.695313, 100169.789063, 123084.484375, 98103.296875, 80319.648438, 80083.929688, 142502.203125, 0, 1, 1, 0, 1,5.6021527E-4,7.420827E-4,9.1216335E-4,0.0028696368,0.00364448, 11:51:25.857
63773.972656, 66816.265625, 99899.398438, 122773.234375, 98261.460938, 80019.085938, 80039.289063, 142693.546875, 0, 1, 1, 0, 1,5.6021527E-4,7.420827E-4,9.1216335E-4,0.0028696368,0.00364448, 11:51:25.857
63660.359375, 66695.343750, 99946.421875, 122798.398438, 98275.835938, 80161.710938, 80212.562500, 142645.156250, 0, 1, 1, 0, 1,5.6021527E-4,7.420827E-4,9.1216335E-4,0.0028696368,0.00364448, 11:51:25.857
63433.445313, 66460.429688, 100231.273438, 123116.890625, 98100.039063, 80485.703125, 80262.406250, 142423.234375, 0, 1, 1, 0, 1,5.6021527E-4,7.420827E-4,9.1216335E-4,0.0028696368,0.00364448, 11:51:25.857
63544.957031, 66580.281250, 100214.218750, 123130.812500, 98073.570313, 80389.234375, 80094.429688, 142462.703125, 0, 1, 1, 0, 1,5.6021527E-4,7.420827E-4,9.1216335E-4,0.0028696368,0.00364448, 11:51:25.857
63767.667969, 66810.617188, 99925.148438, 122813.601563, 98236.562500, 80051.382813, 80008.156250, 142672.500000, 0, 1, 1, 0, 1,5.6021527E-4,7.420827E-4,9.1216335E-4,0.0028696368,0.00364448, 11:51:25.857
63699.273438, 66738.890625, 99903.218750, 122758.164063, 98284.664063, 80103.820313, 80156.101563, 142663.828125, 0, 1, 1, 0, 1,5.6021527E-4,7.420827E-4,9.1216335E-4,0.0028696368,0.00364448, 11:51:25.858
63499.226563, 66533.226563, 100161.609375, 123051.195313, 98155.937500, 80440.593750, 80267.953125, 142488.765625, 0, 1, 1, 0, 1,5.6021527E-4,7.420827E-4,9.1216335E-4,0.0028696368,0.00364448, 11:51:25.858
63514.109375, 66549.546875, 100233.960938, 123151.554688, 98089.937500, 80442.960938, 80143.429688, 142446.515625, 0, 1, 1, 0, 1,5.6021527E-4,7.420827E-4,9.1216335E-4,0.0028696368,0.00364448, 11:51:25.858
63704.859375, 66749.726563, 99984.062500, 122873.500000, 98192.375000, 80107.953125, 79996.531250, 142601.375000, 0, 1, 1, 0, 1,5.6021527E-4,7.420827E-4,9.1216335E-4,0.0028696368,0.00364448, 11:51:25.858
63696.523438, 66739.492188, 99897.187500, 122745.023438, 98281.195313, 80072.281250, 80110.304688, 142658.968750, 0, 1, 1, 0, 1,5.6021527E-4,7.420827E-4,9.1216335E-4,0.0028696368,0.00364448, 11:51:25.858
63509.371094, 66543.312500, 100127.007813, 123006.875000, 98184.328125, 80407.757813, 80259.164063, 142508.578125, 0, 1, 1, 0, 1,5.6021527E-4,7.420827E-4,9.1216335E-4,0.0028696368,0.00364448, 11:51:25.858
63459.328125, 66493.289063, 100265.429688, 123179.539063, 98077.531250, 80494.531250, 80163.523438, 142411.812500, 0, 1, 1, 0, 1,5.6021527E-4,7.420827E-4,9.1216335E-4,0.0028696368,0.00364448, 11:51:25.858
63699.945313, 66740.273438, 100023.921875, 122929.851563, 98180.500000, 80168.578125, 79998.007813, 142592.140625, 0, 1, 1, 0, 1,5.6021527E-4,7.420827E-4,9.1216335E-4,0.0028696368,0.00364448, 11:51:25.858
63767.378906, 66808.710938, 99859.367188, 122725.062500, 98313.406250, 80043.156250, 80089.695313, 142709.328125, 0, 1, 1, 0, 1,5.6021527E-4,7.420827E-4,9.1216335E-4,0.0028696368,0.00364448, 11:51:25.858
63543.617188, 66577.929688, 100078.414063, 122955.734375, 98209.695313, 80360.039063, 80252.906250, 142535.703125, 0, 1, 1, 0, 1,0.0,0.0,0.0,0.0,0.0, 11:51:26.317
63441.335938, 66476.164063, 100278.796875, 123193.554688, 98067.468750, 80522.984375, 80185.296875, 142389.859375, 0, 1, 1, 0, 1,0.0,0.0,0.0,0.0,0.0, 11:51:26.317
63652.042969, 66697.734375, 100089.500000, 123007.281250, 98142.953125, 80237.593750, 79998.117188, 142535.500000, 0, 1, 1, 0, 1,0.0,0.0,0.0,0.0,0.0, 11:51:26.317
63774.574219, 66819.289063, 99871.750000, 122745.671875, 98299.484375, 80033.859375, 80030.304688, 142683.937500, 0, 1, 1, 0, 1,0.0,0.0,0.0,0.0,0.0, 11:51:26.317
63577.613281, 66613.093750, 100031.812500, 122903.007813, 98238.796875, 80300.070313, 80200.781250, 142550.796875, 0, 1, 1, 0, 1,0.0,0.0,0.0,0.0,0.0, 11:51:26.317
63429.753906, 66459.375000, 100277.054688, 123188.078125, 98084.078125, 80537.445313, 80179.976563, 142382.734375, 0, 1, 1, 0, 1,0.0,0.0,0.0,0.0,0.0, 11:51:26.317
63623.164063, 66662.757813, 100140.171875, 123064.320313, 98139.960938, 80309.414063, 79996.867188, 142516.328125, 0, 1, 1, 0, 1,0.0,0.0,0.0,0.0,0.0, 11:51:26.317
63785.437500, 66832.335938, 99881.921875, 122767.312500, 98313.562500, 80043.984375, 79989.984375, 142707.968750, 0, 1, 1, 0, 1,0.0,0.0,0.0,0.0,0.0, 11:51:26.318
63605.531250, 66642.531250, 99991.687500, 122862.148438, 98277.421875, 80250.562500, 80156.906250, 142589.906250, 0, 1, 1, 0, 1,0.0,0.0,0.0,0.0,0.0, 11:51:26.318
63421.574219, 66452.093750, 100255.750000, 123167.742188, 98106.851563, 80538.718750, 80174.273438, 142395.531250, 0, 1, 1, 0, 1,0.0,0.0,0.0,0.0,0.0, 11:51:26.318
63576.851563, 66616.710938, 100183.820313, 123117.960938, 98121.718750, 80387.148438, 80014.078125, 142480.562500, 0, 1, 1, 0, 1,0.0,0.0,0.0,0.0,0.0, 11:51:26.318
63765.925781, 66809.609375, 99914.085938, 122804.031250, 98278.781250, 80076.687500, 79967.656250, 142663.265625, 0, 1, 1, 0, 1,0.0,0.0,0.0,0.0,0.0, 11:51:26.318
63648.871094, 66683.117188, 99956.531250, 122813.890625, 98280.640625, 80190.882813, 80132.875000, 142603.718750, 0, 1, 1, 0, 1,0.0,0.0,0.0,0.0,0.0, 11:51:26.318
63461.988281, 66489.351563, 100224.484375, 123119.906250, 98137.632813, 80513.664063, 80209.632813, 142424.593750, 0, 1, 1, 0, 1,0.0,0.0,0.0,0.0,0.0, 11:51:26.318
63524.484375, 66555.421875, 100239.414063, 123159.984375, 98090.851563, 80447.476563, 80054.335938, 142428.640625, 0, 1, 1, 0, 1,0.0,0.0,0.0,0.0,0.0, 11:51:26.318
63734.656250, 66773.242188, 99970.226563, 122860.406250, 98220.492188, 80109.429688, 79937.593750, 142615.656250, 0, 1, 1, 0, 1,0.0,0.0,0.0,0.0,0.0, 11:51:26.319
63680.183594, 66716.179688, 99933.015625, 122786.937500, 98278.648438, 80136.859375, 80068.039063, 142625.421875, 0, 1, 1, 0, 1,0.0,0.0,0.0,0.0,0.0, 11:51:26.319
63477.855469, 66509.085938, 100190.328125, 123078.515625, 98149.570313, 80476.804688, 80180.664063, 142447.296875, 0, 1, 1, 0, 1,0.0,0.0,0.0,0.0,0.0, 11:51:26.319
63504.566406, 66533.226563, 100271.015625, 123193.000000, 98085.304688, 80497.726563, 80066.179688, 142415.765625, 0, 1, 1, 0, 1,0.0,0.0,0.0,0.0,0.0, 11:51:26.319
63729.089844, 66765.906250, 100014.687500, 122914.117188, 98213.539063, 80161.421875, 79929.414063, 142601.687500, 0, 1, 1, 0, 1,0.0,0.0,0.0,0.0,0.0, 11:51:26.319
63720.441406, 66759.359375, 99904.492188, 122759.328125, 98309.000000, 80098.437500, 80043.023438, 142660.031250, 0, 1, 1, 0, 1,0.0,0.0,0.0,0.0,0.0, 11:51:26.319
63486.285156, 66515.523438, 100151.054688, 123024.375000, 98183.476563, 80432.500000, 80189.453125, 142465.875000, 0, 1, 1, 0, 1,0.0,0.0,0.0,0.0,0.0, 11:51:26.319
63451.882813, 66477.953125, 100300.523438, 123214.367188, 98079.828125, 80536.929688, 80107.460938, 142381.796875, 0, 1, 1, 0, 1,0.0,0.0,0.0,0.0,0.0, 11:51:26.319
63657.566406, 66692.890625, 100076.132813, 122982.937500, 98167.539063, 80221.234375, 79931.085938, 142540.906250, 0, 1, 1, 0, 1,0.0,0.0,0.0,0.0,0.0, 11:51:26.320
63734.925781, 66771.500000, 99895.242188, 122760.781250, 98295.484375, 80068.054688, 79993.000000, 142657.953125, 0, 1, 1, 0, 1,0.0,0.0,0.0,0.0,0.0, 11:51:26.320
63538.003906, 66565.546875, 100090.820313, 122970.820313, 98218.296875, 80372.062500, 80162.539063, 142515.390625, 0, 1, 1, 0, 1,0.0,0.0,0.0,0.0,0.0, 11:51:26.320
63446.652344, 66475.804688, 100288.539063, 123214.390625, 98090.562500, 80556.914063, 80116.453125, 142391.921875, 0, 1, 1, 0, 1,0.0,0.0,0.0,0.0,0.0, 11:51:26.320
63637.136719, 66673.039063, 100116.031250, 123045.187500, 98157.171875, 80293.343750, 79935.468750, 142527.718750, 0, 1, 1, 0, 1,0.0,0.0,0.0,0.0,0.0, 11:51:26.320
63751.664063, 66787.500000, 99900.539063, 122783.093750, 98303.507813, 80073.023438, 79951.132813, 142669.765625, 0, 1, 1, 0, 1,0.0,0.0,0.0,0.0,0.0, 11:51:26.320
63581.187500, 66609.445313, 100038.492188, 122917.468750, 98252.992188, 80311.289063, 80131.648438, 142544.625000, 0, 1, 1, 0, 1,0.0,0.0,0.0,0.0,0.0, 11:51:26.320
63429.621094, 66456.406250, 100279.843750, 123199.523438, 98102.898438, 80556.664063, 80135.156250, 142366.328125, 0, 1, 1, 0, 1,0.0,0.0,0.0,0.0,0.0, 11:51:26.320
63567.285156, 66594.429688, 100178.007813, 123107.164063, 98116.375000, 80354.476563, 79948.210938, 142447.421875, 0, 1, 1, 0, 1,0.0,0.0,0.0,0.0,0.0, 11:51:26.320
63751.753906, 66781.648438, 99910.531250, 122800.414063, 98278.250000, 80064.039063, 79922.328125, 142640.109375, 0, 1, 1, 0, 1,0.0,0.0,0.0,0.0,0.0, 11:51:26.320
63609.664063, 66633.609375, 99986.031250, 122859.015625, 98276.726563, 80235.851563, 80106.015625, 142567.218750, 0, 1, 1, 0, 1,0.0,0.0,0.0,0.0,0.0, 11:51:26.321
63420.859375, 66441.320313, 100251.523438, 123164.164063, 98116.937500, 80534.984375, 80141.398438, 142382.953125, 0, 1, 1, 0, 1,0.0,0.0,0.0,0.0,0.0, 11:51:26.321
63526.425781, 66552.250000, 100213.531250, 123147.203125, 98098.492188, 80408.656250, 79955.960938, 142424.187500, 0, 1, 1, 0, 1,0.0,0.0,0.0,0.0,0.0, 11:51:26.321
63729.941406, 66764.101563, 99931.695313, 122834.609375, 98251.132813, 80084.890625, 79877.265625, 142621.015625, 0, 1, 1, 0, 1,0.0,0.0,0.0,0.0,0.0, 11:51:26.322
63620.796875, 66644.359375, 99948.664063, 122822.875000, 98268.414063, 80176.937500, 80038.039063, 142575.609375, 0, 1, 1, 0, 1,0.0,0.0,0.0,0.0,0.0, 11:51:26.322
63435.902344, 66453.117188, 100210.109375, 123126.210938, 98125.250000, 80504.742188, 80115.421875, 142394.156250, 0, 1, 1, 0, 1,0.0,0.0,0.0,0.0,0.0, 11:51:26.323
63515.296875, 66541.968750, 100227.718750, 123177.914063, 98100.171875, 80463.054688, 79964.367188, 142425.625000, 0, 1, 1, 0, 1,0.0,0.0,0.0,0.0,0.0, 11:51:26.323
63729.539063, 66762.671875, 99953.781250, 122877.078125, 98247.960938, 80131.203125, 79839.265625, 142619.500000, 0, 1, 1, 0, 1,0.0,0.0,0.0,0.0,0.0, 11:51:26.323
63684.230469, 66709.453125, 99902.437500, 122783.695313, 98306.859375, 80138.312500, 79954.843750, 142629.140625, 0, 1, 1, 0, 1,0.0,0.0,0.0,0.0,0.0, 11:51:26.323
63464.667969, 66482.421875, 100161.781250, 123068.859375, 98165.281250, 80478.148438, 80071.187500, 142440.578125, 0, 1, 1, 0, 1,0.0,0.0,0.0,0.0,0.0, 11:51:26.324
63459.460938, 66477.171875, 100270.367188, 123211.195313, 98072.343750, 80523.968750, 79946.171875, 142377.750000, 0, 1, 1, 0, 1,0.0,0.0,0.0,0.0,0.0, 11:51:26.324
63684.363281, 66714.187500, 100016.695313, 122941.875000, 98191.679688, 80190.320313, 79783.656250, 142565.515625, 0, 1, 1, 0, 1,0.0,0.0,0.0,0.0,0.0, 11:51:26.324
63712.816406, 66741.546875, 99880.265625, 122767.195313, 98302.078125, 80100.156250, 79873.796875, 142650.531250, 0, 1, 1, 0, 1,0.0,0.0,0.0,0.0,0.0, 11:51:26.324
63483.355469, 66501.218750, 100112.140625, 123016.289063, 98182.382813, 80426.851563, 80025.296875, 142463.953125, 0, 1, 1, 0, 1,0.0,0.0,0.0,0.0,0.0, 11:51:26.324
63445.246094, 66458.015625, 100271.085938, 123216.023438, 98072.320313, 80551.929688, 79950.312500, 142384.234375, 0, 1, 1, 0, 1,0.0,0.0,0.0,0.0,0.0, 11:51:26.324
63674.058594, 66696.843750, 100055.367188, 122997.890625, 98175.273438, 80256.796875, 79782.156250, 142559.593750, 0, 1, 1, 0, 1,0.0,0.0,0.0,0.0,0.0, 11:51:26.324
63758.371094, 66785.804688, 99862.273438, 122760.289063, 98314.437500, 80084.507813, 79839.804688, 142659.781250, 0, 1, 1, 0, 1,0.0,0.0,0.0,0.0,0.0, 11:51:26.324
63549.605469, 66567.804688, 100044.546875, 122947.218750, 98232.117188, 80369.937500, 80009.140625, 142520.343750, 0, 1, 1, 0, 1,0.0,0.0,0.0,0.0,0.0, 11:51:26.324
63409.773438, 66422.609375, 100273.968750, 123214.609375, 98071.648438, 80579.062500, 79953.843750, 142348.843750, 0, 1, 1, 0, 1,0.0,0.0,0.0,0.0,0.0, 11:51:26.325
63599.695313, 66619.867188, 100122.085938, 123070.492188, 98108.664063, 80327.453125, 79735.062500, 142469.562500, 0, 1, 1, 0, 1,0.0,0.0,0.0,0.0,0.0, 11:51:26.325
63743.128906, 66765.976563, 99878.164063, 122787.781250, 98269.734375, 80081.804688, 79731.218750, 142645.000000, 0, 1, 1, 0, 1,0.0,0.0,0.0,0.0,0.0, 11:51:26.325
63553.226563, 66570.687500, 100007.531250, 122912.929688, 98222.992188, 80309.632813, 79896.843750, 142525.468750, 0, 1, 1, 0, 1,0.0,0.0,0.0,0.0,0.0, 11:51:26.325
63405.347656, 66419.968750, 100260.468750, 123213.453125, 98078.046875, 80576.625000, 79911.171875, 142359.687500, 0, 1, 1, 0, 1,0.0,0.0,0.0,0.0,0.0, 11:51:26.325
63562.035156, 66581.398438, 100166.187500, 123139.710938, 98107.304688, 80393.546875, 79741.656250, 142447.625000, 0, 1, 1, 0, 1,0.0,0.0,0.0,0.0,0.0, 11:51:26.325
63717.156250, 66746.687500, 99906.507813, 122841.046875, 98254.062500, 80100.289063, 79704.929688, 142620.750000, 0, 1, 1, 0, 1,0.0,0.0,0.0,0.0,0.0, 11:51:26.325
63602.132813, 66629.382813, 99958.296875, 122878.468750, 98258.171875, 80249.531250, 79891.570313, 142579.515625, 0, 1, 1, 0, 1,0.0,0.0,0.0,0.0,0.0, 11:51:26.325
63428.011719, 66450.414063, 100218.554688, 123182.000000, 98124.132813, 80564.242188, 79985.445313, 142414.781250, 0, 1, 1, 0, 1,0.0,0.0,0.0,0.0,0.0, 11:51:26.325
63510.960938, 66539.664063, 100204.250000, 123190.093750, 98092.234375, 80468.085938, 79836.671875, 142438.593750, 0, 1, 1, 0, 1,0.0,0.0,0.0,0.0,0.0, 11:51:26.326
63702.804688, 66738.351563, 99932.429688, 122887.226563, 98224.718750, 80140.054688, 79737.093750, 142617.406250, 0, 1, 1, 0, 1,0.0,0.0,0.0,0.0,0.0, 11:51:26.326
63649.519531, 66679.679688, 99913.609375, 122843.929688, 98277.132813, 80203.960938, 79893.070313, 142624.515625, 0, 1, 1, 0, 1,0.0,0.0,0.0,0.0,0.0, 11:51:26.326
63422.445313, 66445.382813, 100187.757813, 123154.460938, 98134.640625, 80550.343750, 80005.875000, 142420.390625, 0, 1, 1, 0, 1,0.0,0.0,0.0,0.0,0.0, 11:51:26.326
63442.250000, 66467.648438, 100254.882813, 123253.546875, 98053.992188, 80538.296875, 79867.179688, 142376.000000, 0, 1, 1, 0, 1,0.0,0.0,0.0,0.0,0.0, 11:51:26.326
63668.406250, 66706.390625, 99983.218750, 122965.007813, 98179.812500, 80194.523438, 79731.820313, 142565.875000, 0, 1, 1, 0, 1,0.0,0.0,0.0,0.0,0.0, 11:51:26.326
63671.019531, 66710.101563, 99891.257813, 122841.359375, 98276.390625, 80165.359375, 79851.312500, 142620.906250, 0, 1, 1, 0, 1,0.0,0.0,0.0,0.0,0.0, 11:51:26.326
63457.582031, 66487.671875, 100137.289063, 123115.859375, 98164.429688, 80503.960938, 79991.773438, 142445.921875, 0, 1, 1, 0, 1,0.0,0.0,0.0,0.0,0.0, 11:51:26.326
63430.558594, 66462.460938, 100263.976563, 123280.039063, 98060.765625, 80577.500000, 79885.468750, 142369.593750, 0, 1, 1, 0, 1,0.0,0.0,0.0,0.0,0.0, 11:51:26.326
63643.347656, 66680.078125, 100025.101563, 123031.101563, 98151.671875, 80248.773438, 79699.031250, 142523.687500, 0, 1, 1, 0, 1,0.0,0.0,0.0,0.0,0.0, 11:51:26.327
63686.843750, 66724.226563, 99876.015625, 122839.726563, 98260.835938, 80127.734375, 79767.156250, 142609.843750, 0, 1, 1, 0, 1,0.0,0.0,0.0,0.0,0.0, 11:51:26.327
63479.757813, 66509.914063, 100084.718750, 123064.367188, 98175.093750, 80436.039063, 79940.031250, 142453.187500, 0, 1, 1, 0, 1,0.0,0.0,0.0,0.0,0.0, 11:51:26.327
63410.710938, 66437.070313, 100263.125000, 123282.117188, 98056.070313, 80582.820313, 79888.640625, 142339.718750, 0, 1, 1, 0, 1,0.0,0.0,0.0,0.0,0.0, 11:51:26.327
63630.003906, 66661.929688, 100058.945313, 123078.648438, 98138.234375, 80292.421875, 79716.039063, 142503.906250, 0, 1, 1, 0, 1,0.0,0.0,0.0,0.0,0.0, 11:51:26.327
63713.511719, 66747.406250, 99854.359375, 122828.734375, 98265.664063, 80097.250000, 79749.140625, 142624.531250, 0, 1, 1, 0, 1,0.0,0.0,0.0,0.0,0.0, 11:51:26.327
63516.078125, 66541.718750, 100024.835938, 123000.929688, 98200.687500, 80364.796875, 79929.164063, 142483.656250, 0, 1, 1, 0, 1,0.0,0.0,0.0,0.0,0.0, 11:51:26.327
63391.691406, 66413.828125, 100252.242188, 123271.406250, 98055.242188, 80582.414063, 79920.828125, 142333.890625, 0, 1, 1, 0, 1,0.0,0.0,0.0,0.0,0.0, 11:51:26.327
63569.609375, 66594.382813, 100111.960938, 123140.648438, 98092.078125, 80344.953125, 79712.796875, 142441.875000, 0, 1, 1, 0, 1,0.0,0.0,0.0,0.0,0.0, 11:51:26.327
63724.171875, 66753.351563, 99857.195313, 122845.812500, 98257.484375, 80080.843750, 79661.210938, 142620.484375, 0, 1, 1, 0, 1,0.0,0.0,0.0,0.0,0.0, 11:51:26.327
63573.097656, 66597.804688, 99952.234375, 122930.343750, 98247.648438, 80279.773438, 79812.601563, 142536.781250, 0, 1, 1, 0, 1,0.0,0.0,0.0,0.0,0.0, 11:51:26.328
63395.980469, 66412.773438, 100214.218750, 123226.953125, 98091.054688, 80561.671875, 79823.085938, 142345.406250, 0, 1, 1, 0, 1,0.0,0.0,0.0,0.0,0.0, 11:51:26.328
63538.316406, 66562.085938, 100138.515625, 123166.625000, 98096.617188, 80397.632813, 79641.210938, 142422.968750, 0, 1, 1, 0, 1,0.0,0.0,0.0,0.0,0.0, 11:51:26.328
63732.777344, 66765.101563, 99851.187500, 122843.304688, 98259.804688, 80080.265625, 79582.625000, 142622.515625, 0, 1, 1, 0, 1,0.0,0.0,0.0,0.0,0.0, 11:51:26.328
63624.484375, 66650.437500, 99885.609375, 122852.046875, 98284.726563, 80205.585938, 79753.750000, 142575.484375, 0, 1, 1, 0, 1,0.0,0.0,0.0,0.0,0.0, 11:51:26.328
63433.847656, 66451.484375, 100154.007813, 123154.148438, 98136.093750, 80525.796875, 79824.203125, 142385.234375, 0, 1, 1, 0, 1,0.0,0.0,0.0,0.0,0.0, 11:51:26.328
63507.742188, 66528.445313, 100153.265625, 123176.593750, 98092.750000, 80442.828125, 79653.390625, 142405.859375, 0, 1, 1, 0, 1,0.0,0.0,0.0,0.0,0.0, 11:51:26.328
63720.886719, 66750.843750, 99864.281250, 122858.640625, 98240.632813, 80101.453125, 79532.960938, 142606.609375, 0, 1, 1, 0, 1,0.0,0.0,0.0,0.0,0.0, 11:51:26.328
63679.558594, 66703.953125, 99817.765625, 122776.695313, 98305.250000, 80132.210938, 79671.023438, 142622.500000, 0, 1, 1, 0, 1,0.0,0.0,0.0,0.0,0.0, 11:51:26.328
63444.394531, 66462.664063, 100084.265625, 123066.976563, 98165.414063, 80473.539063, 79795.859375, 142423.968750, 0, 1, 1, 0, 1,0.0,0.0,0.0,0.0,0.0, 11:51:26.329
63472.714844, 66506.226563, 100147.367188, 123158.937500, 98080.992188, 80471.773438, 79662.843750, 142393.453125, 0, 1, 1, 0, 1,0.0,0.0,0.0,0.0,0.0, 11:51:26.329
63724.015625, 66765.687500, 99857.351563, 122849.812500, 98213.156250, 80120.406250, 79517.046875, 142589.546875, 0, 1, 1, 0, 1,0.0,0.0,0.0,0.0,0.0, 11:51:26.329
63740.445313, 66782.898438, 99738.601563, 122686.242188, 98316.085938, 80064.859375, 79637.632813, 142653.250000, 0, 1, 1, 0, 1,0.0,0.0,0.0,0.0,0.0, 11:51:26.329
63543.527344, 66580.882813, 99966.765625, 122933.671875, 98211.414063, 80392.289063, 79793.515625, 142489.546875, 0, 1, 1, 0, 1,0.0,0.0,0.0,0.0,0.0, 11:51:26.329
63532.597656, 66574.804688, 100090.906250, 123088.992188, 98122.921875, 80475.757813, 79705.468750, 142426.187500, 0, 1, 1, 0, 1,0.0,0.0,0.0,0.0,0.0, 11:51:26.329
63729.785156, 66780.546875, 99860.351563, 122837.898438, 98205.132813, 80154.132813, 79525.539063, 142575.312500, 0, 1, 1, 0, 1,0.0,0.0,0.0,0.0,0.0, 11:51:26.329
63800.617188, 66856.882813, 99677.398438, 122608.257813, 98323.328125, 80002.906250, 79582.984375, 142685.312500, 0, 1, 1, 0, 1,0.0,0.0,0.0,0.0,0.0, 11:51:26.330
63627.234375, 66679.031250, 99850.156250, 122789.171875, 98255.468750, 80290.929688, 79752.046875, 142546.328125, 0, 1, 1, 0, 1,0.0,0.0,0.0,0.0,0.0, 11:51:26.330
63522.960938, 66572.921875, 100043.093750, 123009.265625, 98109.875000, 80456.734375, 79685.375000, 142405.437500, 0, 1, 1, 0, 1,0.0,0.0,0.0,0.0,0.0, 11:51:26.330
63721.601563, 66781.625000, 99843.804688, 122801.554688, 98183.476563, 80173.000000, 79489.664063, 142557.750000, 0, 1, 1, 0, 1,0.0,0.0,0.0,0.0,0.0, 11:51:26.330
63842.816406, 66905.406250, 99600.085938, 122505.125000, 98336.164063, 79943.914063, 79511.164063, 142712.125000, 0, 1, 1, 0, 1,0.0,0.0,0.0,0.0,0.0, 11:51:26.330
63662.906250, 66718.500000, 99726.304688, 122620.750000, 98287.476563, 80183.101563, 79687.031250, 142600.921875, 0, 1, 1, 0, 1,0.0,0.0,0.0,0.0,0.0, 11:51:26.330
63532.148438, 66585.445313, 99949.937500, 122873.390625, 98147.335938, 80417.640625, 79688.031250, 142455.468750, 0, 1, 1, 0, 1,0.0,0.0,0.0,0.0,0.0, 11:51:26.330
63688.746094, 66748.992188, 99823.492188, 122742.007813, 98173.710938, 80200.898438, 79503.523438, 142548.781250, 0, 1, 1, 0, 1,0.0,0.0,0.0,0.0,0.0, 11:51:26.330
63825.089844, 66886.406250, 99567.718750, 122428.929688, 98307.906250, 79917.070313, 79458.507813, 142690.046875, 0, 1, 1, 0, 1,0.0,0.0,0.0,0.0,0.0, 11:51:26.331
63690.378906, 66748.835938, 99647.562500, 122484.000000, 98299.257813, 80090.367188, 79634.343750, 142616.265625, 0, 1, 1, 0, 1,0.0,0.0,0.0,0.0,0.0, 11:51:26.331
63527.121094, 66582.421875, 99909.210938, 122775.828125, 98167.875000, 80386.234375, 79694.046875, 142459.265625, 0, 1, 1, 0, 1,0.0,0.0,0.0,0.0,0.0, 11:51:26.331
63654.679688, 66713.453125, 99861.804688, 122736.757813, 98170.804688, 80254.765625, 79530.210938, 142519.875000, 0, 1, 1, 0, 1,0.0,0.0,0.0,0.0,0.0, 11:51:26.333
63836.914063, 66896.734375, 99596.445313, 122423.406250, 98317.679688, 79944.382813, 79452.421875, 142692.453125, 0, 1, 1, 0, 1,0.0,0.0,0.0,0.0,0.0, 11:51:26.333
63751.417969, 66805.468750, 99619.507813, 122409.812500, 98347.648438, 80047.945313, 79615.882813, 142666.437500, 0, 1, 1, 0, 1,0.0,0.0,0.0,0.0,0.0, 11:51:26.333
63557.941406, 66603.320313, 99903.312500, 122719.500000, 98207.507813, 80386.171875, 79717.335938, 142485.687500, 0, 1, 1, 0, 1,0.0,0.0,0.0,0.0,0.0, 11:51:26.333
63597.773438, 66645.367188, 99949.625000, 122782.507813, 98148.203125, 80345.601563, 79566.375000, 142473.609375, 0, 1, 1, 0, 1,0.0,0.0,0.0,0.0,0.0, 11:51:26.333
63811.656250, 66868.281250, 99680.398438, 122479.687500, 98276.054688, 80012.156250, 79437.671875, 142666.312500, 0, 1, 1, 0, 1,0.0,0.0,0.0,0.0,0.0, 11:51:26.333
63759.445313, 66816.890625, 99640.140625, 122393.703125, 98338.484375, 80031.289063, 79565.140625, 142679.515625, 0, 1, 1, 0, 1,0.0,0.0,0.0,0.0,0.0, 11:51:26.333
63547.972656, 66598.335938, 99918.125000, 122694.843750, 98215.531250, 80375.953125, 79694.515625, 142497.375000, 0, 1, 1, 0, 1,0.0,0.0,0.0,0.0,0.0, 11:51:26.334
63564.000000, 66610.968750, 100022.914063, 122829.960938, 98150.328125, 80417.906250, 79596.882813, 142465.437500, 0, 1, 1, 0, 1,0.0,0.0,0.0,0.0,0.0, 11:51:26.334
63769.859375, 66822.257813, 99783.812500, 122569.992188, 98250.265625, 80097.250000, 79439.039063, 142625.609375, 0, 1, 1, 0, 1,0.0,0.0,0.0,0.0,0.0, 11:51:26.334
63809.175781, 66860.031250, 99663.453125, 122406.906250, 98364.750000, 80018.437500, 79545.515625, 142710.250000, 0, 1, 1, 0, 1,0.0,0.0,0.0,0.0,0.0, 11:51:26.334
63565.878906, 66608.617188, 99924.320313, 122676.695313, 98237.007813, 80353.984375, 79702.789063, 142522.546875, 0, 1, 1, 0, 1,0.0,0.0,0.0,0.0,0.0, 11:51:26.334
63543.437500, 66586.757813, 100091.710938, 122881.906250, 98146.281250, 80472.062500, 79635.039063, 142452.359375, 0, 1, 1, 0, 1,0.0,0.0,0.0,0.0,0.0, 11:51:26.334
63734.523438, 66785.601563, 99890.523438, 122671.781250, 98229.632813, 80175.929688, 79459.265625, 142599.140625, 0, 1, 1, 0, 1,0.0,0.0,0.0,0.0,0.0, 11:51:26.334
63787.628906, 66838.039063, 99724.671875, 122459.343750, 98338.398438, 80019.445313, 79496.234375, 142689.109375, 0, 1, 1, 0, 1,0.0,0.0,0.0,0.0,0.0, 11:51:26.334
63595.269531, 66641.296875, 99921.812500, 122666.148438, 98272.257813, 80304.117188, 79668.343750, 142545.578125, 0, 1, 1, 0, 1,0.0,0.0,0.0,0.0,0.0, 11:51:26.796
63496.585938, 66537.812500, 100141.312500, 122927.078125, 98142.664063, 80498.171875, 79635.976563, 142417.062500, 0, 1, 1, 0, 1,0.0,0.0,0.0,0.0,0.0, 11:51:26.796
63671.847656, 66718.992188, 99984.468750, 122779.242188, 98192.125000, 80251.726563, 79437.898438, 142539.125000, 0, 1, 1, 0, 1,0.0,0.0,0.0,0.0,0.0, 11:51:26.796
63797.800781, 66849.687500, 99751.335938, 122507.742188, 98339.179688, 80021.500000, 79432.867188, 142689.890625, 0, 1, 1, 0, 1,0.0,0.0,0.0,0.0,0.0, 11:51:26.796
63623.949219, 66665.664063, 99892.203125, 122642.046875, 98299.304688, 80256.390625, 79611.835938, 142575.890625, 0, 1, 1, 0, 1,0.0,0.0,0.0,0.0,0.0, 11:51:26.797
63465.562500, 66502.671875, 100158.031250, 122946.750000, 98139.710938, 80516.210938, 79619.796875, 142397.968750, 0, 1, 1, 0, 1,0.0,0.0,0.0,0.0,0.0, 11:51:26.797
63647.730469, 66693.601563, 100047.390625, 122859.648438, 98180.171875, 80328.390625, 79448.109375, 142512.171875, 0, 1, 1, 0, 1,0.0,0.0,0.0,0.0,0.0, 11:51:26.797
63816.195313, 66865.484375, 99780.664063, 122557.804688, 98336.515625, 80045.796875, 79407.429688, 142687.765625, 0, 1, 1, 0, 1,0.0,0.0,0.0,0.0,0.0, 11:51:26.797
63696.570313, 66737.632813, 99849.953125, 122611.406250, 98342.843750, 80211.492188, 79585.242188, 142627.890625, 0, 1, 1, 0, 1,0.0,0.0,0.0,0.0,0.0, 11:51:26.797
63513.707031, 66551.554688, 100133.781250, 122931.507813, 98195.101563, 80523.406250, 79653.906250, 142441.265625, 0, 1, 1, 0, 1,0.0,0.0,0.0,0.0,0.0, 11:51:26.797
63619.476563, 66664.296875, 100114.914063, 122931.304688, 98175.187500, 80416.367188, 79498.914063, 142485.437500, 0, 1, 1, 0, 1,0.0,0.0,0.0,0.0,0.0, 11:51:26.797
63825.761719, 66877.867188, 99837.531250, 122620.437500, 98322.234375, 80096.218750, 79415.453125, 142677.140625, 0, 1, 1, 0, 1,0.0,0.0,0.0,0.0,0.0, 11:51:26.797
63746.078125, 66797.093750, 99835.671875, 122588.296875, 98364.007813, 80169.203125, 79571.382813, 142655.640625, 0, 1, 1, 0, 1,0.0,0.0,0.0,0.0,0.0, 11:51:26.797
63557.339844, 66597.289063, 100107.312500, 122894.000000, 98239.132813, 80499.070313, 79681.085938, 142477.593750, 0, 1, 1, 0, 1,0.0,0.0,0.0,0.0,0.0, 11:51:26.798
63579.468750, 66617.781250, 100166.453125, 122979.382813, 98169.484375, 80475.039063, 79541.500000, 142440.578125, 0, 1, 1, 0, 1,0.0,0.0,0.0,0.0,0.0, 11:51:26.798
63772.699219, 66821.992188, 99899.328125, 122691.093750, 98278.132813, 80138.867188, 79397.726563, 142610.875000, 0, 1, 1, 0, 1,0.0,0.0,0.0,0.0,0.0, 11:51:26.798
63742.210938, 66790.765625, 99825.257813, 122582.664063, 98346.328125, 80122.773438, 79512.867188, 142641.156250, 0, 1, 1, 0, 1,0.0,0.0,0.0,0.0,0.0, 11:51:26.798
63534.406250, 66573.218750, 100088.093750, 122871.828125, 98225.898438, 80453.468750, 79645.562500, 142457.453125, 0, 1, 1, 0, 1,0.0,0.0,0.0,0.0,0.0, 11:51:26.798
63522.628906, 66561.835938, 100211.671875, 123028.554688, 98137.406250, 80511.898438, 79541.250000, 142398.843750, 0, 1, 1, 0, 1,0.0,0.0,0.0,0.0,0.0, 11:51:26.798
63751.957031, 66800.195313, 99957.890625, 122765.882813, 98255.468750, 80188.734375, 79380.765625, 142587.109375, 0, 1, 1, 0, 1,0.0,0.0,0.0,0.0,0.0, 11:51:26.798
63804.660156, 66849.843750, 99802.414063, 122572.226563, 98388.062500, 80087.101563, 79475.804688, 142690.328125, 0, 1, 1, 0, 1,0.0,0.0,0.0,0.0,0.0, 11:51:26.798
63564.714844, 66597.554688, 100041.375000, 122817.984375, 98273.171875, 80406.328125, 79631.953125, 142499.109375, 0, 1, 1, 0, 1,0.0,0.0,0.0,0.0,0.0, 11:51:26.798
63481.074219, 66512.914063, 100229.601563, 123042.187500, 98134.640625, 80544.929688, 79553.007813, 142374.281250, 0, 1, 1, 0, 1,0.0,0.0,0.0,0.0,0.0, 11:51:26.799
63686.621094, 66730.796875, 100024.296875, 122839.257813, 98213.250000, 80252.570313, 79369.789063, 142521.625000, 0, 1, 1, 0, 1,0.0,0.0,0.0,0.0,0.0, 11:51:26.799
63807.054688, 66851.804688, 99808.226563, 122586.976563, 98367.835938, 80064.617188, 79415.523438, 142673.343750, 0, 1, 1, 0, 1,0.0,0.0,0.0,0.0,0.0, 11:51:26.799
63607.652344, 66641.101563, 99987.976563, 122764.250000, 98303.484375, 80337.445313, 79595.585938, 142526.500000, 0, 1, 1, 0, 1,0.0,0.0,0.0,0.0,0.0, 11:51:26.799
63492.453125, 66520.710938, 100222.562500, 123034.187500, 98166.265625, 80550.585938, 79573.328125, 142374.953125, 0, 1, 1, 0, 1,0.0,0.0,0.0,0.0,0.0, 11:51:26.799
63664.003906, 66701.960938, 100077.812500, 122899.562500, 98207.390625, 80317.171875, 79388.164063, 142490.625000, 0, 1, 1, 0, 1,0.0,0.0,0.0,0.0,0.0, 11:51:26.799
63799.320313, 66838.484375, 99835.046875, 122618.671875, 98351.781250, 80070.789063, 79379.023438, 142647.546875, 0, 1, 1, 0, 1,0.0,0.0,0.0,0.0,0.0, 11:51:26.799
63638.812500, 66669.750000, 99957.421875, 122730.046875, 98331.375000, 80283.843750, 79565.929688, 142551.234375, 0, 1, 1, 0, 1,0.0,0.0,0.0,0.0,0.0, 11:51:26.799
63462.792969, 66489.437500, 100230.601563, 123038.328125, 98176.796875, 80561.203125, 79590.468750, 142365.828125, 0, 1, 1, 0, 1,0.0,0.0,0.0,0.0,0.0, 11:51:26.800
63560.425781, 66591.859375, 100174.390625, 122993.820313, 98155.648438, 80397.593750, 79401.750000, 142404.140625, 0, 1, 1, 0, 1,0.0,0.0,0.0,0.0,0.0, 11:51:26.800
63741.136719, 66776.078125, 99906.796875, 122693.882813, 98299.882813, 80089.898438, 79330.046875, 142582.468750, 0, 1, 1, 0, 1,0.0,0.0,0.0,0.0,0.0, 11:51:26.800
63632.597656, 66656.406250, 99954.921875, 122724.125000, 98319.421875, 80217.992188, 79497.578125, 142540.953125, 0, 1, 1, 0, 1,0.0,0.0,0.0,0.0,0.0, 11:51:26.800
63452.175781, 66470.398438, 100233.312500, 123037.945313, 98180.390625, 80531.765625, 79582.000000, 142363.328125, 0, 1, 1, 0, 1,0.0,0.0,0.0,0.0,0.0, 11:51:26.800
63539.457031, 66562.460938, 100226.289063, 123059.359375, 98161.171875, 80447.390625, 79441.023438, 142397.296875, 0, 1, 1, 0, 1,0.0,0.0,0.0,0.0,0.0, 11:51:26.800
63758.550781, 66788.507813, 99933.617188, 122746.742188, 98313.296875, 80118.398438, 79348.757813, 142604.484375, 0, 1, 1, 0, 1,0.0,0.0,0.0,0.0,0.0, 11:51:26.800
63693.886719, 66725.968750, 99904.000000, 122686.195313, 98367.164063, 80171.031250, 79497.734375, 142601.531250, 0, 1, 1, 0, 1,0.0,0.0,0.0,0.0,0.0, 11:51:26.801
63463.550781, 66494.289063, 100187.664063, 122994.742188, 98209.468750, 80507.273438, 79588.726563, 142380.156250, 0, 1, 1, 0, 1,0.0,0.0,0.0,0.0,0.0, 11:51:26.801
63509.527344, 66544.851563, 100250.718750, 123093.757813, 98145.429688, 80502.687500, 79446.726563, 142363.593750, 0, 1, 1, 0, 1,0.0,0.0,0.0,0.0,0.0, 11:51:26.801
63736.308594, 66782.804688, 99975.281250, 122805.242188, 98277.507813, 80171.054688, 79306.960938, 142559.671875, 0, 1, 1, 0, 1,0.0,0.0,0.0,0.0,0.0, 11:51:26.801
63712.796875, 66754.265625, 99888.960938, 122676.960938, 98357.125000, 80137.351563, 79418.804688, 142596.218750, 0, 1, 1, 0, 1,0.0,0.0,0.0,0.0,0.0, 11:51:26.801
63487.804688, 66517.023438, 100151.546875, 122957.882813, 98229.429688, 80470.726563, 79557.882813, 142404.390625, 0, 1, 1, 0, 1,0.0,0.0,0.0,0.0,0.0, 11:51:26.801
63471.398438, 66501.062500, 100283.421875, 123130.484375, 98139.468750, 80551.078125, 79465.296875, 142345.609375, 0, 1, 1, 0, 1,0.0,0.0,0.0,0.0,0.0, 11:51:26.801
63676.898438, 66715.460938, 100047.273438, 122889.664063, 98237.906250, 80239.875000, 79306.445313, 142514.250000, 0, 1, 1, 0, 1,0.0,0.0,0.0,0.0,0.0, 11:51:26.801
63722.027344, 66758.265625, 99887.257813, 122691.132813, 98347.250000, 80111.421875, 79379.109375, 142596.968750, 0, 1, 1, 0, 1,0.0,0.0,0.0,0.0,0.0, 11:51:26.801
63517.105469, 66545.523438, 100099.265625, 122915.234375, 98259.828125, 80413.843750, 79548.265625, 142440.515625, 0, 1, 1, 0, 1,0.0,0.0,0.0,0.0,0.0, 11:51:26.802
63439.703125, 66466.484375, 100293.570313, 123149.789063, 98131.375000, 80574.976563, 79496.320313, 142327.203125, 0, 1, 1, 0, 1,0.0,0.0,0.0,0.0,0.0, 11:51:26.802
63648.960938, 66684.859375, 100097.054688, 122960.203125, 98207.281250, 80297.234375, 79322.273438, 142484.500000, 0, 1, 1, 0, 1,0.0,0.0,0.0,0.0,0.0, 11:51:26.802
63740.601563, 66776.234375, 99886.570313, 122706.625000, 98339.937500, 80094.234375, 79349.625000, 142604.640625, 0, 1, 1, 0, 1,0.0,0.0,0.0,0.0,0.0, 11:51:26.802
63563.753906, 66593.578125, 100044.593750, 122863.781250, 98292.109375, 80347.882813, 79529.828125, 142486.593750, 0, 1, 1, 0, 1,0.0,0.0,0.0,0.0,0.0, 11:51:26.802
63423.632813, 66452.539063, 100284.203125, 123142.820313, 98145.234375, 80576.875000, 79520.687500, 142321.843750, 0, 1, 1, 0, 1,0.0,0.0,0.0,0.0,0.0, 11:51:26.802
63590.777344, 66631.953125, 100149.335938, 123023.531250, 98180.304688, 80355.054688, 79338.093750, 142433.890625, 0, 1, 1, 0, 1,0.0,0.0,0.0,0.0,0.0, 11:51:26.802
63747.152344, 66792.531250, 99888.757813, 122725.710938, 98346.351563, 80089.781250, 79328.375000, 142614.671875, 0, 1, 1, 0, 1,0.0,0.0,0.0,0.0,0.0, 11:51:26.802
63581.078125, 66617.718750, 99997.320313, 122814.023438, 98320.046875, 80283.640625, 79500.812500, 142514.734375, 0, 1, 1, 0, 1,0.0,0.0,0.0,0.0,0.0, 11:51:26.802
63408.320313, 66438.882813, 100269.500000, 123123.531250, 98159.046875, 80566.679688, 79528.914063, 142324.453125, 0, 1, 1, 0, 1,0.0,0.0,0.0,0.0,0.0, 11:51:26.802
63537.179688, 66579.453125, 100208.992188, 123086.492188, 98160.429688, 80417.726563, 79359.507813, 142388.859375, 0, 1, 1, 0, 1,0.0,0.0,0.0,0.0,0.0, 11:51:26.803
63736.710938, 66785.359375, 99924.718750, 122770.507813, 98318.679688, 80105.656250, 79291.804688, 142583.828125, 0, 1, 1, 0, 1,0.0,0.0,0.0,0.0,0.0, 11:51:26.803
63632.195313, 66673.843750, 99954.960938, 122768.851563, 98341.101563, 80217.992188, 79454.164063, 142549.140625, 0, 1, 1, 0, 1,0.0,0.0,0.0,0.0,0.0, 11:51:26.803
63427.410156, 66462.734375, 100233.445313, 123080.812500, 98191.453125, 80541.734375, 79537.984375, 142362.281250, 0, 1, 1, 0, 1,0.0,0.0,0.0,0.0,0.0, 11:51:26.803
63492.027344, 66534.148438, 100247.617188, 123123.796875, 98146.375000, 80476.695313, 79378.375000, 142369.765625, 0, 1, 1, 0, 1,0.0,0.0,0.0,0.0,0.0, 11:51:26.803
63710.316406, 66763.585938, 99960.796875, 122815.367188, 98292.929688, 80143.453125, 79261.179688, 142572.765625, 0, 1, 1, 0, 1,0.0,0.0,0.0,0.0,0.0, 11:51:26.803
63682.554688, 66730.773438, 99904.625000, 122726.898438, 98365.015625, 80166.585938, 79403.476563, 142603.078125, 0, 1, 1, 0, 1,0.0,0.0,0.0,0.0,0.0, 11:51:26.803
63454.835938, 66495.031250, 100175.734375, 123024.375000, 98232.648438, 80510.109375, 79532.687500, 142406.000000, 0, 1, 1, 0, 1,0.0,0.0,0.0,0.0,0.0, 11:51:26.803
63458.859375, 66501.507813, 100273.320313, 123151.445313, 98145.632813, 80537.000000, 79416.640625, 142356.515625, 0, 1, 1, 0, 1,0.0,0.0,0.0,0.0,0.0, 11:51:26.803
63672.382813, 66722.500000, 100022.734375, 122880.234375, 98265.796875, 80207.242188, 79277.250000, 142531.500000, 0, 1, 1, 0, 1,0.0,0.0,0.0,0.0,0.0, 11:51:26.804
63696.792969, 66745.859375, 99912.898438, 122727.882813, 98367.210938, 80139.585938, 79386.109375, 142597.437500, 0, 1, 1, 0, 1,0.0,0.0,0.0,0.0,0.0, 11:51:26.804
63472.449219, 66512.531250, 100158.679688, 122992.210938, 98256.210938, 80469.296875, 79543.507813, 142411.875000, 0, 1, 1, 0, 1,0.0,0.0,0.0,0.0,0.0, 11:51:26.804
63433.601563, 66472.679688, 100308.929688, 123185.757813, 98138.507813, 80570.703125, 79456.000000, 142317.906250, 0, 1, 1, 0, 1,0.0,0.0,0.0,0.0,0.0, 11:51:26.804
63652.179688, 66698.656250, 100078.632813, 122953.921875, 98239.242188, 80261.359375, 79295.250000, 142488.359375, 0, 1, 1, 0, 1,0.0,0.0,0.0,0.0,0.0, 11:51:26.804
63692.320313, 66740.007813, 99912.828125, 122744.039063, 98347.156250, 80111.843750, 79348.179688, 142575.609375, 0, 1, 1, 0, 1,0.0,0.0,0.0,0.0,0.0, 11:51:26.804
63484.875000, 66523.796875, 100111.804688, 122953.210938, 98259.781250, 80400.429688, 79513.843750, 142422.046875, 0, 1, 1, 0, 1,0.0,0.0,0.0,0.0,0.0, 11:51:26.804
63391.242188, 66427.460938, 100315.070313, 123203.929688, 98127.085938, 80576.250000, 79476.250000, 142289.453125, 0, 1, 1, 0, 1,0.0,0.0,0.0,0.0,0.0, 11:51:26.804
63615.855469, 66664.054688, 100119.585938, 123024.335938, 98216.039063, 80303.648438, 79320.617188, 142459.171875, 0, 1, 1, 0, 1,0.0,0.0,0.0,0.0,0.0, 11:51:26.804
63765.925781, 66818.976563, 99873.539063, 122737.984375, 98387.343750, 80076.375000, 79361.812500, 142631.140625, 0, 1, 1, 0, 1,0.0,0.0,0.0,0.0,0.0, 11:51:26.804
63565.722656, 66609.359375, 100018.062500, 122873.281250, 98333.968750, 80318.468750, 79547.773438, 142489.703125, 0, 1, 1, 0, 1,0.0,0.0,0.0,0.0,0.0, 11:51:26.805
63397.414063, 66438.296875, 100266.726563, 123160.882813, 98160.367188, 80562.414063, 79529.898438, 142302.687500, 0, 1, 1, 0, 1,0.0,0.0,0.0,0.0,0.0, 11:51:26.805
63554.878906, 66604.421875, 100151.031250, 123060.226563, 98183.835938, 80356.460938, 79341.742188, 142402.750000, 0, 1, 1, 0, 1,0.0,0.0,0.0,0.0,0.0, 11:51:26.805
63741.742188, 66792.125000, 99870.164063, 122740.421875, 98353.328125, 80063.140625, 79310.046875, 142591.734375, 0, 1, 1, 0, 1,0.0,0.0,0.0,0.0,0.0, 11:51:26.805
63599.472656, 66642.593750, 99940.101563, 122790.289063, 98345.015625, 80227.445313, 79477.414063, 142510.687500, 0, 1, 1, 0, 1,0.0,0.0,0.0,0.0,0.0, 11:51:26.805
63436.015625, 66472.429688, 100192.742188, 123085.039063, 98205.937500, 80522.359375, 79528.796875, 142339.968750, 0, 1, 1, 0, 1,0.0,0.0,0.0,0.0,0.0, 11:51:26.805
63541.269531, 66582.578125, 100155.812500, 123063.578125, 98193.359375, 80404.406250, 79373.523438, 142391.656250, 0, 1, 1, 0, 1,0.0,0.0,0.0,0.0,0.0, 11:51:26.805
63729.156250, 66771.679688, 99890.609375, 122758.390625, 98334.062500, 80092.421875, 79302.820313, 142571.578125, 0, 1, 1, 0, 1,0.0,0.0,0.0,0.0,0.0, 11:51:26.805
63616.281250, 66654.796875, 99914.437500, 122746.343750, 98342.820313, 80181.671875, 79447.257813, 142520.812500, 0, 1, 1, 0, 1,0.0,0.0,0.0,0.0,0.0, 11:51:26.805
63418.421875, 66455.132813, 100184.671875, 123052.226563, 98196.890625, 80504.453125, 79534.453125, 142338.937500, 0, 1, 1, 0, 1,0.0,0.0,0.0,0.0,0.0, 11:51:26.806
63464.558594, 66505.648438, 100221.351563, 123117.382813, 98137.250000, 80464.062500, 79394.265625, 142332.125000, 0, 1, 1, 0, 1,0.0,0.0,0.0,0.0,0.0, 11:51:26.806
63701.285156, 66747.492188, 99943.359375, 122813.445313, 98286.921875, 80124.828125, 79285.031250, 142538.359375, 0, 1, 1, 0, 1,0.0,0.0,0.0,0.0,0.0, 11:51:26.806
63679.535156, 66721.679688, 99878.031250, 122709.148438, 98374.093750, 80125.054688, 79427.343750, 142573.406250, 0, 1, 1, 0, 1,0.0,0.0,0.0,0.0,0.0, 11:51:26.806
63447.703125, 66483.203125, 100144.257813, 123000.437500, 98232.429688, 80470.882813, 79550.703125, 142372.343750, 0, 1, 1, 0, 1,0.0,0.0,0.0,0.0,0.0, 11:51:26.806
63447.347656, 66486.960938, 100249.781250, 123141.945313, 98140.023438, 80524.234375, 79440.289063, 142322.421875, 0, 1, 1, 0, 1,0.0,0.0,0.0,0.0,0.0, 11:51:26.806
63668.917969, 66717.671875, 100002.390625, 122880.210938, 98259.718750, 80205.007813, 79300.703125, 142509.515625, 0, 1, 1, 0, 1,0.0,0.0,0.0,0.0,0.0, 11:51:26.806
63688.902344, 66737.523438, 99882.031250, 122714.023438, 98360.992188, 80121.210938, 79395.515625, 142578.000000, 0, 1, 1, 0, 1,0.0,0.0,0.0,0.0,0.0, 11:51:26.806
63482.683594, 66522.406250, 100110.625000, 122962.242188, 98258.625000, 80446.742188, 79549.007813, 142417.484375, 0, 1, 1, 0, 1,0.0,0.0,0.0,0.0,0.0, 11:51:26.806
63417.394531, 66455.023438, 100282.039063, 123173.460938, 98140.492188, 80581.968750, 79474.929688, 142314.421875, 0, 1, 1, 0, 1,0.0,0.0,0.0,0.0,0.0, 11:51:26.807
63606.468750, 66655.289063, 100084.312500, 122968.921875, 98203.726563, 80288.421875, 79292.382813, 142454.640625, 0, 1, 1, 0, 1,0.0,0.0,0.0,0.0,0.0, 11:51:26.807
63697.148438, 66749.437500, 99896.070313, 122735.835938, 98339.226563, 80113.367188, 79340.531250, 142584.703125, 0, 1, 1, 0, 1,0.0,0.0,0.0,0.0,0.0, 11:51:26.807
63504.632813, 66550.843750, 100076.445313, 122922.031250, 98276.171875, 80392.562500, 79516.531250, 142442.125000, 0, 1, 1, 0, 1,0.0,0.0,0.0,0.0,0.0, 11:51:26.807
63394.351563, 66439.460938, 100291.070313, 123178.984375, 98128.492188, 80594.820313, 79475.695313, 142299.687500, 0, 1, 1, 0, 1,0.0,0.0,0.0,0.0,0.0, 11:51:26.807
63563.261719, 66620.335938, 100140.484375, 123033.070313, 98172.164063, 80351.945313, 79296.164063, 142416.078125, 0, 1, 1, 0, 1,0.0,0.0,0.0,0.0,0.0, 11:51:26.807
63678.351563, 66741.437500, 99916.632813, 122760.578125, 98307.351563, 80109.117188, 79294.820313, 142556.421875, 0, 1, 1, 0, 1,0.0,0.0,0.0,0.0,0.0, 11:51:26.807
63524.570313, 66581.617188, 100039.562500, 122876.453125, 98267.515625, 80324.570313, 79458.304688, 142455.062500, 0, 1, 1, 0, 1,0.0,0.0,0.0,0.0,0.0, 11:51:26.807
63396.316406, 66449.070313, 100274.859375, 123159.601563, 98139.484375, 80588.453125, 79479.539063, 142314.765625, 0, 1, 1, 0, 1,0.0,0.0,0.0,0.0,0.0, 11:51:26.807
63533.558594, 66589.601563, 100185.453125, 123087.718750, 98155.203125, 80416.054688, 79316.367188, 142396.281250, 0, 1, 1, 0, 1,0.0,0.0,0.0,0.0,0.0, 11:51:26.807
63702.605469, 66763.789063, 99929.210938, 122789.773438, 98304.335938, 80120.179688, 79277.789063, 142567.000000, 0, 1, 1, 0, 1,0.0,0.0,0.0,0.0,0.0, 11:51:26.808
63576.652344, 66634.906250, 99988.710938, 122827.835938, 98311.085938, 80263.617188, 79447.953125, 142505.234375, 0, 1, 1, 0, 1,0.0,0.0,0.0,0.0,0.0, 11:51:26.808
63383.308594, 66439.421875, 100258.101563, 123139.578125, 98152.359375, 80574.101563, 79495.585938, 142311.515625, 0, 1, 1, 0, 1,0.0,0.0,0.0,0.0,0.0, 11:51:26.808
63482.238281, 66540.601563, 100241.398438, 123148.453125, 98136.718750, 80480.335938, 79347.953125, 142357.812500, 0, 1, 1, 0, 1,0.0,0.0,0.0,0.0,0.0, 11:51:26.808
63690.734375, 66753.523438, 99976.976563, 122846.054688, 98281.687500, 80156.906250, 79268.023438, 142538.906250, 0, 1, 1, 0, 1,0.0,0.0,0.0,0.0,0.0, 11:51:26.808
63646.031250, 66705.023438, 99964.218750, 122800.656250, 98333.453125, 80222.796875, 79419.750000, 142543.531250, 0, 1, 1, 0, 1,0.0,0.0,0.0,0.0,0.0, 11:51:26.808
63445.222656, 66495.296875, 100233.265625, 123104.437500, 98201.132813, 80567.062500, 79532.757813, 142359.781250, 0, 1, 1, 0, 1,0.0,0.0,0.0,0.0,0.0, 11:51:26.808
63451.214844, 66507.546875, 100301.593750, 123200.242188, 98124.109375, 80560.710938, 79394.710938, 142317.125000, 0, 1, 1, 0, 1,0.0,0.0,0.0,0.0,0.0, 11:51:26.808
63662.214844, 66724.671875, 100051.812500, 122923.187500, 98243.960938, 80226.015625, 79258.343750, 142491.734375, 0, 1, 1, 0, 1,0.0,0.0,0.0,0.0,0.0, 11:51:26.808
63659.351563, 66719.101563, 99973.359375, 122801.125000, 98327.468750, 80195.304688, 79373.523438, 142539.890625, 0, 1, 1, 0, 1,0.0,0.0,0.0,0.0,0.0, 11:51:26.809
63446.542969, 66495.031250, 100221.351563, 123074.601563, 98204.890625, 80527.703125, 79502.335938, 142358.359375, 0, 1, 1, 0, 1,0.0,0.0,0.0,0.0,0.0, 11:51:26.809
63411.671875, 66459.687500, 100351.617188, 123242.843750, 98101.109375, 80601.328125, 79407.343750, 142277.828125, 0, 1, 1, 0, 1,0.0,0.0,0.0,0.0,0.0, 11:51:26.809
63626.675781, 66683.054688, 100113.484375, 122995.187500, 98210.585938, 80276.445313, 79253.070313, 142456.578125, 0, 1, 1, 0, 1,0.0,0.0,0.0,0.0,0.0, 11:51:26.809
63670.929688, 66730.507813, 99964.664063, 122802.984375, 98331.625000, 80155.562500, 79339.703125, 142552.812500, 0, 1, 1, 0, 1,0.0,0.0,0.0,0.0,0.0, 11:51:26.809
63462.656250, 66516.796875, 100172.359375, 123028.000000, 98244.609375, 80464.421875, 79509.039063, 142396.968750, 0, 1, 1, 0, 1,0.0,0.0,0.0,0.0,0.0, 11:51:26.809
63407.472656, 66456.828125, 100342.585938, 123242.906250, 98128.289063, 80615.968750, 79452.937500, 142295.265625, 0, 1, 1, 0, 1,0.0,0.0,0.0,0.0,0.0, 11:51:26.809
63619.812500, 66676.164063, 100141.710938, 123043.156250, 98214.101563, 80328.750000, 79288.718750, 142451.656250, 0, 1, 1, 0, 1,0.0,0.0,0.0,0.0,0.0, 11:51:26.809
63708.191406, 66766.132813, 99945.109375, 122795.382813, 98346.351563, 80131.828125, 79322.445313, 142575.015625, 0, 1, 1, 0, 1,0.0,0.0,0.0,0.0,0.0, 11:51:27.277
63520.660156, 66574.578125, 100110.015625, 122957.859375, 98288.710938, 80398.882813, 79491.765625, 142448.843750, 0, 1, 1, 0, 1,0.0,0.0,0.0,0.0,0.0, 11:51:27.277
63382.996094, 66438.007813, 100342.835938, 123232.851563, 98134.640625, 80630.203125, 79465.726563, 142282.734375, 0, 1, 1, 0, 1,0.0,0.0,0.0,0.0,0.0, 11:51:27.277
63540.800781, 66603.992188, 100209.929688, 123106.921875, 98161.523438, 80396.960938, 79278.593750, 142383.562500, 0, 1, 1, 0, 1,0.0,0.0,0.0,0.0,0.0, 11:51:27.277
63682.128906, 66747.804688, 99971.281250, 122817.648438, 98303.617188, 80127.335938, 79264.445313, 142543.265625, 0, 1, 1, 0, 1,0.0,0.0,0.0,0.0,0.0, 11:51:27.277
63554.210938, 66610.742188, 100070.320313, 122903.453125, 98299.484375, 80324.523438, 79451.421875, 142476.718750, 0, 1, 1, 0, 1,0.0,0.0,0.0,0.0,0.0, 11:51:27.277
63373.207031, 66424.085938, 100328.953125, 123201.695313, 98145.296875, 80610.867188, 79485.281250, 142292.921875, 0, 1, 1, 0, 1,0.0,0.0,0.0,0.0,0.0, 11:51:27.277
63496.542969, 66548.585938, 100258.257813, 123151.265625, 98140.718750, 80446.984375, 79305.375000, 142346.156250, 0, 1, 1, 0, 1,0.0,0.0,0.0,0.0,0.0, 11:51:27.278
63703.207031, 66760.500000, 99981.718750, 122837.625000, 98305.406250, 80127.359375, 79246.898438, 142544.093750, 0, 1, 1, 0, 1,0.0,0.0,0.0,0.0,0.0, 11:51:27.278
63569.410156, 66622.570313, 100030.578125, 122855.890625, 98314.390625, 80254.093750, 79412.187500, 142483.578125, 0, 1, 1, 0, 1,0.0,0.0,0.0,0.0,0.0, 11:51:27.278
63381.007813, 66427.304688, 100298.218750, 123166.648438, 98157.750000, 80578.101563, 79474.734375, 142294.843750, 0, 1, 1, 0, 1,0.0,0.0,0.0,0.0,0.0, 11:51:27.278
63459.460938, 66504.531250, 100303.609375, 123201.406250, 98122.835938, 80504.210938, 79320.570313, 142311.078125, 0, 1, 1, 0, 1,0.0,0.0,0.0,0.0,0.0, 11:51:27.278
63667.265625, 66726.523438, 100036.367188, 122903.210938, 98264.125000, 80165.062500, 79216.257813, 142509.390625, 0, 1, 1, 0, 1,0.0,0.0,0.0,0.0,0.0, 11:51:27.278
63631.437500, 66688.015625, 99994.796875, 122827.992188, 98340.164063, 80194.500000, 79373.078125, 142542.031250, 0, 1, 1, 0, 1,0.0,0.0,0.0,0.0,0.0, 11:51:27.278
63415.718750, 66462.351563, 100254.476563, 123119.195313, 98207.101563, 80537.062500, 79502.851563, 142352.421875, 0, 1, 1, 0, 1,0.0,0.0,0.0,0.0,0.0, 11:51:27.278
63445.355469, 66499.585938, 100324.929688, 123226.929688, 98137.250000, 80548.820313, 79396.234375, 142330.453125, 0, 1, 1, 0, 1,0.0,0.0,0.0,0.0,0.0, 11:51:27.278
63653.945313, 66720.398438, 100066.390625, 122945.523438, 98258.351563, 80210.484375, 79263.820313, 142515.562500, 0, 1, 1, 0, 1,0.0,0.0,0.0,0.0,0.0, 11:51:27.279
63671.488281, 66736.296875, 99957.984375, 122792.789063, 98358.156250, 80149.710938, 79373.414063, 142583.406250, 0, 1, 1, 0, 1,0.0,0.0,0.0,0.0,0.0, 11:51:27.279
63443.121094, 66499.476563, 100196.742188, 123051.757813, 98243.468750, 80488.609375, 79518.320313, 142400.140625, 0, 1, 1, 0, 1,0.0,0.0,0.0,0.0,0.0, 11:51:27.279
63412.054688, 66468.250000, 100328.820313, 123225.210938, 98141.835938, 80588.359375, 79424.593750, 142321.468750, 0, 1, 1, 0, 1,0.0,0.0,0.0,0.0,0.0, 11:51:27.279
63638.117188, 66698.359375, 100098.125000, 122982.960938, 98247.132813, 80271.078125, 79261.320313, 142492.171875, 0, 1, 1, 0, 1,0.0,0.0,0.0,0.0,0.0, 11:51:27.279
63681.054688, 66743.695313, 99943.046875, 122772.609375, 98357.484375, 80128.585938, 79324.281250, 142580.437500, 0, 1, 1, 0, 1,0.0,0.0,0.0,0.0,0.0, 11:51:27.279
63455.953125, 66511.679688, 100153.023438, 122988.703125, 98251.875000, 80432.640625, 79474.062500, 142403.359375, 0, 1, 1, 0, 1,0.0,0.0,0.0,0.0,0.0, 11:51:27.279
63381.320313, 66432.109375, 100346.234375, 123228.601563, 98122.476563, 80607.789063, 79421.156250, 142284.406250, 0, 1, 1, 0, 1,0.0,0.0,0.0,0.0,0.0, 11:51:27.280
63576.093750, 66637.968750, 100166.031250, 123049.117188, 98191.523438, 80331.007813, 79249.695313, 142421.437500, 0, 1, 1, 0, 1,0.0,0.0,0.0,0.0,0.0, 11:51:27.280
63688.992188, 66755.562500, 99950.226563, 122783.132813, 98335.757813, 80103.484375, 79273.234375, 142564.500000, 0, 1, 1, 0, 1,0.0,0.0,0.0,0.0,0.0, 11:51:27.280
63488.160156, 66549.187500, 100102.398438, 122932.828125, 98277.015625, 80354.718750, 79442.546875, 142434.968750, 0, 1, 1, 0, 1,0.0,0.0,0.0,0.0,0.0, 11:51:27.280
63360.710938, 66420.125000, 100323.210938, 123210.570313, 98134.523438, 80596.789063, 79426.226563, 142277.281250, 0, 1, 1, 0, 1,0.0,0.0,0.0,0.0,0.0, 11:51:27.280
63528.664063, 66594.945313, 100194.460938, 123099.789063, 98165.882813, 80378.460938, 79237.734375, 142373.703125, 0, 1, 1, 0, 1,0.0,0.0,0.0,0.0,0.0, 11:51:27.280
63694.468750, 66765.578125, 99937.750000, 122795.296875, 98313.718750, 80086.070313, 79204.656250, 142548.109375, 0, 1, 1, 0, 1,0.0,0.0,0.0,0.0,0.0, 11:51:27.280
63568.628906, 66634.820313, 100013.906250, 122853.812500, 98316.757813, 80259.789063, 79384.031250, 142482.281250, 0, 1, 1, 0, 1,0.0,0.0,0.0,0.0,0.0, 11:51:27.280
63392.539063, 66454.953125, 100272.468750, 123158.687500, 98169.640625, 80565.656250, 79429.757813, 142302.640625, 0, 1, 1, 0, 1,0.0,0.0,0.0,0.0,0.0, 11:51:27.280
63506.152344, 66578.000000, 100221.328125, 123130.460938, 98164.609375, 80433.195313, 79266.320313, 142361.828125, 0, 1, 1, 0, 1,0.0,0.0,0.0,0.0,0.0, 11:51:27.281
63684.855469, 66769.039063, 99952.125000, 122817.156250, 98305.335938, 80110.304688, 79187.265625, 142546.484375, 0, 1, 1, 0, 1,0.0,0.0,0.0,0.0,0.0, 11:51:27.281
63573.031250, 66657.171875, 99973.359375, 122803.695313, 98325.234375, 80205.812500, 79333.695313, 142502.781250, 0, 1, 1, 0, 1,0.0,0.0,0.0,0.0,0.0, 11:51:27.281
63384.648438, 66455.109375, 100237.109375, 123108.171875, 98187.320313, 80538.851563, 79413.914063, 142318.828125, 0, 1, 1, 0, 1,0.0,0.0,0.0,0.0,0.0, 11:51:27.281
63457.695313, 66530.164063, 100254.078125, 123159.898438, 98150.796875, 80486.437500, 79269.812500, 142325.046875, 0, 1, 1, 0, 1,0.0,0.0,0.0,0.0,0.0, 11:51:27.281
63669.566406, 66750.148438, 99982.703125, 122859.289063, 98284.039063, 80139.984375, 79153.445313, 142507.453125, 0, 1, 1, 0, 1,0.0,0.0,0.0,0.0,0.0, 11:51:27.281
63613.800781, 66688.234375, 99935.945313, 122766.593750, 98336.875000, 80141.257813, 79277.187500, 142512.125000, 0, 1, 1, 0, 1,0.0,0.0,0.0,0.0,0.0, 11:51:27.281
63403.781250, 66466.171875, 100190.039063, 123050.687500, 98203.460938, 80481.656250, 79399.320313, 142330.140625, 0, 1, 1, 0, 1,0.0,0.0,0.0,0.0,0.0, 11:51:27.281
63423.722656, 66487.968750, 100277.812500, 123176.437500, 98130.367188, 80519.343750, 79290.195313, 142297.843750, 0, 1, 1, 0, 1,0.0,0.0,0.0,0.0,0.0, 11:51:27.281
63654.546875, 66724.695313, 100021.460938, 122901.734375, 98259.296875, 80181.289063, 79147.789063, 142491.062500, 0, 1, 1, 0, 1,0.0,0.0,0.0,0.0,0.0, 11:51:27.281
63678.152344, 66747.359375, 99902.281250, 122729.804688, 98361.015625, 80096.710938, 79245.226563, 142564.609375, 0, 1, 1, 0, 1,0.0,0.0,0.0,0.0,0.0, 11:51:27.282
63458.589844, 66519.281250, 100126.890625, 122973.460938, 98250.484375, 80429.773438, 79394.445313, 142387.421875, 0, 1, 1, 0, 1,0.0,0.0,0.0,0.0,0.0, 11:51:27.282
63394.531250, 66452.382813, 100288.343750, 123176.343750, 98119.820313, 80561.476563, 79306.843750, 142276.468750, 0, 1, 1, 0, 1,0.0,0.0,0.0,0.0,0.0, 11:51:27.282
63620.906250, 66688.929688, 100071.570313, 122950.328125, 98219.843750, 80260.507813, 79141.578125, 142458.640625, 0, 1, 1, 0, 1,0.0,0.0,0.0,0.0,0.0, 11:51:27.283
63685.863281, 66756.859375, 99897.835938, 122721.039063, 98347.117188, 80096.335938, 79193.476563, 142566.500000, 0, 1, 1, 0, 1,0.0,0.0,0.0,0.0,0.0, 11:51:27.283
63489.300781, 66551.687500, 100078.906250, 122908.906250, 98266.289063, 80385.718750, 79353.359375, 142415.562500, 0, 1, 1, 0, 1,0.0,0.0,0.0,0.0,0.0, 11:51:27.283
63366.386719, 66423.523438, 100295.445313, 123168.257813, 98119.218750, 80592.164063, 79309.257813, 142258.343750, 0, 1, 1, 0, 1,0.0,0.0,0.0,0.0,0.0, 11:51:27.283
63557.539063, 66626.460938, 100138.132813, 123017.335938, 98172.546875, 80333.617188, 79122.531250, 142387.265625, 0, 1, 1, 0, 1,0.0,0.0,0.0,0.0,0.0, 11:51:27.283
63705.597656, 66779.523438, 99904.382813, 122735.007813, 98335.601563, 80088.445313, 79140.796875, 142560.875000, 0, 1, 1, 0, 1,0.0,0.0,0.0,0.0,0.0, 11:51:27.283
63538.855469, 66605.226563, 100032.945313, 122851.601563, 98308.023438, 80323.539063, 79324.617188, 142456.359375, 0, 1, 1, 0, 1,0.0,0.0,0.0,0.0,0.0, 11:51:27.283
63385.789063, 66446.054688, 100276.156250, 123140.960938, 98158.304688, 80595.445313, 79340.914063, 142285.437500, 0, 1, 1, 0, 1,0.0,0.0,0.0,0.0,0.0, 11:51:27.284
63535.902344, 66604.664063, 100177.343750, 123060.898438, 98178.625000, 80407.804688, 79166.320313, 142377.078125, 0, 1, 1, 0, 1,0.0,0.0,0.0,0.0,0.0, 11:51:27.284
63700.324219, 66772.414063, 99926.937500, 122762.703125, 98324.429688, 80108.515625, 79117.796875, 142546.500000, 0, 1, 1, 0, 1,0.0,0.0,0.0,0.0,0.0, 11:51:27.284
63577.210938, 66642.328125, 99995.398438, 122807.164063, 98327.710938, 80263.679688, 79286.460938, 142483.296875, 0, 1, 1, 0, 1,0.0,0.0,0.0,0.0,0.0, 11:51:27.284
63392.785156, 66452.117188, 100257.718750, 123111.703125, 98177.062500, 80579.625000, 79345.429688, 142298.750000, 0, 1, 1, 0, 1,0.0,0.0,0.0,0.0,0.0, 11:51:27.284
63482.171875, 66543.421875, 100236.484375, 123113.492188, 98140.671875, 80473.187500, 79172.265625, 142322.578125, 0, 1, 1, 0, 1,0.0,0.0,0.0,0.0,0.0, 11:51:27.284
63716.996094, 66788.734375, 99952.367188, 122794.984375, 98308.312500, 80135.093750, 79090.304688, 142542.906250, 0, 1, 1, 0, 1,0.0,0.0,0.0,0.0,0.0, 11:51:27.284
63637.066406, 66705.851563, 99944.726563, 122752.109375, 98363.343750, 80206.507813, 79254.945313, 142533.187500, 0, 1, 1, 0, 1,0.0,0.0,0.0,0.0,0.0, 11:51:27.285
63412.097656, 66470.195313, 100215.585938, 123058.890625, 98206.382813, 80550.703125, 79348.492188, 142320.406250, 0, 1, 1, 0, 1,0.0,0.0,0.0,0.0,0.0, 11:51:27.285
63466.792969, 66525.945313, 100259.554688, 123137.453125, 98148.164063, 80530.335938, 79214.531250, 142311.390625, 0, 1, 1, 0, 1,0.0,0.0,0.0,0.0,0.0, 11:51:27.285
63677.593750, 66745.929688, 100000.000000, 122846.859375, 98280.304688, 80189.585938, 79087.554688, 142493.953125, 0, 1, 1, 0, 1,0.0,0.0,0.0,0.0,0.0, 11:51:27.285
63650.300781, 66716.312500, 99929.976563, 122731.054688, 98352.585938, 80165.156250, 79196.406250, 142522.703125, 0, 1, 1, 0, 1,0.0,0.0,0.0,0.0,0.0, 11:51:27.285
63437.578125, 66494.671875, 100174.164063, 123007.945313, 98227.890625, 80506.578125, 79323.679688, 142339.093750, 0, 1, 1, 0, 1,0.0,0.0,0.0,0.0,0.0, 11:51:27.286
63426.582031, 66486.289063, 100285.992188, 123162.375000, 98135.976563, 80574.796875, 79216.570313, 142276.718750, 0, 1, 1, 0, 1,0.0,0.0,0.0,0.0,0.0, 11:51:27.286
63673.792969, 66745.054688, 100036.187500, 122902.109375, 98262.265625, 80239.671875, 79064.796875, 142476.093750, 0, 1, 1, 0, 1,0.0,0.0,0.0,0.0,0.0, 11:51:27.286
63719.210938, 66792.062500, 99890.570313, 122707.968750, 98386.898438, 80124.789063, 79161.851563, 142571.734375, 0, 1, 1, 0, 1,0.0,0.0,0.0,0.0,0.0, 11:51:27.286
63481.542969, 66548.179688, 100116.414063, 122944.781250, 98268.414063, 80445.156250, 79311.320313, 142376.765625, 0, 1, 1, 0, 1,0.0,0.0,0.0,0.0,0.0, 11:51:27.286
63394.417969, 66462.015625, 100295.023438, 123164.945313, 98130.656250, 80592.187500, 79237.960938, 142252.671875, 0, 1, 1, 0, 1,0.0,0.0,0.0,0.0,0.0, 11:51:27.286
63583.871094, 66654.531250, 100105.320313, 122969.703125, 98192.507813, 80294.484375, 79052.664063, 142386.781250, 0, 1, 1, 0, 1,0.0,0.0,0.0,0.0,0.0, 11:51:27.287
63709.308594, 66777.171875, 99898.796875, 122716.617188, 98349.726563, 80092.554688, 79098.148438, 142542.406250, 0, 1, 1, 0, 1,0.0,0.0,0.0,0.0,0.0, 11:51:27.287
63524.238281, 66588.953125, 100057.578125, 122879.984375, 98296.062500, 80365.335938, 79276.921875, 142415.500000, 0, 1, 1, 0, 1,0.0,0.0,0.0,0.0,0.0, 11:51:27.287
63401.859375, 66463.132813, 100276.382813, 123147.578125, 98153.773438, 80591.875000, 79252.843750, 142263.546875, 0, 1, 1, 0, 1,0.0,0.0,0.0,0.0,0.0, 11:51:27.287
63559.062500, 66626.906250, 100152.617188, 123027.218750, 98189.132813, 80361.421875, 79069.117188, 142360.250000, 0, 1, 1, 0, 1,0.0,0.0,0.0,0.0,0.0, 11:51:27.287
63702.492188, 66774.984375, 99916.023438, 122742.992188, 98335.781250, 80092.710938, 79052.570313, 142513.375000, 0, 1, 1, 0, 1,0.0,0.0,0.0,0.0,0.0, 11:51:27.288
63555.351563, 66629.562500, 100012.320313, 122831.031250, 98321.226563, 80295.734375, 79231.523438, 142435.796875, 0, 1, 1, 0, 1,0.0,0.0,0.0,0.0,0.0, 11:51:27.288
63395.738281, 66470.445313, 100257.273438, 123123.593750, 98178.359375, 80583.531250, 79267.773438, 142271.468750, 0, 1, 1, 0, 1,0.0,0.0,0.0,0.0,0.0, 11:51:27.288
63518.222656, 66596.281250, 100189.835938, 123071.539063, 98165.546875, 80421.570313, 79088.023438, 142326.578125, 0, 1, 1, 0, 1,0.0,0.0,0.0,0.0,0.0, 11:51:27.288
63727.210938, 66813.187500, 99915.398438, 122757.656250, 98334.554688, 80104.984375, 79036.390625, 142532.953125, 0, 1, 1, 0, 1,0.0,0.0,0.0,0.0,0.0, 11:51:27.288
63618.316406, 66697.851563, 99957.757813, 122775.468750, 98361.039063, 80238.757813, 79211.226563, 142491.875000, 0, 1, 1, 0, 1,0.0,0.0,0.0,0.0,0.0, 11:51:27.288
63423.609375, 66493.039063, 100229.062500, 123086.000000, 98216.335938, 80568.757813, 79284.515625, 142299.312500, 0, 1, 1, 0, 1,0.0,0.0,0.0,0.0,0.0, 11:51:27.289
63489.390625, 66560.273438, 100238.000000, 123117.117188, 98180.460938, 80493.750000, 79137.328125, 142312.015625, 0, 1, 1, 0, 1,0.0,0.0,0.0,0.0,0.0, 11:51:27.289
63713.378906, 66798.093750, 99956.351563, 122803.406250, 98330.281250, 80146.890625, 79043.562500, 142514.203125, 0, 1, 1, 0, 1,0.0,0.0,0.0,0.0,0.0, 11:51:27.289
63653.519531, 66736.515625, 99918.148438, 122729.695313, 98396.328125, 80183.101563, 79201.703125, 142521.015625, 0, 1, 1, 0, 1,0.0,0.0,0.0,0.0,0.0, 11:51:27.289
63379.171875, 66456.648438, 100200.367188, 123039.531250, 98208.015625, 80530.070313, 79277.765625, 142276.140625, 0, 1, 1, 0, 1,0.0,0.0,0.0,0.0,0.0, 11:51:27.289
63397.457031, 66481.843750, 100271.375000, 123149.234375, 98129.273438, 80533.218750, 79127.500000, 142250.937500, 0, 1, 1, 0, 1,0.0,0.0,0.0,0.0,0.0, 11:51:27.289
63636.242188, 66731.312500, 99996.757813, 122857.453125, 98272.460938, 80185.945313, 78993.742188, 142460.609375, 0, 1, 1, 0, 1,0.0,0.0,0.0,0.0,0.0, 11:51:27.290
63629.066406, 66725.812500, 99891.085938, 122707.984375, 98372.351563, 80134.109375, 79110.468750, 142521.421875, 0, 1, 1, 0, 1,0.0,0.0,0.0,0.0,0.0, 11:51:27.290
63376.179688, 66468.609375, 100137.531250, 122977.148438, 98242.171875, 80478.523438, 79239.031250, 142321.640625, 0, 1, 1, 0, 1,0.0,0.0,0.0,0.0,0.0, 11:51:27.290
63334.449219, 66429.585938, 100270.281250, 123151.875000, 98140.468750, 80572.046875, 79135.273438, 142245.781250, 0, 1, 1, 0, 1,0.0,0.0,0.0,0.0,0.0, 11:51:27.290
63526.269531, 66635.062500, 100032.460938, 122904.195313, 98234.328125, 80245.085938, 78957.531250, 142409.375000, 0, 1, 1, 0, 1,0.0,0.0,0.0,0.0,0.0, 11:51:27.290
63568.558594, 66682.203125, 99862.203125, 122687.421875, 98351.382813, 80099.867188, 79014.242188, 142506.328125, 0, 1, 1, 0, 1,0.0,0.0,0.0,0.0,0.0, 11:51:27.290
63352.933594, 66460.609375, 100052.304688, 122891.742188, 98263.718750, 80401.367188, 79167.710938, 142357.406250, 0, 1, 1, 0, 1,0.0,0.0,0.0,0.0,0.0, 11:51:27.291
63244.972656, 66350.460938, 100241.156250, 123124.218750, 98131.437500, 80574.796875, 79109.523438, 142229.640625, 0, 1, 1, 0, 1,0.0,0.0,0.0,0.0,0.0, 11:51:27.291
63453.089844, 66563.226563, 100051.296875, 122936.242188, 98206.835938, 80294.367188, 78928.343750, 142375.265625, 0, 1, 1, 0, 1,0.0,0.0,0.0,0.0,0.0, 11:51:27.291
63563.730469, 66678.804688, 99829.640625, 122665.718750, 98361.507813, 80076.218750, 78959.343750, 142528.218750, 0, 1, 1, 0, 1,0.0,0.0,0.0,0.0,0.0, 11:51:27.291
63341.062500, 66451.890625, 99990.500000, 122818.789063, 98288.281250, 80336.125000, 79123.406250, 142381.078125, 0, 1, 1, 0, 1,0.0,0.0,0.0,0.0,0.0, 11:51:27.291
63219.960938, 66321.398438, 100220.835938, 123096.062500, 98145.726563, 80582.664063, 79114.445313, 142234.359375, 0, 1, 1, 0, 1,0.0,0.0,0.0,0.0,0.0, 11:51:27.291
63383.332031, 66485.062500, 100101.031250, 122984.078125, 98174.914063, 80367.687500, 78939.250000, 142336.843750, 0, 1, 1, 0, 1,0.0,0.0,0.0,0.0,0.0, 11:51:27.292
63525.621094, 66632.109375, 99849.914063, 122683.398438, 98311.554688, 80082.210938, 78917.570313, 142496.765625, 0, 1, 1, 0, 1,0.0,0.0,0.0,0.0,0.0, 11:51:27.292
63382.773438, 66483.226563, 99928.093750, 122748.914063, 98299.820313, 80261.398438, 79106.757813, 142419.656250, 0, 1, 1, 0, 1,0.0,0.0,0.0,0.0,0.0, 11:51:27.292
63225.214844, 66316.617188, 100180.421875, 123049.210938, 98164.210938, 80559.796875, 79158.523438, 142252.000000, 0, 1, 1, 0, 1,0.0,0.0,0.0,0.0,0.0, 11:51:27.292
63346.851563, 66443.171875, 100133.375000, 123020.468750, 98158.617188, 80426.023438, 78979.195313, 142307.875000, 0, 1, 1, 0, 1,0.0,0.0,0.0,0.0,0.0, 11:51:27.292
63530.339844, 66633.343750, 99863.476563, 122707.273438, 98302.453125, 80100.468750, 78891.171875, 142489.062500, 0, 1, 1, 0, 1,0.0,0.0,0.0,0.0,0.0, 11:51:27.293
63434.070313, 66532.335938, 99882.882813, 122698.531250, 98328.468750, 80198.906250, 79026.179688, 142461.296875, 0, 1, 1, 0, 1,0.0,0.0,0.0,0.0,0.0, 11:51:27.293
63250.093750, 66341.742188, 100145.781250, 123001.914063, 98199.460938, 80530.070313, 79092.359375, 142285.546875, 0, 1, 1, 0, 1,0.0,0.0,0.0,0.0,0.0, 11:51:27.293
63299.355469, 66392.257813, 100172.984375, 123053.859375, 98148.984375, 80475.687500, 78945.890625, 142268.640625, 0, 1, 1, 0, 1,0.0,0.0,0.0,0.0,0.0, 11:51:27.293
63507.718750, 66607.679688, 99907.265625, 122753.476563, 98273.195313, 80128.273438, 78813.679688, 142440.359375, 0, 1, 1, 0, 1,0.0,0.0,0.0,0.0,0.0, 11:51:27.293
63494.308594, 66587.523438, 99846.156250, 122655.148438, 98355.226563, 80133.859375, 78945.109375, 142483.171875, 0, 1, 1, 0, 1,0.0,0.0,0.0,0.0,0.0, 11:51:27.293
63244.863281, 66322.921875, 100121.484375, 122955.218750, 98198.250000, 80480.406250, 79047.257813, 142261.453125, 0, 1, 1, 0, 1,0.0,0.0,0.0,0.0,0.0, 11:51:27.293
63286.972656, 66369.257813, 100209.257813, 123078.648438, 98136.937500, 80506.820313, 78916.921875, 142246.078125, 0, 1, 1, 0, 1,0.0,0.0,0.0,0.0,0.0, 11:51:27.293
63519.878906, 66614.390625, 99950.203125, 122799.898438, 98276.507813, 80169.468750, 78776.062500, 142448.828125, 0, 1, 1, 0, 1,0.0,0.0,0.0,0.0,0.0, 11:51:27.293
63505.082031, 66598.023438, 99835.359375, 122635.835938, 98360.500000, 80093.382813, 78852.750000, 142502.312500, 0, 1, 1, 0, 1,0.0,0.0,0.0,0.0,0.0, 11:51:27.293
63270.253906, 66362.015625, 100071.054688, 122890.203125, 98226.640625, 80424.187500, 78974.945313, 142314.015625, 0, 1, 1, 0, 1,0.0,0.0,0.0,0.0,0.0, 11:51:27.294
63231.898438, 66321.023438, 100223.742188, 123085.484375, 98124.132813, 80544.328125, 78876.328125, 142237.781250, 0, 1, 1, 0, 1,0.0,0.0,0.0,0.0,0.0, 11:51:27.294
63462.812500, 66559.242188, 100004.671875, 122859.554688, 98234.257813, 80240.953125, 78696.687500, 142422.828125, 0, 1, 1, 0, 1,0.0,0.0,0.0,0.0,0.0, 11:51:27.294
63524.148438, 66622.031250, 99829.500000, 122632.015625, 98353.570313, 80080.914063, 78730.398438, 142522.921875, 0, 1, 1, 0, 1,0.0,0.0,0.0,0.0,0.0, 11:51:27.294
63323.117188, 66414.007813, 100015.539063, 122826.453125, 98271.656250, 80373.273438, 78869.179688, 142373.546875, 0, 1, 1, 0, 1,0.0,0.0,0.0,0.0,0.0, 11:51:27.294
63241.664063, 66332.757813, 100216.968750, 123074.671875, 98151.781250, 80572.937500, 78808.070313, 142261.218750, 0, 1, 1, 0, 1,0.0,0.0,0.0,0.0,0.0, 11:51:27.294
63446.496094, 66545.140625, 100045.171875, 122908.257813, 98224.875000, 80314.421875, 78590.093750, 142409.531250, 0, 1, 1, 0, 1,40.53359,62.127388,20.996464,24.423733,12.548088, 11:51:27.756
63549.515625, 66646.398438, 99825.882813, 122635.453125, 98356.656250, 80080.953125, 78572.210938, 142541.921875, 0, 1, 1, 0, 1,40.53359,62.127388,20.996464,24.423733,12.548088, 11:51:27.757
63370.570313, 66460.335938, 99961.109375, 122762.726563, 98302.500000, 80316.343750, 78738.640625, 142423.593750, 0, 1, 1, 0, 1,40.53359,62.127388,20.996464,24.423733,12.548088, 11:51:27.757
63235.632813, 66320.351563, 100197.476563, 123046.703125, 98150.531250, 80574.929688, 78734.953125, 142268.218750, 0, 1, 1, 0, 1,40.53359,62.127388,20.996464,24.423733,12.548088, 11:51:27.757
63377.722656, 66466.375000, 100100.070313, 122962.820313, 98162.640625, 80384.226563, 78532.117188, 142346.234375, 0, 1, 1, 0, 1,40.53359,62.127388,20.996464,24.423733,12.548088, 11:51:27.757
63556.312500, 66652.585938, 99839.625000, 122659.484375, 98319.445313, 80088.960938, 78499.929688, 142530.609375, 0, 1, 1, 0, 1,40.53359,62.127388,20.996464,24.423733,12.548088, 11:51:27.758
63407.851563, 66496.703125, 99916.585938, 122714.000000, 98315.976563, 80250.382813, 78742.109375, 142459.421875, 0, 1, 1, 0, 1,40.53359,62.127388,20.996464,24.423733,12.548088, 11:51:27.758
63219.871094, 66303.835938, 100186.125000, 123022.968750, 98165.617188, 80558.007813, 78859.726563, 142263.109375, 0, 1, 1, 0, 1,40.53359,62.127388,20.996464,24.423733,12.548088, 11:51:27.758
63329.218750, 66418.343750, 100159.726563, 123018.406250, 98158.507813, 80443.164063, 78757.578125, 142296.906250, 0, 1, 1, 0, 1,40.53359,62.127388,20.996464,24.423733,12.548088, 11:51:27.759
63509.953125, 66604.265625, 99896.757813, 122715.523438, 98292.484375, 80115.000000, 78726.460938, 142475.984375, 0, 1, 1, 0, 1,40.53359,62.127388,20.996464,24.423733,12.548088, 11:51:27.759
63434.359375, 66527.125000, 99892.218750, 122682.195313, 98334.554688, 80184.351563, 78920.585938, 142461.718750, 0, 1, 1, 0, 1,40.53359,62.127388,20.996464,24.423733,12.548088, 11:51:27.760
63245.757813, 66331.906250, 100147.656250, 122976.500000, 98217.117188, 80514.984375, 79066.343750, 142297.171875, 0, 1, 1, 0, 1,40.53359,62.127388,20.996464,24.423733,12.548088, 11:51:27.760
63297.703125, 66383.273438, 100189.593750, 123049.703125, 98169.437500, 80494.125000, 78925.328125, 142301.609375, 0, 1, 1, 0, 1,40.53359,62.127388,20.996464,24.423733,12.548088, 11:51:27.760
63541.425781, 66636.179688, 99909.585938, 122748.648438, 98307.796875, 80154.562500, 78776.085938, 142514.187500, 0, 1, 1, 0, 1,40.53359,62.127388,20.996464,24.423733,12.548088, 11:51:27.760
63505.304688, 66598.609375, 99841.328125, 122635.812500, 98387.437500, 80146.695313, 78928.296875, 142548.640625, 0, 1, 1, 0, 1,40.53359,62.127388,20.996464,24.423733,12.548088, 11:51:27.760
63268.554688, 66353.140625, 100103.023438, 122917.421875, 98245.617188, 80492.273438, 79064.039063, 142350.515625, 0, 1, 1, 0, 1,40.53359,62.127388,20.996464,24.423733,12.548088, 11:51:27.760
63256.394531, 66340.492188, 100222.179688, 123067.742188, 98149.679688, 80556.218750, 78910.234375, 142290.437500, 0, 1, 1, 0, 1,40.53359,62.127388,20.996464,24.423733,12.548088, 11:51:27.760
63458.835938, 66546.687500, 99988.156250, 122815.234375, 98251.421875, 80230.335938, 78673.687500, 142455.171875, 0, 1, 1, 0, 1,40.53359,62.127388,20.996464,24.423733,12.548088, 11:51:27.760
63512.390625, 66599.476563, 99840.585938, 122624.031250, 98383.343750, 80123.218750, 78756.835938, 142560.187500, 0, 1, 1, 0, 1,40.53359,62.127388,20.996464,24.423733,12.548088, 11:51:27.761
63323.652344, 66411.546875, 100053.046875, 122851.578125, 98303.351563, 80439.703125, 78993.679688, 142412.093750, 0, 1, 1, 0, 1,40.53359,62.127388,20.996464,24.423733,12.548088, 11:51:27.761
63270.007813, 66358.820313, 100214.085938, 123054.328125, 98198.539063, 80581.257813, 78983.242188, 142320.281250, 0, 1, 1, 0, 1,40.53359,62.127388,20.996464,24.423733,12.548088, 11:51:27.761
63449.851563, 66543.015625, 100024.187500, 122857.523438, 98269.640625, 80293.382813, 78788.398438, 142443.953125, 0, 1, 1, 0, 1,40.53359,62.127388,20.996464,24.423733,12.548088, 11:51:27.761
63519.429688, 66611.906250, 99840.140625, 122627.476563, 98384.867188, 80111.398438, 78802.187500, 142544.718750, 0, 1, 1, 0, 1,40.53359,62.127388,20.996464,24.423733,12.548088, 11:51:27.761
63330.089844, 66415.882813, 100016.054688, 122806.421875, 98324.445313, 80383.929688, 78995.976563, 142410.953125, 0, 1, 1, 0, 1,40.53359,62.127388,20.996464,24.423733,12.548088, 11:51:27.761
63245.285156, 66329.960938, 100223.406250, 123059.070313, 98201.023438, 80590.640625, 79003.890625, 142294.781250, 0, 1, 1, 0, 1,40.53359,62.127388,20.996464,24.423733,12.548088, 11:51:27.761
63422.269531, 66514.585938, 100071.460938, 122914.429688, 98247.757813, 80352.218750, 78823.734375, 142416.109375, 0, 1, 1, 0, 1,40.53359,62.127388,20.996464,24.423733,12.548088, 11:51:27.761
63557.718750, 66651.757813, 99835.070313, 122633.335938, 98390.898438, 80101.203125, 78820.875000, 142564.203125, 0, 1, 1, 0, 1,40.53359,62.127388,20.996464,24.423733,12.548088, 11:51:27.761
63395.378906, 66477.859375, 99950.109375, 122737.421875, 98365.242188, 80313.750000, 79042.804688, 142464.843750, 0, 1, 1, 0, 1,40.53359,62.127388,20.996464,24.423733,12.548088, 11:51:27.761
63255.234375, 66331.414063, 100199.718750, 123027.953125, 98227.617188, 80588.179688, 79121.242188, 142315.000000, 0, 1, 1, 0, 1,40.53359,62.127388,20.996464,24.423733,12.548088, 11:51:27.762
63402.843750, 66488.437500, 100115.203125, 122959.648438, 98250.328125, 80420.882813, 78977.718750, 142403.625000, 0, 1, 1, 0, 1,40.53359,62.127388,20.996464,24.423733,12.548088, 11:51:27.762
63570.882813, 66665.750000, 99854.492188, 122658.570313, 98405.789063, 80124.023438, 78940.968750, 142584.390625, 0, 1, 1, 0, 1,40.53359,62.127388,20.996464,24.423733,12.548088, 11:51:27.762
63430.246094, 66516.531250, 99914.460938, 122690.640625, 98390.296875, 80261.625000, 79113.484375, 142507.359375, 0, 1, 1, 0, 1,40.53359,62.127388,20.996464,24.423733,12.548088, 11:51:27.762
63256.933594, 66336.914063, 100172.218750, 122987.765625, 98247.781250, 80568.890625, 79208.117188, 142337.109375, 0, 1, 1, 0, 1,40.53359,62.127388,20.996464,24.423733,12.548088, 11:51:27.762
63356.218750, 66437.476563, 100164.445313, 123004.460938, 98233.765625, 80481.718750, 79074.437500, 142368.984375, 0, 1, 1, 0, 1,40.53359,62.127388,20.996464,24.423733,12.548088, 11:51:27.762
63574.929688, 66659.695313, 99891.398438, 122697.929688, 98391.234375, 80152.703125, 78954.156250, 142565.921875, 0, 1, 1, 0, 1,40.53359,62.127388,20.996464,24.423733,12.548088, 11:51:27.762
63515.363281, 66598.492188, 99868.796875, 122638.671875, 98458.085938, 80205.187500, 79091.664063, 142574.531250, 0, 1, 1, 0, 1,40.53359,62.127388,20.996464,24.423733,12.548088, 11:51:27.762
63290.863281, 66371.625000, 100139.031250, 122934.343750, 98326.617188, 80542.671875, 79232.750000, 142382.390625, 0, 1, 1, 0, 1,40.53359,62.127388,20.996464,24.423733,12.548088, 11:51:27.762
63310.867188, 66396.234375, 100209.148438, 123029.406250, 98255.898438, 80537.601563, 79110.039063, 142357.765625, 0, 1, 1, 0, 1,40.53359,62.127388,20.996464,24.423733,12.548088, 11:51:27.763
63533.312500, 66622.750000, 99947.835938, 122743.507813, 98374.921875, 80195.328125, 78908.609375, 142536.890625, 0, 1, 1, 0, 1,40.53359,62.127388,20.996464,24.423733,12.548088, 11:51:27.763
63523.812500, 66607.835938, 99851.921875, 122611.632813, 98452.859375, 80150.132813, 78986.968750, 142576.609375, 0, 1, 1, 0, 1,40.53359,62.127388,20.996464,24.423733,12.548088, 11:51:27.763
63315.246094, 66385.078125, 100093.476563, 122875.312500, 98348.656250, 80485.320313, 79149.421875, 142405.343750, 0, 1, 1, 0, 1,40.53359,62.127388,20.996464,24.423733,12.548088, 11:51:27.763
63290.816406, 66355.195313, 100234.312500, 123045.476563, 98241.968750, 80571.601563, 79051.437500, 142320.890625, 0, 1, 1, 0, 1,40.53359,62.127388,20.996464,24.423733,12.548088, 11:51:27.763
63509.394531, 66582.085938, 99997.679688, 122799.226563, 98339.648438, 80252.437500, 78873.085938, 142495.250000, 0, 1, 1, 0, 1,40.53359,62.127388,20.996464,24.423733,12.548088, 11:51:27.763
63560.355469, 66635.062500, 99830.953125, 122592.070313, 98461.171875, 80122.375000, 78958.742188, 142598.687500, 0, 1, 1, 0, 1,40.53359,62.127388,20.996464,24.423733,12.548088, 11:51:27.763
63344.976563, 66416.085938, 100029.257813, 122803.250000, 98373.109375, 80423.984375, 79162.367188, 142438.968750, 0, 1, 1, 0, 1,40.53359,62.127388,20.996464,24.423733,12.548088, 11:51:27.763
63294.863281, 66365.789063, 100200.117188, 123018.765625, 98265.820313, 80581.523438, 79120.906250, 142348.546875, 0, 1, 1, 0, 1,40.53359,62.127388,20.996464,24.423733,12.548088, 11:51:27.764
63495.804688, 66573.171875, 100014.265625, 122828.304688, 98347.492188, 80309.679688, 78929.750000, 142500.562500, 0, 1, 1, 0, 1,40.53359,62.127388,20.996464,24.423733,12.548088, 11:51:27.764
63563.242188, 66639.335938, 99819.218750, 122580.335938, 98455.046875, 80111.156250, 78924.703125, 142596.078125, 0, 1, 1, 0, 1,40.53359,62.127388,20.996464,24.423733,12.548088, 11:51:27.764
63394.394531, 66457.765625, 99964.796875, 122728.328125, 98408.781250, 80360.289063, 79106.914063, 142479.062500, 0, 1, 1, 0, 1,40.53359,62.127388,20.996464,24.423733,12.548088, 11:51:27.764
63282.390625, 66350.546875, 100183.757813, 122986.156250, 98291.281250, 80589.476563, 79130.226563, 142350.812500, 0, 1, 1, 0, 1,40.53359,62.127388,20.996464,24.423733,12.548088, 11:51:27.764
63454.789063, 66529.117188, 100056.218750, 122863.507813, 98338.734375, 80377.585938, 78928.945313, 142465.750000, 0, 1, 1, 0, 1,40.53359,62.127388,20.996464,24.423733,12.548088, 11:51:27.764
63587.871094, 66662.867188, 99815.554688, 122576.468750, 98483.546875, 80115.710938, 78866.093750, 142614.515625, 0, 1, 1, 0, 1,40.53359,62.127388,20.996464,24.423733,12.548088, 11:51:27.764
63425.554688, 66493.953125, 99915.289063, 122659.257813, 98455.273438, 80304.875000, 79055.164063, 142520.031250, 0, 1, 1, 0, 1,40.53359,62.127388,20.996464,24.423733,12.548088, 11:51:27.764
63235.429688, 66299.921875, 100180.601563, 122957.726563, 98295.726563, 80587.335938, 79112.835938, 142330.890625, 0, 1, 1, 0, 1,40.53359,62.127388,20.996464,24.423733,12.548088, 11:51:27.764
63367.910156, 66434.945313, 100125.062500, 122920.421875, 98301.648438, 80438.742188, 78936.882813, 142393.281250, 0, 1, 1, 0, 1,40.53359,62.127388,20.996464,24.423733,12.548088, 11:51:27.765
63584.207031, 66655.132813, 99847.476563, 122613.890625, 98473.203125, 80127.914063, 78844.296875, 142595.718750, 0, 1, 1, 0, 1,40.53359,62.127388,20.996464,24.423733,12.548088, 11:51:27.765
63470.367188, 66538.703125, 99876.015625, 122619.273438, 98513.343750, 80245.195313, 79034.359375, 142552.625000, 0, 1, 1, 0, 1,40.53359,62.127388,20.996464,24.423733,12.548088, 11:51:27.765
63268.398438, 66330.898438, 100147.859375, 122924.578125, 98375.031250, 80568.937500, 79172.023438, 142364.000000, 0, 1, 1, 0, 1,40.53359,62.127388,20.996464,24.423733,12.548088, 11:51:27.765
63360.375000, 66428.781250, 100163.750000, 122962.820313, 98332.671875, 80506.820313, 79042.273438, 142392.031250, 0, 1, 1, 0, 1,40.53359,62.127388,20.996464,24.423733,12.548088, 11:51:27.765
63566.882813, 66641.367188, 99894.906250, 122663.820313, 98481.250000, 80178.765625, 78924.093750, 142578.156250, 0, 1, 1, 0, 1,40.53359,62.127388,20.996464,24.423733,12.548088, 11:51:27.765
63515.878906, 66586.914063, 99849.617188, 122586.664063, 98536.632813, 80198.343750, 79066.250000, 142578.375000, 0, 1, 1, 0, 1,40.53359,62.127388,20.996464,24.423733,12.548088, 11:51:27.766
63320.410156, 66381.679688, 100100.921875, 122869.570313, 98418.171875, 80526.539063, 79221.710938, 142402.218750, 0, 1, 1, 0, 1,40.53359,62.127388,20.996464,24.423733,12.548088, 11:51:27.766
63327.003906, 66390.851563, 100188.382813, 122981.554688, 98345.835938, 80549.445313, 79126.710938, 142363.703125, 0, 1, 1, 0, 1,40.53359,62.127388,20.996464,24.423733,12.548088, 11:51:27.766
63512.144531, 66585.507813, 99953.531250, 122718.921875, 98450.109375, 80226.171875, 78965.335938, 142519.234375, 0, 1, 1, 0, 1,40.53359,62.127388,20.996464,24.423733,12.548088, 11:51:27.766
63543.816406, 66613.539063, 99831.250000, 122562.570313, 98558.671875, 80154.828125, 79069.765625, 142598.609375, 0, 1, 1, 0, 1,40.53359,62.127388,20.996464,24.423733,12.548088, 11:51:27.766
63334.960938, 66395.406250, 100058.921875, 122811.320313, 98455.359375, 80469.851563, 79233.554688, 142433.421875, 0, 1, 1, 0, 1,40.53359,62.127388,20.996464,24.423733,12.548088, 11:51:27.766
63297.390625, 66356.109375, 100205.773438, 122993.062500, 98360.234375, 80570.656250, 79136.843750, 142355.953125, 0, 1, 1, 0, 1,40.53359,62.127388,20.996464,24.423733,12.548088, 11:51:27.766
63489.011719, 66554.554688, 99995.578125, 122771.265625, 98434.171875, 80266.945313, 78901.500000, 142505.046875, 0, 1, 1, 0, 1,40.53359,62.127388,20.996464,24.423733,12.548088, 11:51:27.767
63543.660156, 66611.640625, 99826.460938, 122559.460938, 98545.351563, 80123.937500, 78926.781250, 142602.890625, 0, 1, 1, 0, 1,40.53359,62.127388,20.996464,24.423733,12.548088, 11:51:27.767
63349.468750, 66408.640625, 100013.617188, 122759.375000, 98465.601563, 80414.804688, 79128.343750, 142458.171875, 0, 1, 1, 0, 1,40.53359,62.127388,20.996464,24.423733,12.548088, 11:51:27.767
63259.613281, 66316.101563, 100213.437500, 122999.140625, 98337.234375, 80597.859375, 79126.648438, 142338.156250, 0, 1, 1, 0, 1,40.53359,62.127388,20.996464,24.423733,12.548088, 11:51:27.767
63470.949219, 66539.640625, 100038.265625, 122827.257813, 98408.226563, 80337.914063, 78938.421875, 142489.765625, 0, 1, 1, 0, 1,40.53359,62.127388,20.996464,24.423733,12.548088, 11:51:27.767
63570.796875, 66643.375000, 99821.476563, 122566.281250, 98539.335938, 80120.984375, 78922.554688, 142621.765625, 0, 1, 1, 0, 1,40.53359,62.127388,20.996464,24.423733,12.548088, 11:51:27.767
63412.253906, 66475.585938, 99945.687500, 122690.734375, 98499.710938, 80354.921875, 79117.976563, 142520.062500, 0, 1, 1, 0, 1,40.53359,62.127388,20.996464,24.423733,12.548088, 11:51:27.767
63264.351563, 66321.914063, 100186.687500, 122969.054688, 98352.343750, 80609.328125, 79169.453125, 142355.890625, 0, 1, 1, 0, 1,40.53359,62.127388,20.996464,24.423733,12.548088, 11:51:27.767
63408.902344, 66472.789063, 100086.617188, 122878.757813, 98361.578125, 80414.445313, 78984.265625, 142438.125000, 0, 1, 1, 0, 1,40.53359,62.127388,20.996464,24.423733,12.548088, 11:51:27.767
63578.910156, 66644.984375, 99826.593750, 122582.906250, 98515.156250, 80132.789063, 78933.664063, 142620.078125, 0, 1, 1, 0, 1,40.53359,62.127388,20.996464,24.423733,12.548088, 11:51:27.768
63460.042969, 66520.976563, 99887.328125, 122632.390625, 98529.367188, 80296.093750, 79121.953125, 142566.890625, 0, 1, 1, 0, 1,40.53359,62.127388,20.996464,24.423733,12.548088, 11:51:27.768
63284.847656, 66339.750000, 100148.640625, 122931.218750, 98393.695313, 80595.718750, 79202.109375, 142388.906250, 0, 1, 1, 0, 1,40.53359,62.127388,20.996464,24.423733,12.548088, 11:51:27.768
63397.769531, 66458.460938, 100113.640625, 122911.570313, 98380.507813, 80476.265625, 79027.140625, 142437.406250, 0, 1, 1, 0, 1,40.53359,62.127388,20.996464,24.423733,12.548088, 11:51:27.768
63589.167969, 66660.296875, 99834.039063, 122601.125000, 98525.414063, 80158.203125, 78920.476563, 142629.265625, 0, 1, 1, 0, 1,40.53359,62.127388,20.996464,24.423733,12.548088, 11:51:27.768
63488.339844, 66555.085938, 99826.015625, 122579.421875, 98549.062500, 80245.820313, 79070.500000, 142595.906250, 0, 1, 1, 0, 1,40.53359,62.127388,20.996464,24.423733,12.548088, 11:51:27.768
63257.691406, 66319.210938, 100090.679688, 122889.843750, 98383.656250, 80577.390625, 79155.929688, 142375.593750, 0, 1, 1, 0, 1,40.53359,62.127388,20.996464,24.423733,12.548088, 11:51:27.768
63297.074219, 66359.468750, 100130.312500, 122967.578125, 98312.132813, 80538.273438, 78983.867188, 142352.890625, 0, 1, 1, 0, 1,40.53359,62.127388,20.996464,24.423733,12.548088, 11:51:27.768
63520.660156, 66593.531250, 99850.179688, 122673.320313, 98453.460938, 80194.031250, 78827.382813, 142551.625000, 0, 1, 1, 0, 1,40.53359,62.127388,20.996464,24.423733,12.548088, 11:51:27.768
63479.128906, 66551.039063, 99782.117188, 122570.148438, 98525.367188, 80184.179688, 78945.781250, 142573.140625, 0, 1, 1, 0, 1,40.53359,62.127388,20.996464,24.423733,12.548088, 11:51:27.769
63263.792969, 66326.539063, 100030.218750, 122846.929688, 98401.851563, 80509.546875, 79082.304688, 142389.531250, 0, 1, 1, 0, 1,40.53359,62.127388,20.996464,24.423733,12.548088, 11:51:27.769
63281.945313, 66344.625000, 100131.968750, 122985.796875, 98331.492188, 80556.507813, 78973.765625, 142352.062500, 0, 1, 1, 0, 1,40.53359,62.127388,20.996464,24.423733,12.548088, 11:51:27.769
63486.929688, 66559.828125, 99892.984375, 122725.843750, 98440.140625, 80233.375000, 78800.070313, 142529.578125, 0, 1, 1, 0, 1,40.53359,62.127388,20.996464,24.423733,12.548088, 11:51:27.769
63487.156250, 66561.078125, 99776.796875, 122560.039063, 98519.492188, 80140.257813, 78881.226563, 142579.531250, 0, 1, 1, 0, 1,40.53359,62.127388,20.996464,24.423733,12.548088, 11:51:27.769
63287.910156, 66360.585938, 99988.226563, 122793.304688, 98423.601563, 80450.382813, 79059.148438, 142424.015625, 0, 1, 1, 0, 1,40.53359,62.127388,20.996464,24.423733,12.548088, 11:51:27.769
63231.207031, 66300.414063, 100153.718750, 122997.085938, 98307.460938, 80581.656250, 78998.906250, 142324.125000, 0, 1, 1, 0, 1,40.53359,62.127388,20.996464,24.423733,12.548088, 11:51:27.769
63441.894531, 66519.546875, 99953.000000, 122786.937500, 98396.109375, 80288.203125, 78802.656250, 142486.703125, 0, 1, 1, 0, 1,40.53359,62.127388,20.996464,24.423733,12.548088, 11:51:27.769
63511.226563, 66592.390625, 99773.625000, 122556.062500, 98522.773438, 80117.968750, 78830.640625, 142596.281250, 0, 1, 1, 0, 1,40.53359,62.127388,20.996464,24.423733,12.548088, 11:51:27.769
63308.832031, 66380.406250, 99945.125000, 122736.015625, 98446.843750, 80393.367188, 79016.140625, 142452.406250, 0, 1, 1, 0, 1,40.53359,62.127388,20.996464,24.423733,12.548088, 11:51:27.769
63213.414063, 66279.554688, 100156.914063, 122992.171875, 98322.015625, 80598.132813, 79011.757813, 142321.843750, 0, 1, 1, 0, 1,40.53359,62.127388,20.996464,24.423733,12.548088, 11:51:27.770
63393.546875, 66469.484375, 100012.539063, 122847.242188, 98378.273438, 80357.625000, 78826.953125, 142443.484375, 0, 1, 1, 0, 1,40.53359,62.127388,20.996464,24.423733,12.548088, 11:51:27.770
63524.863281, 66607.750000, 99781.695313, 122568.382813, 98520.945313, 80113.789063, 78810.304688, 142602.000000, 0, 1, 1, 0, 1,40.53359,62.127388,20.996464,24.423733,12.548088, 11:51:27.770
63362.523438, 66438.992188, 99895.351563, 122677.906250, 98482.656250, 80330.046875, 78984.156250, 142499.609375, 0, 1, 1, 0, 1,40.53359,62.127388,20.996464,24.423733,12.548088, 11:51:27.770
63202.058594, 66274.750000, 100136.507813, 122967.648438, 98344.789063, 80599.132813, 79021.281250, 142327.406250, 0, 1, 1, 0, 1,40.53359,62.127388,20.996464,24.423733,12.548088, 11:51:27.770
63337.175781, 66416.460938, 100062.585938, 122903.234375, 98347.093750, 80425.039063, 78841.953125, 142394.046875, 0, 1, 1, 0, 1,40.53359,62.127388,20.996464,24.423733,12.548088, 11:51:27.770
63500.320313, 66586.203125, 99810.640625, 122604.812500, 98479.750000, 80123.156250, 78778.031250, 142568.562500, 0, 1, 1, 0, 1,40.53359,62.127388,20.996464,24.423733,12.548088, 11:51:27.770
63391.085938, 66475.445313, 99845.929688, 122623.992188, 98480.125000, 80253.710938, 78926.757813, 142523.031250, 0, 1, 1, 0, 1,40.53359,62.127388,20.996464,24.423733,12.548088, 11:51:27.770
63195.062500, 66273.656250, 100104.226563, 122925.515625, 98337.031250, 80564.046875, 79004.742188, 142334.046875, 0, 1, 1, 0, 1,40.53359,62.127388,20.996464,24.423733,12.548088, 11:51:27.770
63292.671875, 66376.585938, 100090.906250, 122932.843750, 98310.476563, 80461.851563, 78842.000000, 142366.843750, 0, 1, 1, 0, 1,40.53359,62.127388,20.996464,24.423733,12.548088, 11:51:27.771
63497.660156, 66588.640625, 99822.929688, 122621.867188, 98432.742188, 80132.812500, 78694.523438, 142552.843750, 0, 1, 1, 0, 1,40.53359,62.127388,20.996464,24.423733,12.548088, 11:51:27.771
63413.730469, 66499.250000, 99812.359375, 122576.382813, 98464.953125, 80194.281250, 78824.789063, 142526.859375, 0, 1, 1, 0, 1,40.53359,62.127388,20.996464,24.423733,12.548088, 11:51:27.771
63221.929688, 66297.843750, 100062.187500, 122868.359375, 98342.617188, 80518.625000, 78946.359375, 142347.500000, 0, 1, 1, 0, 1,40.53359,62.127388,20.996464,24.423733,12.548088, 11:51:27.771
63276.085938, 66355.109375, 100118.625000, 122955.351563, 98307.195313, 80512.140625, 78837.703125, 142344.546875, 0, 1, 1, 0, 1,40.53359,62.127388,20.996464,24.423733,12.548088, 11:51:27.771
63496.476563, 66583.476563, 99858.671875, 122665.500000, 98430.062500, 80175.500000, 78679.140625, 142523.234375, 0, 1, 1, 0, 1,40.53359,62.127388,20.996464,24.423733,12.548088, 11:51:27.771
63499.582031, 66588.257813, 99757.843750, 122528.031250, 98526.843750, 80133.773438, 78788.445313, 142582.000000, 0, 1, 1, 0, 1,40.53359,62.127388,20.996464,24.423733,12.548088, 11:51:27.771
63250.941406, 66335.210938, 100004.093750, 122796.945313, 98395.523438, 80465.492188, 78917.953125, 142370.750000, 0, 1, 1, 0, 1,40.53359,62.127388,20.996464,24.423733,12.548088, 11:51:27.771
63232.097656, 66318.648438, 100121.664063, 122949.117188, 98289.359375, 80532.750000, 78791.257813, 142286.937500, 0, 1, 1, 0, 1,40.53359,62.127388,20.996464,24.423733,12.548088, 11:51:27.771
63445.804688, 66535.843750, 99885.718750, 122691.804688, 98391.992188, 80207.445313, 78604.914063, 142466.078125, 0, 1, 1, 0, 1,40.53359,62.127388,20.996464,24.423733,12.548088, 11:51:27.771
63500.207031, 66584.281250, 99743.960938, 122499.265625, 98505.070313, 80093.156250, 78675.726563, 142563.578125, 0, 1, 1, 0, 1,40.53359,62.127388,20.996464,24.423733,12.548088, 11:51:27.772
63300.785156, 66380.523438, 99944.992188, 122719.054688, 98421.921875, 80400.585938, 78847.921875, 142415.125000, 0, 1, 1, 0, 1,40.53359,62.127388,20.996464,24.423733,12.548088, 11:51:27.772
63224.007813, 66304.812500, 100119.070313, 122932.109375, 98300.687500, 80552.171875, 78788.820313, 142306.000000, 0, 1, 1, 0, 1,40.53359,62.127388,20.996464,24.423733,12.548088, 11:51:27.772
63412.500000, 66501.398438, 99932.945313, 122737.023438, 98369.531250, 80268.554688, 78589.554688, 142439.218750, 0, 1, 1, 0, 1,40.53359,62.127388,20.996464,24.423733,12.548088, 11:51:27.772
63515.675781, 66609.695313, 99734.796875, 122489.390625, 98510.703125, 80068.640625, 78610.992188, 142564.156250, 0, 1, 1, 0, 1,40.53359,62.127388,20.996464,24.423733,12.548088, 11:51:27.772
63349.132813, 66436.335938, 99879.078125, 122638.296875, 98469.960938, 80326.085938, 78794.750000, 142455.015625, 0, 1, 1, 0, 1,40.53359,62.127388,20.996464,24.423733,12.548088, 11:51:27.772
63246.875000, 66332.820313, 100082.929688, 122888.703125, 98342.929688, 80544.281250, 78792.156250, 142325.046875, 0, 1, 1, 0, 1,11.445379,13.137976,12.158434,11.370307,5.897294, 11:51:28.236
63422.355469, 66517.648438, 99947.539063, 122754.257813, 98395.750000, 80317.281250, 78612.156250, 142442.765625, 0, 1, 1, 0, 1,11.445379,13.137976,12.158434,11.370307,5.897294, 11:51:28.236
63538.316406, 66634.171875, 99721.273438, 122466.343750, 98526.085938, 80055.835938, 78573.132813, 142580.250000, 0, 1, 1, 0, 1,11.445379,13.137976,12.158434,11.370307,5.897294, 11:51:28.236
63411.113281, 66501.156250, 99804.203125, 122540.218750, 98519.531250, 80243.429688, 78756.835938, 142511.953125, 0, 1, 1, 0, 1,11.445379,13.137976,12.158434,11.370307,5.897294, 11:51:28.237
63248.417969, 66334.765625, 100043.390625, 122826.273438, 98378.156250, 80519.476563, 78809.093750, 142337.484375, 0, 1, 1, 0, 1,11.445379,13.137976,12.158434,11.370307,5.897294, 11:51:28.237
63381.632813, 66475.156250, 99977.718750, 122774.953125, 98388.578125, 80365.382813, 78641.343750, 142404.921875, 0, 1, 1, 0, 1,11.445379,13.137976,12.158434,11.370307,5.897294, 11:51:28.237
63551.750000, 66650.304688, 99718.523438, 122466.921875, 98540.210938, 80061.039063, 78585.804688, 142581.484375, 0, 1, 1, 0, 1,11.445379,13.137976,12.158434,11.370307,5.897294, 11:51:28.237
63428.527344, 66521.203125, 99757.437500, 122475.531250, 98539.875000, 80177.109375, 78743.203125, 142515.765625, 0, 1, 1, 0, 1,11.445379,13.137976,12.158434,11.370307,5.897294, 11:51:28.237
63237.218750, 66320.687500, 100017.328125, 122775.867188, 98394.250000, 80490.796875, 78830.242188, 142329.640625, 0, 1, 1, 0, 1,11.445379,13.137976,12.158434,11.370307,5.897294, 11:51:28.237
63326.378906, 66415.437500, 100025.750000, 122806.468750, 98366.539063, 80420.054688, 78670.875000, 142354.953125, 0, 1, 1, 0, 1,11.445379,13.137976,12.158434,11.370307,5.897294, 11:51:28.237
63528.437500, 66631.132813, 99764.148438, 122508.406250, 98508.406250, 80092.156250, 78538.796875, 142540.468750, 0, 1, 1, 0, 1,11.445379,13.137976,12.158434,11.370307,5.897294, 11:51:28.237
63481.140625, 66583.203125, 99722.218750, 122436.414063, 98569.828125, 80124.359375, 78675.812500, 142554.453125, 0, 1, 1, 0, 1,11.445379,13.137976,12.158434,11.370307,5.897294, 11:51:28.237
63263.750000, 66359.085938, 99971.906250, 122723.414063, 98441.304688, 80463.750000, 78820.023438, 142368.093750, 0, 1, 1, 0, 1,11.445379,13.137976,12.158434,11.370307,5.897294, 11:51:28.238
63257.828125, 66353.070313, 100064.289063, 122843.617188, 98349.703125, 80484.429688, 78707.976563, 142303.656250, 0, 1, 1, 0, 1,11.445379,13.137976,12.158434,11.370307,5.897294, 11:51:28.238
63479.175781, 66581.195313, 99815.085938, 122567.640625, 98478.343750, 80150.781250, 78557.304688, 142488.671875, 0, 1, 1, 0, 1,11.445379,13.137976,12.158434,11.370307,5.897294, 11:51:28.238
63473.742188, 66572.859375, 99720.445313, 122428.187500, 98568.460938, 80096.843750, 78672.750000, 142538.656250, 0, 1, 1, 0, 1,11.445379,13.137976,12.158434,11.370307,5.897294, 11:51:28.238
63247.656250, 66343.328125, 99954.515625, 122685.992188, 98448.632813, 80425.062500, 78827.648438, 142361.031250, 0, 1, 1, 0, 1,11.445379,13.137976,12.158434,11.370307,5.897294, 11:51:28.239
63227.359375, 66321.421875, 100088.468750, 122857.835938, 98345.703125, 80520.148438, 78737.281250, 142283.203125, 0, 1, 1, 0, 1,11.445379,13.137976,12.158434,11.370307,5.897294, 11:51:28.239
63474.906250, 66576.125000, 99838.890625, 122597.726563, 98467.210938, 80186.390625, 78560.585938, 142473.562500, 0, 1, 1, 0, 1,11.445379,13.137976,12.158434,11.370307,5.897294, 11:51:28.239
63560.402344, 66658.468750, 99664.281250, 122377.406250, 98611.132813, 80051.812500, 78651.984375, 142600.125000, 0, 1, 1, 0, 1,11.445379,13.137976,12.158434,11.370307,5.897294, 11:51:28.239
63337.488281, 66429.562500, 99861.468750, 122585.921875, 98514.687500, 80355.054688, 78833.664063, 142436.062500, 0, 1, 1, 0, 1,11.445379,13.137976,12.158434,11.370307,5.897294, 11:51:28.239
63255.726563, 66346.773438, 100061.695313, 122826.992188, 98398.054688, 80546.500000, 78808.648438, 142328.390625, 0, 1, 1, 0, 1,11.445379,13.137976,12.158434,11.370307,5.897294, 11:51:28.239
63426.113281, 66526.789063, 99898.679688, 122655.664063, 98447.156250, 80281.789063, 78608.335938, 142444.281250, 0, 1, 1, 0, 1,11.445379,13.137976,12.158434,11.370307,5.897294, 11:51:28.239
63524.125000, 66623.976563, 99718.820313, 122419.515625, 98572.085938, 80089.226563, 78641.414063, 142568.078125, 0, 1, 1, 0, 1,11.445379,13.137976,12.158434,11.370307,5.897294, 11:51:28.239
63350.226563, 66440.554688, 99877.203125, 122574.187500, 98511.062500, 80337.578125, 78828.226563, 142444.203125, 0, 1, 1, 0, 1,11.445379,13.137976,12.158434,11.370307,5.897294, 11:51:28.239
63224.855469, 66311.250000, 100111.250000, 122854.664063, 98384.460938, 80583.156250, 78855.679688, 142304.250000, 0, 1, 1, 0, 1,11.445379,13.137976,12.158434,11.370307,5.897294, 11:51:28.239
63371.285156, 66463.890625, 100003.687500, 122754.992188, 98401.273438, 80375.460938, 78652.585938, 142389.406250, 0, 1, 1, 0, 1,11.445379,13.137976,12.158434,11.370307,5.897294, 11:51:28.239
63498.753906, 66595.835938, 99782.273438, 122479.914063, 98544.906250, 80112.492188, 78596.578125, 142542.390625, 0, 1, 1, 0, 1,11.445379,13.137976,12.158434,11.370307,5.897294, 11:51:28.240
63380.312500, 66472.093750, 99872.734375, 122559.351563, 98548.390625, 80299.242188, 78769.890625, 142490.062500, 0, 1, 1, 0, 1,11.445379,13.137976,12.158434,11.370307,5.897294, 11:51:28.240
63203.109375, 66285.414063, 100132.500000, 122866.687500, 98413.117188, 80598.554688, 78836.703125, 142304.203125, 0, 1, 1, 0, 1,11.445379,13.137976,12.158434,11.370307,5.897294, 11:51:28.240
63323.964844, 66415.437500, 100089.500000, 122848.625000, 98400.218750, 80466.234375, 78655.648438, 142354.828125, 0, 1, 1, 0, 1,11.445379,13.137976,12.158434,11.370307,5.897294, 11:51:28.240
63513.640625, 66613.468750, 99816.250000, 122540.953125, 98559.523438, 80145.687500, 78577.132813, 142552.156250, 0, 1, 1, 0, 1,11.445379,13.137976,12.158434,11.370307,5.897294, 11:51:28.240
63416.792969, 66510.609375, 99846.804688, 122543.968750, 98581.562500, 80254.695313, 78758.828125, 142517.796875, 0, 1, 1, 0, 1,11.445379,13.137976,12.158434,11.370307,5.897294, 11:51:28.240
63222.933594, 66307.632813, 100094.750000, 122837.406250, 98443.539063, 80571.109375, 78871.257813, 142340.015625, 0, 1, 1, 0, 1,11.445379,13.137976,12.158434,11.370307,5.897294, 11:51:28.240
63268.890625, 66360.515625, 100136.390625, 122904.234375, 98385.085938, 80527.679688, 78738.351563, 142331.093750, 0, 1, 1, 0, 1,11.445379,13.137976,12.158434,11.370307,5.897294, 11:51:28.241
63491.914063, 66592.304688, 99858.250000, 122597.304688, 98529.031250, 80176.304688, 78612.109375, 142526.265625, 0, 1, 1, 0, 1,11.445379,13.137976,12.158434,11.370307,5.897294, 11:51:28.241
63432.796875, 66529.476563, 99821.546875, 122520.343750, 98600.671875, 80199.445313, 78761.289063, 142526.468750, 0, 1, 1, 0, 1,11.445379,13.137976,12.158434,11.370307,5.897294, 11:51:28.241
63220.140625, 66311.054688, 100059.414063, 122796.476563, 98463.812500, 80521.843750, 78887.328125, 142335.859375, 0, 1, 1, 0, 1,11.445379,13.137976,12.158434,11.370307,5.897294, 11:51:28.241
63222.109375, 66316.593750, 100156.171875, 122928.976563, 98376.929688, 80558.234375, 78780.484375, 142285.234375, 0, 1, 1, 0, 1,11.445379,13.137976,12.158434,11.370307,5.897294, 11:51:28.241
63445.847656, 66549.656250, 99896.398438, 122651.101563, 98494.476563, 80209.164063, 78607.531250, 142470.578125, 0, 1, 1, 0, 1,11.445379,13.137976,12.158434,11.370307,5.897294, 11:51:28.242
63470.726563, 66574.359375, 99787.640625, 122499.226563, 98615.000000, 80145.242188, 78721.296875, 142551.156250, 0, 1, 1, 0, 1,11.445379,13.137976,12.158434,11.370307,5.897294, 11:51:28.242
63272.199219, 66368.429688, 99996.718750, 122735.750000, 98516.671875, 80460.843750, 78878.703125, 142391.421875, 0, 1, 1, 0, 1,11.445379,13.137976,12.158434,11.370307,5.897294, 11:51:28.242
63240.503906, 66333.984375, 100150.140625, 122930.140625, 98415.820313, 80588.343750, 78823.734375, 142307.156250, 0, 1, 1, 0, 1,11.445379,13.137976,12.158434,11.370307,5.897294, 11:51:28.242
63438.472656, 66543.640625, 99936.703125, 122702.710938, 98498.320313, 80277.648438, 78626.593750, 142460.046875, 0, 1, 1, 0, 1,11.445379,13.137976,12.158434,11.370307,5.897294, 11:51:28.242
63505.839844, 66610.070313, 99776.593750, 122490.125000, 98623.875000, 80129.570313, 78676.125000, 142569.125000, 0, 1, 1, 0, 1,11.445379,13.137976,12.158434,11.370307,5.897294, 11:51:28.242
63303.535156, 66396.992188, 99959.281250, 122683.468750, 98553.460938, 80416.835938, 78851.835938, 142424.062500, 0, 1, 1, 0, 1,11.445379,13.137976,12.158434,11.370307,5.897294, 11:51:28.242
63186.835938, 66275.984375, 100174.632813, 122938.679688, 98407.640625, 80616.328125, 78816.070313, 142272.968750, 0, 1, 1, 0, 1,11.445379,13.137976,12.158434,11.370307,5.897294, 11:51:28.242
63378.257813, 66476.343750, 100007.289063, 122774.085938, 98452.656250, 80346.515625, 78594.226563, 142396.750000, 0, 1, 1, 0, 1,11.445379,13.137976,12.158434,11.370307,5.897294, 11:51:28.242
63486.304688, 66587.656250, 99792.242188, 122509.843750, 98600.601563, 80120.117188, 78600.578125, 142542.671875, 0, 1, 1, 0, 1,11.445379,13.137976,12.158434,11.370307,5.897294, 11:51:28.243
63331.878906, 66425.625000, 99911.421875, 122628.687500, 98568.257813, 80345.445313, 78777.335938, 142444.328125, 0, 1, 1, 0, 1,11.445379,13.137976,12.158434,11.370307,5.897294, 11:51:28.243
63191.218750, 66282.460938, 100138.093750, 122903.992188, 98437.304688, 80604.273438, 78808.585938, 142293.968750, 0, 1, 1, 0, 1,11.445379,13.137976,12.158434,11.370307,5.897294, 11:51:28.243
63360.687500, 66455.445313, 100029.843750, 122809.867188, 98460.523438, 80411.757813, 78634.710938, 142398.875000, 0, 1, 1, 0, 1,11.445379,13.137976,12.158434,11.370307,5.897294, 11:51:28.243
63501.953125, 66603.992188, 99786.273438, 122517.820313, 98603.625000, 80133.171875, 78605.359375, 142566.500000, 0, 1, 1, 0, 1,11.445379,13.137976,12.158434,11.370307,5.897294, 11:51:28.243
63368.960938, 66469.906250, 99850.070313, 122563.507813, 98582.453125, 80287.664063, 78761.640625, 142484.859375, 0, 1, 1, 0, 1,11.445379,13.137976,12.158434,11.370307,5.897294, 11:51:28.243
63195.507813, 66287.718750, 100096.515625, 122858.859375, 98443.671875, 80588.656250, 78827.757813, 142305.187500, 0, 1, 1, 0, 1,11.445379,13.137976,12.158434,11.370307,5.897294, 11:51:28.243
63314.375000, 66410.515625, 100075.796875, 122861.296875, 98433.257813, 80483.531250, 78666.335938, 142353.000000, 0, 1, 1, 0, 1,11.445379,13.137976,12.158434,11.370307,5.897294, 11:51:28.243
63507.832031, 66609.828125, 99809.054688, 122554.367188, 98588.265625, 80161.375000, 78583.835938, 142548.734375, 0, 1, 1, 0, 1,11.445379,13.137976,12.158434,11.370307,5.897294, 11:51:28.243
63398.039063, 66497.085938, 99828.812500, 122537.867188, 98608.562500, 80248.726563, 78735.625000, 142508.921875, 0, 1, 1, 0, 1,11.445379,13.137976,12.158434,11.370307,5.897294, 11:51:28.243
63208.453125, 66300.835938, 100073.203125, 122826.500000, 98474.898438, 80568.625000, 78838.757813, 142334.359375, 0, 1, 1, 0, 1,11.445379,13.137976,12.158434,11.370307,5.897294, 11:51:28.243
63272.710938, 66364.828125, 100113.257813, 122902.046875, 98427.312500, 80545.421875, 78703.929688, 142334.968750, 0, 1, 1, 0, 1,11.445379,13.137976,12.158434,11.370307,5.897294, 11:51:28.243
63484.605469, 66586.203125, 99841.148438, 122602.312500, 98568.398438, 80200.648438, 78559.789063, 142527.015625, 0, 1, 1, 0, 1,11.445379,13.137976,12.158434,11.370307,5.897294, 11:51:28.243
63436.730469, 66534.234375, 99795.710938, 122511.742188, 98631.695313, 80199.375000, 78685.085938, 142534.046875, 0, 1, 1, 0, 1,11.445379,13.137976,12.158434,11.370307,5.897294, 11:51:28.244
63244.593750, 66333.960938, 100020.273438, 122773.140625, 98523.757813, 80518.335938, 78816.070313, 142373.437500, 0, 1, 1, 0, 1,11.445379,13.137976,12.158434,11.370307,5.897294, 11:51:28.244
63233.460938, 66324.687500, 100138.179688, 122926.679688, 98436.562500, 80585.992188, 78721.078125, 142309.218750, 0, 1, 1, 0, 1,11.445379,13.137976,12.158434,11.370307,5.897294, 11:51:28.244
63441.019531, 66535.953125, 99894.523438, 122662.500000, 98540.117188, 80246.914063, 78544.968750, 142476.140625, 0, 1, 1, 0, 1,11.445379,13.137976,12.158434,11.370307,5.897294, 11:51:28.244
63457.472656, 66552.406250, 99783.257813, 122498.148438, 98637.617188, 80160.859375, 78651.804688, 142542.015625, 0, 1, 1, 0, 1,11.445379,13.137976,12.158434,11.370307,5.897294, 11:51:28.244
63255.835938, 66349.679688, 99979.617188, 122718.781250, 98539.335938, 80463.328125, 78813.273438, 142394.312500, 0, 1, 1, 0, 1,11.445379,13.137976,12.158434,11.370307,5.897294, 11:51:28.245
63181.917969, 66275.757813, 100156.195313, 122937.539063, 98419.085938, 80613.281250, 78766.000000, 142285.640625, 0, 1, 1, 0, 1,11.445379,13.137976,12.158434,11.370307,5.897294, 11:51:28.245
63393.746094, 66485.125000, 99954.718750, 122729.828125, 98490.367188, 80310.281250, 78573.843750, 142434.031250, 0, 1, 1, 0, 1,11.445379,13.137976,12.158434,11.370307,5.897294, 11:51:28.245
63471.574219, 66564.117188, 99777.132813, 122499.335938, 98617.593750, 80133.390625, 78618.101563, 142550.718750, 0, 1, 1, 0, 1,11.445379,13.137976,12.158434,11.370307,5.897294, 11:51:28.245
63308.878906, 66397.757813, 99923.578125, 122659.125000, 98565.289063, 80395.109375, 78798.929688, 142442.093750, 0, 1, 1, 0, 1,11.445379,13.137976,12.158434,11.370307,5.897294, 11:51:28.245
63177.316406, 66264.585938, 100147.476563, 122926.007813, 98420.960938, 80621.710938, 78799.398438, 142289.437500, 0, 1, 1, 0, 1,11.6666355,13.5756445,13.115043,11.778487,5.961808, 11:51:28.245
63383.933594, 66481.398438, 99988.984375, 122775.601563, 98474.164063, 80374.765625, 78614.257813, 142434.671875, 0, 1, 1, 0, 1,11.6666355,13.5756445,13.115043,11.778487,5.961808, 11:51:28.245
63496.789063, 66590.804688, 99777.335938, 122506.039063, 98612.429688, 80140.429688, 78614.343750, 142573.750000, 0, 1, 1, 0, 1,11.6666355,13.5756445,13.115043,11.778487,5.961808, 11:51:28.245
63335.429688, 66418.898438, 99898.796875, 122617.796875, 98561.265625, 80352.773438, 78774.828125, 142462.234375, 0, 1, 1, 0, 1,11.6666355,13.5756445,13.115043,11.778487,5.961808, 11:51:28.245
63193.273438, 66279.578125, 100131.382813, 122899.500000, 98427.984375, 80624.773438, 78806.796875, 142316.546875, 0, 1, 1, 0, 1,11.6666355,13.5756445,13.115043,11.778487,5.961808, 11:51:28.246
63314.375000, 66411.234375, 100053.312500, 122833.406250, 98423.531250, 80452.062500, 78611.398438, 142387.890625, 0, 1, 1, 0, 1,11.6666355,13.5756445,13.115043,11.778487,5.961808, 11:51:28.246
63494.398438, 66594.406250, 99795.906250, 122529.375000, 98577.492188, 80149.484375, 78547.242188, 142586.515625, 0, 1, 1, 0, 1,11.6666355,13.5756445,13.115043,11.778487,5.961808, 11:51:28.246
63391.156250, 66487.093750, 99844.882813, 122557.156250, 98599.578125, 80285.984375, 78727.531250, 142516.843750, 0, 1, 1, 0, 1,11.6666355,13.5756445,13.115043,11.778487,5.961808, 11:51:28.246
