%OpenBCI Raw EEG Data
%
%Sample Rate = 250.0 Hz
%First Column = SampleIndex
%5 Columns before Timestamp are Frequency Power factors DELTA THETA ALPHA BETA GAMMA
%Last Column = Timestamp 
%Other Columns = EEG data in microvolts followed by Accel Data (in G) interleaved with Aux Data
0.000000, 0.000000, 0.000000, 0.000000, 0.000000, 0.000000, 0.000000, 0.000000, 0.000, 0.000, 0.000,0.0,0.0,0.0,0.0,0.0, 15:30:08.658
66213.617188, 84023.851563, 118923.546875, 142505.312500, 112872.078125, 82366.109375, 113854.796875, 144712.500000, 0.132, 0.156, 0.952,0.0,0.0,0.0,0.0,0.0, 15:30:09.137
66170.078125, 83975.210938, 118975.070313, 142560.828125, 112904.851563, 82555.960938, 113948.500000, 144677.562500, 0.000, 0.000, 0.000,0.0,0.0,0.0,0.0,0.0, 15:30:09.138
66045.062500, 83840.273438, 119092.976563, 143038.859375, 112852.390625, 82990.015625, 114261.015625, 144547.968750, 0.000, 0.000, 0.000,0.0,0.0,0.0,0.0,0.0, 15:30:09.139
66074.992188, 83879.632813, 119063.914063, 143060.703125, 112835.156250, 82880.781250, 114232.742188, 144575.453125, 0.000, 0.000, 0.000,0.0,0.0,0.0,0.0,0.0, 15:30:09.139
66218.984375, 84039.203125, 118939.218750, 142577.609375, 112883.304688, 82420.515625, 113906.031250, 144720.171875, 0.000, 0.000, 0.000,0.0,0.0,0.0,0.0,0.0, 15:30:09.140
66202.828125, 84018.953125, 118959.156250, 142506.718750, 112918.703125, 82484.218750, 113908.148438, 144701.656250, 0.000, 0.000, 0.000,0.0,0.0,0.0,0.0,0.0, 15:30:09.141
66064.039063, 83863.343750, 119068.523438, 142959.734375, 112867.546875, 82930.937500, 114212.382813, 144565.015625, 0.134, 0.166, 0.966,0.0,0.0,0.0,0.0,0.0, 15:30:09.141
66061.828125, 83862.289063, 119048.382813, 143072.375000, 112828.156250, 82925.570313, 114247.828125, 144567.921875, 0.000, 0.000, 0.000,0.0,0.0,0.0,0.0,0.0, 15:30:09.142
66200.296875, 84013.500000, 118927.031250, 142623.328125, 112869.039063, 82469.171875, 113936.382813, 144697.390625, 0.000, 0.000, 0.000,0.0,0.0,0.0,0.0,0.0, 15:30:09.142
66222.671875, 84034.484375, 118935.953125, 142452.328125, 112919.375000, 82434.039063, 113869.953125, 144726.734375, 0.000, 0.000, 0.000,0.0,0.0,0.0,0.0,0.0, 15:30:09.143
66091.335938, 83899.976563, 119061.632813, 142885.062500, 112888.195313, 82890.414063, 114177.023438, 144596.468750, 0.000, 0.000, 0.000,0.0,0.0,0.0,0.0,0.0, 15:30:09.143
66041.289063, 83843.851563, 119095.500000, 143145.312500, 112832.851563, 83016.968750, 114303.148438, 144550.062500, 0.000, 0.000, 0.000,0.0,0.0,0.0,0.0,0.0, 15:30:09.144
66148.468750, 83950.828125, 118963.914063, 142749.078125, 112841.820313, 82566.828125, 114007.820313, 144656.312500, 0.000, 0.000, 0.000,0.0,0.0,0.0,0.0,0.0, 15:30:09.144
66222.648438, 84029.210938, 118920.750000, 142445.218750, 112909.812500, 82383.273438, 113849.921875, 144732.218750, 0.000, 0.000, 0.000,0.0,0.0,0.0,0.0,0.0, 15:30:09.145
66127.679688, 83922.328125, 119031.218750, 142789.109375, 112907.125000, 82807.531250, 114119.304688, 144631.031250, 0.000, 0.000, 0.000,0.0,0.0,0.0,0.0,0.0, 15:30:09.146
66023.539063, 83810.906250, 119074.039063, 143114.187500, 112828.156250, 83017.843750, 114298.234375, 144534.984375, 0.000, 0.000, 0.000,0.0,0.0,0.0,0.0,0.0, 15:30:09.146
66135.210938, 83939.312500, 118975.070313, 142817.312500, 112842.687500, 82654.335938, 114070.070313, 144640.531250, 0.126, 0.168, 0.960,0.0,0.0,0.0,0.0,0.0, 15:30:09.147
66218.804688, 84019.828125, 118916.062500, 142440.484375, 112893.781250, 82373.125000, 113839.109375, 144725.343750, 0.000, 0.000, 0.000,0.0,0.0,0.0,0.0,0.0, 15:30:09.147
66129.914063, 83920.273438, 119003.078125, 142689.531250, 112897.468750, 82718.101563, 114050.820313, 144637.171875, 0.000, 0.000, 0.000,0.0,0.0,0.0,0.0,0.0, 15:30:09.147
66040.710938, 83837.609375, 119102.046875, 143119.437500, 112851.476563, 83045.781250, 114315.890625, 144544.796875, 0.000, 0.000, 0.000,0.0,0.0,0.0,0.0,0.0, 15:30:09.148
66095.757813, 83879.453125, 119017.085938, 142930.546875, 112821.632813, 82753.617188, 114139.226563, 144599.062500, 0.000, 0.000, 0.000,0.0,0.0,0.0,0.0,0.0, 15:30:09.148
66222.000000, 84012.000000, 118901.039063, 142456.875000, 112876.820313, 82362.062500, 113838.796875, 144719.453125, 0.000, 0.000, 0.000,0.0,0.0,0.0,0.0,0.0, 15:30:09.148
66157.609375, 83948.726563, 118977.593750, 142600.968750, 112901.492188, 82632.453125, 113990.632813, 144658.453125, 0.000, 0.000, 0.000,0.0,0.0,0.0,0.0,0.0, 15:30:09.149
66040.640625, 83826.679688, 119088.414063, 143067.125000, 112856.679688, 83037.328125, 114291.640625, 144550.171875, 0.000, 0.000, 0.000,0.0,0.0,0.0,0.0,0.0, 15:30:09.149
66101.507813, 83887.140625, 119038.367188, 142996.218750, 112842.328125, 82851.703125, 114200.648438, 144603.078125, 0.000, 0.000, 0.000,0.0,0.0,0.0,0.0,0.0, 15:30:09.149
66208.390625, 83993.804688, 118916.507813, 142508.031250, 112874.609375, 82404.484375, 113869.328125, 144715.578125, 0.000, 0.000, 0.000,0.0,0.0,0.0,0.0,0.0, 15:30:09.150
66165.562500, 83945.484375, 118968.203125, 142542.640625, 112906.640625, 82563.382813, 113945.187500, 144677.390625, 0.128, 0.162, 0.962,0.0,0.0,0.0,0.0,0.0, 15:30:09.150
66042.609375, 83817.226563, 119088.679688, 143029.171875, 112857.773438, 83012.679688, 114264.437500, 144555.812500, 0.000, 0.000, 0.000,0.0,0.0,0.0,0.0,0.0, 15:30:09.150
66064.468750, 83836.695313, 119057.812500, 143073.671875, 112817.945313, 82929.570313, 114243.515625, 144574.828125, 0.000, 0.000, 0.000,0.0,0.0,0.0,0.0,0.0, 15:30:09.150
66191.359375, 83971.609375, 118910.539063, 142572.000000, 112851.406250, 82454.601563, 113897.531250, 144704.234375, 0.000, 0.000, 0.000,0.0,0.0,0.0,0.0,0.0, 15:30:09.151
66205.593750, 83973.757813, 118928.937500, 142469.875000, 112897.648438, 82502.273438, 113885.328125, 144709.250000, 0.000, 0.000, 0.000,0.0,0.0,0.0,0.0,0.0, 15:30:09.151
66074.234375, 83837.078125, 119063.445313, 142936.765625, 112869.601563, 82967.351563, 114207.242188, 144579.390625, 0.000, 0.000, 0.000,0.0,0.0,0.0,0.0,0.0, 15:30:09.151
66040.750000, 83811.687500, 119058.890625, 143092.078125, 112826.437500, 82987.039063, 114266.515625, 144552.218750, 0.000, 0.000, 0.000,0.0,0.0,0.0,0.0,0.0, 15:30:09.152
66186.062500, 83958.179688, 118931.304688, 142649.703125, 112856.656250, 82533.906250, 113956.031250, 144683.843750, 0.000, 0.000, 0.000,0.0,0.0,0.0,0.0,0.0, 15:30:09.152
66218.093750, 83987.125000, 118930.585938, 142447.843750, 112901.359375, 82447.515625, 113862.109375, 144709.484375, 0.000, 0.000, 0.000,0.0,0.0,0.0,0.0,0.0, 15:30:09.152
66084.468750, 83857.351563, 119048.156250, 142855.328125, 112884.820313, 82888.000000, 114153.460938, 144588.828125, 0.132, 0.160, 0.970,0.0,0.0,0.0,0.0,0.0, 15:30:09.152
66032.546875, 83800.734375, 119091.093750, 143134.468750, 112838.773438, 83036.976563, 114298.968750, 144536.796875, 0.000, 0.000, 0.000,0.0,0.0,0.0,0.0,0.0, 15:30:09.153
66149.515625, 83919.484375, 118967.539063, 142761.859375, 112846.937500, 82617.210938, 114019.906250, 144648.843750, 0.000, 0.000, 0.000,0.0,0.0,0.0,0.0,0.0, 15:30:09.153
66215.343750, 83989.562500, 118911.476563, 142425.109375, 112898.906250, 82400.281250, 113830.281250, 144716.281250, 0.000, 0.000, 0.000,0.0,0.0,0.0,0.0,0.0, 15:30:09.153
66115.320313, 83877.734375, 119030.546875, 142768.203125, 112891.843750, 82803.109375, 114094.453125, 144606.031250, 0.000, 0.000, 0.000,0.0,0.0,0.0,0.0,0.0, 15:30:09.154
66051.015625, 83800.085938, 119101.492188, 143138.828125, 112832.851563, 83061.984375, 114308.625000, 144530.828125, 0.000, 0.000, 0.000,0.0,0.0,0.0,0.0,0.0, 15:30:09.154
66150.187500, 83904.843750, 118998.718750, 142857.281250, 112841.328125, 82713.320313, 114092.460938, 144633.375000, 0.000, 0.000, 0.000,0.0,0.0,0.0,0.0,0.0, 15:30:09.154
66217.796875, 83988.710938, 118918.968750, 142444.359375, 112883.656250, 82382.289063, 113836.312500, 144715.968750, 0.000, 0.000, 0.000,0.0,0.0,0.0,0.0,0.0, 15:30:09.154
66124.726563, 83890.789063, 119005.062500, 142670.078125, 112879.125000, 82708.804688, 114031.531250, 144625.375000, 0.000, 0.000, 0.000,0.0,0.0,0.0,0.0,0.0, 15:30:09.155
66016.835938, 83791.125000, 119091.007813, 143100.421875, 112828.093750, 83056.914063, 114301.031250, 144532.953125, 0.000, 0.000, 0.000,0.0,0.0,0.0,0.0,0.0, 15:30:09.155
66079.289063, 83862.046875, 119022.140625, 142944.781250, 112826.882813, 82795.750000, 114157.796875, 144598.640625, 0.140, 0.166, 0.972,0.0,0.0,0.0,0.0,0.0, 15:30:09.156
66218.289063, 83979.101563, 118924.953125, 142488.859375, 112859.695313, 82395.859375, 113855.781250, 144705.875000, 0.000, 0.000, 0.000,0.0,0.0,0.0,0.0,0.0, 15:30:09.156
66176.671875, 83915.015625, 118989.906250, 142608.390625, 112880.843750, 82636.250000, 113984.523438, 144650.937500, 0.000, 0.000, 0.000,0.0,0.0,0.0,0.0,0.0, 15:30:09.163
66031.992188, 83796.304688, 119093.820313, 143067.828125, 112858.960938, 83043.859375, 114285.492188, 144536.671875, 0.000, 0.000, 0.000,0.0,0.0,0.0,0.0,0.0, 15:30:09.163
66061.648438, 83832.875000, 119045.273438, 143021.437500, 112824.492188, 82883.664063, 114207.976563, 144573.296875, 0.000, 0.000, 0.000,0.0,0.0,0.0,0.0,0.0, 15:30:09.163
66221.312500, 83977.671875, 118912.304688, 142516.343750, 112852.703125, 82424.156250, 113870.015625, 144701.343750, 0.000, 0.000, 0.000,0.0,0.0,0.0,0.0,0.0, 15:30:09.164
66191.671875, 83938.398438, 118955.625000, 142510.812500, 112901.828125, 82553.351563, 113929.945313, 144674.250000, 0.000, 0.000, 0.000,0.0,0.0,0.0,0.0,0.0, 15:30:09.164
66057.585938, 83804.937500, 119080.632813, 142993.609375, 112859.343750, 83007.937500, 114252.523438, 144550.781250, 0.000, 0.000, 0.000,0.0,0.0,0.0,0.0,0.0, 15:30:09.165
66065.179688, 83813.429688, 119067.421875, 143081.015625, 112818.773438, 82960.148438, 114259.031250, 144551.718750, 0.000, 0.000, 0.000,0.0,0.0,0.0,0.0,0.0, 15:30:09.166
66204.453125, 83950.828125, 118956.648438, 142615.031250, 112879.257813, 82499.593750, 113942.867188, 144686.250000, 0.140, 0.174, 0.970,0.0,0.0,0.0,0.0,0.0, 15:30:09.167
66174.507813, 83938.085938, 118947.976563, 142467.484375, 112914.726563, 82490.828125, 113894.359375, 144691.687500, 0.000, 0.000, 0.000,0.0,0.0,0.0,0.0,0.0, 15:30:09.167
66052.304688, 83802.859375, 119061.859375, 142914.234375, 112863.367188, 82945.171875, 114199.796875, 144556.343750, 0.000, 0.000, 0.000,0.0,0.0,0.0,0.0,0.0, 15:30:09.168
66041.710938, 83785.734375, 119078.132813, 143111.328125, 112811.484375, 83009.257813, 114280.710938, 144536.250000, 0.000, 0.000, 0.000,0.0,0.0,0.0,0.0,0.0, 15:30:09.168
66162.031250, 83898.835938, 118967.156250, 142699.281250, 112841.437500, 82565.484375, 113983.921875, 144642.453125, 0.000, 0.000, 0.000,0.0,0.0,0.0,0.0,0.0, 15:30:09.169
66203.140625, 83946.492188, 118947.796875, 142459.359375, 112899.796875, 82443.335938, 113866.242188, 144680.062500, 0.000, 0.000, 0.000,0.0,0.0,0.0,0.0,0.0, 15:30:09.169
66094.171875, 83830.054688, 119044.585938, 142832.609375, 112892.312500, 82870.656250, 114147.226563, 144580.328125, 0.000, 0.000, 0.000,0.0,0.0,0.0,0.0,0.0, 15:30:09.170
66062.726563, 83780.796875, 119112.484375, 143149.218750, 112844.875000, 83066.632813, 114324.320313, 144531.046875, 0.000, 0.000, 0.000,0.0,0.0,0.0,0.0,0.0, 15:30:09.170
66132.750000, 83885.375000, 118988.906250, 142800.031250, 112852.750000, 82657.304688, 114056.679688, 144632.078125, 0.000, 0.000, 0.000,0.0,0.0,0.0,0.0,0.0, 15:30:09.170
66217.062500, 83951.718750, 118938.859375, 142455.859375, 112890.031250, 82419.078125, 113854.843750, 144695.375000, 0.000, 0.000, 0.000,0.0,0.0,0.0,0.0,0.0, 15:30:09.170
66113.460938, 83838.085938, 119040.000000, 142757.609375, 112863.500000, 82795.460938, 114089.398438, 144592.734375, 0.136, 0.172, 0.958,0.0,0.0,0.0,0.0,0.0, 15:30:09.171
65999.554688, 83745.210938, 119093.351563, 143128.093750, 112833.945313, 83071.484375, 114316.718750, 144517.953125, 0.000, 0.000, 0.000,0.0,0.0,0.0,0.0,0.0, 15:30:09.171
66099.960938, 83851.585938, 119001.375000, 142891.203125, 112825.546875, 82746.132813, 114122.570313, 144602.078125, 0.000, 0.000, 0.000,0.0,0.0,0.0,0.0,0.0, 15:30:09.172
66213.554688, 83977.265625, 118911.054688, 142448.359375, 112896.062500, 82400.421875, 113864.054688, 144719.406250, 0.000, 0.000, 0.000,0.0,0.0,0.0,0.0,0.0, 15:30:09.172
66138.273438, 83855.335938, 118989.976563, 142636.203125, 112919.398438, 82702.164063, 114040.945313, 144633.812500, 0.000, 0.000, 0.000,0.0,0.0,0.0,0.0,0.0, 15:30:09.172
66028.078125, 83757.101563, 119082.000000, 143080.750000, 112840.875000, 83065.695313, 114306.640625, 144525.703125, 0.000, 0.000, 0.000,0.0,0.0,0.0,0.0,0.0, 15:30:09.173
66058.453125, 83815.640625, 118992.835938, 142931.421875, 112823.039063, 82818.734375, 114167.718750, 144592.328125, 0.000, 0.000, 0.000,0.0,0.0,0.0,0.0,0.0, 15:30:09.173
66197.281250, 83947.937500, 118911.882813, 142472.734375, 112892.085938, 82413.023438, 113873.390625, 144704.234375, 0.000, 0.000, 0.000,0.0,0.0,0.0,0.0,0.0, 15:30:09.174
66137.109375, 83874.203125, 118976.226563, 142567.156250, 112872.257813, 82620.539063, 113970.695313, 144634.921875, 0.000, 0.000, 0.000,0.0,0.0,0.0,0.0,0.0, 15:30:09.174
66032.390625, 83761.531250, 119093.085938, 143047.734375, 112841.367188, 83049.851563, 114284.218750, 144524.046875, 0.142, 0.174, 0.968,0.0,0.0,0.0,0.0,0.0, 15:30:09.175
66047.101563, 83779.632813, 119030.187500, 143021.203125, 112825.414063, 82907.000000, 114226.773438, 144562.296875, 0.000, 0.000, 0.000,0.0,0.0,0.0,0.0,0.0, 15:30:09.175
66135.054688, 83891.546875, 118895.007813, 142525.718750, 112863.562500, 82450.062500, 113901.265625, 144689.437500, 0.000, 0.000, 0.000,0.0,0.0,0.0,0.0,0.0, 15:30:09.175
66145.937500, 83884.398438, 118926.382813, 142483.781250, 112885.382813, 82538.734375, 113926.320313, 144653.062500, 0.000, 0.000, 0.000,0.0,0.0,0.0,0.0,0.0, 15:30:09.175
66047.773438, 83767.765625, 119083.851563, 142980.421875, 112878.671875, 83008.007813, 114267.234375, 144538.406250, 0.000, 0.000, 0.000,0.0,0.0,0.0,0.0,0.0, 15:30:09.176
66006.578125, 83752.453125, 119054.484375, 143081.046875, 112811.820313, 82973.609375, 114279.570313, 144532.593750, 0.000, 0.000, 0.000,0.0,0.0,0.0,0.0,0.0, 15:30:09.176
66150.164063, 83894.367188, 118917.625000, 142611.718750, 112850.179688, 82501.648438, 113957.437500, 144658.296875, 0.000, 0.000, 0.000,0.0,0.0,0.0,0.0,0.0, 15:30:09.176
66176.960938, 83916.781250, 118930.140625, 142455.781250, 112903.328125, 82478.601563, 113905.242188, 144679.890625, 0.000, 0.000, 0.000,0.0,0.0,0.0,0.0,0.0, 15:30:09.176
66060.000000, 83797.851563, 119045.632813, 142876.406250, 112887.101563, 82930.531250, 114207.039063, 144571.718750, 0.000, 0.000, 0.000,0.0,0.0,0.0,0.0,0.0, 15:30:09.176
66022.828125, 83770.046875, 119055.398438, 143087.703125, 112827.468750, 83028.234375, 114309.585938, 144540.875000, 0.000, 0.000, 0.000,0.0,0.0,0.0,0.0,0.0, 15:30:09.177
66145.109375, 83899.304688, 118951.109375, 142696.703125, 112854.062500, 82601.070313, 114031.601563, 144654.156250, 0.140, 0.190, 0.980,0.0,0.0,0.0,0.0,0.0, 15:30:09.177
66211.093750, 83951.335938, 118927.750000, 142420.906250, 112907.734375, 82444.875000, 113885.085938, 144703.640625, 0.000, 0.000, 0.000,0.0,0.0,0.0,0.0,0.0, 15:30:09.177
66073.117188, 83805.273438, 119034.453125, 142791.453125, 112900.914063, 82867.101563, 114163.656250, 144585.734375, 0.000, 0.000, 0.000,0.0,0.0,0.0,0.0,0.0, 15:30:09.178
65998.906250, 83721.007813, 119088.101563, 143123.265625, 112827.507813, 83070.859375, 114346.515625, 144516.234375, 0.000, 0.000, 0.000,0.0,0.0,0.0,0.0,0.0, 15:30:09.179
66118.312500, 83848.117188, 118993.617188, 142816.640625, 112836.500000, 82685.382813, 114106.835938, 144619.484375, 0.000, 0.000, 0.000,0.0,0.0,0.0,0.0,0.0, 15:30:09.179
66189.101563, 83925.164063, 118920.976563, 142436.484375, 112874.093750, 82405.000000, 113868.812500, 144691.437500, 0.000, 0.000, 0.000,0.0,0.0,0.0,0.0,0.0, 15:30:09.180
66111.140625, 83834.390625, 119024.015625, 142719.375000, 112895.460938, 82774.742188, 114102.093750, 144605.484375, 0.000, 0.000, 0.000,0.0,0.0,0.0,0.0,0.0, 15:30:09.181
65990.437500, 83733.140625, 119100.015625, 143123.000000, 112847.429688, 83072.781250, 114347.992188, 144514.421875, 0.000, 0.000, 0.000,0.0,0.0,0.0,0.0,0.0, 15:30:09.181
66042.453125, 83812.265625, 119010.406250, 142911.031250, 112825.500000, 82763.007813, 114165.937500, 144580.421875, 0.000, 0.000, 0.000,0.0,0.0,0.0,0.0,0.0, 15:30:09.181
66172.359375, 83935.984375, 118916.195313, 142470.546875, 112879.234375, 82399.257813, 113886.804688, 144688.640625, 0.000, 0.000, 0.000,0.0,0.0,0.0,0.0,0.0, 15:30:09.182
66146.164063, 83869.171875, 119000.617188, 142645.562500, 112912.000000, 82686.992188, 114057.460938, 144627.359375, 0.144, 0.212, 0.976,0.0,0.0,0.0,0.0,0.0, 15:30:09.182
66018.085938, 83740.179688, 119092.906250, 143088.640625, 112856.679688, 83060.843750, 114338.554688, 144520.359375, 0.000, 0.000, 0.000,0.0,0.0,0.0,0.0,0.0, 15:30:09.182
66037.445313, 83785.648438, 119025.960938, 142982.031250, 112825.632813, 82849.171875, 114224.382813, 144570.296875, 0.000, 0.000, 0.000,0.0,0.0,0.0,0.0,0.0, 15:30:09.182
66154.765625, 83916.875000, 118924.398438, 142516.140625, 112860.859375, 82422.164063, 113913.179688, 144680.000000, 0.000, 0.000, 0.000,0.0,0.0,0.0,0.0,0.0, 15:30:09.184
66146.656250, 83899.125000, 118977.257813, 142568.093750, 112899.773438, 82601.156250, 113999.390625, 144651.656250, 0.000, 0.000, 0.000,0.0,0.0,0.0,0.0,0.0, 15:30:09.184
66018.828125, 83772.414063, 119098.382813, 143047.343750, 112868.640625, 83038.601563, 114314.882813, 144538.046875, 0.000, 0.000, 0.000,0.0,0.0,0.0,0.0,0.0, 15:30:09.185
66042.765625, 83785.890625, 119064.140625, 143065.937500, 112833.164063, 82930.179688, 114279.617188, 144553.515625, 0.000, 0.000, 0.000,0.0,0.0,0.0,0.0,0.0, 15:30:09.185
66192.632813, 83925.367188, 118941.812500, 142579.031250, 112863.742188, 82463.804688, 113946.531250, 144678.656250, 0.000, 0.000, 0.000,0.0,0.0,0.0,0.0,0.0, 15:30:09.186
66176.492188, 83928.945313, 118958.820313, 142493.937500, 112906.617188, 82520.757813, 113942.437500, 144677.984375, 0.000, 0.000, 0.000,0.0,0.0,0.0,0.0,0.0, 15:30:09.187
66033.445313, 83787.882813, 119082.578125, 142965.265625, 112875.320313, 82977.765625, 114259.093750, 144551.125000, 0.158, 0.210, 0.960,0.0,0.0,0.0,0.0,0.0, 15:30:09.187
66060.554688, 83792.375000, 119094.648438, 143122.656250, 112844.140625, 82994.796875, 114317.929688, 144548.656250, 0.000, 0.000, 0.000,5.76177E-6,7.632249E-6,9.3814815E-6,2.951383E-5,3.7482412E-5, 15:30:09.187
66140.242188, 83903.843750, 118940.085938, 142646.687500, 112854.289063, 82513.226563, 113984.351563, 144664.171875, 0.000, 0.000, 0.000,5.76177E-6,7.632249E-6,9.3814815E-6,2.951383E-5,3.7482412E-5, 15:30:09.188
66171.015625, 83936.695313, 118913.132813, 142429.765625, 112894.453125, 82442.531250, 113887.070313, 144694.281250, 0.000, 0.000, 0.000,5.76177E-6,7.632249E-6,9.3814815E-6,2.951383E-5,3.7482412E-5, 15:30:09.188
66050.789063, 83809.742188, 119034.101563, 142849.234375, 112885.734375, 82892.226563, 114183.906250, 144574.234375, 0.000, 0.000, 0.000,5.76177E-6,7.632249E-6,9.3814815E-6,2.951383E-5,3.7482412E-5, 15:30:09.189
66005.750000, 83770.468750, 119076.585938, 143117.000000, 112845.148438, 83022.179688, 114318.796875, 144530.000000, 0.000, 0.000, 0.000,5.76177E-6,7.632249E-6,9.3814815E-6,2.951383E-5,3.7482412E-5, 15:30:09.189
66153.742188, 83913.031250, 118966.867188, 142735.031250, 112861.796875, 82597.117188, 114046.484375, 144649.625000, 0.000, 0.000, 0.000,5.76177E-6,7.632249E-6,9.3814815E-6,2.951383E-5,3.7482412E-5, 15:30:09.190
66195.492188, 83950.421875, 118928.218750, 142431.140625, 112911.445313, 82406.226563, 113880.210938, 144699.750000, 0.000, 0.000, 0.000,5.76177E-6,7.632249E-6,9.3814815E-6,2.951383E-5,3.7482412E-5, 15:30:09.190
66101.390625, 83849.750000, 119028.375000, 142772.343750, 112897.179688, 82810.750000, 114129.679688, 144600.734375, 0.000, 0.000, 0.000,5.76177E-6,7.632249E-6,9.3814815E-6,2.951383E-5,3.7482412E-5, 15:30:09.191
66021.953125, 83767.648438, 119093.820313, 143132.187500, 112848.187500, 83049.554688, 114330.085938, 144523.718750, 0.000, 0.000, 0.000,5.76177E-6,7.632249E-6,9.3814815E-6,2.951383E-5,3.7482412E-5, 15:30:09.191
66145.156250, 83891.484375, 118999.718750, 142847.515625, 112852.257813, 82683.992188, 114104.914063, 144622.843750, 0.176, 0.212, 0.930,5.76177E-6,7.632249E-6,9.3814815E-6,2.951383E-5,3.7482412E-5, 15:30:09.192
66244.335938, 83988.757813, 118912.484375, 142425.687500, 112907.351563, 82372.007813, 113854.304688, 144718.953125, 0.000, 0.000, 0.000,5.76177E-6,7.632249E-6,9.3814815E-6,2.951383E-5,3.7482412E-5, 15:30:09.192
66158.750000, 83903.101563, 119008.281250, 142672.000000, 112916.359375, 82718.257813, 114061.328125, 144639.781250, 0.000, 0.000, 0.000,5.76177E-6,7.632249E-6,9.3814815E-6,2.951383E-5,3.7482412E-5, 15:30:09.193
66050.898438, 83786.765625, 119098.226563, 143097.859375, 112856.101563, 83045.867188, 114310.750000, 144538.265625, 0.000, 0.000, 0.000,5.76177E-6,7.632249E-6,9.3814815E-6,2.951383E-5,3.7482412E-5, 15:30:09.193
66102.195313, 83866.046875, 119010.765625, 142905.062500, 112851.851563, 82758.312500, 114143.625000, 144610.328125, 0.000, 0.000, 0.000,5.76177E-6,7.632249E-6,9.3814815E-6,2.951383E-5,3.7482412E-5, 15:30:09.194
66255.242188, 84005.273438, 118916.570313, 142441.531250, 112912.695313, 82377.171875, 113861.773438, 144733.781250, 0.000, 0.000, 0.000,5.76177E-6,7.632249E-6,9.3814815E-6,2.951383E-5,3.7482412E-5, 15:30:09.195
66188.453125, 83940.406250, 119018.679688, 142610.359375, 112928.742188, 82643.937500, 114013.671875, 144659.171875, 0.000, 0.000, 0.000,5.76177E-6,7.632249E-6,9.3814815E-6,2.951383E-5,3.7482412E-5, 15:30:09.195
66061.406250, 83808.421875, 119121.648438, 143085.328125, 112874.562500, 83035.187500, 114297.164063, 144541.234375, 0.000, 0.000, 0.000,5.76177E-6,7.632249E-6,9.3814815E-6,2.951383E-5,3.7482412E-5, 15:30:09.195
66086.687500, 83844.093750, 119048.898438, 143005.265625, 112846.312500, 82839.656250, 114200.023438, 144582.281250, 0.000, 0.000, 0.000,0.0,0.0,0.0,0.0,0.0, 15:30:09.618
66228.687500, 83993.406250, 118935.328125, 142518.656250, 112890.898438, 82403.773438, 113890.937500, 144714.796875, 0.180, 0.214, 0.928,0.0,0.0,0.0,0.0,0.0, 15:30:09.618
66194.843750, 83952.679688, 118986.132813, 142544.984375, 112923.468750, 82554.398438, 113957.367188, 144671.484375, 0.000, 0.000, 0.000,0.0,0.0,0.0,0.0,0.0, 15:30:09.619
66102.000000, 83840.070313, 119105.867188, 143031.328125, 112879.367188, 82995.687500, 114260.593750, 144551.187500, 0.000, 0.000, 0.000,0.0,0.0,0.0,0.0,0.0, 15:30:09.619
66121.171875, 83864.054688, 119085.398438, 143091.765625, 112848.296875, 82925.195313, 114253.039063, 144570.828125, 0.000, 0.000, 0.000,0.0,0.0,0.0,0.0,0.0, 15:30:09.620
66260.421875, 84015.085938, 118959.828125, 142609.625000, 112890.859375, 82456.070313, 113934.953125, 144699.437500, 0.000, 0.000, 0.000,0.0,0.0,0.0,0.0,0.0, 15:30:09.620
66280.765625, 84030.507813, 118979.625000, 142502.093750, 112934.132813, 82486.046875, 113915.304688, 144702.890625, 0.000, 0.000, 0.000,0.0,0.0,0.0,0.0,0.0, 15:30:09.620
66163.437500, 83897.585938, 119111.390625, 142968.484375, 112889.875000, 82939.140625, 114213.250000, 144567.921875, 0.000, 0.000, 0.000,0.0,0.0,0.0,0.0,0.0, 15:30:09.621
66122.695313, 83882.585938, 119109.468750, 143139.984375, 112844.546875, 82975.507813, 114274.429688, 144551.000000, 0.000, 0.000, 0.000,0.0,0.0,0.0,0.0,0.0, 15:30:09.621
66237.718750, 84004.984375, 118986.468750, 142718.953125, 112867.453125, 82526.820313, 113983.007813, 144660.390625, 0.000, 0.000, 0.000,0.0,0.0,0.0,0.0,0.0, 15:30:09.621
66298.218750, 84059.187500, 118973.031250, 142494.218750, 112923.781250, 82428.109375, 113883.968750, 144702.656250, 0.000, 0.000, 0.000,0.0,0.0,0.0,0.0,0.0, 15:30:09.622
66219.968750, 83964.234375, 119079.742188, 142886.687500, 112913.367188, 82862.562500, 114160.367188, 144604.140625, 0.178, 0.208, 0.944,0.0,0.0,0.0,0.0,0.0, 15:30:09.622
66197.820313, 83929.632813, 119137.992188, 143190.515625, 112868.546875, 83032.929688, 114316.984375, 144553.437500, 0.000, 0.000, 0.000,0.0,0.0,0.0,0.0,0.0, 15:30:09.622
66283.984375, 84025.812500, 119033.226563, 142841.406250, 112864.859375, 82618.976563, 114058.421875, 144646.531250, 0.000, 0.000, 0.000,0.0,0.0,0.0,0.0,0.0, 15:30:09.623
66341.695313, 84105.968750, 118988.992188, 142511.437500, 112914.328125, 82398.164063, 113878.492188, 144715.343750, 0.000, 0.000, 0.000,0.0,0.0,0.0,0.0,0.0, 15:30:09.623
66259.242188, 84010.976563, 119095.210938, 142841.171875, 112905.320313, 82788.421875, 114114.210938, 144612.859375, 0.000, 0.000, 0.000,0.0,0.0,0.0,0.0,0.0, 15:30:09.623
66192.164063, 83932.359375, 119162.265625, 143215.250000, 112859.609375, 83047.257813, 114318.593750, 144539.609375, 0.000, 0.000, 0.000,0.0,0.0,0.0,0.0,0.0, 15:30:09.623
66283.406250, 84032.992188, 119055.179688, 142935.156250, 112862.359375, 82698.476563, 114109.203125, 144636.125000, 0.000, 0.000, 0.000,0.0,0.0,0.0,0.0,0.0, 15:30:09.624
66373.257813, 84128.679688, 118972.453125, 142511.140625, 112914.703125, 82376.140625, 113868.140625, 144720.296875, 0.000, 0.000, 0.000,0.0,0.0,0.0,0.0,0.0, 15:30:09.625
66313.468750, 84051.851563, 119075.468750, 142757.437500, 112924.945313, 82708.406250, 114064.945313, 144637.593750, 0.000, 0.000, 0.000,0.0,0.0,0.0,0.0,0.0, 15:30:09.627
66201.617188, 83948.257813, 119165.234375, 143196.687500, 112875.101563, 83050.226563, 114316.562500, 144543.156250, 0.162, 0.200, 0.960,0.0,0.0,0.0,0.0,0.0, 15:30:09.627
66260.250000, 84012.468750, 119078.781250, 143029.453125, 112859.585938, 82781.492188, 114167.164063, 144604.515625, 0.000, 0.000, 0.000,0.0,0.0,0.0,0.0,0.0, 15:30:09.628
66383.960938, 84119.382813, 118980.273438, 142551.281250, 112911.757813, 82379.273438, 113878.554688, 144717.015625, 0.000, 0.000, 0.000,0.0,0.0,0.0,0.0,0.0, 15:30:09.628
66297.929688, 84054.890625, 119046.992188, 142666.890625, 112932.539063, 82612.648438, 114002.429688, 144665.265625, 0.000, 0.000, 0.000,0.0,0.0,0.0,0.0,0.0, 15:30:09.629
66171.242188, 83921.523438, 119146.125000, 143140.359375, 112874.632813, 83019.828125, 114289.468750, 144543.609375, 0.000, 0.000, 0.000,0.0,0.0,0.0,0.0,0.0, 15:30:09.629
66205.304688, 83956.437500, 119085.328125, 143093.421875, 112844.500000, 82856.101563, 114212.648438, 144582.671875, 0.000, 0.000, 0.000,0.0,0.0,0.0,0.0,0.0, 15:30:09.629
66330.945313, 84081.960938, 118969.187500, 142602.343750, 112893.046875, 82411.484375, 113904.929688, 144709.765625, 0.000, 0.000, 0.000,0.0,0.0,0.0,0.0,0.0, 15:30:09.630
66307.609375, 84054.382813, 119014.007813, 142593.781250, 112936.054688, 82535.984375, 113954.421875, 144690.687500, 0.000, 0.000, 0.000,0.0,0.0,0.0,0.0,0.0, 15:30:09.630
66177.585938, 83918.750000, 119127.328125, 143070.296875, 112886.812500, 82982.632813, 114253.929688, 144560.140625, 0.000, 0.000, 0.000,0.0,0.0,0.0,0.0,0.0, 15:30:09.630
66175.781250, 83921.343750, 119117.625000, 143167.562500, 112857.953125, 82945.507813, 114271.281250, 144567.218750, 0.000, 0.000, 0.000,0.0,0.0,0.0,0.0,0.0, 15:30:09.631
66306.203125, 84052.703125, 118997.617188, 142698.296875, 112905.476563, 82483.585938, 113965.234375, 144701.812500, 0.166, 0.190, 0.968,0.0,0.0,0.0,0.0,0.0, 15:30:09.632
66303.359375, 84055.187500, 118997.710938, 142546.250000, 112953.617188, 82474.000000, 113924.242188, 144716.234375, 0.000, 0.000, 0.000,0.0,0.0,0.0,0.0,0.0, 15:30:09.632
66156.179688, 83899.484375, 119109.695313, 142985.375000, 112901.718750, 82920.164063, 114210.570313, 144577.734375, 0.000, 0.000, 0.000,0.0,0.0,0.0,0.0,0.0, 15:30:09.633
66130.046875, 83858.804688, 119120.648438, 143192.281250, 112840.562500, 82990.796875, 114289.984375, 144543.890625, 0.000, 0.000, 0.000,0.0,0.0,0.0,0.0,0.0, 15:30:09.633
66269.882813, 84000.289063, 118996.281250, 142762.125000, 112887.125000, 82542.890625, 114004.687500, 144677.046875, 0.000, 0.000, 0.000,0.0,0.0,0.0,0.0,0.0, 15:30:09.633
66283.406250, 84031.734375, 118963.984375, 142494.937500, 112941.148438, 82410.609375, 113880.187500, 144718.734375, 0.000, 0.000, 0.000,0.0,0.0,0.0,0.0,0.0, 15:30:09.634
66158.414063, 83901.492188, 119082.867188, 142892.171875, 112919.843750, 82843.070313, 114151.671875, 144600.687500, 0.000, 0.000, 0.000,0.0,0.0,0.0,0.0,0.0, 15:30:09.634
66096.031250, 83832.179688, 119125.296875, 143205.250000, 112858.695313, 83025.570313, 114305.898438, 144544.078125, 0.000, 0.000, 0.000,0.0,0.0,0.0,0.0,0.0, 15:30:09.635
66215.679688, 83960.437500, 119021.109375, 142866.359375, 112889.070313, 82631.578125, 114071.562500, 144663.640625, 0.000, 0.000, 0.000,0.0,0.0,0.0,0.0,0.0, 15:30:09.635
66292.859375, 84032.859375, 118956.921875, 142492.500000, 112941.593750, 82381.375000, 113870.195313, 144738.359375, 0.000, 0.000, 0.000,0.0,0.0,0.0,0.0,0.0, 15:30:09.635
66181.835938, 83912.312500, 119047.039063, 142784.093750, 112921.609375, 82752.367188, 114083.273438, 144626.562500, 0.160, 0.170, 0.960,0.0,0.0,0.0,0.0,0.0, 15:30:09.636
66096.718750, 83825.226563, 119122.320313, 143182.078125, 112863.968750, 83042.781250, 114301.968750, 144540.859375, 0.000, 0.000, 0.000,0.0,0.0,0.0,0.0,0.0, 15:30:09.636
66176.453125, 83911.039063, 119046.664063, 142953.609375, 112870.875000, 82726.976563, 114125.523438, 144622.734375, 0.000, 0.000, 0.000,0.0,0.0,0.0,0.0,0.0, 15:30:09.636
66264.226563, 84002.296875, 118971.226563, 142526.250000, 112921.570313, 82379.500000, 113873.125000, 144713.593750, 0.000, 0.000, 0.000,0.0,0.0,0.0,0.0,0.0, 15:30:09.637
66197.617188, 83935.539063, 119026.343750, 142692.484375, 112928.359375, 82661.710938, 114021.835938, 144649.734375, 0.000, 0.000, 0.000,0.0,0.0,0.0,0.0,0.0, 15:30:09.637
66099.359375, 83826.679688, 119122.742188, 143140.812500, 112886.406250, 83033.953125, 114294.968750, 144551.968750, 0.000, 0.000, 0.000,0.0,0.0,0.0,0.0,0.0, 15:30:09.637
66159.062500, 83888.484375, 119081.062500, 143042.468750, 112877.828125, 82815.085938, 114196.289063, 144609.203125, 0.000, 0.000, 0.000,0.0,0.0,0.0,0.0,0.0, 15:30:09.638
66258.187500, 84000.000000, 118967.890625, 142556.046875, 112924.007813, 82392.906250, 113901.734375, 144734.468750, 0.000, 0.000, 0.000,0.0,0.0,0.0,0.0,0.0, 15:30:09.638
66196.390625, 83923.015625, 119013.851563, 142622.203125, 112928.093750, 82585.242188, 113991.789063, 144674.593750, 0.000, 0.000, 0.000,0.0,0.0,0.0,0.0,0.0, 15:30:09.638
66084.117188, 83792.414063, 119127.617188, 143107.015625, 112880.171875, 83013.015625, 114285.898438, 144552.796875, 0.152, 0.156, 0.970,0.0,0.0,0.0,0.0,0.0, 15:30:09.639
66109.257813, 83828.601563, 119078.023438, 143102.046875, 112849.820313, 82885.695313, 114238.710938, 144587.781250, 0.000, 0.000, 0.000,0.0,0.0,0.0,0.0,0.0, 15:30:09.639
66243.460938, 83972.664063, 118961.414063, 142612.546875, 112900.132813, 82432.265625, 113934.906250, 144717.296875, 0.000, 0.000, 0.000,0.0,0.0,0.0,0.0,0.0, 15:30:09.640
66236.867188, 83959.789063, 118988.593750, 142556.718750, 112935.875000, 82516.781250, 113947.937500, 144698.968750, 0.000, 0.000, 0.000,0.0,0.0,0.0,0.0,0.0, 15:30:09.640
66103.609375, 83820.046875, 119110.429688, 143036.296875, 112885.203125, 82967.031250, 114244.703125, 144562.000000, 0.000, 0.000, 0.000,0.0,0.0,0.0,0.0,0.0, 15:30:09.640
66094.531250, 83826.390625, 119090.468750, 143143.203125, 112851.945313, 82946.828125, 114268.257813, 144563.390625, 0.000, 0.000, 0.000,0.0,0.0,0.0,0.0,0.0, 15:30:09.641
66232.375000, 83962.445313, 118970.867188, 142682.421875, 112893.000000, 82489.757813, 113969.398438, 144688.609375, 0.000, 0.000, 0.000,0.0,0.0,0.0,0.0,0.0, 15:30:09.641
66260.828125, 83990.273438, 118966.578125, 142492.015625, 112957.375000, 82439.132813, 113907.078125, 144715.046875, 0.000, 0.000, 0.000,0.0,0.0,0.0,0.0,0.0, 15:30:09.642
66122.960938, 83842.171875, 119079.851563, 142917.312500, 112916.335938, 82888.109375, 114191.507813, 144583.703125, 0.000, 0.000, 0.000,0.0,0.0,0.0,0.0,0.0, 15:30:09.642
66082.843750, 83800.109375, 119109.851563, 143164.609375, 112858.757813, 82996.804688, 114303.578125, 144542.421875, 0.000, 0.000, 0.000,0.0,0.0,0.0,0.0,0.0, 15:30:09.642
66203.671875, 83927.757813, 118993.843750, 142767.312500, 112884.914063, 82564.390625, 114033.117188, 144668.546875, 0.144, 0.156, 0.978,0.0,0.0,0.0,0.0,0.0, 15:30:09.643
66252.046875, 83986.273438, 118953.054688, 142471.281250, 112938.757813, 82400.437500, 113886.718750, 144728.859375, 0.000, 0.000, 0.000,0.0,0.0,0.0,0.0,0.0, 15:30:09.643
66159.976563, 83875.898438, 119068.898438, 142839.203125, 112931.085938, 82822.757813, 114147.093750, 144622.468750, 0.000, 0.000, 0.000,0.0,0.0,0.0,0.0,0.0, 15:30:09.643
66115.945313, 83799.007813, 119126.632813, 143178.031250, 112875.164063, 83036.835938, 114321.140625, 144549.109375, 0.000, 0.000, 0.000,0.0,0.0,0.0,0.0,0.0, 15:30:09.643
66155.101563, 83883.500000, 119022.093750, 142867.406250, 112876.976563, 82659.359375, 114093.109375, 144650.093750, 0.000, 0.000, 0.000,0.0,0.0,0.0,0.0,0.0, 15:30:09.643
66227.750000, 83960.500000, 118952.382813, 142485.343750, 112924.273438, 82381.351563, 113874.023438, 144729.031250, 0.000, 0.000, 0.000,0.0,0.0,0.0,0.0,0.0, 15:30:09.644
66161.273438, 83884.218750, 119026.296875, 142733.750000, 112925.367188, 82726.085938, 114068.257813, 144650.187500, 0.000, 0.000, 0.000,0.0,0.0,0.0,0.0,0.0, 15:30:09.644
66104.859375, 83810.679688, 119119.796875, 143151.000000, 112869.804688, 83048.664063, 114308.429688, 144560.171875, 0.000, 0.000, 0.000,0.0,0.0,0.0,0.0,0.0, 15:30:09.645
66171.960938, 83888.195313, 119050.257813, 142960.875000, 112873.664063, 82755.523438, 114155.023438, 144628.390625, 0.000, 0.000, 0.000,0.0,0.0,0.0,0.0,0.0, 15:30:09.645
66264.562500, 84008.890625, 118968.992188, 142520.109375, 112925.835938, 82380.968750, 113892.304688, 144726.406250, 0.134, 0.154, 0.978,0.0,0.0,0.0,0.0,0.0, 15:30:09.645
66182.773438, 83922.054688, 119030.906250, 142678.281250, 112921.835938, 82646.890625, 114032.359375, 144647.906250, 0.000, 0.000, 0.000,0.0,0.0,0.0,0.0,0.0, 15:30:09.646
66086.148438, 83796.460938, 119112.351563, 143124.875000, 112865.445313, 83023.898438, 114293.562500, 144537.187500, 0.000, 0.000, 0.000,0.0,0.0,0.0,0.0,0.0, 15:30:09.646
66176.203125, 83878.921875, 119054.015625, 143029.609375, 112860.148438, 82821.414063, 114190.273438, 144593.703125, 0.000, 0.000, 0.000,0.0,0.0,0.0,0.0,0.0, 15:30:09.647
66282.953125, 84015.781250, 118964.515625, 142559.265625, 112919.195313, 82398.945313, 113900.125000, 144720.406250, 0.000, 0.000, 0.000,0.0,0.0,0.0,0.0,0.0, 15:30:09.647
66257.007813, 83985.492188, 119008.976563, 142595.671875, 112939.023438, 82566.492188, 113970.757813, 144690.015625, 0.000, 0.000, 0.000,0.0,0.0,0.0,0.0,0.0, 15:30:09.648
66144.937500, 83860.210938, 119128.421875, 143074.062500, 112908.179688, 83005.882813, 114270.320313, 144575.656250, 0.000, 0.000, 0.000,0.0,0.0,0.0,0.0,0.0, 15:30:09.648
66152.156250, 83878.179688, 119100.664063, 143110.906250, 112876.843750, 82912.140625, 114248.414063, 144595.734375, 0.000, 0.000, 0.000,0.0,0.0,0.0,0.0,0.0, 15:30:09.649
66293.484375, 84010.726563, 118981.796875, 142625.765625, 112913.992188, 82451.468750, 113933.406250, 144724.125000, 0.000, 0.000, 0.000,0.0,0.0,0.0,0.0,0.0, 15:30:09.649
66270.710938, 84001.656250, 119001.242188, 142544.718750, 112963.765625, 82505.406250, 113933.921875, 144711.687500, 0.000, 0.000, 0.000,0.0,0.0,0.0,0.0,0.0, 15:30:09.650
66163.531250, 83885.671875, 119103.367188, 142993.687500, 112910.210938, 82952.062500, 114222.882813, 144587.437500, 0.122, 0.148, 0.980,0.0,0.0,0.0,0.0,0.0, 15:30:09.650
66155.929688, 83882.945313, 119104.890625, 143142.328125, 112875.656250, 82973.789063, 114279.304688, 144590.687500, 0.000, 0.000, 0.000,0.0,0.0,0.0,0.0,0.0, 15:30:09.651
66313.625000, 84016.851563, 118991.320313, 142696.546875, 112903.101563, 82519.148438, 113985.781250, 144713.015625, 0.000, 0.000, 0.000,0.0,0.0,0.0,0.0,0.0, 15:30:09.652
66313.156250, 84047.875000, 118979.132813, 142483.937500, 112947.140625, 82441.164063, 113896.460938, 144727.734375, 0.000, 0.000, 0.000,0.0,0.0,0.0,0.0,0.0, 15:30:09.652
66194.601563, 83933.140625, 119093.757813, 142898.156250, 112909.742188, 82882.789063, 114172.976563, 144601.593750, 0.000, 0.000, 0.000,0.0,0.0,0.0,0.0,0.0, 15:30:09.653
66156.109375, 83890.273438, 119140.468750, 143184.359375, 112853.929688, 83027.296875, 114303.890625, 144550.531250, 0.000, 0.000, 0.000,0.0,0.0,0.0,0.0,0.0, 15:30:09.653
66298.515625, 84044.367188, 119022.609375, 142800.812500, 112884.773438, 82603.726563, 114042.531250, 144683.750000, 0.000, 0.000, 0.000,0.0,0.0,0.0,0.0,0.0, 15:30:09.654
66347.554688, 84087.304688, 118970.484375, 142468.375000, 112938.015625, 82401.023438, 113873.375000, 144734.250000, 0.000, 0.000, 0.000,0.0,0.0,0.0,0.0,0.0, 15:30:09.654
66253.023438, 83979.726563, 119091.296875, 142827.750000, 112922.820313, 82810.507813, 114131.039063, 144619.359375, 0.000, 0.000, 0.000,0.0,0.0,0.0,0.0,0.0, 15:30:09.654
66195.406250, 83912.289063, 119135.351563, 143167.953125, 112881.867188, 83036.507813, 114313.164063, 144555.031250, 0.108, 0.136, 0.978,0.0,0.0,0.0,0.0,0.0, 15:30:09.655
66276.296875, 84008.109375, 119045.476563, 142880.609375, 112901.945313, 82677.851563, 114105.117188, 144652.578125, 0.000, 0.000, 0.000,0.0,0.0,0.0,0.0,0.0, 15:30:09.655
66353.695313, 84087.976563, 118975.539063, 142482.328125, 112946.601563, 82372.570313, 113878.648438, 144731.453125, 0.000, 0.000, 0.000,0.0,0.0,0.0,0.0,0.0, 15:30:09.656
66241.468750, 83979.882813, 119040.937500, 142706.406250, 112926.867188, 82698.125000, 114056.296875, 144638.609375, 0.000, 0.000, 0.000,0.0,0.0,0.0,0.0,0.0, 15:30:09.656
66126.382813, 83875.093750, 119119.796875, 143124.937500, 112877.515625, 83032.148438, 114302.164063, 144551.781250, 0.000, 0.000, 0.000,0.0,0.0,0.0,0.0,0.0, 15:30:09.656
66245.335938, 83972.234375, 119065.546875, 142965.843750, 112886.835938, 82774.789063, 114172.617188, 144634.578125, 0.000, 0.000, 0.000,0.0,0.0,0.0,0.0,0.0, 15:30:09.657
66354.546875, 84063.765625, 118957.632813, 142489.656250, 112922.375000, 82376.617188, 113882.445313, 144738.718750, 0.000, 0.000, 0.000,0.0,0.0,0.0,0.0,0.0, 15:30:09.657
66275.289063, 83976.062500, 119018.609375, 142610.140625, 112939.875000, 82625.765625, 114008.171875, 144675.437500, 0.000, 0.000, 0.000,0.0,0.0,0.0,0.0,0.0, 15:30:09.657
66141.242188, 83849.484375, 119124.648438, 143087.031250, 112891.328125, 83032.796875, 114296.867188, 144565.531250, 0.000, 0.000, 0.000,0.0,0.0,0.0,0.0,0.0, 15:30:09.658
66174.617188, 83898.078125, 119062.914063, 143022.687500, 112873.867188, 82851.945313, 114212.312500, 144609.296875, 0.000, 0.000, 0.000,0.0,0.0,0.0,0.0,0.0, 15:30:09.658
66280.476563, 84015.531250, 118941.429688, 142527.062500, 112927.937500, 82406.382813, 113903.679688, 144737.359375, 0.094, 0.118, 0.980,0.0,0.0,0.0,0.0,0.0, 15:30:09.659
66250.835938, 83965.687500, 118979.539063, 142529.296875, 112944.968750, 82542.328125, 113955.023438, 144695.593750, 0.000, 0.000, 0.000,0.0,0.0,0.0,0.0,0.0, 15:30:09.660
66106.445313, 83818.968750, 119098.671875, 143005.250000, 112889.585938, 82983.554688, 114251.070313, 144556.890625, 0.000, 0.000, 0.000,0.0,0.0,0.0,0.0,0.0, 15:30:09.661
66097.570313, 83811.039063, 119080.296875, 143077.953125, 112846.937500, 82916.476563, 114249.773438, 144566.406250, 0.000, 0.000, 0.000,0.0,0.0,0.0,0.0,0.0, 15:30:09.661
66236.914063, 83952.453125, 118961.054688, 142609.250000, 112894.882813, 82454.039063, 113948.023438, 144700.546875, 0.000, 0.000, 0.000,0.0,0.0,0.0,0.0,0.0, 15:30:09.662
66228.015625, 83950.398438, 118968.250000, 142489.812500, 112938.445313, 82470.156250, 113923.398438, 144703.156250, 0.000, 0.000, 0.000,0.0,0.0,0.0,0.0,0.0, 15:30:09.663
66089.210938, 83809.585938, 119068.656250, 142927.937500, 112895.796875, 82915.734375, 114205.140625, 144574.812500, 0.000, 0.000, 0.000,0.0,0.0,0.0,0.0,0.0, 15:30:09.663
66070.835938, 83783.765625, 119080.281250, 143112.296875, 112856.414063, 82967.367188, 114277.648438, 144557.250000, 0.000, 0.000, 0.000,0.0,0.0,0.0,0.0,0.0, 15:30:09.663
66215.859375, 83922.078125, 118960.312500, 142675.734375, 112887.953125, 82517.046875, 113987.320313, 144684.890625, 0.000, 0.000, 0.000,0.0,0.0,0.0,0.0,0.0, 15:30:09.664
66237.539063, 83950.039063, 118941.250000, 142439.187500, 112937.351563, 82414.789063, 113885.617188, 144715.156250, 0.000, 0.000, 0.000,0.0,0.0,0.0,0.0,0.0, 15:30:09.664
66097.593750, 83803.125000, 119051.242188, 142833.343750, 112909.117188, 82848.906250, 114155.203125, 144591.500000, 0.090, 0.106, 0.982,0.0,0.0,0.0,0.0,0.0, 15:30:09.665
66058.187500, 83768.859375, 119088.703125, 143121.703125, 112860.343750, 83011.265625, 114297.476563, 144547.343750, 0.000, 0.000, 0.000,0.0,0.0,0.0,0.0,0.0, 15:30:09.665
66171.468750, 83884.750000, 118994.539063, 142781.906250, 112889.359375, 82615.820313, 114062.687500, 144662.265625, 0.000, 0.000, 0.000,0.0,0.0,0.0,0.0,0.0, 15:30:09.665
66226.789063, 83929.257813, 118942.390625, 142442.343750, 112938.554688, 82391.835938, 113883.031250, 144724.125000, 0.000, 0.000, 0.000,0.0,0.0,0.0,0.0,0.0, 15:30:09.666
66112.570313, 83819.820313, 119017.875000, 142728.531250, 112918.257813, 82765.195313, 114100.781250, 144626.984375, 0.000, 0.000, 0.000,0.0,0.0,0.0,0.0,0.0, 15:30:09.666
66037.804688, 83747.359375, 119078.359375, 143092.906250, 112863.054688, 83027.515625, 114304.828125, 144552.953125, 0.000, 0.000, 0.000,0.0,0.0,0.0,0.0,0.0, 15:30:09.667
66140.617188, 83850.484375, 119006.875000, 142857.390625, 112878.656250, 82703.554688, 114129.101563, 144645.750000, 0.000, 0.000, 0.000,0.0,0.0,0.0,0.0,0.0, 15:30:09.667
66233.445313, 83949.328125, 118933.718750, 142444.203125, 112932.851563, 82380.414063, 113892.351563, 144738.828125, 0.000, 0.000, 0.000,0.0,0.0,0.0,0.0,0.0, 15:30:09.675
66138.742188, 83840.945313, 119009.554688, 142652.406250, 112924.117188, 82687.859375, 114061.664063, 144645.843750, 0.000, 0.000, 0.000,0.0,0.0,0.0,0.0,0.0, 15:30:09.675
66042.429688, 83738.210938, 119086.515625, 143078.968750, 112867.476563, 83029.109375, 114307.242188, 144544.718750, 0.084, 0.098, 0.978,0.0,0.0,0.0,0.0,0.0, 15:30:09.676
66107.000000, 83805.335938, 119021.265625, 142938.375000, 112859.562500, 82781.515625, 114182.921875, 144608.562500, 0.000, 0.000, 0.000,0.0,0.0,0.0,0.0,0.0, 15:30:09.676
66221.171875, 83931.515625, 118923.523438, 142472.046875, 112915.664063, 82380.125000, 113905.203125, 144729.546875, 0.000, 0.000, 0.000,0.0,0.0,0.0,0.0,0.0, 15:30:09.677
66160.710938, 83861.085938, 118977.953125, 142560.937500, 112930.109375, 82597.156250, 114012.218750, 144668.062500, 0.000, 0.000, 0.000,0.0,0.0,0.0,0.0,0.0, 15:30:09.677
66039.632813, 83734.929688, 119090.179688, 143043.046875, 112874.250000, 83013.726563, 114298.257813, 144545.281250, 0.000, 0.000, 0.000,0.0,0.0,0.0,0.0,0.0, 15:30:10.096
66067.484375, 83764.632813, 119055.335938, 143029.921875, 112852.632813, 82867.187500, 114242.601563, 144578.796875, 0.000, 0.000, 0.000,0.0,0.0,0.0,0.0,0.0, 15:30:10.096
66188.140625, 83896.312500, 118942.054688, 142552.421875, 112898.234375, 82412.914063, 113938.531250, 144705.375000, 0.000, 0.000, 0.000,0.0,0.0,0.0,0.0,0.0, 15:30:10.097
66178.062500, 83883.234375, 118956.781250, 142501.109375, 112937.484375, 82516.359375, 113966.109375, 144696.671875, 0.000, 0.000, 0.000,0.0,0.0,0.0,0.0,0.0, 15:30:10.097
66045.445313, 83738.726563, 119076.835938, 142972.593750, 112891.507813, 82965.289063, 114264.507813, 144561.625000, 0.000, 0.000, 0.000,0.0,0.0,0.0,0.0,0.0, 15:30:10.098
66053.406250, 83743.421875, 119060.500000, 143063.703125, 112859.273438, 82928.140625, 114278.632813, 144569.875000, 0.000, 0.000, 0.000,0.0,0.0,0.0,0.0,0.0, 15:30:10.098
66174.703125, 83868.187500, 118955.781250, 142616.843750, 112897.562500, 82473.328125, 113987.210938, 144689.140625, 0.080, 0.100, 0.984,0.0,0.0,0.0,0.0,0.0, 15:30:10.098
66187.226563, 83885.515625, 118942.437500, 142450.796875, 112932.632813, 82450.953125, 113928.875000, 144704.343750, 0.000, 0.000, 0.000,0.0,0.0,0.0,0.0,0.0, 15:30:10.099
66065.945313, 83757.390625, 119062.914063, 142895.546875, 112897.226563, 82906.078125, 114219.554688, 144576.984375, 0.000, 0.000, 0.000,0.0,0.0,0.0,0.0,0.0, 15:30:10.099
66039.437500, 83724.648438, 119084.835938, 143119.734375, 112850.351563, 82987.578125, 114311.335938, 144547.515625, 0.000, 0.000, 0.000,0.0,0.0,0.0,0.0,0.0, 15:30:10.100
66159.906250, 83852.921875, 118971.445313, 142714.234375, 112879.281250, 82548.476563, 114038.015625, 144672.468750, 0.000, 0.000, 0.000,0.0,0.0,0.0,0.0,0.0, 15:30:10.100
66203.804688, 83901.828125, 118947.328125, 142452.531250, 112929.257813, 82412.648438, 113915.750000, 144716.453125, 0.000, 0.000, 0.000,0.0,0.0,0.0,0.0,0.0, 15:30:10.100
66091.625000, 83777.781250, 119059.671875, 142833.765625, 112905.851563, 82837.664063, 114177.601563, 144599.796875, 0.000, 0.000, 0.000,0.0,0.0,0.0,0.0,0.0, 15:30:10.101
66024.460938, 83707.257813, 119099.187500, 143147.765625, 112845.976563, 83021.570313, 114328.539063, 144532.906250, 0.000, 0.000, 0.000,0.0,0.0,0.0,0.0,0.0, 15:30:10.101
66130.671875, 83822.750000, 118984.726563, 142806.546875, 112863.523438, 82622.367188, 114090.671875, 144644.484375, 0.000, 0.000, 0.000,0.0,0.0,0.0,0.0,0.0, 15:30:10.101
66198.804688, 83894.406250, 118933.273438, 142448.531250, 112921.210938, 82368.656250, 113902.343750, 144716.750000, 0.082, 0.112, 0.986,0.0,0.0,0.0,0.0,0.0, 15:30:10.102
66088.492188, 83786.093750, 119021.250000, 142731.328125, 112910.484375, 82732.117188, 114112.289063, 144617.281250, 0.000, 0.000, 0.000,0.0,0.0,0.0,0.0,0.0, 15:30:10.102
66026.289063, 83710.273438, 119086.156250, 143113.828125, 112862.335938, 83023.250000, 114327.203125, 144544.750000, 0.000, 0.000, 0.000,0.0,0.0,0.0,0.0,0.0, 15:30:10.102
66116.968750, 83804.664063, 119012.460938, 142897.921875, 112867.390625, 82716.453125, 114158.000000, 144624.968750, 0.000, 0.000, 0.000,0.0,0.0,0.0,0.0,0.0, 15:30:10.102
66207.359375, 83903.125000, 118931.039063, 142469.031250, 112925.140625, 82367.898438, 113909.960938, 144725.734375, 0.000, 0.000, 0.000,0.0,0.0,0.0,0.0,0.0, 15:30:10.103
66135.125000, 83822.773438, 119000.593750, 142649.031250, 112927.601563, 82658.132813, 114063.046875, 144654.500000, 0.000, 0.000, 0.000,0.0,0.0,0.0,0.0,0.0, 15:30:10.103
66038.023438, 83721.093750, 119084.859375, 143087.843750, 112870.070313, 83017.367188, 114311.867188, 144545.843750, 0.000, 0.000, 0.000,0.0,0.0,0.0,0.0,0.0, 15:30:10.103
66081.523438, 83760.031250, 119021.718750, 142972.500000, 112849.726563, 82791.796875, 114198.257813, 144595.437500, 0.000, 0.000, 0.000,0.0,0.0,0.0,0.0,0.0, 15:30:10.104
66210.914063, 83893.070313, 118917.625000, 142494.046875, 112914.593750, 82378.828125, 113917.984375, 144726.015625, 0.000, 0.000, 0.000,0.0,0.0,0.0,0.0,0.0, 15:30:10.104
66160.421875, 83840.140625, 118965.453125, 142552.734375, 112931.890625, 82565.015625, 114004.531250, 144677.859375, 0.000, 0.000, 0.000,0.0,0.0,0.0,0.0,0.0, 15:30:10.105
66039.609375, 83716.937500, 119057.390625, 143004.937500, 112876.617188, 82978.726563, 114274.046875, 144553.671875, 0.074, 0.124, 0.986,0.0,0.0,0.0,0.0,0.0, 15:30:10.105
66077.187500, 83750.617188, 119030.570313, 143016.265625, 112860.234375, 82867.320313, 114239.117188, 144583.234375, 0.000, 0.000, 0.000,0.0,0.0,0.0,0.0,0.0, 15:30:10.105
66205.085938, 83883.343750, 118928.351563, 142547.421875, 112910.031250, 82418.726563, 113946.929688, 144708.468750, 0.000, 0.000, 0.000,0.0,0.0,0.0,0.0,0.0, 15:30:10.105
66203.984375, 83889.085938, 118946.304688, 142475.734375, 112955.921875, 82494.828125, 113962.710938, 144712.140625, 0.000, 0.000, 0.000,0.0,0.0,0.0,0.0,0.0, 15:30:10.106
66070.390625, 83750.195313, 119060.718750, 142928.656250, 112913.609375, 82941.218750, 114256.148438, 144581.671875, 0.000, 0.000, 0.000,0.0,0.0,0.0,0.0,0.0, 15:30:10.106
66056.132813, 83731.421875, 119069.328125, 143073.000000, 112861.796875, 82936.796875, 114292.890625, 144563.453125, 0.000, 0.000, 0.000,0.0,0.0,0.0,0.0,0.0, 15:30:10.107
66189.906250, 83872.390625, 118961.968750, 142639.484375, 112897.742188, 82482.117188, 114002.632813, 144690.078125, 0.000, 0.000, 0.000,0.0,0.0,0.0,0.0,0.0, 15:30:10.107
66211.656250, 83899.617188, 118944.312500, 142444.000000, 112941.015625, 82423.593750, 113925.046875, 144713.015625, 0.000, 0.000, 0.000,0.0,0.0,0.0,0.0,0.0, 15:30:10.108
66091.062500, 83771.140625, 119044.359375, 142843.906250, 112908.515625, 82858.742188, 114192.531250, 144591.984375, 0.000, 0.000, 0.000,0.0,0.0,0.0,0.0,0.0, 15:30:10.108
66051.171875, 83724.757813, 119075.070313, 143085.171875, 112863.273438, 82972.734375, 114303.015625, 144552.578125, 0.000, 0.000, 0.000,0.0,0.0,0.0,0.0,0.0, 15:30:10.108
66166.656250, 83849.859375, 118963.265625, 142697.046875, 112888.640625, 82543.289063, 114041.390625, 144673.828125, 0.064, 0.132, 0.986,0.0,0.0,0.0,0.0,0.0, 15:30:10.108
66227.476563, 83918.703125, 118913.664063, 142386.031250, 112951.382813, 82367.515625, 113893.421875, 144740.500000, 0.000, 0.000, 0.000,0.0,0.0,0.0,0.0,0.0, 15:30:10.109
66118.382813, 83800.687500, 119021.828125, 142739.000000, 112930.929688, 82781.382813, 114143.562500, 144619.515625, 0.000, 0.000, 0.000,0.0,0.0,0.0,0.0,0.0, 15:30:10.109
66055.304688, 83728.984375, 119091.679688, 143092.906250, 112876.906250, 83005.773438, 114323.335938, 144542.796875, 0.000, 0.000, 0.000,0.0,0.0,0.0,0.0,0.0, 15:30:10.109
66155.882813, 83835.398438, 119003.703125, 142801.687500, 112894.992188, 82639.578125, 114111.328125, 144651.484375, 0.000, 0.000, 0.000,0.0,0.0,0.0,0.0,0.0, 15:30:10.110
66232.664063, 83917.859375, 118948.359375, 142434.296875, 112948.296875, 82365.367188, 113906.742188, 144731.343750, 0.000, 0.000, 0.000,0.0,0.0,0.0,0.0,0.0, 15:30:10.110
66150.273438, 83827.687500, 119020.085938, 142677.593750, 112946.132813, 82705.812500, 114095.523438, 144645.531250, 0.000, 0.000, 0.000,0.0,0.0,0.0,0.0,0.0, 15:30:10.111
66063.507813, 83735.375000, 119097.062500, 143083.375000, 112893.117188, 83014.085938, 114318.375000, 144555.078125, 0.000, 0.000, 0.000,0.0,0.0,0.0,0.0,0.0, 15:30:10.111
66138.250000, 83805.046875, 119016.265625, 142883.406250, 112886.250000, 82718.484375, 114154.937500, 144630.281250, 0.000, 0.000, 0.000,0.0,0.0,0.0,0.0,0.0, 15:30:10.111
66242.273438, 83909.539063, 118943.257813, 142457.031250, 112939.781250, 82359.984375, 113903.304688, 144731.109375, 0.056, 0.134, 0.982,0.0,0.0,0.0,0.0,0.0, 15:30:10.112
66190.195313, 83865.015625, 119005.156250, 142602.515625, 112955.851563, 82619.242188, 114042.375000, 144668.390625, 0.000, 0.000, 0.000,0.0,0.0,0.0,0.0,0.0, 15:30:10.112
66076.515625, 83751.421875, 119090.023438, 143045.031250, 112902.617188, 82996.765625, 114305.070313, 144559.906250, 0.000, 0.000, 0.000,0.0,0.0,0.0,0.0,0.0, 15:30:10.112
66113.375000, 83790.140625, 119053.031250, 142985.250000, 112879.593750, 82807.960938, 114223.421875, 144598.390625, 0.000, 0.000, 0.000,0.0,0.0,0.0,0.0,0.0, 15:30:10.112
66243.906250, 83930.484375, 118961.101563, 142530.453125, 112938.039063, 82382.914063, 113942.234375, 144724.500000, 0.000, 0.000, 0.000,0.0,0.0,0.0,0.0,0.0, 15:30:10.113
66214.960938, 83898.562500, 119000.101563, 142563.156250, 112963.523438, 82543.109375, 114011.375000, 144694.593750, 0.000, 0.000, 0.000,0.0,0.0,0.0,0.0,0.0, 15:30:10.113
66092.250000, 83773.484375, 119106.632813, 143035.265625, 112911.195313, 82971.148438, 114298.125000, 144568.484375, 0.000, 0.000, 0.000,0.0,0.0,0.0,0.0,0.0, 15:30:10.113
66095.359375, 83771.742188, 119076.476563, 143076.171875, 112875.570313, 82879.101563, 114276.507813, 144581.671875, 0.000, 0.000, 0.000,0.0,0.0,0.0,0.0,0.0, 15:30:10.113
66213.484375, 83895.031250, 118961.546875, 142608.453125, 112921.007813, 82430.906250, 113977.773438, 144711.531250, 0.000, 0.000, 0.000,0.0,0.0,0.0,0.0,0.0, 15:30:10.114
66206.359375, 83892.757813, 118969.125000, 142513.640625, 112961.062500, 82474.265625, 113968.632813, 144709.562500, 0.000, 0.000, 0.000,0.0,0.0,0.0,0.0,0.0, 15:30:10.114
66079.328125, 83761.640625, 119067.226563, 142951.500000, 112916.093750, 82917.460938, 114249.101563, 144583.500000, 0.050, 0.130, 0.980,0.0,0.0,0.0,0.0,0.0, 15:30:10.114
66077.992188, 83759.921875, 119072.007813, 143106.906250, 112879.031250, 82943.429688, 114306.281250, 144574.468750, 0.000, 0.000, 0.000,0.0,0.0,0.0,0.0,0.0, 15:30:10.114
66210.539063, 83901.273438, 118958.640625, 142669.656250, 112924.406250, 82496.460938, 114026.148438, 144713.437500, 0.000, 0.000, 0.000,0.0,0.0,0.0,0.0,0.0, 15:30:10.115
66229.046875, 83921.632813, 118948.601563, 142458.437500, 112972.734375, 82421.632813, 113944.960938, 144736.640625, 0.000, 0.000, 0.000,0.0,0.0,0.0,0.0,0.0, 15:30:10.115
66123.140625, 83804.109375, 119062.578125, 142862.671875, 112946.085938, 82865.539063, 114218.617188, 144616.046875, 0.000, 0.000, 0.000,0.0,0.0,0.0,0.0,0.0, 15:30:10.115
66073.945313, 83749.835938, 119103.593750, 143137.921875, 112887.031250, 83000.945313, 114345.710938, 144557.578125, 0.000, 0.000, 0.000,0.0,0.0,0.0,0.0,0.0, 15:30:10.116
66186.820313, 83866.851563, 119005.132813, 142783.703125, 112906.414063, 82591.640625, 114100.242188, 144674.703125, 0.000, 0.000, 0.000,0.0,0.0,0.0,0.0,0.0, 15:30:10.116
66248.781250, 83933.054688, 118964.226563, 142469.875000, 112952.953125, 82397.867188, 113942.171875, 144736.765625, 0.000, 0.000, 0.000,0.0,0.0,0.0,0.0,0.0, 15:30:10.116
66141.132813, 83812.890625, 119062.843750, 142798.187500, 112935.562500, 82796.312500, 114177.757813, 144629.906250, 0.000, 0.000, 0.000,0.0,0.0,0.0,0.0,0.0, 15:30:10.117
66065.140625, 83734.484375, 119123.843750, 143153.062500, 112888.460938, 83041.468750, 114366.453125, 144553.671875, 0.044, 0.122, 0.988,0.0,0.0,0.0,0.0,0.0, 15:30:10.117
66154.054688, 83837.296875, 119029.921875, 142875.718750, 112899.593750, 82690.296875, 114166.132813, 144653.640625, 0.000, 0.000, 0.000,0.0,0.0,0.0,0.0,0.0, 15:30:10.117
66238.812500, 83924.960938, 118958.171875, 142474.468750, 112948.257813, 82381.039063, 113941.187500, 144737.468750, 0.000, 0.000, 0.000,0.0,0.0,0.0,0.0,0.0, 15:30:10.117
66154.164063, 83842.148438, 119026.859375, 142688.281250, 112942.890625, 82699.664063, 114115.601563, 144655.328125, 0.000, 0.000, 0.000,0.0,0.0,0.0,0.0,0.0, 15:30:10.117
66050.945313, 83733.250000, 119117.828125, 143119.640625, 112886.367188, 83041.109375, 114359.882813, 144550.156250, 0.000, 0.000, 0.000,0.0,0.0,0.0,0.0,0.0, 15:30:10.118
66126.875000, 83805.648438, 119054.257813, 142965.328125, 112879.234375, 82776.304688, 114222.125000, 144617.484375, 0.000, 0.000, 0.000,0.0,0.0,0.0,0.0,0.0, 15:30:10.118
66230.359375, 83918.796875, 118964.140625, 142510.359375, 112934.664063, 82383.859375, 113949.859375, 144728.906250, 0.000, 0.000, 0.000,0.0,0.0,0.0,0.0,0.0, 15:30:10.118
66177.523438, 83860.656250, 119025.468750, 142630.296875, 112952.570313, 82627.937500, 114071.164063, 144671.187500, 0.000, 0.000, 0.000,0.0,0.0,0.0,0.0,0.0, 15:30:10.118
66064.023438, 83741.390625, 119120.804688, 143088.703125, 112891.460938, 83019.960938, 114337.750000, 144553.046875, 0.000, 0.000, 0.000,0.0,0.0,0.0,0.0,0.0, 15:30:10.118
66096.523438, 83773.578125, 119073.664063, 143038.625000, 112869.484375, 82852.257813, 114261.976563, 144591.109375, 0.000, 0.000, 0.000,0.0,0.0,0.0,0.0,0.0, 15:30:10.118
66218.984375, 83899.570313, 118969.906250, 142572.250000, 112917.789063, 82416.890625, 113972.164063, 144711.375000, 0.046, 0.112, 0.988,0.0,0.0,0.0,0.0,0.0, 15:30:10.119
66183.914063, 83864.320313, 118991.828125, 142562.421875, 112938.445313, 82544.679688, 114013.429688, 144679.031250, 0.000, 0.000, 0.000,0.0,0.0,0.0,0.0,0.0, 15:30:10.119
66071.062500, 83741.812500, 119094.757813, 143019.328125, 112889.109375, 82980.289063, 114294.343750, 144558.093750, 0.000, 0.000, 0.000,0.0,0.0,0.0,0.0,0.0, 15:30:10.119
66083.578125, 83749.968750, 119099.500000, 143104.625000, 112871.273438, 82933.437500, 114306.171875, 144571.078125, 0.000, 0.000, 0.000,0.0,0.0,0.0,0.0,0.0, 15:30:10.119
66186.437500, 83870.718750, 118975.757813, 142635.937500, 112905.765625, 82471.875000, 114004.328125, 144697.859375, 0.000, 0.000, 0.000,0.0,0.0,0.0,0.0,0.0, 15:30:10.120
66199.851563, 83879.320313, 118984.031250, 142516.171875, 112939.718750, 82487.273438, 113976.953125, 144697.656250, 0.000, 0.000, 0.000,0.0,0.0,0.0,0.0,0.0, 15:30:10.120
66092.945313, 83765.664063, 119089.507813, 142945.656250, 112914.906250, 82933.101563, 114257.328125, 144587.859375, 0.000, 0.000, 0.000,0.0,0.0,0.0,0.0,0.0, 15:30:10.120
66065.476563, 83731.171875, 119086.890625, 143118.531250, 112863.718750, 82983.109375, 114325.164063, 144562.968750, 0.000, 0.000, 0.000,0.0,0.0,0.0,0.0,0.0, 15:30:10.120
66188.835938, 83860.054688, 118988.750000, 142707.546875, 112906.414063, 82548.718750, 114061.257813, 144690.453125, 0.000, 0.000, 0.000,0.0,0.0,0.0,0.0,0.0, 15:30:10.120
66211.921875, 83894.562500, 118976.226563, 142474.906250, 112955.164063, 82441.703125, 113962.015625, 144721.656250, 0.048, 0.100, 0.990,0.0,0.0,0.0,0.0,0.0, 15:30:10.121
66098.062500, 83776.171875, 119076.812500, 142853.640625, 112916.203125, 82867.367188, 114215.468750, 144604.687500, 0.000, 0.000, 0.000,0.0,0.0,0.0,0.0,0.0, 15:30:10.121
66064.000000, 83729.296875, 119122.992188, 143140.796875, 112868.617188, 83041.710938, 114356.351563, 144560.281250, 0.000, 0.000, 0.000,0.0,0.0,0.0,0.0,0.0, 15:30:10.121
66144.484375, 83818.929688, 119042.367188, 142823.171875, 112889.562500, 82646.218750, 114129.570313, 144648.921875, 0.000, 0.000, 0.000,0.0,0.0,0.0,0.0,0.0, 15:30:10.121
66214.070313, 83897.671875, 118988.296875, 142486.046875, 112938.976563, 82416.109375, 113952.117188, 144726.250000, 0.000, 0.000, 0.000,0.0,0.0,0.0,0.0,0.0, 15:30:10.121
66142.632813, 83805.601563, 119069.773438, 142778.265625, 112923.671875, 82789.156250, 114165.015625, 144624.453125, 0.000, 0.000, 0.000,0.0,0.0,0.0,0.0,0.0, 15:30:10.121
66062.500000, 83724.757813, 119129.898438, 143142.062500, 112885.492188, 83052.640625, 114361.335938, 144556.453125, 0.000, 0.000, 0.000,0.0,0.0,0.0,0.0,0.0, 15:30:10.122
66104.945313, 83798.968750, 119044.898438, 142894.859375, 112893.203125, 82729.835938, 114181.804688, 144644.328125, 0.000, 0.000, 0.000,0.0,0.0,0.0,0.0,0.0, 15:30:10.122
66215.343750, 83887.437500, 118987.609375, 142500.640625, 112947.812500, 82409.226563, 113953.187500, 144724.125000, 0.000, 0.000, 0.000,0.0,0.0,0.0,0.0,0.0, 15:30:10.122
66154.007813, 83811.234375, 119046.992188, 142683.671875, 112932.523438, 82705.875000, 114101.335938, 144648.328125, 0.000, 0.000, 0.000,0.0,0.0,0.0,0.0,0.0, 15:30:10.122
66050.093750, 83695.789063, 119133.140625, 143120.375000, 112873.375000, 83059.523438, 114347.679688, 144539.546875, 0.044, 0.094, 0.992,0.0,0.0,0.0,0.0,0.0, 15:30:10.122
66120.054688, 83768.679688, 119089.445313, 142995.218750, 112891.414063, 82820.835938, 114233.148438, 144610.578125, 0.000, 0.000, 0.000,0.0,0.0,0.0,0.0,0.0, 15:30:10.123
66208.078125, 83871.406250, 119011.656250, 142555.468750, 112944.101563, 82427.039063, 113966.984375, 144709.500000, 0.000, 0.000, 0.000,0.0,0.0,0.0,0.0,0.0, 15:30:10.123
66177.007813, 83830.750000, 119065.953125, 142646.968750, 112943.984375, 82637.953125, 114066.398438, 144662.031250, 0.000, 0.000, 0.000,0.0,0.0,0.0,0.0,0.0, 15:30:10.123
66067.929688, 83714.742188, 119159.023438, 143101.234375, 112891.257813, 83041.445313, 114336.343750, 144548.765625, 0.000, 0.000, 0.000,0.0,0.0,0.0,0.0,0.0, 15:30:10.123
66085.726563, 83737.968750, 119117.960938, 143077.468750, 112873.757813, 82897.390625, 114276.109375, 144582.812500, 0.000, 0.000, 0.000,0.0,0.0,0.0,0.0,0.0, 15:30:10.124
66186.664063, 83863.875000, 119014.968750, 142606.296875, 112926.125000, 82457.523438, 113983.390625, 144707.375000, 0.000, 0.000, 0.000,0.0,0.0,0.0,0.0,0.0, 15:30:10.124
66164.851563, 83846.687500, 119031.171875, 142567.125000, 112945.062500, 82556.101563, 114011.078125, 144686.062500, 0.000, 0.000, 0.000,0.0,0.0,0.0,0.0,0.0, 15:30:10.124
66080.562500, 83737.656250, 119141.882813, 143026.656250, 112928.046875, 83000.562500, 114300.468750, 144570.187500, 0.000, 0.000, 0.000,0.0,0.0,0.0,0.0,0.0, 15:30:10.124
66072.562500, 83724.710938, 119158.578125, 143142.906250, 112898.164063, 82973.156250, 114326.820313, 144562.890625, 0.000, 0.000, 0.000,0.0,0.0,0.0,0.0,0.0, 15:30:10.124
66154.476563, 83835.515625, 119027.664063, 142683.140625, 112892.664063, 82508.531250, 114024.132813, 144685.296875, 0.038, 0.094, 0.988,0.0,0.0,0.0,0.0,0.0, 15:30:10.124
66208.679688, 83869.578125, 119019.953125, 142518.234375, 112942.601563, 82489.937500, 113972.007813, 144712.000000, 0.000, 0.000, 0.000,0.0,0.0,0.0,0.0,0.0, 15:30:10.124
66020.656250, 83708.531250, 119104.304688, 142934.234375, 112883.234375, 82926.578125, 114236.609375, 144569.734375, 0.000, 0.000, 0.000,0.0,0.0,0.0,0.0,0.0, 15:30:10.125
66052.398438, 83690.875000, 119139.062500, 143169.562500, 112853.507813, 83017.703125, 114338.085938, 144534.828125, 0.000, 0.000, 0.000,0.0,0.0,0.0,0.0,0.0, 15:30:10.125
66162.125000, 83833.390625, 119036.203125, 142764.984375, 112896.109375, 82581.625000, 114075.140625, 144668.062500, 0.000, 0.000, 0.000,0.0,0.0,0.0,0.0,0.0, 15:30:10.125
66181.812500, 83876.304688, 119007.546875, 142497.484375, 112932.945313, 82439.507813, 113949.992188, 144711.765625, 0.000, 0.000, 0.000,0.0,0.0,0.0,0.0,0.0, 15:30:10.126
66076.382813, 83759.781250, 119084.367188, 142832.500000, 112923.242188, 82843.429688, 114185.179688, 144603.640625, 0.000, 0.000, 0.000,0.0,0.0,0.0,0.0,0.0, 15:30:10.126
65988.273438, 83679.765625, 119119.796875, 143148.140625, 112845.703125, 83040.210938, 114342.804688, 144525.281250, 0.000, 0.000, 0.000,0.0,0.0,0.0,0.0,0.0, 15:30:10.126
66131.320313, 83792.039063, 119048.156250, 142851.484375, 112846.937500, 82664.414063, 114124.359375, 144617.875000, 0.000, 0.000, 0.000,0.0,0.0,0.0,0.0,0.0, 15:30:10.127
66205.617188, 83875.210938, 119011.437500, 142498.562500, 112920.046875, 82414.523438, 113943.867188, 144704.234375, 0.050, 0.088, 0.986,0.0,0.0,0.0,0.0,0.0, 15:30:10.127
66058.703125, 83754.531250, 119071.781250, 142759.171875, 112896.351563, 82763.585938, 114137.632813, 144604.312500, 0.000, 0.000, 0.000,0.0,0.0,0.0,0.0,0.0, 15:30:10.127
65991.554688, 83677.148438, 119124.335938, 143137.015625, 112855.429688, 83052.664063, 114350.312500, 144528.609375, 0.000, 0.000, 0.000,0.0,0.0,0.0,0.0,0.0, 15:30:10.128
66089.968750, 83758.398438, 119064.476563, 142938.281250, 112844.562500, 82750.382813, 114189.312500, 144599.640625, 0.000, 0.000, 0.000,0.0,0.0,0.0,0.0,0.0, 15:30:10.128
66206.554688, 83883.054688, 119000.796875, 142521.562500, 112902.679688, 82407.437500, 113948.140625, 144704.390625, 0.000, 0.000, 0.000,0.0,0.0,0.0,0.0,0.0, 15:30:10.128
66125.218750, 83801.742188, 119063.179688, 142682.156250, 112929.750000, 82685.562500, 114094.898438, 144643.984375, 0.000, 0.000, 0.000,0.0,0.0,0.0,0.0,0.0, 15:30:10.129
66013.906250, 83674.890625, 119133.296875, 143110.906250, 112860.953125, 83044.570313, 114339.429688, 144535.781250, 0.000, 0.000, 0.000,0.0,0.0,0.0,0.0,0.0, 15:30:10.130
66059.484375, 83735.421875, 119079.875000, 143005.812500, 112852.835938, 82831.515625, 114239.179688, 144592.562500, 0.000, 0.000, 0.000,0.0,0.0,0.0,0.0,0.0, 15:30:10.130
66184.179688, 83843.578125, 118996.414063, 142556.312500, 112897.648438, 82424.359375, 113968.101563, 144696.687500, 0.000, 0.000, 0.000,0.0,0.0,0.0,0.0,0.0, 15:30:10.130
66110.375000, 83791.968750, 119036.492188, 142610.203125, 112914.234375, 82603.328125, 114049.304688, 144654.203125, 0.000, 0.000, 0.000,0.0,0.0,0.0,0.0,0.0, 15:30:10.577
66015.789063, 83686.359375, 119129.453125, 143067.453125, 112865.109375, 83020.453125, 114322.976563, 144538.906250, 0.058, 0.098, 0.988,0.0,0.0,0.0,0.0,0.0, 15:30:10.577
66031.406250, 83705.421875, 119098.453125, 143082.031250, 112844.367188, 82909.164063, 114288.398438, 144561.062500, 0.000, 0.000, 0.000,0.0,0.0,0.0,0.0,0.0, 15:30:10.578
66154.273438, 83832.539063, 118997.351563, 142616.234375, 112891.390625, 82461.328125, 114003.820313, 144689.765625, 0.000, 0.000, 0.000,0.0,0.0,0.0,0.0,0.0, 15:30:10.578
66147.390625, 83818.703125, 119021.898438, 142557.468750, 112918.257813, 82534.125000, 114017.406250, 144674.656250, 0.000, 0.000, 0.000,0.0,0.0,0.0,0.0,0.0, 15:30:10.578
66039.273438, 83704.039063, 119123.039063, 143012.421875, 112872.687500, 82974.789063, 114294.500000, 144549.703125, 0.000, 0.000, 0.000,0.0,0.0,0.0,0.0,0.0, 15:30:10.578
66000.343750, 83684.125000, 119116.062500, 143143.421875, 112833.367188, 82972.156250, 114329.343750, 144538.328125, 0.000, 0.000, 0.000,0.0,0.0,0.0,0.0,0.0, 15:30:10.578
66126.562500, 83812.687500, 119023.257813, 142726.140625, 112874.492188, 82527.914063, 114058.468750, 144661.515625, 0.000, 0.000, 0.000,0.0,0.0,0.0,0.0,0.0, 15:30:10.579
66173.546875, 83850.132813, 119006.312500, 142531.234375, 112924.226563, 82466.828125, 113987.101563, 144694.906250, 0.000, 0.000, 0.000,0.0,0.0,0.0,0.0,0.0, 15:30:10.579
66068.382813, 83731.578125, 119114.320313, 142941.718750, 112894.273438, 82907.289063, 114258.960938, 144575.968750, 0.000, 0.000, 0.000,0.0,0.0,0.0,0.0,0.0, 15:30:10.579
66035.078125, 83695.257813, 119146.234375, 143189.140625, 112842.289063, 83018.734375, 114365.578125, 144535.421875, 0.064, 0.108, 0.982,0.0,0.0,0.0,0.0,0.0, 15:30:10.579
66152.195313, 83821.187500, 119051.398438, 142817.781250, 112874.382813, 82602.234375, 114115.242188, 144654.656250, 0.000, 0.000, 0.000,0.0,0.0,0.0,0.0,0.0, 15:30:10.580
66176.046875, 83862.710938, 118997.664063, 142504.953125, 112929.617188, 82422.726563, 113965.328125, 144717.765625, 0.000, 0.000, 0.000,0.0,0.0,0.0,0.0,0.0, 15:30:10.580
66078.703125, 83755.562500, 119090.070313, 142842.781250, 112910.257813, 82833.234375, 114198.343750, 144606.078125, 0.000, 0.000, 0.000,0.0,0.0,0.0,0.0,0.0, 15:30:10.580
66021.195313, 83686.937500, 119145.367188, 143187.140625, 112845.507813, 83052.617188, 114365.851563, 144524.140625, 0.000, 0.000, 0.000,0.0,0.0,0.0,0.0,0.0, 15:30:10.580
66125.171875, 83791.703125, 119055.468750, 142895.453125, 112860.570313, 82685.406250, 114157.796875, 144623.453125, 0.000, 0.000, 0.000,0.0,0.0,0.0,0.0,0.0, 15:30:10.581
66189.953125, 83858.890625, 119006.429688, 142530.078125, 112911.375000, 82407.031250, 113957.078125, 144696.218750, 0.000, 0.000, 0.000,0.0,0.0,0.0,0.0,0.0, 15:30:10.581
66104.210938, 83770.695313, 119068.273438, 142766.078125, 112905.789063, 82737.414063, 114138.640625, 144614.703125, 0.000, 0.000, 0.000,0.0,0.0,0.0,0.0,0.0, 15:30:10.581
66008.968750, 83672.054688, 119142.304688, 143175.250000, 112846.445313, 83047.140625, 114360.148438, 144510.031250, 0.000, 0.000, 0.000,0.0,0.0,0.0,0.0,0.0, 15:30:10.582
66082.640625, 83751.398438, 119067.718750, 142981.937500, 112842.687500, 82758.718750, 114205.070313, 144588.328125, 0.000, 0.000, 0.000,0.0,0.0,0.0,0.0,0.0, 15:30:10.582
66197.882813, 83868.906250, 118979.804688, 142530.390625, 112902.632813, 82391.343750, 113950.281250, 144701.984375, 0.064, 0.110, 0.984,0.0,0.0,0.0,0.0,0.0, 15:30:10.583
66140.507813, 83808.625000, 119029.179688, 142657.328125, 112915.867188, 82645.773438, 114078.273438, 144644.796875, 0.000, 0.000, 0.000,0.0,0.0,0.0,0.0,0.0, 15:30:10.583
66034.117188, 83702.562500, 119112.062500, 143096.562500, 112863.476563, 83025.375000, 114336.609375, 144537.109375, 0.000, 0.000, 0.000,0.0,0.0,0.0,0.0,0.0, 15:30:10.584
66076.265625, 83746.710938, 119077.484375, 143031.671875, 112847.382813, 82839.539063, 114256.546875, 144573.734375, 0.000, 0.000, 0.000,0.0,0.0,0.0,0.0,0.0, 15:30:10.584
66190.375000, 83861.664063, 118978.375000, 142554.750000, 112889.875000, 82409.937500, 113966.062500, 144693.156250, 0.000, 0.000, 0.000,0.0,0.0,0.0,0.0,0.0, 15:30:10.584
66161.179688, 83829.968750, 119025.960938, 142586.828125, 112920.539063, 82573.132813, 114036.515625, 144662.656250, 0.000, 0.000, 0.000,0.0,0.0,0.0,0.0,0.0, 15:30:10.585
66041.445313, 83704.398438, 119124.335938, 143048.859375, 112869.843750, 83000.273438, 114314.375000, 144543.234375, 0.000, 0.000, 0.000,0.0,0.0,0.0,0.0,0.0, 15:30:10.585
66052.976563, 83712.398438, 119097.335938, 143090.828125, 112838.820313, 82913.750000, 114295.484375, 144557.828125, 0.000, 0.000, 0.000,0.0,0.0,0.0,0.0,0.0, 15:30:10.585
66179.890625, 83843.554688, 118970.640625, 142596.843750, 112885.890625, 82449.078125, 113993.554688, 144690.921875, 0.000, 0.000, 0.000,0.0,0.0,0.0,0.0,0.0, 15:30:10.585
66173.570313, 83844.093750, 118976.812500, 142484.703125, 112926.242188, 82487.187500, 113981.976563, 144692.359375, 0.070, 0.110, 0.994,0.0,0.0,0.0,0.0,0.0, 15:30:10.586
66061.945313, 83725.500000, 119078.156250, 142915.593750, 112890.093750, 82928.187500, 114257.890625, 144567.843750, 0.000, 0.000, 0.000,0.0,0.0,0.0,0.0,0.0, 15:30:10.586
66046.609375, 83705.984375, 119089.773438, 143077.437500, 112850.351563, 82958.539063, 114316.000000, 144549.375000, 0.000, 0.000, 0.000,0.0,0.0,0.0,0.0,0.0, 15:30:10.586
66163.242188, 83834.218750, 118984.234375, 142648.625000, 112880.242188, 82509.921875, 114034.460938, 144670.281250, 0.000, 0.000, 0.000,0.0,0.0,0.0,0.0,0.0, 15:30:10.586
66210.539063, 83881.492188, 118962.281250, 142419.812500, 112931.937500, 82421.875000, 113938.664063, 144709.093750, 0.000, 0.000, 0.000,0.0,0.0,0.0,0.0,0.0, 15:30:10.587
66105.437500, 83770.132813, 119055.062500, 142797.937500, 112906.343750, 82851.476563, 114197.000000, 144597.093750, 0.000, 0.000, 0.000,0.0,0.0,0.0,0.0,0.0, 15:30:10.587
66056.664063, 83710.875000, 119103.453125, 143080.015625, 112854.851563, 82995.085938, 114330.109375, 144540.796875, 0.000, 0.000, 0.000,0.0,0.0,0.0,0.0,0.0, 15:30:10.588
66164.578125, 83831.648438, 119006.000000, 142722.171875, 112878.117188, 82584.460938, 114088.421875, 144653.437500, 0.000, 0.000, 0.000,0.0,0.0,0.0,0.0,0.0, 15:30:10.588
66218.156250, 83880.328125, 118964.492188, 142400.093750, 112926.531250, 82380.640625, 113925.695313, 144712.812500, 0.000, 0.000, 0.000,0.0,0.0,0.0,0.0,0.0, 15:30:10.588
66101.835938, 83761.953125, 119040.757813, 142705.046875, 112914.351563, 82763.523438, 114143.671875, 144617.406250, 0.000, 0.000, 0.000,0.0,0.0,0.0,0.0,0.0, 15:30:10.588
66052.867188, 83704.328125, 119084.210938, 143043.875000, 112870.406250, 83012.500000, 114327.625000, 144563.906250, 0.090, 0.120, 0.984,0.0,0.0,0.0,0.0,0.0, 15:30:10.589
66140.578125, 83800.375000, 119004.210938, 142777.500000, 112881.914063, 82671.742188, 114138.351563, 144651.078125, 0.000, 0.000, 0.000,0.0,0.0,0.0,0.0,0.0, 15:30:10.589
66237.578125, 83901.429688, 118947.757813, 142381.187500, 112943.468750, 82369.062500, 113923.015625, 144743.125000, 0.000, 0.000, 0.000,0.0,0.0,0.0,0.0,0.0, 15:30:10.590
66150.859375, 83812.132813, 119023.484375, 142603.078125, 112933.414063, 82699.460938, 114096.914063, 144661.578125, 0.000, 0.000, 0.000,0.0,0.0,0.0,0.0,0.0, 15:30:10.590
66054.679688, 83703.953125, 119105.109375, 143027.375000, 112870.023438, 83030.578125, 114328.406250, 144563.406250, 0.000, 0.000, 0.000,0.0,0.0,0.0,0.0,0.0, 15:30:10.591
66115.515625, 83756.343750, 119040.203125, 142871.140625, 112854.710938, 82760.882813, 114185.875000, 144617.437500, 0.000, 0.000, 0.000,0.0,0.0,0.0,0.0,0.0, 15:30:10.591
66256.382813, 83895.640625, 118954.304688, 142408.750000, 112933.593750, 82378.265625, 113923.593750, 144748.265625, 0.000, 0.000, 0.000,0.0,0.0,0.0,0.0,0.0, 15:30:10.591
66171.242188, 83828.585938, 119004.703125, 142513.625000, 112948.812500, 82613.343750, 114037.570313, 144689.703125, 0.000, 0.000, 0.000,0.0,0.0,0.0,0.0,0.0, 15:30:10.591
66043.007813, 83695.273438, 119088.773438, 142967.812500, 112881.023438, 83006.437500, 114295.281250, 144562.265625, 0.000, 0.000, 0.000,0.0,0.0,0.0,0.0,0.0, 15:30:10.591
66126.539063, 83762.625000, 119040.046875, 142903.609375, 112869.734375, 82838.421875, 114220.250000, 144615.718750, 0.000, 0.000, 0.000,0.0,0.0,0.0,0.0,0.0, 15:30:10.592
66251.773438, 83897.515625, 118947.195313, 142417.000000, 112926.304688, 82399.968750, 113931.289063, 144741.593750, 0.108, 0.122, 0.978,0.0,0.0,0.0,0.0,0.0, 15:30:10.592
66221.867188, 83863.609375, 118982.335938, 142401.968750, 112965.984375, 82530.125000, 113980.640625, 144716.609375, 0.000, 0.000, 0.000,0.0,0.0,0.0,0.0,0.0, 15:30:10.592
66116.234375, 83747.445313, 119076.789063, 142857.593750, 112928.695313, 82965.335938, 114263.476563, 144597.140625, 0.000, 0.000, 0.000,0.0,0.0,0.0,0.0,0.0, 15:30:10.593
66094.531250, 83740.875000, 119053.390625, 142921.000000, 112901.851563, 82905.187500, 114259.476563, 144601.625000, 0.000, 0.000, 0.000,0.0,0.0,0.0,0.0,0.0, 15:30:10.593
66218.117188, 83844.453125, 118943.593750, 142457.250000, 112924.273438, 82444.203125, 113960.718750, 144708.671875, 0.000, 0.000, 0.000,0.0,0.0,0.0,0.0,0.0, 15:30:10.593
66222.226563, 83870.070313, 118953.164063, 142319.046875, 112964.460938, 82449.656250, 113927.507813, 144724.906250, 0.000, 0.000, 0.000,0.0,0.0,0.0,0.0,0.0, 15:30:10.593
66093.992188, 83739.156250, 119063.960938, 142752.234375, 112933.546875, 82899.507813, 114201.476563, 144600.656250, 0.000, 0.000, 0.000,0.0,0.0,0.0,0.0,0.0, 15:30:10.594
66034.804688, 83682.734375, 119050.257813, 142924.484375, 112866.179688, 82946.718750, 114258.468750, 144565.875000, 0.000, 0.000, 0.000,0.0,0.0,0.0,0.0,0.0, 15:30:10.594
66191.601563, 83816.156250, 118925.046875, 142488.921875, 112896.937500, 82493.804688, 113978.359375, 144688.140625, 0.000, 0.000, 0.000,0.0,0.0,0.0,0.0,0.0, 15:30:10.594
66214.851563, 83861.085938, 118912.750000, 142247.500000, 112966.335938, 82387.453125, 113879.117188, 144729.937500, 0.104, 0.136, 0.980,0.0,0.0,0.0,0.0,0.0, 15:30:10.594
66150.765625, 83765.882813, 119011.367188, 142612.968750, 112925.617188, 82810.820313, 114124.562500, 144625.953125, 0.000, 0.000, 0.000,0.0,0.0,0.0,0.0,0.0, 15:30:10.595
66090.953125, 83706.140625, 119045.742188, 142884.640625, 112873.445313, 82974.656250, 114253.218750, 144570.312500, 0.000, 0.000, 0.000,0.0,0.0,0.0,0.0,0.0, 15:30:10.595
66148.156250, 83805.093750, 118926.656250, 142515.750000, 112895.796875, 82569.531250, 114009.296875, 144676.093750, 0.000, 0.000, 0.000,0.0,0.0,0.0,0.0,0.0, 15:30:10.595
66236.109375, 83884.039063, 118857.382813, 142142.468750, 112952.882813, 82334.187500, 113826.117188, 144749.203125, 0.000, 0.000, 0.000,0.0,0.0,0.0,0.0,0.0, 15:30:10.595
66165.320313, 83790.789063, 118965.523438, 142449.578125, 112956.078125, 82726.976563, 114058.578125, 144657.890625, 0.000, 0.000, 0.000,0.0,0.0,0.0,0.0,0.0, 15:30:10.595
66061.023438, 83689.710938, 119038.726563, 142832.046875, 112890.921875, 82993.570313, 114257.132813, 144553.625000, 0.000, 0.000, 0.000,0.0,0.0,0.0,0.0,0.0, 15:30:10.596
66110.984375, 83766.468750, 118929.914063, 142565.500000, 112873.062500, 82652.210938, 114058.984375, 144644.796875, 0.000, 0.000, 0.000,0.0,0.0,0.0,0.0,0.0, 15:30:10.596
66238.210938, 83876.531250, 118843.171875, 142132.546875, 112929.523438, 82328.734375, 113827.234375, 144743.859375, 0.000, 0.000, 0.000,0.0,0.0,0.0,0.0,0.0, 15:30:10.597
66192.367188, 83804.484375, 118940.648438, 142357.109375, 112941.039063, 82649.281250, 114009.718750, 144657.562500, 0.000, 0.000, 0.000,0.0,0.0,0.0,0.0,0.0, 15:30:10.597
66044.531250, 83664.859375, 119012.796875, 142786.671875, 112870.250000, 82993.390625, 114247.515625, 144549.375000, 0.106, 0.138, 0.976,0.0,0.0,0.0,0.0,0.0, 15:30:10.597
66079.398438, 83725.898438, 118957.656250, 142661.500000, 112863.875000, 82760.390625, 114133.859375, 144605.484375, 0.000, 0.000, 0.000,0.0,0.0,0.0,0.0,0.0, 15:30:10.598
66196.406250, 83845.390625, 118870.906250, 142205.531250, 112914.234375, 82363.515625, 113866.242188, 144722.984375, 0.000, 0.000, 0.000,0.0,0.0,0.0,0.0,0.0, 15:30:10.598
66123.679688, 83775.835938, 118924.062500, 142302.328125, 112916.875000, 82574.648438, 113966.843750, 144663.562500, 0.000, 0.000, 0.000,0.0,0.0,0.0,0.0,0.0, 15:30:10.598
66026.132813, 83661.500000, 119040.156250, 142792.234375, 112862.890625, 82987.195313, 114248.726563, 144537.375000, 0.000, 0.000, 0.000,0.0,0.0,0.0,0.0,0.0, 15:30:10.598
66088.023438, 83720.843750, 119005.179688, 142777.812500, 112858.242188, 82847.343750, 114198.765625, 144589.203125, 0.000, 0.000, 0.000,0.0,0.0,0.0,0.0,0.0, 15:30:10.599
66235.484375, 83865.617188, 118910.406250, 142303.421875, 112921.117188, 82411.507813, 113913.070313, 144721.859375, 0.000, 0.000, 0.000,0.0,0.0,0.0,0.0,0.0, 15:30:10.599
66178.867188, 83815.531250, 118940.218750, 142277.593750, 112937.257813, 82511.328125, 113941.609375, 144684.046875, 0.000, 0.000, 0.000,0.0,0.0,0.0,0.0,0.0, 15:30:10.599
66041.515625, 83679.500000, 119048.898438, 142758.156250, 112884.398438, 82951.726563, 114227.960938, 144552.093750, 0.000, 0.000, 0.000,0.0,0.0,0.0,0.0,0.0, 15:30:10.599
66042.007813, 83680.859375, 119034.343750, 142868.125000, 112840.718750, 82920.140625, 114243.156250, 144556.343750, 0.102, 0.134, 0.980,0.0,0.0,0.0,0.0,0.0, 15:30:10.599
66195.601563, 83828.156250, 118912.703125, 142402.781250, 112884.015625, 82461.078125, 113948.585938, 144690.296875, 0.000, 0.000, 0.000,0.0,0.0,0.0,0.0,0.0, 15:30:10.600
66216.507813, 83843.718750, 118919.906250, 142250.625000, 112924.875000, 82445.929688, 113903.679688, 144702.375000, 0.000, 0.000, 0.000,0.0,0.0,0.0,0.0,0.0, 15:30:10.600
66070.390625, 83705.781250, 119023.257813, 142684.562500, 112885.718750, 82886.140625, 114178.429688, 144571.218750, 0.000, 0.000, 0.000,0.0,0.0,0.0,0.0,0.0, 15:30:10.600
66048.062500, 83670.937500, 119064.296875, 142931.718750, 112842.687500, 82982.101563, 114284.601563, 144533.062500, 0.000, 0.000, 0.000,0.0,0.0,0.0,0.0,0.0, 15:30:10.600
66171.625000, 83799.546875, 118954.906250, 142529.156250, 112873.398438, 82544.562500, 114018.789063, 144657.843750, 0.000, 0.000, 0.000,0.0,0.0,0.0,0.0,0.0, 15:30:10.601
66208.304688, 83845.679688, 118937.406250, 142269.921875, 112932.562500, 82406.968750, 113904.195313, 144703.218750, 0.000, 0.000, 0.000,0.0,0.0,0.0,0.0,0.0, 15:30:10.601
66086.414063, 83715.664063, 119036.023438, 142640.625000, 112895.570313, 82818.281250, 114150.265625, 144584.562500, 0.000, 0.000, 0.000,0.0,0.0,0.0,0.0,0.0, 15:30:10.601
66033.062500, 83657.968750, 119085.039063, 142965.281250, 112835.984375, 83013.351563, 114302.054688, 144524.859375, 0.000, 0.000, 0.000,0.0,0.0,0.0,0.0,0.0, 15:30:10.601
66137.445313, 83763.695313, 118994.312500, 142654.453125, 112859.140625, 82632.476563, 114080.351563, 144630.796875, 0.000, 0.000, 0.000,0.0,0.0,0.0,0.0,0.0, 15:30:10.601
66211.523438, 83840.070313, 118938.210938, 142291.250000, 112920.609375, 82376.726563, 113889.085938, 144708.625000, 0.114, 0.136, 0.984,0.0,0.0,0.0,0.0,0.0, 15:30:10.602
66118.156250, 83743.335938, 119027.593750, 142580.765625, 112915.289063, 82739.648438, 114101.335938, 144610.484375, 0.000, 0.000, 0.000,0.0,0.0,0.0,0.0,0.0, 15:30:10.602
66042.093750, 83665.171875, 119095.117188, 142981.515625, 112865.148438, 83028.726563, 114315.687500, 144530.328125, 0.000, 0.000, 0.000,0.0,0.0,0.0,0.0,0.0, 15:30:10.602
66126.625000, 83747.265625, 119009.242188, 142756.453125, 112868.679688, 82716.718750, 114144.070313, 144615.156250, 0.000, 0.000, 0.000,0.0,0.0,0.0,0.0,0.0, 15:30:10.602
66227.632813, 83853.304688, 118933.312500, 142325.203125, 112921.437500, 82370.132813, 113901.156250, 144713.484375, 0.000, 0.000, 0.000,0.0,0.0,0.0,0.0,0.0, 15:30:10.602
66161.140625, 83782.898438, 119001.664063, 142501.390625, 112927.515625, 82654.000000, 114054.218750, 144645.046875, 0.000, 0.000, 0.000,0.0,0.0,0.0,0.0,0.0, 15:30:10.603
66072.382813, 83692.195313, 119080.281250, 142940.609375, 112882.671875, 83018.890625, 114306.835938, 144550.812500, 0.000, 0.000, 0.000,0.0,0.0,0.0,0.0,0.0, 15:30:10.603
66124.031250, 83745.140625, 119032.023438, 142847.250000, 112865.195313, 82809.429688, 114206.164063, 144595.578125, 0.000, 0.000, 0.000,0.0,0.0,0.0,0.0,0.0, 15:30:10.603
66240.312500, 83861.085938, 118936.179688, 142377.640625, 112912.757813, 82395.140625, 113922.164063, 144713.093750, 0.000, 0.000, 0.000,0.0,0.0,0.0,0.0,0.0, 15:30:10.603
66198.757813, 83817.898438, 118979.000000, 142432.156250, 112935.179688, 82578.406250, 114005.671875, 144669.296875, 0.000, 0.000, 0.000,0.0,0.0,0.0,0.0,0.0, 15:30:10.604
66080.132813, 83695.117188, 119085.242188, 142911.375000, 112887.906250, 83001.054688, 114291.554688, 144550.140625, 0.116, 0.140, 0.988,0.0,0.0,0.0,0.0,0.0, 15:30:10.604
66099.156250, 83714.546875, 119065.968750, 142939.000000, 112861.578125, 82892.984375, 114262.492188, 144569.781250, 0.000, 0.000, 0.000,0.0,0.0,0.0,0.0,0.0, 15:30:10.604
66212.437500, 83835.421875, 118964.789063, 142470.656250, 112902.945313, 82441.632813, 113968.726563, 144685.718750, 0.000, 0.000, 0.000,0.0,0.0,0.0,0.0,0.0, 15:30:10.605
66206.062500, 83839.960938, 118990.492188, 142415.671875, 112934.460938, 82517.406250, 113985.710938, 144684.671875, 0.000, 0.000, 0.000,0.0,0.0,0.0,0.0,0.0, 15:30:10.605
66081.726563, 83707.929688, 119095.164063, 142878.625000, 112886.070313, 82957.984375, 114265.398438, 144554.890625, 0.000, 0.000, 0.000,0.0,0.0,0.0,0.0,0.0, 15:30:10.605
66064.132813, 83675.406250, 119095.585938, 143024.203125, 112842.039063, 82954.671875, 114300.984375, 144539.546875, 0.000, 0.000, 0.000,0.0,0.0,0.0,0.0,0.0, 15:30:10.605
66202.984375, 83832.984375, 118976.250000, 142570.171875, 112888.625000, 82499.304688, 114009.453125, 144677.000000, 0.000, 0.000, 0.000,0.0,0.0,0.0,0.0,0.0, 15:30:10.606
66213.953125, 83841.992188, 118973.640625, 142389.125000, 112931.695313, 82453.882813, 113943.218750, 144691.468750, 0.000, 0.000, 0.000,0.0,0.0,0.0,0.0,0.0, 15:30:10.606
66096.187500, 83715.726563, 119065.773438, 142796.234375, 112892.554688, 82881.046875, 114205.007813, 144563.906250, 0.000, 0.000, 0.000,0.0,0.0,0.0,0.0,0.0, 15:30:10.606
66061.875000, 83682.601563, 119106.765625, 143060.921875, 112848.679688, 83001.929688, 114326.757813, 144519.734375, 0.116, 0.140, 0.984,0.0,0.0,0.0,0.0,0.0, 15:30:10.607
66175.265625, 83798.093750, 119004.171875, 142683.578125, 112870.898438, 82579.007813, 114066.804688, 144636.375000, 0.000, 0.000, 0.000,0.0,0.0,0.0,0.0,0.0, 15:30:10.607
66240.601563, 83864.367188, 118958.484375, 142372.031250, 112932.250000, 82400.750000, 113920.062500, 144703.765625, 0.000, 0.000, 0.000,0.0,0.0,0.0,0.0,0.0, 15:30:10.608
66138.187500, 83755.671875, 119053.007813, 142715.593750, 112917.164063, 82800.601563, 114159.718750, 144589.937500, 0.000, 0.000, 0.000,0.0,0.0,0.0,0.0,0.0, 15:30:10.608
66075.796875, 83690.156250, 119115.546875, 143067.656250, 112865.664063, 83023.296875, 114337.484375, 144521.437500, 0.000, 0.000, 0.000,0.0,0.0,0.0,0.0,0.0, 15:30:10.608
66179.375000, 83795.390625, 119020.664063, 142766.890625, 112881.132813, 82657.578125, 114125.992188, 144627.875000, 0.000, 0.000, 0.000,0.0,0.0,0.0,0.0,0.0, 15:30:10.608
66264.312500, 83881.062500, 118962.773438, 142385.093750, 112942.867188, 82378.601563, 113923.414063, 144712.468750, 0.000, 0.000, 0.000,0.0,0.0,0.0,0.0,0.0, 15:30:10.609
66185.007813, 83810.257813, 119054.195313, 142649.000000, 112942.023438, 82724.812500, 114124.117188, 144626.171875, 0.000, 0.000, 0.000,0.0,0.0,0.0,0.0,0.0, 15:30:10.609
66086.062500, 83695.570313, 119125.718750, 143060.765625, 112881.515625, 83032.390625, 114349.640625, 144535.250000, 0.000, 0.000, 0.000,0.0,0.0,0.0,0.0,0.0, 15:30:10.610
66156.937500, 83765.351563, 119056.429688, 142873.859375, 112879.632813, 82749.593750, 114197.156250, 144609.953125, 0.000, 0.000, 0.000,0.0,0.0,0.0,0.0,0.0, 15:30:10.610
66255.109375, 83872.484375, 118980.609375, 142433.781250, 112937.195313, 82381.507813, 113944.960938, 144714.703125, 0.118, 0.142, 0.974,0.0,0.0,0.0,0.0,0.0, 15:30:10.610
66197.257813, 83814.609375, 119048.921875, 142587.109375, 112958.539063, 82651.632813, 114089.046875, 144663.640625, 0.000, 0.000, 0.000,0.0,0.0,0.0,0.0,0.0, 15:30:10.611
66082.843750, 83696.953125, 119149.281250, 143055.937500, 112903.640625, 83039.562500, 114357.015625, 144551.750000, 0.000, 0.000, 0.000,0.0,0.0,0.0,0.0,0.0, 15:30:10.611
66110.218750, 83721.539063, 119100.570313, 142991.062500, 112871.632813, 82841.976563, 114263.765625, 144579.343750, 0.000, 0.000, 0.000,0.0,0.0,0.0,0.0,0.0, 15:30:10.611
66224.437500, 83848.140625, 118980.523438, 142496.203125, 112917.835938, 82405.914063, 113963.093750, 144705.125000, 0.000, 0.000, 0.000,0.11057373,0.17214578,0.051153097,0.12971641,0.06925996, 15:30:11.058
66193.546875, 83827.468750, 119024.484375, 142526.718750, 112941.054688, 82566.242188, 114028.914063, 144669.406250, 0.000, 0.000, 0.000,0.11057373,0.17214578,0.051153097,0.12971641,0.06925996, 15:30:11.059
66083.265625, 83706.968750, 119135.484375, 143011.937500, 112887.054688, 82998.820313, 114312.585938, 144546.843750, 0.000, 0.000, 0.000,0.11057373,0.17214578,0.051153097,0.12971641,0.06925996, 15:30:11.059
66099.445313, 83714.921875, 119085.437500, 143027.796875, 112860.234375, 82901.968750, 114279.414063, 144569.609375, 0.000, 0.000, 0.000,0.11057373,0.17214578,0.051153097,0.12971641,0.06925996, 15:30:11.059
66221.976563, 83845.148438, 118977.523438, 142553.625000, 112904.445313, 82449.054688, 113988.593750, 144688.562500, 0.000, 0.000, 0.000,0.11057373,0.17214578,0.051153097,0.12971641,0.06925996, 15:30:11.059
66215.765625, 83833.296875, 119003.031250, 142467.906250, 112942.960938, 82490.718750, 113985.000000, 144681.515625, 0.110, 0.146, 0.978,0.11057373,0.17214578,0.051153097,0.12971641,0.06925996, 15:30:11.060
66099.492188, 83710.429688, 119117.898438, 142931.421875, 112902.929688, 82934.914063, 114269.023438, 144553.312500, 0.000, 0.000, 0.000,0.11057373,0.17214578,0.051153097,0.12971641,0.06925996, 15:30:11.060
66090.195313, 83708.578125, 119138.281250, 143117.796875, 112860.882813, 82973.023438, 114333.437500, 144531.671875, 0.000, 0.000, 0.000,0.11057373,0.17214578,0.051153097,0.12971641,0.06925996, 15:30:11.060
66214.289063, 83829.632813, 119007.453125, 142663.781250, 112893.429688, 82508.757813, 114037.679688, 144661.171875, 0.000, 0.000, 0.000,0.11057373,0.17214578,0.051153097,0.12971641,0.06925996, 15:30:11.061
66245.117188, 83858.671875, 118983.453125, 142430.078125, 112946.132813, 82420.648438, 113945.929688, 144698.750000, 0.000, 0.000, 0.000,0.11057373,0.17214578,0.051153097,0.12971641,0.06925996, 15:30:11.061
66126.046875, 83726.656250, 119101.132813, 142843.328125, 112915.265625, 82871.859375, 114218.437500, 144575.437500, 0.000, 0.000, 0.000,0.11057373,0.17214578,0.051153097,0.12971641,0.06925996, 15:30:11.061
66079.468750, 83688.750000, 119148.515625, 143134.625000, 112867.812500, 83022.710938, 114353.312500, 144529.750000, 0.000, 0.000, 0.000,0.11057373,0.17214578,0.051153097,0.12971641,0.06925996, 15:30:11.062
66197.531250, 83814.929688, 119029.468750, 142758.375000, 112892.085938, 82606.750000, 114099.414063, 144656.281250, 0.000, 0.000, 0.000,0.11057373,0.17214578,0.051153097,0.12971641,0.06925996, 15:30:11.062
66269.789063, 83880.664063, 118969.125000, 142411.359375, 112947.945313, 82399.750000, 113934.882813, 144729.031250, 0.000, 0.000, 0.000,0.11057373,0.17214578,0.051153097,0.12971641,0.06925996, 15:30:11.062
66171.687500, 83776.234375, 119067.984375, 142739.703125, 112939.226563, 82800.406250, 114174.453125, 144631.406250, 0.000, 0.000, 0.000,0.11057373,0.17214578,0.051153097,0.12971641,0.06925996, 15:30:11.063
66096.992188, 83693.039063, 119133.453125, 143107.859375, 112889.984375, 83044.640625, 114365.914063, 144552.218750, 0.116, 0.148, 0.984,0.11057373,0.17214578,0.051153097,0.12971641,0.06925996, 15:30:11.063
66157.492188, 83747.242188, 119053.117188, 142853.171875, 112886.164063, 82705.921875, 114173.578125, 144626.515625, 0.000, 0.000, 0.000,0.11057373,0.17214578,0.051153097,0.12971641,0.06925996, 15:30:11.063
66250.320313, 83852.585938, 118998.515625, 142465.656250, 112942.828125, 82411.546875, 113961.078125, 144719.468750, 0.000, 0.000, 0.000,0.11057373,0.17214578,0.051153097,0.12971641,0.06925996, 15:30:11.064
66177.367188, 83771.742188, 119064.250000, 142681.234375, 112945.078125, 82723.132813, 114135.421875, 144643.312500, 0.000, 0.000, 0.000,0.11057373,0.17214578,0.051153097,0.12971641,0.06925996, 15:30:11.064
66090.281250, 83689.976563, 119148.632813, 143112.171875, 112898.031250, 83050.164063, 114378.562500, 144544.906250, 0.000, 0.000, 0.000,0.11057373,0.17214578,0.051153097,0.12971641,0.06925996, 15:30:11.064
66149.226563, 83750.015625, 119063.625000, 142934.234375, 112887.906250, 82783.195313, 114229.210938, 144615.781250, 0.000, 0.000, 0.000,0.11057373,0.17214578,0.051153097,0.12971641,0.06925996, 15:30:11.065
66265.765625, 83866.718750, 118985.304688, 142483.375000, 112946.359375, 82402.382813, 113969.062500, 144715.062500, 0.000, 0.000, 0.000,0.11057373,0.17214578,0.051153097,0.12971641,0.06925996, 15:30:11.065
66209.375000, 83799.726563, 119053.945313, 142606.343750, 112953.328125, 82640.898438, 114090.203125, 144654.046875, 0.000, 0.000, 0.000,0.11057373,0.17214578,0.051153097,0.12971641,0.06925996, 15:30:11.065
66090.085938, 83678.492188, 119164.250000, 143087.062500, 112895.390625, 83045.984375, 114363.679688, 144534.406250, 0.000, 0.000, 0.000,0.11057373,0.17214578,0.051153097,0.12971641,0.06925996, 15:30:11.066
66124.546875, 83708.640625, 119131.281250, 143060.593750, 112864.664063, 82885.875000, 114290.859375, 144562.859375, 0.116, 0.144, 0.978,0.11057373,0.17214578,0.051153097,0.12971641,0.06925996, 15:30:11.066
66239.125000, 83835.000000, 119014.742188, 142570.640625, 112919.195313, 82439.421875, 113989.671875, 144693.984375, 0.000, 0.000, 0.000,0.11057373,0.17214578,0.051153097,0.12971641,0.06925996, 15:30:11.066
66206.781250, 83803.992188, 119038.835938, 142556.187500, 112946.937500, 82560.679688, 114030.039063, 144667.125000, 0.000, 0.000, 0.000,0.11057373,0.17214578,0.051153097,0.12971641,0.06925996, 15:30:11.067
66105.351563, 83691.140625, 119135.664063, 143013.390625, 112901.070313, 82995.664063, 114306.437500, 144555.859375, 0.000, 0.000, 0.000,0.11057373,0.17214578,0.051153097,0.12971641,0.06925996, 15:30:11.067
66104.726563, 83698.492188, 119120.664063, 143093.000000, 112876.593750, 82946.851563, 114312.312500, 144569.578125, 0.000, 0.000, 0.000,0.11057373,0.17214578,0.051153097,0.12971641,0.06925996, 15:30:11.067
66235.304688, 83833.882813, 118998.203125, 142615.500000, 112918.570313, 82497.695313, 114020.421875, 144710.359375, 0.000, 0.000, 0.000,0.11057373,0.17214578,0.051153097,0.12971641,0.06925996, 15:30:11.067
66249.851563, 83840.250000, 119014.250000, 142488.359375, 112958.179688, 82517.718750, 113993.359375, 144715.718750, 0.000, 0.000, 0.000,0.11057373,0.17214578,0.051153097,0.12971641,0.06925996, 15:30:11.068
66126.937500, 83706.851563, 119135.375000, 142946.906250, 112906.546875, 82962.765625, 114275.125000, 144573.812500, 0.000, 0.000, 0.000,0.11057373,0.17214578,0.051153097,0.12971641,0.06925996, 15:30:11.068
66090.125000, 83677.773438, 119145.210938, 143142.375000, 112867.945313, 83018.867188, 114350.445313, 144557.421875, 0.000, 0.000, 0.000,0.11057373,0.17214578,0.051153097,0.12971641,0.06925996, 15:30:11.069
66195.117188, 83798.765625, 119025.875000, 142718.609375, 112908.406250, 82578.492188, 114080.304688, 144684.109375, 0.000, 0.000, 0.000,0.11057373,0.17214578,0.051153097,0.12971641,0.06925996, 15:30:11.070
66241.960938, 83845.031250, 119007.054688, 142476.671875, 112952.929688, 82468.773438, 113977.757813, 144717.078125, 0.120, 0.146, 0.982,0.11057373,0.17214578,0.051153097,0.12971641,0.06925996, 15:30:11.070
66127.835938, 83721.406250, 119123.726563, 142877.828125, 112918.414063, 82894.281250, 114234.914063, 144582.125000, 0.000, 0.000, 0.000,0.11057373,0.17214578,0.051153097,0.12971641,0.06925996, 15:30:11.070
66081.054688, 83667.648438, 119178.179688, 143194.859375, 112865.601563, 83066.140625, 114379.437500, 144530.593750, 0.000, 0.000, 0.000,0.11057373,0.17214578,0.051153097,0.12971641,0.06925996, 15:30:11.071
66212.679688, 83796.734375, 119073.859375, 142848.156250, 112895.640625, 82665.375000, 114140.609375, 144656.937500, 0.000, 0.000, 0.000,0.11057373,0.17214578,0.051153097,0.12971641,0.06925996, 15:30:11.071
66274.015625, 83869.265625, 119025.898438, 142496.203125, 112955.812500, 82436.625000, 113966.156250, 144727.515625, 0.000, 0.000, 0.000,0.11057373,0.17214578,0.051153097,0.12971641,0.06925996, 15:30:11.071
66151.750000, 83738.210938, 119125.335938, 142813.031250, 112927.203125, 82808.406250, 114183.992188, 144604.500000, 0.000, 0.000, 0.000,0.11057373,0.17214578,0.051153097,0.12971641,0.06925996, 15:30:11.072
66096.320313, 83655.398438, 119192.531250, 143195.781250, 112867.968750, 83072.203125, 114382.968750, 144522.906250, 0.000, 0.000, 0.000,0.11057373,0.17214578,0.051153097,0.12971641,0.06925996, 15:30:11.072
66164.539063, 83741.273438, 119111.640625, 142956.593750, 112894.726563, 82748.593750, 114205.585938, 144615.640625, 0.000, 0.000, 0.000,0.11057373,0.17214578,0.051153097,0.12971641,0.06925996, 15:30:11.072
66254.281250, 83842.125000, 119032.515625, 142535.968750, 112954.023438, 82422.414063, 113972.523438, 144713.890625, 0.000, 0.000, 0.000,0.11057373,0.17214578,0.051153097,0.12971641,0.06925996, 15:30:11.073
66191.023438, 83767.335938, 119100.257813, 142734.593750, 112963.726563, 82731.046875, 114135.851563, 144644.125000, 0.000, 0.000, 0.000,0.11057373,0.17214578,0.051153097,0.12971641,0.06925996, 15:30:11.073
66092.921875, 83653.054688, 119188.687500, 143177.453125, 112881.468750, 83083.937500, 114377.132813, 144526.859375, 0.116, 0.146, 0.978,0.11057373,0.17214578,0.051153097,0.12971641,0.06925996, 15:30:11.073
66123.812500, 83711.546875, 119114.968750, 143033.875000, 112869.507813, 82831.492188, 114248.570313, 144588.000000, 0.000, 0.000, 0.000,0.11057373,0.17214578,0.051153097,0.12971641,0.06925996, 15:30:11.073
66270.437500, 83852.882813, 119021.421875, 142555.531250, 112945.570313, 82434.367188, 113978.265625, 144721.968750, 0.000, 0.000, 0.000,0.11057373,0.17214578,0.051153097,0.12971641,0.06925996, 15:30:11.073
66233.085938, 83801.468750, 119098.875000, 142655.015625, 112983.484375, 82666.492188, 114094.250000, 144680.828125, 0.000, 0.000, 0.000,0.11057373,0.17214578,0.051153097,0.12971641,0.06925996, 15:30:11.074
66078.593750, 83655.468750, 119205.109375, 143136.312500, 112913.406250, 83072.203125, 114367.882813, 144540.750000, 0.000, 0.000, 0.000,0.11057373,0.17214578,0.051153097,0.12971641,0.06925996, 15:30:11.074
66116.773438, 83687.812500, 119160.476563, 143123.156250, 112883.703125, 82929.570313, 114313.789063, 144579.437500, 0.000, 0.000, 0.000,0.11057373,0.17214578,0.051153097,0.12971641,0.06925996, 15:30:11.074
66269.414063, 83829.835938, 119037.984375, 142624.359375, 112929.414063, 82477.289063, 114009.453125, 144717.484375, 0.000, 0.000, 0.000,0.11057373,0.17214578,0.051153097,0.12971641,0.06925996, 15:30:11.074
66220.820313, 83796.507813, 119066.085938, 142582.796875, 112964.484375, 82578.742188, 114040.585938, 144694.750000, 0.000, 0.000, 0.000,0.11057373,0.17214578,0.051153097,0.12971641,0.06925996, 15:30:11.074
66047.437500, 83645.367188, 119183.789063, 143069.203125, 112916.226563, 83025.351563, 114334.132813, 144549.734375, 0.000, 0.000, 0.000,0.11057373,0.17214578,0.051153097,0.12971641,0.06925996, 15:30:11.075
66101.617188, 83669.414063, 119172.500000, 143171.046875, 112904.625000, 82996.515625, 114351.609375, 144561.265625, 0.114, 0.148, 0.976,0.11057373,0.17214578,0.051153097,0.12971641,0.06925996, 15:30:11.075
66226.226563, 83788.078125, 119089.328125, 142736.937500, 112921.945313, 82560.234375, 114076.726563, 144681.500000, 0.000, 0.000, 0.000,0.11057373,0.17214578,0.051153097,0.12971641,0.06925996, 15:30:11.075
66227.992188, 83803.257813, 119082.000000, 142570.625000, 112978.632813, 82531.156250, 114022.257813, 144698.500000, 0.000, 0.000, 0.000,0.11057373,0.17214578,0.051153097,0.12971641,0.06925996, 15:30:11.075
66124.234375, 83691.453125, 119180.484375, 142987.453125, 112937.328125, 82966.117188, 114286.453125, 144581.156250, 0.000, 0.000, 0.000,0.11057373,0.17214578,0.051153097,0.12971641,0.06925996, 15:30:11.075
66073.070313, 83639.890625, 119192.617188, 143207.531250, 112863.695313, 83048.554688, 114372.687500, 144538.375000, 0.000, 0.000, 0.000,0.11057373,0.17214578,0.051153097,0.12971641,0.06925996, 15:30:11.075
66188.812500, 83758.351563, 119077.554688, 142810.703125, 112908.937500, 82617.609375, 114110.257813, 144652.687500, 0.000, 0.000, 0.000,0.11057373,0.17214578,0.051153097,0.12971641,0.06925996, 15:30:11.076
66250.656250, 83815.375000, 119051.265625, 142525.640625, 112978.320313, 82467.812500, 113983.703125, 144704.234375, 0.000, 0.000, 0.000,0.11057373,0.17214578,0.051153097,0.12971641,0.06925996, 15:30:11.076
66109.375000, 83678.492188, 119150.773438, 142887.171875, 112940.585938, 82877.898438, 114231.085938, 144580.625000, 0.000, 0.000, 0.000,0.11057373,0.17214578,0.051153097,0.12971641,0.06925996, 15:30:11.076
66032.640625, 83621.765625, 119173.554688, 143200.578125, 112855.359375, 83071.906250, 114380.804688, 144522.671875, 0.000, 0.000, 0.000,0.11057373,0.17214578,0.051153097,0.12971641,0.06925996, 15:30:11.076
66129.601563, 83729.632813, 119074.507813, 142884.843750, 112882.656250, 82692.648438, 114159.250000, 144621.968750, 0.000, 0.000, 0.000,0.11057373,0.17214578,0.051153097,0.12971641,0.06925996, 15:30:11.076
66230.070313, 83815.101563, 119021.671875, 142517.640625, 112933.992188, 82436.851563, 113964.703125, 144698.453125, 0.110, 0.148, 0.978,0.11057373,0.17214578,0.051153097,0.12971641,0.06925996, 15:30:11.077
66111.804688, 83707.054688, 119108.484375, 142796.328125, 112909.210938, 82793.476563, 114163.187500, 144604.875000, 0.000, 0.000, 0.000,0.11057373,0.17214578,0.051153097,0.12971641,0.06925996, 15:30:11.077
66011.539063, 83591.875000, 119171.695313, 143207.312500, 112842.468750, 83081.320313, 114373.382813, 144494.500000, 0.000, 0.000, 0.000,0.11057373,0.17214578,0.051153097,0.12971641,0.06925996, 15:30:11.077
66133.085938, 83699.390625, 119113.875000, 143004.515625, 112878.851563, 82777.539063, 114210.617188, 144577.265625, 0.000, 0.000, 0.000,0.11057373,0.17214578,0.051153097,0.12971641,0.06925996, 15:30:11.077
66224.414063, 83799.812500, 119012.906250, 142540.328125, 112923.843750, 82418.320313, 113949.929688, 144693.203125, 0.000, 0.000, 0.000,0.11057373,0.17214578,0.051153097,0.12971641,0.06925996, 15:30:11.077
66091.710938, 83704.617188, 119045.789063, 142689.578125, 112895.796875, 82693.000000, 114084.726563, 144620.390625, 0.000, 0.000, 0.000,0.11057373,0.17214578,0.051153097,0.12971641,0.06925996, 15:30:11.077
65987.843750, 83605.578125, 119116.867188, 143125.203125, 112834.062500, 83053.515625, 114329.929688, 144513.187500, 0.000, 0.000, 0.000,0.11057373,0.17214578,0.051153097,0.12971641,0.06925996, 15:30:11.078
66080.226563, 83672.007813, 119073.820313, 143026.281250, 112847.179688, 82841.125000, 114234.148438, 144567.640625, 0.000, 0.000, 0.000,0.11057373,0.17214578,0.051153097,0.12971641,0.06925996, 15:30:11.078
66210.984375, 83798.609375, 118979.093750, 142537.859375, 112909.117188, 82423.734375, 113950.617188, 144693.812500, 0.000, 0.000, 0.000,0.11057373,0.17214578,0.051153097,0.12971641,0.06925996, 15:30:11.078
66192.250000, 83762.804688, 119011.632813, 142563.375000, 112937.437500, 82601.156250, 114021.250000, 144657.515625, 0.116, 0.146, 0.978,0.11057373,0.17214578,0.051153097,0.12971641,0.06925996, 15:30:11.078
66036.414063, 83620.484375, 119117.429688, 143032.250000, 112883.546875, 83026.468750, 114307.398438, 144533.453125, 0.000, 0.000, 0.000,0.11057373,0.17214578,0.051153097,0.12971641,0.06925996, 15:30:11.079
66050.070313, 83632.265625, 119096.953125, 143069.203125, 112847.046875, 82922.664063, 114283.953125, 144542.765625, 0.000, 0.000, 0.000,0.11057373,0.17214578,0.051153097,0.12971641,0.06925996, 15:30:11.079
66227.546875, 83780.750000, 118991.898438, 142593.796875, 112908.000000, 82471.695313, 113994.023438, 144677.031250, 0.000, 0.000, 0.000,0.11057373,0.17214578,0.051153097,0.12971641,0.06925996, 15:30:11.079
66192.117188, 83767.984375, 118993.148438, 142497.703125, 112937.437500, 82528.828125, 113986.132813, 144671.328125, 0.000, 0.000, 0.000,0.11057373,0.17214578,0.051153097,0.12971641,0.06925996, 15:30:11.079
66061.226563, 83633.343750, 119110.031250, 142962.218750, 112882.164063, 82980.218750, 114268.281250, 144540.171875, 0.000, 0.000, 0.000,0.11057373,0.17214578,0.051153097,0.12971641,0.06925996, 15:30:11.080
66062.789063, 83634.320313, 119114.367188, 143101.812500, 112861.976563, 82985.789063, 114316.359375, 144541.781250, 0.000, 0.000, 0.000,0.11057373,0.17214578,0.051153097,0.12971641,0.06925996, 15:30:11.080
66175.960938, 83759.960938, 119002.156250, 142649.250000, 112905.226563, 82532.156250, 114032.312500, 144670.031250, 0.000, 0.000, 0.000,0.11057373,0.17214578,0.051153097,0.12971641,0.06925996, 15:30:11.080
66175.914063, 83774.875000, 118971.000000, 142433.171875, 112924.140625, 82466.734375, 113946.593750, 144687.578125, 0.000, 0.000, 0.000,0.11057373,0.17214578,0.051153097,0.12971641,0.06925996, 15:30:11.080
66051.882813, 83645.031250, 119069.437500, 142841.812500, 112891.679688, 82899.289063, 114209.562500, 144559.015625, 0.000, 0.000, 0.000,0.11057373,0.17214578,0.051153097,0.12971641,0.06925996, 15:30:11.080
66035.117188, 83612.867188, 119106.789063, 143098.640625, 112851.539063, 83020.453125, 114326.484375, 144521.796875, 0.110, 0.150, 0.974,0.11057373,0.17214578,0.051153097,0.12971641,0.06925996, 15:30:11.081
66153.359375, 83741.968750, 118997.640625, 142702.062500, 112883.929688, 82596.156250, 114068.281250, 144650.781250, 0.000, 0.000, 0.000,0.11057373,0.17214578,0.051153097,0.12971641,0.06925996, 15:30:11.081
66208.679688, 83804.039063, 118966.039063, 142396.750000, 112937.859375, 82427.242188, 113925.695313, 144700.937500, 0.000, 0.000, 0.000,0.11057373,0.17214578,0.051153097,0.12971641,0.06925996, 15:30:11.081
66102.664063, 83686.695313, 119057.679688, 142734.921875, 112914.125000, 82825.664063, 114159.562500, 144592.171875, 0.000, 0.000, 0.000,0.11057373,0.17214578,0.051153097,0.12971641,0.06925996, 15:30:11.081
66046.992188, 83620.375000, 119115.507813, 143076.171875, 112861.085938, 83046.320313, 114336.054688, 144523.109375, 0.000, 0.000, 0.000,0.11057373,0.17214578,0.051153097,0.12971641,0.06925996, 15:30:11.082
66140.062500, 83711.031250, 119024.781250, 142776.500000, 112871.921875, 82683.500000, 114127.375000, 144617.250000, 0.000, 0.000, 0.000,0.11057373,0.17214578,0.051153097,0.12971641,0.06925996, 15:30:11.082
66228.710938, 83808.914063, 118957.296875, 142373.765625, 112933.523438, 82399.414063, 113916.242188, 144707.484375, 0.000, 0.000, 0.000,0.11057373,0.17214578,0.051153097,0.12971641,0.06925996, 15:30:11.082
66134.945313, 83717.273438, 119035.039063, 142620.984375, 112923.179688, 82743.828125, 114103.664063, 144612.921875, 0.000, 0.000, 0.000,0.11057373,0.17214578,0.051153097,0.12971641,0.06925996, 15:30:11.082
66038.156250, 83614.789063, 119119.171875, 143048.984375, 112864.148438, 83055.773438, 114335.046875, 144517.281250, 0.000, 0.000, 0.000,0.11057373,0.17214578,0.051153097,0.12971641,0.06925996, 15:30:11.083
66124.390625, 83700.398438, 119041.632813, 142856.250000, 112869.781250, 82767.921875, 114181.085938, 144596.328125, 0.124, 0.146, 0.978,0.11057373,0.17214578,0.051153097,0.12971641,0.06925996, 15:30:11.083
66223.296875, 83813.562500, 118953.500000, 142401.484375, 112926.062500, 82399.859375, 113921.273438, 144695.156250, 0.000, 0.000, 0.000,0.11057373,0.17214578,0.051153097,0.12971641,0.06925996, 15:30:11.083
66143.523438, 83722.281250, 119000.726563, 142529.156250, 112919.625000, 82641.304688, 114038.257813, 144630.171875, 0.000, 0.000, 0.000,0.11057373,0.17214578,0.051153097,0.12971641,0.06925996, 15:30:11.084
66044.015625, 83615.617188, 119095.320313, 142986.203125, 112871.765625, 83025.929688, 114306.750000, 144527.296875, 0.000, 0.000, 0.000,0.11057373,0.17214578,0.051153097,0.12971641,0.06925996, 15:30:11.084
66095.937500, 83668.632813, 119055.687500, 142917.234375, 112857.773438, 82840.320313, 114225.031250, 144573.328125, 0.000, 0.000, 0.000,0.11057373,0.17214578,0.051153097,0.12971641,0.06925996, 15:30:11.084
66220.820313, 83800.398438, 118946.726563, 142426.390625, 112906.476563, 82407.281250, 113929.656250, 144697.093750, 0.000, 0.000, 0.000,0.11057373,0.17214578,0.051153097,0.12971641,0.06925996, 15:30:11.084
66179.062500, 83756.945313, 118983.898438, 142446.515625, 112930.976563, 82562.359375, 113991.187500, 144661.515625, 0.000, 0.000, 0.000,0.11057373,0.17214578,0.051153097,0.12971641,0.06925996, 15:30:11.085
66063.101563, 83640.023438, 119069.976563, 142898.656250, 112887.304688, 82984.539063, 114265.289063, 144543.562500, 0.000, 0.000, 0.000,0.11057373,0.17214578,0.051153097,0.12971641,0.06925996, 15:30:11.085
66083.734375, 83663.828125, 119050.773438, 142944.515625, 112854.398438, 82908.765625, 114252.523438, 144555.609375, 0.000, 0.000, 0.000,0.11057373,0.17214578,0.051153097,0.12971641,0.06925996, 15:30:11.085
66222.335938, 83802.429688, 118940.710938, 142463.890625, 112904.289063, 82458.015625, 113961.195313, 144691.015625, 0.000, 0.000, 0.000,0.11057373,0.17214578,0.051153097,0.12971641,0.06925996, 15:30:11.086
66226.851563, 83814.101563, 118956.898438, 142356.890625, 112951.093750, 82497.718750, 113953.968750, 144698.781250, 0.134, 0.150, 0.978,0.11057373,0.17214578,0.051153097,0.12971641,0.06925996, 15:30:11.086
66091.539063, 83658.125000, 119065.304688, 142802.421875, 112899.351563, 82935.382813, 114229.953125, 144559.671875, 0.000, 0.000, 0.000,0.11057373,0.17214578,0.051153097,0.12971641,0.06925996, 15:30:11.086
66067.617188, 83630.007813, 119063.960938, 142958.562500, 112856.906250, 82959.304688, 114280.171875, 144541.734375, 0.000, 0.000, 0.000,0.11057373,0.17214578,0.051153097,0.12971641,0.06925996, 15:30:11.086
66200.546875, 83771.406250, 118954.507813, 142520.906250, 112898.414063, 82513.226563, 114004.039063, 144671.484375, 0.000, 0.000, 0.000,0.11057373,0.17214578,0.051153097,0.12971641,0.06925996, 15:30:11.087
66226.070313, 83798.851563, 118945.656250, 142298.375000, 112945.531250, 82429.632813, 113918.609375, 144701.406250, 0.000, 0.000, 0.000,0.11057373,0.17214578,0.051153097,0.12971641,0.06925996, 15:30:11.087
66102.015625, 83672.945313, 119054.375000, 142704.062500, 112908.335938, 82857.351563, 114180.750000, 144571.125000, 0.000, 0.000, 0.000,0.11057373,0.17214578,0.051153097,0.12971641,0.06925996, 15:30:11.087
66063.218750, 83638.953125, 119087.007813, 142977.734375, 112855.429688, 82994.015625, 114304.070313, 144531.265625, 0.000, 0.000, 0.000,0.11057373,0.17214578,0.051153097,0.12971641,0.06925996, 15:30:11.087
66189.304688, 83773.351563, 118972.226563, 142591.078125, 112889.585938, 82580.726563, 114051.984375, 144662.468750, 0.000, 0.000, 0.000,0.11057373,0.17214578,0.051153097,0.12971641,0.06925996, 15:30:11.088
66252.804688, 83844.609375, 118923.164063, 142250.312500, 112951.007813, 82381.484375, 113890.093750, 144721.796875, 0.000, 0.000, 0.000,0.11057373,0.17214578,0.051153097,0.12971641,0.06925996, 15:30:11.088
66151.640625, 83726.546875, 119034.414063, 142591.921875, 112925.007813, 82773.445313, 114123.484375, 144601.875000, 0.000, 0.000, 0.000,0.11057373,0.17214578,0.051153097,0.12971641,0.06925996, 15:30:11.088
66078.195313, 83645.585938, 119077.257813, 142934.890625, 112872.687500, 83007.695313, 114298.992188, 144539.546875, 0.128, 0.152, 0.976,0.09269281,0.14916673,0.043431856,0.1135467,0.062141873, 15:30:11.089
66168.093750, 83738.460938, 118983.273438, 142653.906250, 112885.562500, 82663.539063, 114101.312500, 144631.609375, 0.000, 0.000, 0.000,0.09269281,0.14916673,0.043431856,0.1135467,0.062141873, 15:30:11.090
66260.265625, 83835.062500, 118909.843750, 142235.437500, 112944.054688, 82356.406250, 113876.414063, 144727.781250, 0.000, 0.000, 0.000,0.09269281,0.14916673,0.043431856,0.1135467,0.062141873, 15:30:11.091
66173.320313, 83747.492188, 118989.375000, 142457.187500, 112940.679688, 82682.046875, 114054.109375, 144642.312500, 0.000, 0.000, 0.000,0.09269281,0.14916673,0.043431856,0.1135467,0.062141873, 15:30:11.091
66082.304688, 83653.437500, 119074.914063, 142887.515625, 112884.820313, 83020.054688, 114292.710938, 144545.593750, 0.000, 0.000, 0.000,0.09269281,0.14916673,0.043431856,0.1135467,0.062141873, 15:30:11.091
66150.585938, 83717.382813, 119017.914063, 142737.093750, 112883.281250, 82764.640625, 114167.789063, 144609.484375, 0.000, 0.000, 0.000,0.09269281,0.14916673,0.043431856,0.1135467,0.062141873, 15:30:11.092
66262.031250, 83825.296875, 118914.828125, 142257.656250, 112932.656250, 82364.296875, 113888.171875, 144720.921875, 0.000, 0.000, 0.000,0.09269281,0.14916673,0.043431856,0.1135467,0.062141873, 15:30:11.092
66201.820313, 83774.718750, 118978.843750, 142375.515625, 112951.117188, 82603.257813, 114009.609375, 144662.046875, 0.000, 0.000, 0.000,0.09269281,0.14916673,0.043431856,0.1135467,0.062141873, 15:30:11.092
66089.078125, 83656.070313, 119095.882813, 142863.218750, 112891.195313, 83007.156250, 114292.601563, 144538.531250, 0.000, 0.000, 0.000,0.09269281,0.14916673,0.043431856,0.1135467,0.062141873, 15:30:11.092
66141.960938, 83699.437500, 119062.734375, 142835.593750, 112880.710938, 82846.203125, 114234.937500, 144579.812500, 0.132, 0.150, 0.982,0.09269281,0.14916673,0.043431856,0.1135467,0.062141873, 15:30:11.093
66240.148438, 83811.687500, 118934.898438, 142340.421875, 112925.234375, 82397.109375, 113931.867188, 144702.187500, 0.000, 0.000, 0.000,0.073560596,0.11335186,0.036298048,0.060615655,0.035374466, 15:30:11.537
66227.929688, 83800.976563, 118970.914063, 142334.625000, 112963.898438, 82528.312500, 113982.289063, 144688.000000, 0.000, 0.000, 0.000,0.073560596,0.11335186,0.036298048,0.060615655,0.035374466, 15:30:11.537
66124.820313, 83687.406250, 119086.804688, 142809.406250, 112929.593750, 82970.117188, 114276.062500, 144572.578125, 0.000, 0.000, 0.000,0.073560596,0.11335186,0.036298048,0.060615655,0.035374466, 15:30:11.537
66123.789063, 83691.117188, 119069.664063, 142891.390625, 112875.632813, 82918.265625, 114277.890625, 144575.796875, 0.000, 0.000, 0.000,0.073560596,0.11335186,0.036298048,0.060615655,0.035374466, 15:30:11.537
66229.734375, 83807.148438, 118964.117188, 142427.234375, 112927.398438, 82463.851563, 113986.359375, 144691.593750, 0.000, 0.000, 0.000,0.073560596,0.11335186,0.036298048,0.060615655,0.035374466, 15:30:11.538
66277.210938, 83818.007813, 118971.203125, 142297.062500, 112966.609375, 82464.320313, 113949.570313, 144696.000000, 0.000, 0.000, 0.000,0.073560596,0.11335186,0.036298048,0.060615655,0.035374466, 15:30:11.538
66160.062500, 83714.234375, 119092.210938, 142747.781250, 112940.273438, 82916.695313, 114238.578125, 144592.875000, 0.000, 0.000, 0.000,0.073560596,0.11335186,0.036298048,0.060615655,0.035374466, 15:30:11.538
66093.148438, 83662.953125, 119096.328125, 142947.250000, 112881.421875, 82973.429688, 114308.898438, 144556.421875, 0.000, 0.000, 0.000,0.073560596,0.11335186,0.036298048,0.060615655,0.035374466, 15:30:11.538
66188.070313, 83762.398438, 118997.914063, 142547.796875, 112923.710938, 82542.710938, 114045.796875, 144667.843750, 0.000, 0.000, 0.000,0.073560596,0.11335186,0.036298048,0.060615655,0.035374466, 15:30:11.539
66276.539063, 83826.546875, 118988.296875, 142311.343750, 112973.242188, 82433.390625, 113941.500000, 144709.921875, 0.128, 0.144, 0.984,0.073560596,0.11335186,0.036298048,0.060615655,0.035374466, 15:30:11.539
66171.015625, 83716.398438, 119098.718750, 142702.359375, 112934.460938, 82859.679688, 114195.664063, 144602.281250, 0.000, 0.000, 0.000,0.073560596,0.11335186,0.036298048,0.060615655,0.035374466, 15:30:11.539
66058.429688, 83625.742188, 119127.460938, 142999.890625, 112884.171875, 83021.843750, 114336.523438, 144532.312500, 0.000, 0.000, 0.000,0.073560596,0.11335186,0.036298048,0.060615655,0.035374466, 15:30:11.539
66207.023438, 83759.671875, 119011.546875, 142650.593750, 112910.304688, 82619.195313, 114098.875000, 144641.265625, 0.000, 0.000, 0.000,0.073560596,0.11335186,0.036298048,0.060615655,0.035374466, 15:30:11.539
66295.476563, 83836.070313, 118994.359375, 142328.437500, 112962.406250, 82398.742188, 113934.257813, 144721.109375, 0.000, 0.000, 0.000,0.073560596,0.11335186,0.036298048,0.060615655,0.035374466, 15:30:11.540
66172.648438, 83727.265625, 119085.351563, 142641.593750, 112959.453125, 82771.257813, 114152.453125, 144623.843750, 0.000, 0.000, 0.000,0.073560596,0.11335186,0.036298048,0.060615655,0.035374466, 15:30:11.540
66065.179688, 83645.859375, 119127.148438, 143015.218750, 112884.375000, 83031.585938, 114342.242188, 144538.000000, 0.000, 0.000, 0.000,0.073560596,0.11335186,0.036298048,0.060615655,0.035374466, 15:30:11.540
66184.117188, 83753.812500, 119049.679688, 142772.296875, 112904.984375, 82712.960938, 114164.906250, 144639.562500, 0.000, 0.000, 0.000,0.073560596,0.11335186,0.036298048,0.060615655,0.035374466, 15:30:11.540
66262.304688, 83831.335938, 118981.039063, 142361.625000, 112949.101563, 82389.328125, 113930.460938, 144725.796875, 0.000, 0.000, 0.000,0.073560596,0.11335186,0.036298048,0.060615655,0.035374466, 15:30:11.540
66179.734375, 83740.468750, 119035.734375, 142553.750000, 112945.531250, 82673.937500, 114082.000000, 144634.000000, 0.130, 0.150, 0.984,0.073560596,0.11335186,0.036298048,0.060615655,0.035374466, 15:30:11.540
66114.085938, 83637.585938, 119129.632813, 143001.609375, 112911.781250, 83028.210938, 114340.906250, 144539.937500, 0.000, 0.000, 0.000,0.073560596,0.11335186,0.036298048,0.060615655,0.035374466, 15:30:11.541
66128.617188, 83684.187500, 119062.398438, 142864.656250, 112900.515625, 82794.031250, 114218.507813, 144600.218750, 0.000, 0.000, 0.000,0.073560596,0.11335186,0.036298048,0.060615655,0.035374466, 15:30:11.541
66265.250000, 83803.726563, 118963.000000, 142390.781250, 112956.976563, 82386.937500, 113936.226563, 144704.562500, 0.000, 0.000, 0.000,0.073560596,0.11335186,0.036298048,0.060615655,0.035374466, 15:30:11.541
66211.656250, 83766.648438, 119010.671875, 142465.500000, 112955.031250, 82594.921875, 114031.781250, 144662.828125, 0.000, 0.000, 0.000,0.073560596,0.11335186,0.036298048,0.060615655,0.035374466, 15:30:11.541
66093.078125, 83655.734375, 119140.359375, 142964.546875, 112903.843750, 83025.085938, 114324.539063, 144549.796875, 0.000, 0.000, 0.000,0.073560596,0.11335186,0.036298048,0.060615655,0.035374466, 15:30:11.541
66125.445313, 83673.218750, 119101.242188, 142962.515625, 112899.906250, 82892.648438, 114275.726563, 144582.281250, 0.000, 0.000, 0.000,0.073560596,0.11335186,0.036298048,0.060615655,0.035374466, 15:30:11.542
66217.914063, 83761.953125, 118966.843750, 142463.046875, 112923.515625, 82431.890625, 113963.625000, 144695.671875, 0.000, 0.000, 0.000,0.073560596,0.11335186,0.036298048,0.060615655,0.035374466, 15:30:11.542
66185.992188, 83743.578125, 118989.101563, 142426.140625, 112945.953125, 82529.187500, 113993.179688, 144674.203125, 0.000, 0.000, 0.000,0.073560596,0.11335186,0.036298048,0.060615655,0.035374466, 15:30:11.542
66102.890625, 83640.718750, 119120.867188, 142916.062500, 112904.625000, 82983.710938, 114296.734375, 144554.031250, 0.000, 0.000, 0.000,0.073560596,0.11335186,0.036298048,0.060615655,0.035374466, 15:30:11.542
66092.070313, 83633.671875, 119115.664063, 143029.500000, 112871.187500, 82957.156250, 114316.804688, 144548.656250, 0.132, 0.152, 0.978,0.073560596,0.11335186,0.036298048,0.060615655,0.035374466, 15:30:11.542
66193.507813, 83742.062500, 118988.546875, 142566.796875, 112901.609375, 82497.382813, 114015.531250, 144666.453125, 0.000, 0.000, 0.000,0.073560596,0.11335186,0.036298048,0.060615655,0.035374466, 15:30:11.543
66227.125000, 83770.289063, 118988.320313, 142406.359375, 112951.164063, 82470.203125, 113961.210938, 144681.656250, 0.000, 0.000, 0.000,0.073560596,0.11335186,0.036298048,0.060615655,0.035374466, 15:30:11.544
66088.515625, 83639.937500, 119090.671875, 142829.453125, 112908.070313, 82908.296875, 114232.250000, 144555.718750, 0.000, 0.000, 0.000,0.073560596,0.11335186,0.036298048,0.060615655,0.035374466, 15:30:11.544
66051.882813, 83600.570313, 119110.070313, 143055.546875, 112862.359375, 82995.468750, 114326.757813, 144521.609375, 0.000, 0.000, 0.000,0.073560596,0.11335186,0.036298048,0.060615655,0.035374466, 15:30:11.544
66164.937500, 83723.328125, 118987.539063, 142644.687500, 112886.164063, 82559.359375, 114053.773438, 144639.656250, 0.000, 0.000, 0.000,0.073560596,0.11335186,0.036298048,0.060615655,0.035374466, 15:30:11.544
66230.828125, 83785.531250, 118955.421875, 142365.609375, 112944.164063, 82417.093750, 113927.398438, 144693.921875, 0.000, 0.000, 0.000,0.073560596,0.11335186,0.036298048,0.060615655,0.035374466, 15:30:11.544
66133.000000, 83677.148438, 119051.468750, 142725.359375, 112924.851563, 82829.617188, 114176.773438, 144584.828125, 0.000, 0.000, 0.000,0.073560596,0.11335186,0.036298048,0.060615655,0.035374466, 15:30:11.544
66067.375000, 83603.968750, 119108.109375, 143058.984375, 112872.640625, 83031.921875, 114345.281250, 144523.640625, 0.000, 0.000, 0.000,0.073560596,0.11335186,0.036298048,0.060615655,0.035374466, 15:30:11.544
66174.437500, 83717.648438, 119021.156250, 142746.859375, 112891.195313, 82660.750000, 114127.421875, 144633.953125, 0.130, 0.150, 0.980,0.073560596,0.11335186,0.036298048,0.060615655,0.035374466, 15:30:11.545
66236.460938, 83783.093750, 118964.695313, 142374.593750, 112938.062500, 82405.382813, 113930.390625, 144709.328125, 0.000, 0.000, 0.000,0.073560596,0.11335186,0.036298048,0.060615655,0.035374466, 15:30:11.545
66144.148438, 83683.835938, 119060.718750, 142668.343750, 112921.273438, 82771.460938, 114140.117188, 144609.656250, 0.000, 0.000, 0.000,0.073560596,0.11335186,0.036298048,0.060615655,0.035374466, 15:30:11.545
66073.789063, 83617.070313, 119136.046875, 143077.890625, 112871.765625, 83068.242188, 114355.945313, 144536.234375, 0.000, 0.000, 0.000,0.073560596,0.11335186,0.036298048,0.060615655,0.035374466, 15:30:11.545
66144.148438, 83688.015625, 119038.679688, 142834.906250, 112881.265625, 82752.617188, 114172.460938, 144627.046875, 0.000, 0.000, 0.000,0.073560596,0.11335186,0.036298048,0.060615655,0.035374466, 15:30:11.545
66229.804688, 83783.187500, 118956.023438, 142385.500000, 112933.656250, 82401.695313, 113917.093750, 144720.031250, 0.000, 0.000, 0.000,0.073560596,0.11335186,0.036298048,0.060615655,0.035374466, 15:30:11.546
66161.765625, 83711.906250, 119032.109375, 142564.828125, 112937.593750, 82684.953125, 114068.187500, 144643.296875, 0.000, 0.000, 0.000,0.073560596,0.11335186,0.036298048,0.060615655,0.035374466, 15:30:11.546
66073.523438, 83608.437500, 119127.953125, 143028.734375, 112885.578125, 83057.851563, 114333.304688, 144535.000000, 0.000, 0.000, 0.000,0.073560596,0.11335186,0.036298048,0.060615655,0.035374466, 15:30:11.546
66137.671875, 83674.687500, 119064.093750, 142917.781250, 112881.156250, 82841.015625, 114228.406250, 144592.625000, 0.000, 0.000, 0.000,0.073560596,0.11335186,0.036298048,0.060615655,0.035374466, 15:30:11.546
66253.335938, 83801.515625, 118963.000000, 142438.468750, 112930.890625, 82422.031250, 113938.171875, 144708.546875, 0.000, 0.000, 0.000,0.073560596,0.11335186,0.036298048,0.060615655,0.035374466, 15:30:11.546
66206.710938, 83755.601563, 119009.867188, 142490.156250, 112951.609375, 82601.898438, 114020.734375, 144664.687500, 0.132, 0.154, 0.980,0.073560596,0.11335186,0.036298048,0.060615655,0.035374466, 15:30:11.546
66081.343750, 83617.937500, 119128.554688, 142980.953125, 112891.414063, 83029.843750, 114311.601563, 144530.312500, 0.000, 0.000, 0.000,0.073560596,0.11335186,0.036298048,0.060615655,0.035374466, 15:30:11.547
66107.742188, 83642.507813, 119092.234375, 142999.546875, 112866.492188, 82915.156250, 114276.195313, 144554.453125, 0.000, 0.000, 0.000,0.073560596,0.11335186,0.036298048,0.060615655,0.035374466, 15:30:11.547
66220.687500, 83762.398438, 118981.617188, 142523.015625, 112911.937500, 82458.398438, 113977.265625, 144673.468750, 0.000, 0.000, 0.000,0.073560596,0.11335186,0.036298048,0.060615655,0.035374466, 15:30:11.547
66222.781250, 83762.648438, 118998.000000, 142442.406250, 112952.593750, 82514.835938, 113982.539063, 144672.109375, 0.000, 0.000, 0.000,0.073560596,0.11335186,0.036298048,0.060615655,0.035374466, 15:30:11.547
66115.093750, 83647.507813, 119112.796875, 142901.671875, 112919.804688, 82961.242188, 114278.765625, 144556.109375, 0.000, 0.000, 0.000,0.073560596,0.11335186,0.036298048,0.060615655,0.035374466, 15:30:11.547
66100.523438, 83632.914063, 119123.218750, 143052.515625, 112871.992188, 82968.687500, 114324.187500, 144540.171875, 0.000, 0.000, 0.000,0.073560596,0.11335186,0.036298048,0.060615655,0.035374466, 15:30:11.547
66220.750000, 83761.507813, 119001.710938, 142599.671875, 112901.765625, 82513.539063, 114026.546875, 144661.796875, 0.000, 0.000, 0.000,0.073560596,0.11335186,0.036298048,0.060615655,0.035374466, 15:30:11.547
