%OpenBCI Raw EEG Data
%
%Sample Rate = 1000.0 Hz
%First Column = SampleIndex
%Last Column = Timestamp 
%Other Columns = EEG data in microvolts followed by Accel Data (in G) interleaved with Aux Data
132, -7554.93, -7831.98, -7669.58, -7585.27, -143938.69, -136962.25, -130259.73, -150282.89, 0.000, 0.000, 0.000, 16:28:20.093
0, 0.00, 0.00, 0.00, 0.00, 0.00, 0.00, 0.00, 0.00, 0.090, -0.062, 1.008, 16:28:20.101
1, -7795.33, -8081.41, -7915.47, -7810.39, -144013.61, -137390.95, -129904.29, -149934.05, 0.000, 0.000, 0.000, 16:28:20.102
2, -7796.22, -8082.30, -7916.41, -7811.35, -144014.59, -137392.03, -129905.27, -149934.98, 0.000, 0.000, 0.000, 16:28:20.102
3, -7797.25, -8083.28, -7917.26, -7812.14, -144015.28, -137392.75, -129906.13, -149935.92, 0.000, 0.000, 0.000, 16:28:20.102
4, -7797.61, -8083.55, -7917.57, -7812.45, -144015.61, -137393.20, -129906.41, -149936.22, 0.000, 0.000, 0.000, 16:28:20.102
5, -7797.38, -8083.22, -7917.30, -7812.02, -144015.33, -137392.88, -129906.16, -149935.88, 0.000, 0.000, 0.000, 16:28:20.103
6, -7796.82, -8082.77, -7916.74, -7811.49, -144014.83, -137392.39, -129905.56, -149935.31, 0.000, 0.000, 0.000, 16:28:20.103
7, -7797.65, -8083.42, -7917.41, -7812.20, -144015.70, -137393.20, -129906.48, -149935.97, 0.000, 0.000, 0.000, 16:28:20.103
8, -7798.66, -8084.56, -7918.53, -7813.21, -144016.67, -137394.14, -129907.26, -149937.22, 0.000, 0.000, 0.000, 16:28:20.111
9, -7797.56, -8083.24, -7917.30, -7812.00, -144015.39, -137392.92, -129905.92, -149935.92, 0.000, 0.000, 0.000, 16:28:20.112
10, -7798.50, -8084.31, -7918.17, -7813.07, -144016.47, -137394.00, -129906.97, -149936.81, 0.000, 0.000, 0.000, 16:28:20.112
11, -7797.61, -8083.31, -7917.21, -7812.14, -144015.66, -137393.16, -129906.39, -149936.09, 0.000, 0.000, 0.000, 16:28:20.112
12, -7798.84, -8084.49, -7918.69, -7813.32, -144016.73, -137394.31, -129907.62, -149937.39, 0.000, 0.000, 0.000, 16:28:20.113
13, -7798.79, -8084.56, -7918.62, -7813.32, -144017.16, -137394.64, -129907.95, -149937.69, 0.000, 0.000, 0.000, 16:28:20.113
14, -7798.19, -8084.25, -7918.28, -7813.01, -144016.98, -137394.56, -129907.75, -149937.48, 0.000, 0.000, 0.000, 16:28:20.113
15, -7797.23, -8083.26, -7917.30, -7812.14, -144015.89, -137393.58, -129906.70, -149936.55, 0.000, 0.000, 0.000, 16:28:20.113
16, -7796.09, -8082.06, -7916.18, -7810.97, -144014.88, -137392.56, -129905.77, -149935.50, 0.000, 0.000, 0.000, 16:28:20.114
17, -7795.48, -8081.47, -7915.56, -7810.35, -144014.23, -137392.06, -129905.16, -149934.98, 0.000, 0.000, 0.000, 16:28:20.114
18, -7794.01, -8080.07, -7914.15, -7808.94, -144012.78, -137390.56, -129903.73, -149933.78, 0.000, 0.000, 0.000, 16:28:20.121
19, -7793.78, -8079.71, -7913.79, -7808.56, -144012.70, -137390.11, -129903.39, -149933.31, 0.000, 0.000, 0.000, 16:28:20.122
20, -7792.40, -8078.41, -7912.38, -7807.22, -144011.30, -137388.81, -129902.05, -149931.78, 0.000, 0.000, 0.000, 16:28:20.122
21, -7793.47, -8079.51, -7913.43, -7808.25, -144012.33, -137389.95, -129903.17, -149932.95, 0.000, 0.000, 0.000, 16:28:20.122
22, -7794.41, -8080.42, -7914.33, -7809.03, -144013.22, -137390.84, -129903.98, -149933.80, 0.000, 0.000, 0.000, 16:28:20.122
23, -7796.20, -8082.19, -7916.14, -7810.79, -144015.02, -137392.56, -129905.63, -149935.34, 0.000, 0.000, 0.000, 16:28:20.122
24, -7796.33, -8082.26, -7916.12, -7810.77, -144015.13, -137392.50, -129905.74, -149935.39, 0.000, 0.000, 0.000, 16:28:20.123
25, -7796.42, -8082.26, -7916.07, -7810.53, -144015.13, -137392.64, -129905.79, -149935.47, 0.000, 0.000, 0.000, 16:28:20.123
26, -7795.95, -8081.92, -7915.74, -7810.30, -144014.83, -137392.23, -129905.54, -149935.08, 0.000, 0.000, 0.000, 16:28:20.123
27, -7794.52, -8080.62, -7914.46, -7808.98, -144013.72, -137391.05, -129904.29, -149933.95, 0.000, 0.000, 0.000, 16:28:20.123
28, -7795.77, -8081.81, -7915.47, -7810.01, -144014.75, -137392.17, -129905.43, -149935.09, 0.000, 0.000, 0.000, 16:28:20.132
29, -7795.64, -8081.54, -7915.56, -7809.90, -144014.83, -137392.08, -129905.36, -149935.03, 0.000, 0.000, 0.000, 16:28:20.133
30, -7792.85, -8078.84, -7912.99, -7807.22, -144012.03, -137389.39, -129902.75, -149932.53, 0.000, 0.000, 0.000, 16:28:20.133
31, -7791.10, -8077.21, -7911.27, -7805.72, -144010.66, -137388.14, -129901.45, -149931.05, 0.000, 0.000, 0.000, 16:28:20.133
32, -7791.75, -8077.99, -7911.98, -7806.57, -144011.59, -137388.97, -129902.32, -149931.92, 0.000, 0.000, 0.000, 16:28:20.133
33, -7794.57, -8080.87, -7914.84, -7809.43, -144014.52, -137391.97, -129905.36, -149934.98, 0.000, 0.000, 0.000, 16:28:20.134
34, -7794.99, -8081.21, -7915.18, -7809.86, -144014.88, -137392.56, -129905.79, -149935.41, 0.000, 0.000, 0.000, 16:28:20.134
35, -7796.44, -8082.64, -7916.63, -7811.11, -144016.27, -137393.86, -129907.15, -149936.81, 0.000, 0.000, 0.000, 16:28:20.134
36, -7797.14, -8083.24, -7917.28, -7811.85, -144017.02, -137394.47, -129907.80, -149937.52, 0.096, -0.060, 1.008, 16:28:20.134
37, -7798.75, -8084.85, -7918.75, -7813.34, -144018.67, -137396.08, -129909.38, -149939.08, 0.000, 0.000, 0.000, 16:28:20.135
38, -7801.83, -8087.91, -7921.95, -7816.43, -144021.83, -137399.13, -129912.45, -149942.25, 0.000, 0.000, 0.000, 16:28:20.142
39, -7800.56, -8086.70, -7920.59, -7815.20, -144020.48, -137397.86, -129911.09, -149941.06, 0.000, 0.000, 0.000, 16:28:20.142
40, -7796.33, -8082.52, -7916.32, -7810.86, -144016.16, -137393.52, -129906.70, -149936.53, 0.000, 0.000, 0.000, 16:28:20.142
41, -7795.15, -8081.47, -7915.00, -7809.59, -144014.88, -137392.19, -129905.36, -149935.09, 0.000, 0.000, 0.000, 16:28:20.142
42, -7798.68, -8084.60, -7918.46, -7812.96, -144018.41, -137395.70, -129908.76, -149938.64, 0.000, 0.000, 0.000, 16:28:20.143
43, -7797.83, -8083.84, -7917.84, -7812.14, -144017.89, -137395.13, -129908.42, -149938.25, 0.000, 0.000, 0.000, 16:28:20.143
44, -7796.15, -8082.32, -7916.18, -7810.53, -144016.23, -137393.47, -129906.70, -149936.50, 0.000, 0.000, 0.000, 16:28:20.143
45, -7796.71, -8082.99, -7916.81, -7811.29, -144016.95, -137394.20, -129907.57, -149937.23, 0.000, 0.000, 0.000, 16:28:20.143
46, -7797.16, -8083.53, -7917.46, -7811.87, -144017.63, -137395.14, -129908.27, -149937.83, 0.000, 0.000, 0.000, 16:28:20.143
47, -7795.04, -8081.41, -7915.27, -7809.61, -144015.56, -137393.08, -129906.30, -149935.75, 0.000, 0.000, 0.000, 16:28:20.144
48, -7791.64, -8077.99, -7911.78, -7806.44, -144012.31, -137389.89, -129903.06, -149932.56, 0.000, 0.000, 0.000, 16:28:20.152
49, -7793.90, -8080.31, -7914.10, -7808.83, -144014.77, -137392.28, -129905.41, -149935.14, 0.000, 0.000, 0.000, 16:28:20.152
50, -7795.15, -8081.61, -7915.51, -7810.06, -144015.95, -137393.42, -129906.52, -149936.59, 0.000, 0.000, 0.000, 16:28:20.152
51, -7795.82, -8082.48, -7916.32, -7810.55, -144016.53, -137394.20, -129907.26, -149937.23, 0.000, 0.000, 0.000, 16:28:20.152
52, -7795.08, -8081.54, -7915.36, -7809.77, -144015.77, -137393.47, -129906.48, -149936.34, 0.000, 0.000, 0.000, 16:28:20.152
53, -7792.56, -8078.95, -7912.70, -7807.22, -144013.22, -137390.94, -129904.11, -149933.81, 0.000, 0.000, 0.000, 16:28:20.153
54, -7793.32, -8079.89, -7913.55, -7808.05, -144014.19, -137391.75, -129904.89, -149934.53, 0.000, 0.000, 0.000, 16:28:20.153
55, -7794.14, -8080.69, -7914.51, -7808.83, -144015.02, -137392.69, -129905.49, -149935.34, 0.000, 0.000, 0.000, 16:28:20.153
56, -7793.99, -8080.40, -7914.15, -7808.54, -144014.70, -137392.25, -129905.23, -149934.98, 0.000, 0.000, 0.000, 16:28:20.153
57, -7793.56, -8079.80, -7913.48, -7808.00, -144014.31, -137391.75, -129904.91, -149934.61, 0.000, 0.000, 0.000, 16:28:20.153
58, -7792.33, -8078.30, -7912.03, -7806.73, -144013.02, -137390.45, -129903.55, -149933.31, 0.000, 0.000, 0.000, 16:28:20.162
59, -7792.85, -8079.13, -7912.90, -7807.26, -144013.78, -137391.00, -129904.40, -149934.06, 0.000, 0.000, 0.000, 16:28:20.162
60, -7793.52, -8079.93, -7913.77, -7807.91, -144014.45, -137391.75, -129905.14, -149934.80, 0.000, 0.000, 0.000, 16:28:20.162
61, -7793.65, -8079.91, -7913.70, -7808.02, -144014.61, -137391.91, -129905.14, -149934.83, 0.000, 0.000, 0.000, 16:28:20.162
62, -7794.90, -8081.07, -7915.11, -7809.36, -144016.02, -137393.31, -129906.63, -149936.38, 0.000, 0.000, 0.000, 16:28:20.163
63, -7794.41, -8080.80, -7914.66, -7809.01, -144015.77, -137393.16, -129906.30, -149936.02, 0.000, 0.000, 0.000, 16:28:20.163
64, -7796.44, -8082.95, -7916.70, -7811.06, -144017.89, -137395.14, -129908.47, -149938.31, 0.000, 0.000, 0.000, 16:28:20.169
65, -7797.76, -8084.36, -7917.97, -7812.47, -144019.38, -137396.77, -129910.10, -149939.92, 0.000, 0.000, 0.000, 16:28:20.170
66, -7799.75, -8086.41, -7920.16, -7814.59, -144021.50, -137398.89, -129912.18, -149942.06, 0.000, 0.000, 0.000, 16:28:20.170
67, -7797.88, -8084.56, -7918.19, -7812.85, -144019.80, -137397.22, -129910.39, -149940.25, 0.000, 0.000, 0.000, 16:28:20.170
68, -7797.20, -8083.71, -7917.43, -7812.14, -144019.08, -137396.61, -129909.81, -149939.66, 0.000, 0.000, 0.000, 16:28:20.172
69, -7797.76, -8084.20, -7917.99, -7812.52, -144019.58, -137397.08, -129910.23, -149939.94, 0.000, 0.000, 0.000, 16:28:20.172
70, -7798.14, -8084.56, -7918.33, -7812.87, -144019.97, -137397.42, -129910.55, -149940.39, 0.000, 0.000, 0.000, 16:28:20.172
71, -7795.48, -8081.85, -7915.47, -7810.03, -144017.22, -137394.56, -129907.57, -149937.44, 0.000, 0.000, 0.000, 16:28:20.172
72, -7796.38, -8082.64, -7916.21, -7810.71, -144017.97, -137395.28, -129908.45, -149938.06, 0.000, 0.000, 0.000, 16:28:20.173
73, -7797.79, -8084.11, -7917.57, -7812.07, -144019.42, -137396.59, -129909.83, -149939.50, 0.000, 0.000, 0.000, 16:28:20.173
74, -7797.36, -8083.58, -7917.23, -7811.67, -144018.92, -137396.09, -129909.43, -149939.09, 0.000, 0.000, 0.000, 16:28:20.173
75, -7798.77, -8085.18, -7918.64, -7813.21, -144020.52, -137397.75, -129910.97, -149940.70, 0.092, -0.066, 1.002, 16:28:20.173
76, -7798.37, -8084.87, -7918.40, -7812.83, -144020.20, -137397.58, -129910.59, -149940.48, 0.000, 0.000, 0.000, 16:28:20.173
77, -7796.13, -8082.61, -7916.27, -7810.57, -144018.09, -137395.39, -129908.36, -149938.20, 0.000, 0.000, 0.000, 16:28:20.173
78, -7794.66, -8081.18, -7914.69, -7809.12, -144016.69, -137394.09, -129906.97, -149936.88, 0.000, 0.000, 0.000, 16:28:20.182
79, -7796.78, -8083.37, -7916.79, -7811.35, -144018.77, -137396.22, -129909.38, -149939.28, 0.000, 0.000, 0.000, 16:28:20.182
80, -7795.48, -8082.01, -7915.45, -7810.17, -144017.81, -137395.08, -129908.11, -149938.05, 0.000, 0.000, 0.000, 16:28:20.182
81, -7795.37, -8081.81, -7915.33, -7810.08, -144017.63, -137394.89, -129907.98, -149937.94, 0.000, 0.000, 0.000, 16:28:20.182
82, -7795.30, -8081.94, -7915.47, -7810.12, -144017.83, -137395.23, -129908.36, -149938.16, 0.000, 0.000, 0.000, 16:28:20.182
83, -7795.77, -8082.46, -7915.89, -7810.75, -144018.55, -137396.03, -129908.98, -149938.80, 0.000, 0.000, 0.000, 16:28:20.183
84, -7795.10, -8081.79, -7915.29, -7809.95, -144017.97, -137395.36, -129908.29, -149938.22, 0.000, 0.000, 0.000, 16:28:20.183
85, -7795.42, -8082.03, -7915.56, -7810.12, -144018.13, -137395.70, -129908.58, -149938.45, 0.000, 0.000, 0.000, 16:28:20.183
86, -7795.15, -8081.70, -7915.36, -7809.88, -144017.84, -137395.41, -129908.31, -149938.27, 0.000, 0.000, 0.000, 16:28:20.183
87, -7792.47, -8079.08, -7912.90, -7807.29, -144015.33, -137392.86, -129905.96, -149935.66, 0.000, 0.000, 0.000, 16:28:20.183
88, -7791.30, -8077.79, -7911.44, -7805.99, -144013.98, -137391.56, -129904.63, -149934.58, 0.000, 0.000, 0.000, 16:28:20.192
89, -7792.69, -8079.08, -7912.76, -7807.26, -144015.25, -137392.64, -129905.70, -149935.61, 0.000, 0.000, 0.000, 16:28:20.192
90, -7793.67, -8080.07, -7913.81, -7808.16, -144016.23, -137393.53, -129906.68, -149936.55, 0.000, 0.000, 0.000, 16:28:20.192
91, -7792.51, -8078.97, -7912.56, -7806.93, -144014.97, -137392.53, -129905.41, -149935.30, 0.000, 0.000, 0.000, 16:28:20.192
92, -7792.24, -8078.66, -7912.11, -7806.55, -144014.91, -137392.22, -129905.12, -149935.09, 0.000, 0.000, 0.000, 16:28:20.193
93, -7792.24, -8078.66, -7912.03, -7806.57, -144015.13, -137392.33, -129905.25, -149935.20, 0.000, 0.000, 0.000, 16:28:20.193
94, -7793.96, -8080.67, -7914.22, -7808.60, -144017.14, -137394.47, -129907.28, -149937.22, 0.000, 0.000, 0.000, 16:28:20.193
95, -7792.91, -8079.57, -7913.23, -7807.60, -144016.00, -137393.42, -129906.44, -149936.25, 0.000, 0.000, 0.000, 16:28:20.193
96, -7791.35, -8077.74, -7911.51, -7805.92, -144014.20, -137391.61, -129904.83, -149934.53, 0.000, 0.000, 0.000, 16:28:20.193
97, -7790.21, -8076.82, -7910.48, -7804.80, -144013.30, -137390.67, -129903.80, -149933.55, 0.000, 0.000, 0.000, 16:28:20.193
98, -7792.02, -8078.64, -7912.29, -7806.86, -144015.34, -137392.84, -129905.80, -149935.77, 0.000, 0.000, 0.000, 16:28:20.212
99, -7793.58, -8080.29, -7913.84, -7808.36, -144017.00, -137394.52, -129907.41, -149937.38, 0.000, 0.000, 0.000, 16:28:20.212
100, -7791.84, -8078.61, -7912.23, -7806.73, -144015.39, -137392.91, -129905.80, -149935.66, 0.000, 0.000, 0.000, 16:28:20.213
101, -7791.62, -8078.30, -7912.16, -7806.46, -144015.13, -137392.55, -129905.56, -149935.42, 0.000, 0.000, 0.000, 16:28:20.213
102, -7788.15, -8074.81, -7908.58, -7803.02, -144011.75, -137389.38, -129902.16, -149932.14, 0.000, 0.000, 0.000, 16:28:20.213
103, -7785.54, -8072.38, -7905.90, -7800.40, -144009.11, -137386.94, -129899.70, -149929.47, 0.000, 0.000, 0.000, 16:28:20.213
104, -7788.06, -8074.59, -7908.31, -7802.88, -144011.61, -137389.17, -129902.01, -149931.78, 0.000, 0.000, 0.000, 16:28:20.214
105, -7792.62, -8079.19, -7912.88, -7807.40, -144016.23, -137393.59, -129906.68, -149936.48, 0.000, 0.000, 0.000, 16:28:20.214
106, -7792.20, -8078.90, -7912.43, -7806.88, -144015.89, -137393.28, -129906.32, -149936.08, 0.000, 0.000, 0.000, 16:28:20.214
107, -7789.60, -8076.29, -7909.92, -7804.27, -144013.20, -137390.48, -129903.57, -149933.33, 0.000, 0.000, 0.000, 16:28:20.214
108, -7792.96, -8079.62, -7913.05, -7807.55, -144016.63, -137393.89, -129907.02, -149936.77, 0.000, 0.000, 0.000, 16:28:20.215
109, -7794.75, -8081.50, -7914.82, -7809.41, -144018.41, -137395.97, -129908.87, -149938.61, 0.000, 0.000, 0.000, 16:28:20.216
110, -7794.52, -8081.21, -7914.51, -7809.16, -144018.23, -137395.70, -129908.49, -149938.17, 0.000, 0.000, 0.000, 16:28:20.216
111, -7794.19, -8080.92, -7914.10, -7808.67, -144017.88, -137395.25, -129908.09, -149937.86, 0.000, 0.000, 0.000, 16:28:20.216
112, -7792.69, -8079.33, -7912.76, -7807.22, -144016.47, -137393.94, -129906.77, -149936.64, 0.000, 0.000, 0.000, 16:28:20.216
113, -7792.44, -8079.24, -7912.67, -7807.17, -144016.38, -137393.86, -129906.91, -149936.77, 0.092, -0.066, 1.000, 16:28:20.217
114, -7791.97, -8078.93, -7912.23, -7806.88, -144016.28, -137393.84, -129906.79, -149936.50, 0.000, 0.000, 0.000, 16:28:20.217
115, -7789.49, -8076.33, -7909.79, -7804.49, -144013.94, -137391.45, -129904.40, -149934.17, 0.000, 0.000, 0.000, 16:28:20.217
116, -7788.40, -8075.39, -7908.81, -7803.55, -144012.98, -137390.41, -129903.53, -149933.22, 0.000, 0.000, 0.000, 16:28:20.218
117, -7787.55, -8074.52, -7907.96, -7802.70, -144012.22, -137389.50, -129902.68, -149932.30, 0.000, 0.000, 0.000, 16:28:20.218
118, -7788.22, -8075.13, -7908.52, -7803.24, -144012.98, -137390.16, -129903.33, -149933.02, 0.000, 0.000, 0.000, 16:28:20.218
119, -7789.72, -8076.49, -7909.97, -7804.65, -144014.39, -137391.67, -129904.63, -149934.53, 0.000, 0.000, 0.000, 16:28:20.223
120, -7791.73, -8078.50, -7912.05, -7806.55, -144016.52, -137393.78, -129906.75, -149936.53, 0.000, 0.000, 0.000, 16:28:20.223
121, -7790.52, -8077.50, -7910.91, -7805.43, -144015.23, -137392.50, -129905.59, -149935.41, 0.000, 0.000, 0.000, 16:28:20.223
122, -7789.38, -8076.22, -7909.46, -7804.09, -144014.05, -137391.34, -129904.40, -149933.91, 0.000, 0.000, 0.000, 16:28:20.223
123, -7790.75, -8077.67, -7910.84, -7805.39, -144015.50, -137392.72, -129905.77, -149935.25, 0.000, 0.000, 0.000, 16:28:20.224
124, -7793.36, -8080.18, -7913.30, -7807.87, -144017.94, -137395.08, -129908.29, -149937.75, 0.000, 0.000, 0.000, 16:28:20.224
125, -7792.42, -8079.31, -7912.54, -7807.06, -144017.27, -137394.36, -129907.51, -149937.03, 0.000, 0.000, 0.000, 16:28:20.224
126, -7790.95, -8077.96, -7911.27, -7805.65, -144015.91, -137393.17, -129906.03, -149935.78, 0.000, 0.000, 0.000, 16:28:20.224
127, -7789.43, -8076.22, -7909.32, -7803.91, -144014.23, -137391.56, -129904.58, -149934.16, 0.000, 0.000, 0.000, 16:28:20.225
128, -7789.81, -8076.60, -7909.68, -7804.27, -144014.77, -137391.94, -129905.00, -149934.63, 0.000, 0.000, 0.000, 16:28:20.225
129, -7790.28, -8077.09, -7910.28, -7804.83, -144015.30, -137392.61, -129905.56, -149935.25, 0.000, 0.000, 0.000, 16:28:20.232
130, -7789.69, -8076.74, -7909.88, -7804.54, -144015.06, -137392.28, -129905.32, -149934.92, 0.000, 0.000, 0.000, 16:28:20.233
131, -7790.30, -8077.23, -7910.44, -7805.14, -144015.61, -137392.86, -129905.95, -149935.78, 0.000, 0.000, 0.000, 16:28:20.233
132, -7791.39, -8078.46, -7911.71, -7806.32, -144016.80, -137394.16, -129907.26, -149937.16, 0.000, 0.000, 0.000, 16:28:20.233
133, -7790.01, -8077.12, -7910.19, -7804.85, -144015.33, -137392.80, -129905.85, -149935.88, 0.000, 0.000, 0.000, 16:28:20.233
134, -7790.81, -8077.90, -7910.91, -7805.65, -144016.22, -137393.78, -129906.79, -149936.64, 0.000, 0.000, 0.000, 16:28:20.233
135, -7791.17, -8078.19, -7911.20, -7806.01, -144016.80, -137394.05, -129907.13, -149936.95, 0.000, 0.000, 0.000, 16:28:20.234
136, -7789.74, -8076.71, -7909.92, -7804.47, -144015.17, -137392.45, -129905.70, -149935.42, 0.000, 0.000, 0.000, 16:28:20.234
137, -7789.63, -8076.71, -7909.92, -7804.54, -144015.02, -137392.56, -129905.67, -149935.36, 0.000, 0.000, 0.000, 16:28:20.234
138, -7789.83, -8076.80, -7909.97, -7804.65, -144015.22, -137392.80, -129905.85, -149935.50, 0.000, 0.000, 0.000, 16:28:20.234
139, -7789.49, -8076.47, -7909.59, -7804.31, -144014.91, -137392.28, -129905.56, -149935.09, 0.000, 0.000, 0.000, 16:28:20.243
140, -7789.16, -8076.22, -7909.25, -7803.75, -144014.56, -137391.75, -129904.94, -149934.69, 0.000, 0.000, 0.000, 16:28:20.243
141, -7788.49, -8075.60, -7908.56, -7803.15, -144014.09, -137391.08, -129904.31, -149934.11, 0.000, 0.000, 0.000, 16:28:20.243
142, -7789.45, -8076.62, -7909.59, -7804.40, -144015.28, -137392.23, -129905.48, -149935.34, 0.000, 0.000, 0.000, 16:28:20.244
143, -7787.88, -8074.99, -7908.05, -7802.66, -144013.63, -137390.83, -129903.91, -149933.63, 0.000, 0.000, 0.000, 16:28:20.244
144, -7788.08, -8075.06, -7908.31, -7802.68, -144013.77, -137391.23, -129904.18, -149933.94, 0.000, 0.000, 0.000, 16:28:20.244
145, -7787.82, -8074.97, -7907.98, -7802.57, -144013.69, -137390.89, -129904.00, -149933.80, 0.000, 0.000, 0.000, 16:28:20.244
146, -7786.95, -8074.23, -7907.18, -7801.79, -144013.02, -137390.22, -129903.35, -149932.91, 0.000, 0.000, 0.000, 16:28:20.245
147, -7782.94, -8070.41, -7903.29, -7797.85, -144009.20, -137386.31, -129899.55, -149929.06, 0.000, 0.000, 0.000, 16:28:20.245
148, -7782.83, -8070.12, -7903.11, -7797.74, -144009.17, -137386.36, -129899.53, -149929.16, 0.000, 0.000, 0.000, 16:28:20.245
149, -7786.59, -8073.83, -7906.95, -7801.65, -144012.91, -137390.25, -129903.30, -149933.17, 0.000, 0.000, 0.000, 16:28:20.252
150, -7786.56, -8073.72, -7906.93, -7801.45, -144013.09, -137390.42, -129903.41, -149933.19, 0.000, 0.000, 0.000, 16:28:20.252
151, -7788.33, -8075.57, -7908.74, -7803.42, -144014.78, -137392.22, -129905.16, -149934.94, 0.088, -0.062, 1.004, 16:28:20.253
152, -7788.73, -8075.93, -7909.23, -7803.93, -144015.23, -137392.75, -129905.63, -149935.52, 0.000, 0.000, 0.000, 16:28:20.253
153, -7788.60, -8075.66, -7908.92, -7803.60, -144014.92, -137392.53, -129905.36, -149935.36, 0.000, 0.000, 0.000, 16:28:20.253
154, -7789.38, -8076.51, -7909.72, -7804.36, -144015.92, -137393.39, -129906.13, -149936.03, 0.000, 0.000, 0.000, 16:28:20.253
155, -7787.84, -8074.97, -7907.91, -7802.66, -144014.31, -137391.78, -129904.55, -149934.42, 0.000, 0.000, 0.000, 16:28:20.254
156, -7789.27, -8076.29, -7909.41, -7804.16, -144015.70, -137393.20, -129905.92, -149935.94, 0.000, 0.000, 0.000, 16:28:20.254
157, -7790.70, -8077.79, -7910.89, -7805.61, -144017.11, -137394.58, -129907.51, -149937.31, 0.000, 0.000, 0.000, 16:28:20.254
158, -7790.68, -8077.63, -7910.66, -7805.30, -144016.95, -137394.30, -129907.35, -149936.97, 0.000, 0.000, 0.000, 16:28:20.254
159, -7789.98, -8076.87, -7909.97, -7804.47, -144016.38, -137393.67, -129906.68, -149936.33, 0.000, 0.000, 0.000, 16:28:20.262
160, -7790.50, -8077.52, -7910.57, -7805.05, -144016.98, -137394.14, -129907.46, -149937.00, 0.000, 0.000, 0.000, 16:28:20.262
161, -7788.96, -8076.27, -7909.41, -7803.84, -144015.66, -137392.80, -129906.21, -149935.78, 0.000, 0.000, 0.000, 16:28:20.263
162, -7787.48, -8074.72, -7907.91, -7802.30, -144014.20, -137391.55, -129904.58, -149934.42, 0.000, 0.000, 0.000, 16:28:20.263
163, -7787.68, -8074.68, -7907.87, -7802.39, -144014.34, -137391.86, -129904.67, -149934.53, 0.000, 0.000, 0.000, 16:28:20.263
164, -7787.19, -8074.21, -7907.31, -7801.92, -144014.05, -137391.52, -129904.24, -149934.16, 0.000, 0.000, 0.000, 16:28:20.263
165, -7788.58, -8075.95, -7908.99, -7803.66, -144015.66, -137393.17, -129906.14, -149935.92, 0.000, 0.000, 0.000, 16:28:20.264
166, -7790.72, -8078.21, -7911.31, -7805.90, -144018.08, -137395.52, -129908.60, -149938.45, 0.000, 0.000, 0.000, 16:28:20.264
167, -7791.13, -8078.64, -7911.78, -7806.21, -144018.61, -137396.02, -129909.14, -149938.84, 0.000, 0.000, 0.000, 16:28:20.264
168, -7791.39, -8078.84, -7912.07, -7806.53, -144019.11, -137396.48, -129909.45, -149939.09, 0.000, 0.000, 0.000, 16:28:20.264
169, -7791.57, -8078.99, -7912.05, -7806.59, -144019.23, -137396.53, -129909.41, -149939.23, 0.000, 0.000, 0.000, 16:28:20.272
170, -7791.01, -8078.30, -7911.42, -7805.90, -144018.56, -137395.88, -129908.85, -149938.67, 0.000, 0.000, 0.000, 16:28:20.273
171, -7792.76, -8080.09, -7913.19, -7807.78, -144020.28, -137397.48, -129910.62, -149940.39, 0.000, 0.000, 0.000, 16:28:20.273
172, -7794.14, -8081.43, -7914.55, -7809.16, -144021.36, -137398.73, -129911.82, -149941.58, 0.000, 0.000, 0.000, 16:28:20.273
173, -7792.09, -8079.28, -7912.38, -7806.84, -144019.34, -137396.77, -129909.63, -149939.52, 0.000, 0.000, 0.000, 16:28:20.274
174, -7791.28, -8078.30, -7911.49, -7805.88, -144018.45, -137395.97, -129908.87, -149938.77, 0.000, 0.000, 0.000, 16:28:20.274
175, -7790.23, -8077.41, -7910.39, -7804.76, -144017.53, -137394.92, -129907.80, -149937.67, 0.000, 0.000, 0.000, 16:28:20.274
176, -7790.86, -8077.94, -7910.98, -7805.47, -144018.25, -137395.52, -129908.60, -149938.30, 0.000, 0.000, 0.000, 16:28:20.274
177, -7790.48, -8077.67, -7910.57, -7805.25, -144018.00, -137395.41, -129908.38, -149937.89, 0.000, 0.000, 0.000, 16:28:20.274
178, -7789.74, -8077.12, -7910.06, -7804.63, -144017.42, -137394.63, -129907.75, -149937.31, 0.000, 0.000, 0.000, 16:28:20.275
179, -7788.55, -8075.82, -7908.90, -7803.31, -144016.23, -137393.42, -129906.52, -149936.14, 0.000, 0.000, 0.000, 16:28:20.282
180, -7786.27, -8073.58, -7906.55, -7801.03, -144014.05, -137391.42, -129904.31, -149934.16, 0.000, 0.000, 0.000, 16:28:20.283
181, -7786.03, -8073.65, -7906.53, -7801.25, -144014.19, -137391.61, -129904.52, -149934.41, 0.000, 0.000, 0.000, 16:28:20.283
182, -7787.10, -8074.68, -7907.62, -7802.32, -144015.17, -137392.88, -129905.70, -149935.41, 0.000, 0.000, 0.000, 16:28:20.283
183, -7785.45, -8072.87, -7905.74, -7800.47, -144013.48, -137391.11, -129904.20, -149933.80, 0.000, 0.000, 0.000, 16:28:20.283
184, -7785.98, -8073.54, -7906.30, -7800.96, -144014.25, -137391.86, -129904.96, -149934.69, 0.000, 0.000, 0.000, 16:28:20.284
185, -7788.38, -8075.86, -7908.85, -7803.46, -144016.59, -137394.36, -129907.33, -149937.13, 0.000, 0.000, 0.000, 16:28:20.284
186, -7791.30, -8078.79, -7911.67, -7806.39, -144019.53, -137397.00, -129910.10, -149939.98, 0.000, 0.000, 0.000, 16:28:20.284
187, -7789.27, -8076.71, -7909.54, -7804.42, -144017.73, -137395.13, -129908.24, -149937.98, 0.000, 0.000, 0.000, 16:28:20.284
188, -7787.75, -8075.10, -7907.96, -7802.77, -144015.95, -137393.47, -129906.52, -149936.28, 0.000, 0.000, 0.000, 16:28:20.285
189, -7786.83, -8074.23, -7907.13, -7801.92, -144015.09, -137392.66, -129905.59, -149935.31, 0.000, 0.000, 0.000, 16:28:20.292
190, -7788.49, -8075.73, -7908.74, -7803.31, -144016.63, -137394.05, -129907.06, -149936.75, 0.088, -0.064, 1.002, 16:28:20.292
191, -7788.82, -8075.93, -7908.81, -7803.37, -144016.86, -137394.02, -129907.04, -149936.66, 0.000, 0.000, 0.000, 16:28:20.293
192, -7785.31, -8072.53, -7905.32, -7799.95, -144013.45, -137390.63, -129903.66, -149933.28, 0.000, 0.000, 0.000, 16:28:20.293
193, -7785.31, -8072.60, -7905.61, -7800.18, -144013.64, -137391.00, -129904.00, -149933.64, 0.000, 0.000, 0.000, 16:28:20.293
194, -7787.06, -8074.39, -7907.51, -7802.06, -144015.75, -137392.91, -129906.01, -149935.63, 0.000, 0.000, 0.000, 16:28:20.293
195, -7786.65, -8074.10, -7907.20, -7801.45, -144015.55, -137392.64, -129905.65, -149935.42, 0.000, 0.000, 0.000, 16:28:20.294
196, -7787.26, -8074.59, -7907.67, -7802.17, -144016.02, -137393.28, -129906.37, -149936.19, 0.000, 0.000, 0.000, 16:28:20.294
197, -7788.67, -8076.00, -7909.10, -7803.73, -144017.63, -137394.84, -129908.09, -149937.75, 0.000, 0.000, 0.000, 16:28:20.294
198, -7788.42, -8075.89, -7909.03, -7803.53, -144017.41, -137394.73, -129907.82, -149937.75, 0.000, 0.000, 0.000, 16:28:20.294
199, -7788.13, -8075.82, -7908.76, -7803.26, -144017.14, -137394.53, -129907.57, -149937.53, 0.000, 0.000, 0.000, 16:28:20.302
200, -7786.32, -8073.94, -7907.04, -7801.70, -144015.56, -137393.13, -129906.03, -149935.88, 0.000, 0.000, 0.000, 16:28:20.302
201, -7785.31, -8073.00, -7905.99, -7800.51, -144014.61, -137392.22, -129905.07, -149934.84, 0.000, 0.000, 0.000, 16:28:20.303
202, -7787.19, -8074.77, -7907.71, -7802.37, -144016.47, -137394.02, -129906.81, -149936.77, 0.000, 0.000, 0.000, 16:28:20.303
203, -7784.26, -8071.82, -7904.67, -7799.35, -144013.48, -137390.95, -129903.87, -149933.64, 0.000, 0.000, 0.000, 16:28:20.303
204, -7785.22, -8072.69, -7905.70, -7800.27, -144014.50, -137391.94, -129904.89, -149934.77, 0.000, 0.000, 0.000, 16:28:20.303
205, -7786.79, -8074.21, -7907.40, -7801.97, -144016.13, -137393.69, -129906.45, -149936.23, 0.000, 0.000, 0.000, 16:28:20.303
206, -7786.34, -8073.83, -7906.91, -7801.32, -144015.75, -137393.06, -129906.03, -149935.63, 0.000, 0.000, 0.000, 16:28:20.303
207, -7786.36, -8073.74, -7906.71, -7801.16, -144015.61, -137392.86, -129905.96, -149935.63, 0.000, 0.000, 0.000, 16:28:20.304
208, -7787.06, -8074.43, -7907.33, -7801.74, -144016.36, -137393.58, -129906.63, -149936.48, 0.000, 0.000, 0.000, 16:28:20.304
209, -7788.62, -8075.93, -7908.76, -7803.19, -144017.78, -137395.09, -129908.02, -149937.83, 0.000, 0.000, 0.000, 16:28:20.312
210, -7789.78, -8077.23, -7909.92, -7804.54, -144019.19, -137396.39, -129909.34, -149939.23, 0.000, 0.000, 0.000, 16:28:20.313
211, -7786.21, -8073.76, -7906.64, -7801.18, -144015.70, -137392.97, -129905.95, -149935.81, 0.000, 0.000, 0.000, 16:28:20.313
212, -7786.92, -8074.39, -7907.42, -7802.03, -144016.52, -137393.84, -129906.70, -149936.61, 0.000, 0.000, 0.000, 16:28:20.313
213, -7788.40, -8075.84, -7908.85, -7803.37, -144018.05, -137395.31, -129908.54, -149938.22, 0.000, 0.000, 0.000, 16:28:20.314
214, -7786.68, -8074.37, -7907.40, -7801.72, -144016.58, -137393.80, -129906.99, -149936.69, 0.000, 0.000, 0.000, 16:28:20.314
215, -7786.36, -8074.10, -7907.06, -7801.56, -144016.42, -137393.91, -129906.91, -149936.61, 0.000, 0.000, 0.000, 16:28:20.314
216, -7785.22, -8072.87, -7905.99, -7800.56, -144015.33, -137392.86, -129905.74, -149935.66, 0.000, 0.000, 0.000, 16:28:20.314
217, -7782.47, -8070.05, -7903.22, -7797.88, -144012.86, -137390.11, -129902.99, -149933.00, 0.000, 0.000, 0.000, 16:28:20.314
218, -7784.53, -8072.24, -7905.12, -7799.69, -144014.77, -137392.06, -129905.12, -149934.84, 0.000, 0.000, 0.000, 16:28:20.315
219, -7784.51, -8072.27, -7905.23, -7799.71, -144014.92, -137392.23, -129905.18, -149934.95, 0.000, 0.000, 0.000, 16:28:20.322
220, -7787.35, -8075.04, -7907.94, -7802.55, -144017.63, -137394.97, -129907.98, -149937.69, 0.000, 0.000, 0.000, 16:28:20.323
221, -7786.74, -8074.59, -7907.15, -7801.85, -144017.00, -137394.36, -129907.44, -149937.08, 0.000, 0.000, 0.000, 16:28:20.323
222, -7783.23, -8071.04, -7903.67, -7798.32, -144013.45, -137390.77, -129903.77, -149933.50, 0.000, 0.000, 0.000, 16:28:20.323
223, -7780.75, -8068.29, -7901.21, -7795.73, -144010.98, -137388.25, -129901.23, -149930.95, 0.000, 0.000, 0.000, 16:28:20.323
224, -7779.88, -8067.33, -7900.31, -7794.77, -144009.88, -137387.34, -129900.27, -149929.78, 0.000, 0.000, 0.000, 16:28:20.324
225, -7780.60, -8068.22, -7901.03, -7795.44, -144010.78, -137388.13, -129900.87, -149930.53, 0.000, 0.000, 0.000, 16:28:20.324
226, -7783.79, -8071.37, -7904.22, -7798.52, -144014.19, -137391.41, -129904.22, -149933.91, 0.000, 0.000, 0.000, 16:28:20.324
227, -7786.34, -8073.92, -7906.66, -7801.09, -144016.52, -137393.98, -129906.75, -149936.48, 0.000, 0.000, 0.000, 16:28:20.324
228, -7786.14, -8073.54, -7906.42, -7800.85, -144016.47, -137393.69, -129906.63, -149936.45, 0.092, -0.054, 1.008, 16:28:20.325
229, -7786.92, -8074.25, -7907.38, -7801.59, -144017.56, -137394.73, -129907.73, -149937.42, 0.000, 0.000, 0.000, 16:28:20.333
230, -7789.45, -8076.89, -7909.95, -7804.29, -144020.23, -137397.63, -129910.62, -149940.25, 0.000, 0.000, 0.000, 16:28:20.333
231, -7788.17, -8075.73, -7908.74, -7803.13, -144019.02, -137396.33, -129909.54, -149939.16, 0.000, 0.000, 0.000, 16:28:20.333
232, -7787.57, -8075.31, -7908.09, -7802.59, -144018.41, -137395.50, -129908.80, -149938.53, 0.000, 0.000, 0.000, 16:28:20.333
233, -7785.92, -8073.70, -7906.46, -7800.92, -144016.95, -137394.09, -129907.33, -149937.11, 0.000, 0.000, 0.000, 16:28:20.333
234, -7784.93, -8072.73, -7905.63, -7800.07, -144016.08, -137393.55, -129906.55, -149936.41, 0.000, 0.000, 0.000, 16:28:20.334
235, -7783.79, -8071.59, -7904.27, -7798.86, -144015.02, -137392.50, -129905.52, -149935.27, 0.000, 0.000, 0.000, 16:28:20.334
236, -7783.55, -8071.46, -7904.22, -7798.81, -144014.97, -137392.34, -129905.32, -149935.11, 0.000, 0.000, 0.000, 16:28:20.334
237, -7785.43, -8073.16, -7905.90, -7800.62, -144016.75, -137394.14, -129906.95, -149936.70, 0.000, 0.000, 0.000, 16:28:20.334
238, -7786.05, -8073.67, -7906.39, -7800.92, -144017.22, -137394.42, -129907.44, -149937.16, 0.000, 0.000, 0.000, 16:28:20.334
239, -7782.97, -8070.52, -7903.40, -7797.92, -144014.09, -137391.20, -129904.42, -149933.89, 0.000, 0.000, 0.000, 16:28:20.342
240, -7782.18, -8069.74, -7902.55, -7797.12, -144013.33, -137390.52, -129903.55, -149933.19, 0.000, 0.000, 0.000, 16:28:20.343
241, -7779.84, -8067.66, -7900.27, -7794.75, -144011.02, -137388.28, -129901.38, -149930.83, 0.000, 0.000, 0.000, 16:28:20.343
242, -7780.60, -8068.31, -7900.69, -7795.44, -144011.75, -137388.81, -129901.98, -149931.52, 0.000, 0.000, 0.000, 16:28:20.343
243, -7784.53, -8072.09, -7904.54, -7799.28, -144015.66, -137392.80, -129905.92, -149935.42, 0.000, 0.000, 0.000, 16:28:20.343
244, -7785.05, -8072.60, -7905.05, -7799.75, -144016.06, -137393.36, -129906.28, -149935.88, 0.000, 0.000, 0.000, 16:28:20.343
245, -7786.83, -8074.59, -7907.06, -7801.67, -144018.31, -137395.55, -129908.49, -149938.20, 0.000, 0.000, 0.000, 16:28:20.343
246, -7786.54, -8074.48, -7906.93, -7801.45, -144018.03, -137395.41, -129908.36, -149938.02, 0.000, 0.000, 0.000, 16:28:20.343
247, -7784.53, -8072.47, -7904.85, -7799.55, -144016.08, -137393.52, -129906.41, -149936.09, 0.000, 0.000, 0.000, 16:28:20.344
248, -7785.60, -8073.32, -7905.79, -7800.54, -144017.14, -137394.52, -129907.48, -149937.22, 0.000, 0.000, 0.000, 16:28:20.344
249, -7785.74, -8073.32, -7906.01, -7800.71, -144017.47, -137394.83, -129907.82, -149937.59, 0.000, 0.000, 0.000, 16:28:20.344
250, -7785.40, -8073.23, -7905.68, -7800.51, -144017.33, -137394.64, -129907.73, -149937.38, 0.000, 0.000, 0.000, 16:28:20.352
251, -7783.86, -8071.75, -7904.11, -7799.06, -144015.89, -137393.17, -129906.28, -149935.86, 0.000, 0.000, 0.000, 16:28:20.353
252, -7783.48, -8071.24, -7903.80, -7798.66, -144015.45, -137392.80, -129905.80, -149935.50, 0.000, 0.000, 0.000, 16:28:20.353
253, -7782.65, -8070.57, -7903.17, -7797.79, -144014.78, -137392.17, -129905.16, -149934.92, 0.000, 0.000, 0.000, 16:28:20.353
254, -7784.67, -8072.56, -7905.05, -7799.75, -144016.80, -137394.09, -129907.15, -149936.88, 0.000, 0.000, 0.000, 16:28:20.353
255, -7786.61, -8074.28, -7906.82, -7801.38, -144018.30, -137395.75, -129908.96, -149938.61, 0.000, 0.000, 0.000, 16:28:20.353
0, -7783.37, -8071.04, -7903.64, -7798.17, -144015.30, -137392.56, -129905.74, -149935.19, 0.000, 0.000, 0.000, 16:28:20.353
1, -7782.45, -8070.21, -7902.71, -7797.36, -144014.36, -137391.66, -129904.52, -149934.27, 0.000, 0.000, 0.000, 16:28:20.354
2, -7784.22, -8071.82, -7904.29, -7798.79, -144016.00, -137393.31, -129906.13, -149935.97, 0.000, 0.000, 0.000, 16:28:20.354
3, -7784.31, -8071.82, -7904.16, -7798.72, -144016.05, -137393.42, -129906.26, -149936.08, 0.000, 0.000, 0.000, 16:28:20.354
4, -7786.23, -8073.83, -7906.30, -7800.92, -144018.16, -137395.44, -129908.54, -149938.16, 0.000, 0.000, 0.000, 16:28:20.362
5, -7786.81, -8074.61, -7907.11, -7801.65, -144019.08, -137396.30, -129909.14, -149939.00, 0.000, 0.000, 0.000, 16:28:20.363
6, -7782.85, -8070.63, -7903.04, -7797.67, -144014.94, -137392.17, -129905.05, -149934.80, 0.000, 0.000, 0.000, 16:28:20.363
7, -7782.74, -8070.52, -7902.97, -7797.54, -144015.02, -137392.23, -129905.20, -149934.94, 0.000, 0.000, 0.000, 16:28:20.363
8, -7784.60, -8072.58, -7904.85, -7799.71, -144017.17, -137394.42, -129907.41, -149937.17, 0.000, 0.000, 0.000, 16:28:20.363
9, -7784.42, -8072.35, -7904.90, -7799.64, -144017.20, -137394.41, -129907.44, -149937.31, 0.000, 0.000, 0.000, 16:28:20.363
10, -7781.51, -8069.81, -7902.28, -7797.05, -144014.66, -137391.94, -129904.87, -149934.72, 0.084, -0.048, 1.010, 16:28:20.363
11, -7781.92, -8070.19, -7902.57, -7797.34, -144015.03, -137392.39, -129905.30, -149935.19, 0.000, 0.000, 0.000, 16:28:20.364
12, -7780.33, -8068.58, -7900.83, -7795.60, -144013.41, -137390.77, -129903.62, -149933.31, 0.000, 0.000, 0.000, 16:28:20.364
13, -7781.13, -8069.18, -7901.56, -7796.27, -144014.19, -137391.47, -129904.34, -149934.11, 0.000, 0.000, 0.000, 16:28:20.364
14, -7782.34, -8070.39, -7902.73, -7797.47, -144015.33, -137392.70, -129905.61, -149935.39, 0.000, 0.000, 0.000, 16:28:20.374
15, -7782.05, -8070.12, -7902.41, -7797.05, -144015.13, -137392.39, -129905.36, -149935.05, 0.000, 0.000, 0.000, 16:28:20.375
16, -7782.18, -8070.25, -7902.44, -7797.23, -144015.22, -137392.23, -129905.18, -149934.98, 0.000, 0.000, 0.000, 16:28:20.375
17, -7783.12, -8071.24, -7903.42, -7798.05, -144016.08, -137393.08, -129906.10, -149935.94, 0.000, 0.000, 0.000, 16:28:20.375
18, -7784.89, -8072.80, -7905.07, -7799.77, -144017.77, -137394.81, -129907.87, -149937.63, 0.000, 0.000, 0.000, 16:28:20.375
19, -7783.75, -8071.62, -7903.89, -7798.68, -144016.75, -137393.64, -129906.95, -149936.53, 0.000, 0.000, 0.000, 16:28:20.375
20, -7781.33, -8069.29, -7901.43, -7796.15, -144014.44, -137391.39, -129904.52, -149934.20, 0.000, 0.000, 0.000, 16:28:20.375
21, -7782.68, -8070.48, -7902.77, -7797.56, -144015.66, -137392.91, -129905.83, -149935.55, 0.000, 0.000, 0.000, 16:28:20.376
22, -7783.86, -8071.53, -7903.98, -7798.55, -144016.80, -137394.14, -129907.02, -149936.61, 0.000, 0.000, 0.000, 16:28:20.376
23, -7783.59, -8071.68, -7903.96, -7798.59, -144017.05, -137394.17, -129906.97, -149936.75, 0.000, 0.000, 0.000, 16:28:20.376
24, -7782.14, -8070.34, -7902.68, -7797.34, -144015.84, -137392.81, -129905.72, -149935.52, 0.000, 0.000, 0.000, 16:28:20.383
25, -7783.37, -8071.39, -7903.78, -7798.55, -144017.06, -137394.17, -129907.17, -149936.86, 0.000, 0.000, 0.000, 16:28:20.383
26, -7783.35, -8071.44, -7903.60, -7798.55, -144016.98, -137394.36, -129907.30, -149937.00, 0.000, 0.000, 0.000, 16:28:20.383
27, -7784.06, -8072.13, -7904.38, -7799.24, -144017.78, -137395.14, -129908.06, -149937.86, 0.000, 0.000, 0.000, 16:28:20.383
28, -7784.02, -8072.29, -7904.67, -7799.31, -144017.72, -137395.05, -129908.00, -149937.75, 0.000, 0.000, 0.000, 16:28:20.383
29, -7781.29, -8069.47, -7901.86, -7796.65, -144015.23, -137392.56, -129905.41, -149935.14, 0.000, 0.000, 0.000, 16:28:20.383
30, -7782.59, -8070.86, -7903.08, -7797.94, -144016.67, -137393.91, -129906.70, -149936.64, 0.000, 0.000, 0.000, 16:28:20.383
31, -7785.25, -8073.58, -7905.72, -7800.40, -144019.27, -137396.55, -129909.43, -149939.20, 0.000, 0.000, 0.000, 16:28:20.384
32, -7785.02, -8073.11, -7905.25, -7800.02, -144018.91, -137396.03, -129909.14, -149938.88, 0.000, 0.000, 0.000, 16:28:20.384
33, -7787.33, -8075.35, -7907.62, -7802.37, -144021.36, -137398.42, -129911.38, -149941.22, 0.000, 0.000, 0.000, 16:28:20.384
34, -7788.26, -8076.29, -7908.47, -7803.17, -144022.13, -137399.44, -129912.27, -149942.11, 0.000, 0.000, 0.000, 16:28:20.394
35, -7787.12, -8074.95, -7907.04, -7801.83, -144020.75, -137398.00, -129910.93, -149940.66, 0.000, 0.000, 0.000, 16:28:20.395
36, -7787.95, -8076.00, -7908.14, -7802.70, -144021.83, -137398.77, -129911.82, -149941.38, 0.000, 0.000, 0.000, 16:28:20.396
37, -7790.32, -8078.50, -7910.55, -7805.36, -144024.22, -137401.44, -129914.28, -149943.95, 0.000, 0.000, 0.000, 16:28:20.396
38, -7791.62, -8079.66, -7911.76, -7806.50, -144025.67, -137402.92, -129915.77, -149945.47, 0.000, 0.000, 0.000, 16:28:20.396
39, -7790.86, -8078.84, -7911.09, -7805.65, -144025.11, -137402.27, -129915.17, -149944.84, 0.000, 0.000, 0.000, 16:28:20.396
40, -7785.72, -8073.83, -7905.88, -7800.62, -144019.86, -137397.22, -129910.03, -149939.67, 0.000, 0.000, 0.000, 16:28:20.397
41, -7784.49, -8072.60, -7904.78, -7799.51, -144018.70, -137396.09, -129908.80, -149938.56, 0.000, 0.000, 0.000, 16:28:20.397
42, -7786.01, -8074.25, -7906.44, -7801.21, -144020.48, -137398.11, -129910.88, -149940.50, 0.000, 0.000, 0.000, 16:28:20.397
43, -7785.20, -8073.61, -7905.83, -7800.67, -144019.91, -137397.44, -129910.32, -149939.94, 0.000, 0.000, 0.000, 16:28:20.397
44, -7785.76, -8074.21, -7906.17, -7801.25, -144020.59, -137397.94, -129910.88, -149940.56, 0.000, 0.000, 0.000, 16:28:20.404
45, -7786.81, -8075.39, -7907.31, -7802.26, -144021.69, -137399.09, -129911.98, -149941.78, 0.000, 0.000, 0.000, 16:28:20.404
46, -7787.28, -8075.91, -7907.91, -7802.68, -144022.16, -137399.61, -129912.31, -149942.22, 0.000, 0.000, 0.000, 16:28:20.405
47, -7786.72, -8074.95, -7906.95, -7801.92, -144021.38, -137398.78, -129911.51, -149941.23, 0.000, 0.000, 0.000, 16:28:20.405
48, -7786.36, -8074.72, -7906.64, -7801.63, -144021.31, -137398.61, -129911.27, -149940.95, 0.000, 0.000, 0.000, 16:28:20.405
49, -7785.85, -8074.21, -7906.26, -7801.18, -144020.78, -137398.02, -129910.81, -149940.69, 0.084, -0.050, 1.004, 16:28:20.405
50, -7787.50, -8075.84, -7907.69, -7802.64, -144022.36, -137399.63, -129912.52, -149942.25, 0.000, 0.000, 0.000, 16:28:20.406
51, -7785.34, -8073.65, -7905.52, -7800.45, -144020.08, -137397.20, -129910.16, -149939.81, 0.000, 0.000, 0.000, 16:28:20.406
52, -7786.86, -8075.01, -7907.09, -7801.85, -144021.66, -137398.72, -129911.66, -149941.28, 0.000, 0.000, 0.000, 16:28:20.406
53, -7787.15, -8075.33, -7907.29, -7802.01, -144021.94, -137399.09, -129912.11, -149941.67, 0.000, 0.000, 0.000, 16:28:20.406
54, -7786.74, -8074.84, -7906.73, -7801.59, -144021.38, -137398.61, -129911.55, -149941.27, 0.000, 0.000, 0.000, 16:28:20.414
55, -7785.05, -8073.27, -7905.43, -7800.02, -144019.92, -137397.13, -129910.03, -149939.77, 0.000, 0.000, 0.000, 16:28:20.414
56, -7785.81, -8074.03, -7906.08, -7800.74, -144020.72, -137397.86, -129910.95, -149940.61, 0.000, 0.000, 0.000, 16:28:20.414
57, -7785.49, -8073.72, -7905.72, -7800.47, -144020.59, -137397.75, -129910.84, -149940.53, 0.000, 0.000, 0.000, 16:28:20.414
58, -7785.87, -8074.10, -7906.19, -7800.96, -144021.41, -137398.50, -129911.44, -149941.11, 0.000, 0.000, 0.000, 16:28:20.414
59, -7784.53, -8072.82, -7904.96, -7799.84, -144020.17, -137397.38, -129910.19, -149939.83, 0.000, 0.000, 0.000, 16:28:20.414
60, -7786.43, -8074.84, -7907.00, -7801.83, -144022.14, -137399.52, -129912.31, -149942.00, 0.000, 0.000, 0.000, 16:28:20.415
61, -7784.80, -8073.27, -7905.28, -7800.13, -144020.59, -137397.78, -129910.75, -149940.50, 0.000, 0.000, 0.000, 16:28:20.415
62, -7783.64, -8072.15, -7904.34, -7799.15, -144019.53, -137396.81, -129909.66, -149939.52, 0.000, 0.000, 0.000, 16:28:20.415
63, -7783.30, -8071.75, -7904.00, -7798.75, -144019.11, -137396.42, -129909.27, -149939.05, 0.000, 0.000, 0.000, 16:28:20.415
64, -7783.79, -8072.15, -7904.40, -7798.95, -144019.55, -137396.89, -129909.83, -149939.44, 0.000, 0.000, 0.000, 16:28:20.424
65, -7785.05, -8073.34, -7905.61, -7800.16, -144020.83, -137398.19, -129911.04, -149940.61, 0.000, 0.000, 0.000, 16:28:20.424
66, -7786.10, -8074.34, -7906.48, -7801.14, -144021.72, -137399.05, -129911.91, -149941.69, 0.000, 0.000, 0.000, 16:28:20.424
67, -7785.43, -8073.76, -7905.88, -7800.65, -144021.14, -137398.42, -129911.22, -149941.02, 0.000, 0.000, 0.000, 16:28:20.424
68, -7785.02, -8073.32, -7905.41, -7800.00, -144020.55, -137397.98, -129910.77, -149940.59, 0.000, 0.000, 0.000, 16:28:20.424
69, -7785.09, -8073.20, -7905.16, -7799.91, -144020.48, -137397.83, -129910.66, -149940.44, 0.000, 0.000, 0.000, 16:28:20.425
70, -7785.45, -8073.70, -7905.72, -7800.40, -144021.05, -137398.27, -129911.13, -149940.80, 0.000, 0.000, 0.000, 16:28:20.425
71, -7785.76, -8074.21, -7906.30, -7800.98, -144021.61, -137398.92, -129911.76, -149941.33, 0.000, 0.000, 0.000, 16:28:20.425
72, -7784.82, -8073.25, -7905.10, -7800.02, -144020.72, -137398.09, -129911.09, -149940.66, 0.000, 0.000, 0.000, 16:28:20.425
73, -7785.81, -8074.48, -7906.21, -7801.03, -144021.81, -137399.09, -129912.05, -149941.83, 0.000, 0.000, 0.000, 16:28:20.425
74, -7787.28, -8075.82, -7907.62, -7802.44, -144023.27, -137400.66, -129913.36, -149943.13, 0.000, 0.000, 0.000, 16:28:20.434
75, -7786.61, -8075.17, -7907.02, -7801.92, -144022.80, -137400.28, -129913.05, -149942.83, 0.000, 0.000, 0.000, 16:28:20.434
76, -7783.88, -8072.51, -7904.49, -7799.40, -144020.38, -137397.59, -129910.70, -149940.33, 0.000, 0.000, 0.000, 16:28:20.434
77, -7782.79, -8071.71, -7903.60, -7798.39, -144019.55, -137396.89, -129909.66, -149939.44, 0.000, 0.000, 0.000, 16:28:20.434
78, -7781.54, -8070.32, -7902.08, -7796.94, -144018.25, -137395.52, -129908.22, -149938.22, 0.000, 0.000, 0.000, 16:28:20.435
79, -7783.01, -8071.53, -7903.33, -7798.32, -144019.70, -137397.00, -129909.85, -149939.63, 0.000, 0.000, 0.000, 16:28:20.435
80, -7782.56, -8070.99, -7902.95, -7797.83, -144019.22, -137396.50, -129909.38, -149939.16, 0.000, 0.000, 0.000, 16:28:20.435
81, -7781.27, -8069.92, -7901.83, -7796.62, -144018.00, -137395.31, -129908.13, -149937.89, 0.000, 0.000, 0.000, 16:28:20.435
82, -7781.92, -8070.66, -7902.50, -7797.32, -144018.63, -137395.94, -129908.71, -149938.58, 0.000, 0.000, 0.000, 16:28:20.435
83, -7783.30, -8071.75, -7903.60, -7798.48, -144019.92, -137397.08, -129909.95, -149939.91, 0.000, 0.000, 0.000, 16:28:20.435
84, -7783.70, -8072.27, -7903.96, -7798.88, -144020.31, -137397.55, -129910.46, -149940.23, 0.000, 0.000, 0.000, 16:28:20.445
85, -7785.96, -8074.68, -7906.39, -7801.18, -144022.72, -137399.95, -129912.76, -149942.47, 0.000, 0.000, 0.000, 16:28:20.445
86, -7786.16, -8074.77, -7906.57, -7801.56, -144022.92, -137400.11, -129913.03, -149942.67, 0.000, 0.000, 0.000, 16:28:20.445
87, -7788.33, -8076.78, -7908.70, -7803.46, -144025.19, -137402.14, -129914.99, -149944.66, 0.086, -0.052, 1.000, 16:28:20.445
88, -7786.59, -8075.17, -7906.95, -7801.70, -144023.44, -137400.44, -129913.38, -149943.19, 0.000, 0.000, 0.000, 16:28:20.445
89, -7785.92, -8074.41, -7906.33, -7801.03, -144022.98, -137399.97, -129912.89, -149942.61, 0.000, 0.000, 0.000, 16:28:20.445
90, -7786.10, -8074.59, -7906.59, -7801.25, -144023.44, -137400.33, -129913.34, -149942.98, 0.000, 0.000, 0.000, 16:28:20.446
91, -7783.86, -8072.58, -7904.38, -7799.10, -144021.36, -137398.42, -129911.28, -149941.02, 0.000, 0.000, 0.000, 16:28:20.446
92, -7783.86, -8072.87, -7904.56, -7799.37, -144021.58, -137398.83, -129911.62, -149941.44, 0.000, 0.000, 0.000, 16:28:20.446
93, -7782.16, -8071.04, -7903.00, -7797.79, -144019.92, -137397.23, -129910.15, -149939.91, 0.000, 0.000, 0.000, 16:28:20.446
94, -7783.12, -8072.02, -7903.82, -7798.72, -144021.03, -137398.30, -129911.11, -149940.91, 0.000, 0.000, 0.000, 16:28:20.454
95, -7783.86, -8072.78, -7904.56, -7799.57, -144021.69, -137398.89, -129911.82, -149941.55, 0.000, 0.000, 0.000, 16:28:20.454
96, -7783.77, -8072.49, -7904.29, -7799.26, -144021.50, -137398.67, -129911.55, -149941.22, 0.000, 0.000, 0.000, 16:28:20.455
97, -7783.15, -8071.95, -7903.60, -7798.50, -144020.95, -137397.95, -129910.81, -149940.48, 0.000, 0.000, 0.000, 16:28:20.455
98, -7782.23, -8071.15, -7902.84, -7797.52, -144020.11, -137397.16, -129910.05, -149939.88, 0.000, 0.000, 0.000, 16:28:20.455
99, -7781.89, -8070.63, -7902.32, -7797.23, -144019.59, -137396.89, -129909.66, -149939.52, 0.000, 0.000, 0.000, 16:28:20.455
100, -7781.47, -8070.34, -7901.77, -7796.56, -144018.97, -137396.30, -129909.16, -149939.08, 0.000, 0.000, 0.000, 16:28:20.455
101, -7779.90, -8068.87, -7900.45, -7795.06, -144017.67, -137394.81, -129907.71, -149937.58, 0.000, 0.000, 0.000, 16:28:20.455
102, -7782.45, -8071.15, -7902.97, -7797.45, -144020.08, -137397.36, -129910.03, -149939.72, 0.000, 0.000, 0.000, 16:28:20.455
103, -7781.67, -8070.30, -7901.97, -7796.60, -144019.23, -137396.45, -129909.14, -149938.89, 0.000, 0.000, 0.000, 16:28:20.456
104, -7780.44, -8068.96, -7900.56, -7795.42, -144018.05, -137395.30, -129907.87, -149937.73, 0.000, 0.000, 0.000, 16:28:20.464
105, -7781.33, -8070.14, -7901.79, -7796.44, -144019.23, -137396.38, -129909.16, -149938.88, 0.000, 0.000, 0.000, 16:28:20.464
106, -7779.59, -8068.47, -7899.91, -7794.75, -144017.52, -137394.45, -129907.46, -149937.28, 0.000, 0.000, 0.000, 16:28:20.464
107, -7777.49, -8066.41, -7897.99, -7792.87, -144015.59, -137392.72, -129905.56, -149935.41, 0.000, 0.000, 0.000, 16:28:20.465
108, -7777.04, -8066.01, -7897.52, -7792.35, -144015.33, -137392.66, -129905.23, -149935.14, 0.000, 0.000, 0.000, 16:28:20.465
109, -7777.51, -8066.63, -7898.12, -7792.96, -144015.81, -137393.20, -129905.95, -149935.83, 0.000, 0.000, 0.000, 16:28:20.465
110, -7778.00, -8066.97, -7898.55, -7793.34, -144016.47, -137393.86, -129906.63, -149936.44, 0.000, 0.000, 0.000, 16:28:20.465
111, -7777.36, -8066.43, -7897.92, -7792.85, -144016.06, -137393.36, -129906.34, -149935.98, 0.000, 0.000, 0.000, 16:28:20.465
112, -7777.83, -8066.68, -7898.46, -7793.20, -144016.48, -137393.67, -129906.75, -149936.33, 0.000, 0.000, 0.000, 16:28:20.465
113, -7780.44, -8069.43, -7901.05, -7795.82, -144019.02, -137396.33, -129909.23, -149938.88, 0.000, 0.000, 0.000, 16:28:20.466
114, -7779.28, -8068.22, -7899.84, -7794.72, -144017.92, -137395.44, -129908.11, -149937.83, 0.000, 0.000, 0.000, 16:28:20.474
115, -7778.79, -8067.62, -7899.33, -7794.14, -144017.41, -137394.84, -129907.35, -149937.36, 0.000, 0.000, 0.000, 16:28:20.474
116, -7779.35, -8068.24, -7899.93, -7794.54, -144018.00, -137395.31, -129907.84, -149937.75, 0.000, 0.000, 0.000, 16:28:20.474
117, -7779.77, -8068.71, -7900.22, -7794.95, -144018.36, -137395.66, -129908.20, -149937.86, 0.000, 0.000, 0.000, 16:28:20.474
118, -7778.81, -8067.68, -7899.24, -7794.03, -144017.47, -137394.63, -129907.20, -149936.77, 0.000, 0.000, 0.000, 16:28:20.475
119, -7779.57, -8068.40, -7899.91, -7794.70, -144018.03, -137395.09, -129907.93, -149937.59, 0.000, 0.000, 0.000, 16:28:20.475
120, -7779.28, -8068.26, -7899.89, -7794.59, -144017.88, -137395.03, -129907.91, -149937.63, 0.000, 0.000, 0.000, 16:28:20.475
121, -7779.86, -8068.73, -7900.29, -7795.01, -144018.55, -137395.67, -129908.58, -149938.38, 0.000, 0.000, 0.000, 16:28:20.475
122, -7778.79, -8067.66, -7899.20, -7794.03, -144017.67, -137394.69, -129907.75, -149937.52, 0.000, 0.000, 0.000, 16:28:20.475
123, -7780.11, -8068.78, -7900.49, -7795.15, -144019.03, -137396.09, -129908.94, -149938.80, 0.000, 0.000, 0.000, 16:28:20.476
124, -7782.81, -8071.59, -7903.40, -7798.10, -144021.84, -137399.13, -129911.82, -149941.47, 0.000, 0.000, 0.000, 16:28:20.484
125, -7779.57, -8068.51, -7900.16, -7795.06, -144018.86, -137396.25, -129908.83, -149938.42, 0.084, -0.058, 1.008, 16:28:20.484
126, -7777.31, -8066.57, -7898.08, -7793.14, -144016.73, -137394.36, -129906.95, -149936.75, 0.000, 0.000, 0.000, 16:28:20.485
127, -7777.20, -8066.57, -7898.12, -7793.20, -144016.75, -137394.20, -129906.97, -149936.69, 0.000, 0.000, 0.000, 16:28:20.485
128, -7777.04, -8066.25, -7897.85, -7792.98, -144016.75, -137394.14, -129906.86, -149936.69, 0.000, 0.000, 0.000, 16:28:20.485
129, -7778.54, -8067.53, -7899.24, -7794.21, -144018.05, -137395.52, -129908.20, -149937.98, 0.000, 0.000, 0.000, 16:28:20.485
130, -7778.25, -8067.28, -7898.86, -7793.87, -144017.88, -137395.13, -129907.98, -149937.53, 0.000, 0.000, 0.000, 16:28:20.486
131, -7779.10, -8068.11, -7899.60, -7794.75, -144018.81, -137395.97, -129908.94, -149938.45, 0.000, 0.000, 0.000, 16:28:20.486
132, -7779.55, -8068.58, -7899.89, -7795.04, -144019.14, -137396.22, -129909.32, -149938.89, 0.000, 0.000, 0.000, 16:28:20.486
133, -7781.07, -8069.94, -7901.27, -7796.56, -144020.59, -137397.64, -129910.70, -149940.28, 0.000, 0.000, 0.000, 16:28:20.486
134, -7782.27, -8071.30, -7902.50, -7797.79, -144021.83, -137398.92, -129912.13, -149941.44, 0.000, 0.000, 0.000, 16:28:20.486
135, -7780.91, -8069.87, -7901.21, -7796.20, -144020.52, -137397.64, -129910.48, -149939.94, 0.000, 0.000, 0.000, 16:28:20.496
136, -7780.49, -8069.14, -7900.69, -7795.60, -144019.86, -137397.02, -129909.79, -149939.23, 0.000, 0.000, 0.000, 16:28:20.497
137, -7780.87, -8069.54, -7900.83, -7795.77, -144020.06, -137397.11, -129909.98, -149939.67, 0.000, 0.000, 0.000, 16:28:20.497
138, -7778.05, -8066.95, -7898.30, -7793.07, -144017.45, -137394.52, -129907.59, -149937.11, 0.000, 0.000, 0.000, 16:28:20.497
139, -7779.95, -8068.78, -7900.25, -7795.10, -144019.45, -137396.77, -129909.79, -149939.23, 0.000, 0.000, 0.000, 16:28:20.497
140, -7781.63, -8070.57, -7902.06, -7796.98, -144021.30, -137398.58, -129911.44, -149941.13, 0.000, 0.000, 0.000, 16:28:20.497
141, -7779.59, -8068.76, -7900.09, -7795.26, -144019.58, -137396.81, -129909.77, -149939.44, 0.000, 0.000, 0.000, 16:28:20.498
142, -7779.32, -8068.53, -7899.82, -7794.97, -144019.38, -137396.70, -129909.50, -149939.09, 0.000, 0.000, 0.000, 16:28:20.498
143, -7776.77, -8065.90, -7897.45, -7792.49, -144017.11, -137394.45, -129907.24, -149936.77, 0.000, 0.000, 0.000, 16:28:20.498
144, -7779.10, -8068.24, -7899.80, -7794.86, -144019.45, -137396.86, -129909.72, -149939.39, 0.000, 0.000, 0.000, 16:28:20.498
145, -7782.68, -8071.89, -7903.40, -7798.41, -144023.19, -137400.66, -129913.56, -149943.19, 0.000, 0.000, 0.000, 16:28:20.505
146, -7783.66, -8072.82, -7904.38, -7799.42, -144024.05, -137401.48, -129914.28, -149944.03, 0.000, 0.000, 0.000, 16:28:20.506
147, -7782.90, -8072.09, -7903.55, -7798.66, -144023.34, -137400.50, -129913.41, -149943.14, 0.000, 0.000, 0.000, 16:28:20.506
148, -7779.95, -8069.09, -7900.56, -7795.64, -144020.39, -137397.78, -129910.50, -149940.13, 0.000, 0.000, 0.000, 16:28:20.506
149, -7779.14, -8068.35, -7899.73, -7794.81, -144019.69, -137396.97, -129909.54, -149939.39, 0.000, 0.000, 0.000, 16:28:20.506
150, -7779.28, -8068.38, -7899.84, -7794.92, -144019.91, -137397.22, -129909.79, -149939.56, 0.000, 0.000, 0.000, 16:28:20.506
151, -7778.90, -8068.00, -7899.46, -7794.43, -144019.58, -137396.75, -129909.54, -149939.19, 0.000, 0.000, 0.000, 16:28:20.506
152, -7780.35, -8069.58, -7900.94, -7795.89, -144020.94, -137398.14, -129910.99, -149940.39, 0.000, 0.000, 0.000, 16:28:20.506
153, -7780.96, -8070.01, -7901.52, -7796.24, -144021.36, -137398.69, -129911.51, -149941.13, 0.000, 0.000, 0.000, 16:28:20.507
154, -7779.79, -8068.80, -7900.27, -7795.19, -144020.27, -137397.59, -129910.37, -149940.09, 0.000, 0.000, 0.000, 16:28:20.507
155, -7777.16, -8066.23, -7897.52, -7792.65, -144017.77, -137394.89, -129907.75, -149937.33, 0.000, 0.000, 0.000, 16:28:20.514
156, -7778.50, -8067.46, -7898.82, -7793.87, -144019.19, -137396.33, -129909.12, -149938.78, 0.000, 0.000, 0.000, 16:28:20.514
157, -7779.81, -8069.00, -7900.20, -7795.30, -144020.44, -137397.64, -129910.55, -149940.23, 0.000, 0.000, 0.000, 16:28:20.514
158, -7778.07, -8067.26, -7898.64, -7793.72, -144019.03, -137396.19, -129909.18, -149938.97, 0.000, 0.000, 0.000, 16:28:20.515
159, -7777.76, -8066.92, -7898.15, -7793.43, -144018.78, -137396.14, -129908.98, -149938.88, 0.000, 0.000, 0.000, 16:28:20.515
160, -7776.60, -8065.83, -7897.12, -7792.49, -144017.89, -137395.36, -129908.09, -149937.91, 0.000, 0.000, 0.000, 16:28:20.515
161, -7775.97, -8065.31, -7896.74, -7792.04, -144017.45, -137394.73, -129907.66, -149937.39, 0.000, 0.000, 0.000, 16:28:20.515
162, -7776.71, -8066.16, -7897.34, -7792.69, -144017.97, -137395.41, -129908.40, -149937.98, 0.000, 0.000, 0.000, 16:28:20.515
163, -7777.20, -8066.65, -7897.83, -7793.18, -144018.59, -137395.98, -129908.91, -149938.41, 0.086, -0.060, 1.006, 16:28:20.515
164, -7776.73, -8066.05, -7897.39, -7792.62, -144018.14, -137395.47, -129908.31, -149937.98, 0.000, 0.000, 0.000, 16:28:20.515
165, -7778.03, -8067.33, -7898.75, -7793.85, -144019.58, -137396.95, -129909.54, -149939.45, 0.000, 0.000, 0.000, 16:28:20.524
166, -7778.99, -8068.24, -7899.71, -7794.75, -144020.52, -137397.75, -129910.48, -149940.23, 0.000, 0.000, 0.000, 16:28:20.524
167, -7779.79, -8069.02, -7900.47, -7795.48, -144021.03, -137398.50, -129911.15, -149940.84, 0.000, 0.000, 0.000, 16:28:20.525
168, -7778.88, -8068.06, -7899.31, -7794.50, -144019.13, -137396.66, -129909.14, -149938.78, 0.000, 0.000, 0.000, 16:28:20.525
169, -7779.93, -8069.34, -7900.47, -7795.71, -144021.14, -137398.45, -129911.02, -149940.84, 0.000, 0.000, 0.000, 16:28:20.525
170, -7779.44, -8068.78, -7899.93, -7795.24, -144021.09, -137398.27, -129910.99, -149940.73, 0.000, 0.000, 0.000, 16:28:20.525
171, -7779.12, -8068.35, -7899.49, -7794.66, -144020.72, -137397.98, -129910.75, -149940.33, 0.000, 0.000, 0.000, 16:28:20.526
172, -7780.37, -8069.34, -7900.72, -7795.86, -144021.98, -137399.13, -129912.05, -149941.53, 0.000, 0.000, 0.000, 16:28:20.526
173, -7779.57, -8068.64, -7900.04, -7795.22, -144021.36, -137398.53, -129911.35, -149941.13, 0.000, 0.000, 0.000, 16:28:20.526
174, -7775.97, -8065.20, -7896.47, -7791.71, -144017.97, -137395.30, -129908.00, -149937.73, 0.000, 0.000, 0.000, 16:28:20.526
175, -7774.79, -8064.08, -7895.44, -7790.54, -144017.00, -137394.25, -129906.79, -149936.50, 0.000, 0.000, 0.000, 16:28:20.534
176, -7777.45, -8066.77, -7898.06, -7793.32, -144019.61, -137397.00, -129909.66, -149939.34, 0.000, 0.000, 0.000, 16:28:20.534
177, -7777.49, -8066.81, -7898.08, -7793.29, -144019.58, -137397.08, -129909.77, -149939.55, 0.000, 0.000, 0.000, 16:28:20.535
178, -7777.27, -8066.72, -7898.26, -7793.32, -144019.69, -137397.27, -129909.74, -149939.66, 0.000, 0.000, 0.000, 16:28:20.535
179, -7777.45, -8066.79, -7898.32, -7793.43, -144019.70, -137397.28, -129909.79, -149939.66, 0.000, 0.000, 0.000, 16:28:20.535
180, -7778.94, -8068.33, -7899.64, -7794.95, -144021.34, -137398.66, -129911.33, -149941.16, 0.000, 0.000, 0.000, 16:28:20.535
181, -7777.62, -8067.21, -7898.23, -7793.65, -144020.08, -137397.39, -129910.03, -149939.94, 0.000, 0.000, 0.000, 16:28:20.535
182, -7777.98, -8067.48, -7898.66, -7793.74, -144020.48, -137397.89, -129910.48, -149940.33, 0.000, 0.000, 0.000, 16:28:20.535
183, -7776.82, -8066.34, -7897.45, -7792.53, -144019.27, -137396.66, -129909.30, -149939.00, 0.000, 0.000, 0.000, 16:28:20.535
184, -7775.97, -8065.31, -7896.58, -7791.62, -144018.41, -137395.59, -129908.38, -149938.05, 0.000, 0.000, 0.000, 16:28:20.544
185, -7774.65, -8063.84, -7894.99, -7790.23, -144016.91, -137394.16, -129906.81, -149936.59, 0.000, 0.000, 0.000, 16:28:20.545
186, -7771.70, -8060.69, -7891.64, -7787.26, -144013.72, -137391.11, -129903.57, -149933.47, 0.000, 0.000, 0.000, 16:28:20.545
187, -7771.19, -8060.22, -7891.28, -7786.99, -144013.48, -137390.88, -129903.44, -149933.08, 0.000, 0.000, 0.000, 16:28:20.545
188, -7774.12, -8063.32, -7894.43, -7790.10, -144016.73, -137394.20, -129906.86, -149936.48, 0.000, 0.000, 0.000, 16:28:20.545
189, -7776.55, -8065.78, -7896.89, -7792.29, -144019.19, -137396.44, -129909.30, -149938.89, 0.000, 0.000, 0.000, 16:28:20.545
190, -7775.50, -8065.02, -7896.13, -7791.57, -144018.36, -137395.75, -129908.45, -149938.17, 0.000, 0.000, 0.000, 16:28:20.545
191, -7773.76, -8063.30, -7894.43, -7790.05, -144016.84, -137394.25, -129906.84, -149936.64, 0.000, 0.000, 0.000, 16:28:20.545
192, -7775.39, -8065.27, -7896.25, -7791.84, -144018.86, -137396.44, -129908.94, -149938.56, 0.000, 0.000, 0.000, 16:28:20.546
193, -7774.67, -8064.53, -7895.60, -7790.92, -144018.03, -137395.83, -129908.20, -149938.11, 0.000, 0.000, 0.000, 16:28:20.546
194, -7774.00, -8063.75, -7894.93, -7790.21, -144017.47, -137394.98, -129907.53, -149937.48, 0.000, 0.000, 0.000, 16:28:20.554
195, -7774.61, -8064.26, -7895.44, -7790.83, -144018.00, -137395.41, -129908.02, -149937.94, 0.000, 0.000, 0.000, 16:28:20.555
196, -7773.91, -8063.70, -7894.81, -7790.16, -144017.30, -137394.72, -129907.30, -149937.03, 0.000, 0.000, 0.000, 16:28:20.555
197, -7775.39, -8065.11, -7896.29, -7791.53, -144018.75, -137396.14, -129908.76, -149938.47, 0.000, 0.000, 0.000, 16:28:20.555
198, -7776.10, -8065.69, -7896.78, -7792.24, -144019.42, -137396.70, -129909.43, -149939.31, 0.000, 0.000, 0.000, 16:28:20.555
199, -7778.25, -8067.84, -7898.91, -7794.32, -144021.61, -137398.84, -129911.51, -149941.39, 0.000, 0.000, 0.000, 16:28:20.555
200, -7777.00, -8066.54, -7897.63, -7793.07, -144020.53, -137397.78, -129910.28, -149940.17, 0.000, 0.000, 0.000, 16:28:20.556
201, -7775.26, -8064.87, -7896.04, -7791.26, -144018.59, -137396.03, -129908.71, -149938.53, 0.084, -0.060, 1.004, 16:28:20.556
202, -7776.37, -8065.98, -7897.23, -7792.38, -144019.81, -137397.11, -129909.81, -149939.56, 0.000, 0.000, 0.000, 16:28:20.556
203, -7777.89, -8067.35, -7898.52, -7793.87, -144021.61, -137398.66, -129911.22, -149941.16, 0.000, 0.000, 0.000, 16:28:20.556
204, -7777.45, -8067.08, -7898.23, -7793.52, -144021.31, -137398.53, -129911.11, -149940.89, 0.000, 0.000, 0.000, 16:28:20.564
205, -7774.56, -8064.22, -7895.22, -7790.50, -144018.36, -137395.52, -129908.11, -149937.80, 0.000, 0.000, 0.000, 16:28:20.564
206, -7774.70, -8064.38, -7895.35, -7790.70, -144018.45, -137395.70, -129908.22, -149938.06, 0.000, 0.000, 0.000, 16:28:20.565
207, -7773.29, -8063.15, -7894.10, -7789.52, -144017.33, -137394.58, -129907.13, -149936.95, 0.000, 0.000, 0.000, 16:28:20.565
208, -7773.20, -8063.06, -7894.23, -7789.43, -144017.52, -137394.81, -129907.35, -149937.16, 0.000, 0.000, 0.000, 16:28:20.565
209, -7771.28, -8061.20, -7892.60, -7787.82, -144015.77, -137393.23, -129905.85, -149935.63, 0.000, 0.000, 0.000, 16:28:20.565
210, -7772.19, -8062.12, -7893.32, -7788.73, -144016.73, -137394.16, -129906.70, -149936.66, 0.000, 0.000, 0.000, 16:28:20.565
211, -7773.47, -8063.39, -7894.68, -7790.01, -144017.92, -137395.59, -129908.02, -149937.95, 0.000, 0.000, 0.000, 16:28:20.566
212, -7771.12, -8060.84, -7892.04, -7787.50, -144015.38, -137392.95, -129905.63, -149935.42, 0.000, 0.000, 0.000, 16:28:20.566
213, -7772.37, -8062.01, -7893.09, -7788.69, -144016.69, -137393.98, -129906.59, -149936.50, 0.000, 0.000, 0.000, 16:28:20.566
214, -7773.15, -8063.10, -7894.01, -7789.56, -144017.69, -137394.94, -129907.57, -149937.53, 0.000, 0.000, 0.000, 16:28:20.574
215, -7772.82, -8062.65, -7893.50, -7789.11, -144017.36, -137394.63, -129907.30, -149937.11, 0.000, 0.000, 0.000, 16:28:20.575
216, -7773.02, -8062.83, -7893.61, -7789.09, -144017.31, -137394.63, -129907.44, -149937.02, 0.000, 0.000, 0.000, 16:28:20.575
217, -7773.60, -8063.37, -7894.17, -7789.63, -144017.88, -137395.19, -129907.75, -149937.48, 0.000, 0.000, 0.000, 16:28:20.575
218, -7773.80, -8063.53, -7894.48, -7789.74, -144018.14, -137395.47, -129907.77, -149937.83, 0.000, 0.000, 0.000, 16:28:20.575
219, -7776.64, -8066.12, -7896.96, -7792.47, -144020.80, -137398.05, -129910.46, -149940.39, 0.000, 0.000, 0.000, 16:28:20.575
220, -7777.00, -8066.65, -7897.52, -7792.94, -144021.25, -137398.61, -129910.97, -149941.06, 0.000, 0.000, 0.000, 16:28:20.575
221, -7776.86, -8066.59, -7897.59, -7792.91, -144021.34, -137398.81, -129911.15, -149941.16, 0.000, 0.000, 0.000, 16:28:20.575
222, -7777.74, -8067.66, -7898.73, -7794.08, -144022.56, -137399.98, -129912.45, -149942.34, 0.000, 0.000, 0.000, 16:28:20.575
223, -7777.65, -8067.50, -7898.50, -7793.96, -144022.56, -137399.86, -129912.24, -149942.25, 0.000, 0.000, 0.000, 16:28:20.576
224, -7778.09, -8067.73, -7898.79, -7794.16, -144022.92, -137400.30, -129912.55, -149942.58, 0.000, 0.000, 0.000, 16:28:20.584
225, -7777.13, -8066.79, -7897.83, -7793.29, -144021.72, -137399.45, -129911.95, -149941.73, 0.000, 0.000, 0.000, 16:28:20.585
226, -7774.41, -8064.33, -7895.33, -7790.90, -144019.23, -137397.00, -129909.38, -149939.36, 0.000, 0.000, 0.000, 16:28:20.585
227, -7773.13, -8063.10, -7894.21, -7789.78, -144018.28, -137395.98, -129908.55, -149938.31, 0.000, 0.000, 0.000, 16:28:20.585
228, -7774.90, -8064.89, -7895.84, -7791.50, -144020.17, -137397.78, -129910.44, -149940.06, 0.000, 0.000, 0.000, 16:28:20.585
229, -7772.75, -8062.79, -7893.81, -7789.27, -144017.97, -137395.63, -129907.91, -149938.00, 0.000, 0.000, 0.000, 16:28:20.585
230, -7770.11, -8060.06, -7891.13, -7786.52, -144015.38, -137392.91, -129905.30, -149935.19, 0.000, 0.000, 0.000, 16:28:20.585
231, -7770.18, -8060.15, -7891.10, -7786.72, -144015.45, -137392.77, -129905.45, -149935.30, 0.000, 0.000, 0.000, 16:28:20.585
232, -7769.22, -8059.12, -7890.08, -7785.69, -144014.47, -137391.88, -129904.49, -149934.17, 0.000, 0.000, 0.000, 16:28:20.586
233, -7769.18, -8059.14, -7890.08, -7785.65, -144014.56, -137391.97, -129904.29, -149934.06, 0.000, 0.000, 0.000, 16:28:20.586
234, -7771.01, -8060.87, -7891.71, -7787.33, -144016.28, -137393.53, -129906.10, -149935.81, 0.000, 0.000, 0.000, 16:28:20.594
235, -7773.36, -8063.19, -7894.14, -7789.60, -144018.63, -137395.88, -129908.49, -149938.16, 0.000, 0.000, 0.000, 16:28:20.595
236, -7773.80, -8063.70, -7894.68, -7790.01, -144019.03, -137396.55, -129908.80, -149938.77, 0.000, 0.000, 0.000, 16:28:20.595
237, -7773.78, -8063.53, -7894.61, -7790.03, -144019.02, -137396.48, -129908.76, -149938.64, 0.000, 0.000, 0.000, 16:28:20.595
238, -7775.59, -8065.20, -7896.45, -7791.91, -144020.95, -137398.31, -129910.93, -149940.73, 0.000, 0.000, 0.000, 16:28:20.595
239, -7775.64, -8065.36, -7896.49, -7792.02, -144021.16, -137398.50, -129911.09, -149940.95, 0.086, -0.064, 1.000, 16:28:20.595
240, -7773.76, -8063.62, -7894.57, -7790.14, -144019.58, -137396.89, -129909.16, -149939.25, 0.000, 0.000, 0.000, 16:28:20.595
241, -7774.32, -8064.20, -7895.04, -7790.95, -144020.36, -137397.64, -129910.15, -149940.09, 0.000, 0.000, 0.000, 16:28:20.596
242, -7774.25, -8064.04, -7894.97, -7790.83, -144020.20, -137397.73, -129910.26, -149940.09, 0.000, 0.000, 0.000, 16:28:20.596
243, -7775.86, -8065.78, -7896.85, -7792.44, -144021.78, -137399.36, -129911.95, -149941.78, 0.000, 0.000, 0.000, 16:28:20.596
244, -7773.44, -8063.41, -7894.39, -7789.94, -144019.59, -137397.05, -129909.72, -149939.52, 0.000, 0.000, 0.000, 16:28:20.604
245, -7771.05, -8060.96, -7892.15, -7787.77, -144017.17, -137394.73, -129907.40, -149937.19, 0.000, 0.000, 0.000, 16:28:20.605
246, -7772.24, -8062.10, -7893.36, -7788.96, -144018.45, -137395.88, -129908.45, -149938.20, 0.000, 0.000, 0.000, 16:28:20.605
247, -7774.63, -8064.64, -7895.78, -7791.13, -144020.91, -137398.34, -129910.84, -149940.64, 0.000, 0.000, 0.000, 16:28:20.605
248, -7776.02, -8065.94, -7897.07, -7792.47, -144022.13, -137399.70, -129912.11, -149942.00, 0.000, 0.000, 0.000, 16:28:20.605
249, -7773.76, -8063.79, -7894.75, -7790.32, -144019.73, -137397.33, -129909.79, -149939.61, 0.000, 0.000, 0.000, 16:28:20.605
250, -7771.05, -8061.02, -7891.77, -7787.37, -144016.98, -137394.41, -129906.97, -149936.91, 0.000, 0.000, 0.000, 16:28:20.606
251, -7771.30, -8061.25, -7892.04, -7787.39, -144017.27, -137394.45, -129907.20, -149936.86, 0.000, 0.000, 0.000, 16:28:20.606
252, -7771.72, -8061.72, -7892.60, -7787.84, -144017.53, -137395.03, -129907.64, -149937.27, 0.000, 0.000, 0.000, 16:28:20.606
253, -7772.57, -8062.48, -7893.52, -7788.73, -144018.67, -137396.02, -129908.67, -149938.36, 0.000, 0.000, 0.000, 16:28:20.606
254, -7773.98, -8063.75, -7894.75, -7790.07, -144019.97, -137397.59, -129909.83, -149939.75, 0.000, 0.000, 0.000, 16:28:20.614
255, -7771.99, -8061.96, -7892.83, -7788.31, -144018.36, -137395.83, -129908.05, -149937.91, 0.000, 0.000, 0.000, 16:28:20.615
0, -7774.25, -8064.17, -7895.26, -7790.70, -144020.80, -137398.11, -129910.59, -149940.38, 0.000, 0.000, 0.000, 16:28:20.615
1, -7773.13, -8063.19, -7894.12, -7789.72, -144019.81, -137397.28, -129909.74, -149939.44, 0.000, 0.000, 0.000, 16:28:20.615
2, -7772.48, -8062.56, -7893.38, -7789.05, -144019.45, -137396.89, -129909.30, -149938.98, 0.000, 0.000, 0.000, 16:28:20.615
3, -7770.74, -8060.87, -7891.53, -7787.26, -144017.73, -137395.25, -129907.77, -149937.38, 0.000, 0.000, 0.000, 16:28:20.615
4, -7768.71, -8058.79, -7889.58, -7785.25, -144015.61, -137393.08, -129905.70, -149935.63, 0.000, 0.000, 0.000, 16:28:20.615
5, -7769.04, -8059.12, -7889.88, -7785.65, -144015.95, -137393.75, -129905.96, -149936.02, 0.000, 0.000, 0.000, 16:28:20.615
6, -7770.16, -8060.24, -7891.04, -7786.70, -144017.22, -137394.94, -129907.13, -149937.11, 0.000, 0.000, 0.000, 16:28:20.615
7, -7772.53, -8062.63, -7893.38, -7789.14, -144019.53, -137397.17, -129909.54, -149939.50, 0.000, 0.000, 0.000, 16:28:20.616
8, -7772.89, -8062.85, -7893.65, -7789.52, -144019.92, -137397.53, -129909.81, -149939.81, 0.000, 0.000, 0.000, 16:28:20.624
9, -7771.95, -8061.78, -7892.65, -7788.26, -144018.97, -137396.44, -129908.60, -149938.64, 0.000, 0.000, 0.000, 16:28:20.625
10, -7773.38, -8063.21, -7893.92, -7789.74, -144020.16, -137397.67, -129909.88, -149939.88, 0.000, 0.000, 0.000, 16:28:20.625
11, -7776.04, -8065.96, -7896.49, -7792.44, -144022.83, -137400.39, -129912.45, -149942.50, 0.000, 0.000, 0.000, 16:28:20.625
12, -7776.22, -8066.05, -7896.74, -7792.38, -144023.03, -137400.50, -129912.83, -149942.73, 0.000, 0.000, 0.000, 16:28:20.625
13, -7775.39, -8065.29, -7895.95, -7791.55, -144022.19, -137399.56, -129912.11, -149941.80, 0.000, 0.000, 0.000, 16:28:20.625
14, -7775.37, -8065.45, -7896.18, -7791.62, -144022.48, -137399.67, -129912.11, -149942.20, 0.000, 0.000, 0.000, 16:28:20.625
15, -7776.22, -8066.01, -7896.89, -7792.51, -144023.27, -137400.59, -129913.16, -149943.00, 0.000, 0.000, 0.000, 16:28:20.626
16, -7774.09, -8063.82, -7894.73, -7790.30, -144021.25, -137398.72, -129911.09, -149940.77, 0.000, 0.000, 0.000, 16:28:20.626
17, -7773.60, -8063.50, -7894.39, -7790.01, -144020.98, -137398.31, -129910.73, -149940.41, 0.000, 0.000, 0.000, 16:28:20.626
18, -7772.80, -8062.74, -7893.72, -7789.38, -144020.36, -137397.89, -129910.05, -149940.06, 0.000, 0.000, 0.000, 16:28:20.635
19, -7773.33, -8063.23, -7894.21, -7789.98, -144020.98, -137398.53, -129910.93, -149940.69, 0.000, 0.000, 0.000, 16:28:20.635
20, -7774.29, -8064.22, -7895.17, -7790.95, -144022.09, -137399.70, -129912.05, -149941.80, 0.000, 0.000, 0.000, 16:28:20.635
21, -7773.06, -8063.26, -7894.23, -7790.01, -144020.91, -137398.67, -129910.84, -149940.89, 0.088, -0.062, 1.000, 16:28:20.635
22, -7770.65, -8060.80, -7891.82, -7787.59, -144018.55, -137396.25, -129908.54, -149938.47, 0.000, 0.000, 0.000, 16:28:20.635
23, -7771.75, -8061.80, -7892.67, -7788.24, -144019.42, -137397.16, -129909.25, -149939.23, 0.000, 0.000, 0.000, 16:28:20.635
24, -7771.57, -8061.69, -7892.40, -7788.11, -144019.42, -137397.16, -129909.18, -149939.19, 0.000, 0.000, 0.000, 16:28:20.635
25, -7773.02, -8063.26, -7893.88, -7789.69, -144021.09, -137398.67, -129910.99, -149940.77, 0.000, 0.000, 0.000, 16:28:20.636
26, -7773.91, -8064.00, -7894.46, -7790.36, -144021.58, -137399.28, -129911.51, -149941.23, 0.000, 0.000, 0.000, 16:28:20.636
27, -7773.60, -8063.53, -7894.19, -7789.96, -144021.19, -137398.77, -129911.11, -149940.86, 0.000, 0.000, 0.000, 16:28:20.636
28, -7772.71, -8062.59, -7893.27, -7789.02, -144020.38, -137397.64, -129910.03, -149939.94, 0.000, 0.000, 0.000, 16:28:20.636
29, -7772.80, -8062.65, -7893.34, -7789.14, -144020.47, -137397.84, -129910.23, -149940.02, 0.000, 0.000, 0.000, 16:28:20.645
30, -7770.83, -8060.69, -7891.42, -7787.10, -144018.47, -137396.02, -129908.38, -149938.05, 0.000, 0.000, 0.000, 16:28:20.645
31, -7770.43, -8060.28, -7891.04, -7786.72, -144018.09, -137395.44, -129907.98, -149937.47, 0.000, 0.000, 0.000, 16:28:20.645
32, -7773.49, -8063.48, -7894.05, -7790.03, -144021.50, -137398.89, -129911.11, -149940.91, 0.000, 0.000, 0.000, 16:28:20.645
33, -7776.24, -8066.34, -7896.85, -7792.62, -144024.22, -137401.84, -129914.15, -149943.97, 0.000, 0.000, 0.000, 16:28:20.645
34, -7777.49, -8067.57, -7898.35, -7793.99, -144025.63, -137403.19, -129915.53, -149945.27, 0.000, 0.000, 0.000, 16:28:20.645
35, -7778.88, -8068.91, -7899.69, -7795.48, -144027.23, -137404.86, -129917.05, -149946.92, 0.000, 0.000, 0.000, 16:28:20.645
36, -7775.41, -8065.76, -7896.22, -7792.13, -144024.00, -137401.63, -129913.90, -149943.78, 0.000, 0.000, 0.000, 16:28:20.646
37, -7775.03, -8065.25, -7895.78, -7791.80, -144023.50, -137401.08, -129913.59, -149943.36, 0.000, 0.000, 0.000, 16:28:20.646
38, -7776.44, -8066.86, -7897.52, -7793.47, -144025.22, -137402.92, -129915.30, -149945.05, 0.000, 0.000, 0.000, 16:28:20.646
39, -7775.59, -8065.94, -7896.71, -7792.51, -144024.48, -137402.05, -129914.46, -149944.17, 0.000, 0.000, 0.000, 16:28:20.655
40, -7773.98, -8064.33, -7895.02, -7790.83, -144022.88, -137400.64, -129912.83, -149942.63, 0.000, 0.000, 0.000, 16:28:20.655
41, -7772.06, -8062.45, -7893.16, -7788.71, -144020.80, -137398.53, -129910.86, -149940.64, 0.000, 0.000, 0.000, 16:28:20.655
42, -7773.27, -8063.64, -7894.28, -7790.01, -144022.28, -137399.63, -129912.23, -149941.89, 0.000, 0.000, 0.000, 16:28:20.655
43, -7771.46, -8061.94, -7892.58, -7788.33, -144020.47, -137397.95, -129910.28, -149940.13, 0.000, 0.000, 0.000, 16:28:20.655
44, -7771.75, -8061.92, -7892.65, -7788.44, -144020.31, -137397.89, -129910.28, -149940.09, 0.000, 0.000, 0.000, 16:28:20.655
45, -7774.67, -8064.82, -7895.28, -7791.13, -144023.14, -137400.70, -129913.12, -149942.92, 0.000, 0.000, 0.000, 16:28:20.655
46, -7774.76, -8064.82, -7895.28, -7791.08, -144023.17, -137400.84, -129913.07, -149942.89, 0.000, 0.000, 0.000, 16:28:20.655
47, -7774.54, -8064.62, -7895.11, -7790.90, -144023.14, -137400.91, -129912.91, -149942.73, 0.000, 0.000, 0.000, 16:28:20.656
48, -7774.99, -8065.00, -7895.51, -7791.28, -144023.66, -137401.28, -129913.52, -149943.19, 0.000, 0.000, 0.000, 16:28:20.656
49, -7774.47, -8064.44, -7894.88, -7790.79, -144023.38, -137400.69, -129913.01, -149942.73, 0.000, 0.000, 0.000, 16:28:20.665
50, -7772.08, -8062.18, -7892.67, -7788.60, -144021.25, -137398.47, -129910.75, -149940.59, 0.000, 0.000, 0.000, 16:28:20.665
51, -7772.10, -8062.27, -7892.83, -7788.78, -144021.31, -137398.67, -129910.95, -149940.80, 0.000, 0.000, 0.000, 16:28:20.665
52, -7773.51, -8063.62, -7894.23, -7790.05, -144022.77, -137400.08, -129912.49, -149942.41, 0.000, 0.000, 0.000, 16:28:20.665
53, -7772.42, -8062.59, -7893.32, -7789.07, -144021.84, -137399.36, -129911.80, -149941.63, 0.000, 0.000, 0.000, 16:28:20.665
54, -7770.45, -8060.84, -7891.48, -7787.39, -144020.13, -137397.70, -129910.16, -149940.03, 0.000, 0.000, 0.000, 16:28:20.665
55, -7770.02, -8060.60, -7891.15, -7786.99, -144019.89, -137397.33, -129909.61, -149939.50, 0.000, 0.000, 0.000, 16:28:20.665
56, -7771.41, -8062.03, -7892.67, -7788.33, -144021.34, -137398.72, -129911.17, -149941.00, 0.000, 0.000, 0.000, 16:28:20.666
57, -7773.29, -8063.82, -7894.39, -7790.30, -144023.02, -137400.58, -129912.91, -149942.67, 0.000, 0.000, 0.000, 16:28:20.666
58, -7772.48, -8062.97, -7893.41, -7789.60, -144022.23, -137399.77, -129912.36, -149941.95, 0.000, 0.000, 0.000, 16:28:20.666
59, -7774.14, -8064.55, -7894.86, -7791.01, -144023.91, -137401.22, -129913.84, -149943.52, 0.000, 0.000, 0.000, 16:28:20.675
60, -7774.36, -8064.58, -7895.08, -7791.08, -144024.16, -137401.47, -129913.95, -149943.63, 0.084, -0.066, 0.996, 16:28:20.675
61, -7774.45, -8064.64, -7895.24, -7791.17, -144024.00, -137401.44, -129913.84, -149943.59, 0.000, 0.000, 0.000, 16:28:20.675
62, -7774.90, -8065.13, -7895.66, -7791.46, -144024.58, -137402.00, -129914.16, -149944.08, 0.000, 0.000, 0.000, 16:28:20.675
63, -7775.93, -8066.16, -7896.80, -7792.44, -144025.63, -137402.97, -129915.17, -149945.16, 0.000, 0.000, 0.000, 16:28:20.675
64, -7774.05, -8064.20, -7894.64, -7790.61, -144023.66, -137401.06, -129913.45, -149943.19, 0.000, 0.000, 0.000, 16:28:20.675
65, -7773.51, -8063.77, -7894.17, -7790.05, -144023.38, -137400.77, -129912.94, -149942.56, 0.000, 0.000, 0.000, 16:28:20.675
66, -7774.74, -8065.07, -7895.51, -7791.48, -144024.67, -137402.09, -129914.16, -149944.17, 0.000, 0.000, 0.000, 16:28:20.676
67, -7776.35, -8066.57, -7897.12, -7793.38, -144026.13, -137403.77, -129916.07, -149945.91, 0.000, 0.000, 0.000, 16:28:20.676
68, -7776.48, -8066.79, -7897.23, -7793.32, -144026.41, -137404.08, -129916.27, -149945.98, 0.000, 0.000, 0.000, 16:28:20.676
69, -7773.13, -8063.55, -7893.90, -7789.81, -144023.14, -137400.95, -129913.12, -149942.94, 0.000, 0.000, 0.000, 16:28:20.686
70, -7770.63, -8061.16, -7891.62, -7787.62, -144021.11, -137398.78, -129910.95, -149940.84, 0.000, 0.000, 0.000, 16:28:20.687
71, -7771.68, -8062.30, -7892.87, -7788.80, -144022.41, -137399.83, -129912.00, -149941.91, 0.000, 0.000, 0.000, 16:28:20.687
72, -7771.14, -8061.80, -7892.36, -7788.38, -144021.77, -137399.30, -129911.73, -149941.39, 0.000, 0.000, 0.000, 16:28:20.687
73, -7771.57, -8062.14, -7892.53, -7788.62, -144022.16, -137399.75, -129912.07, -149941.94, 0.000, 0.000, 0.000, 16:28:20.687
74, -7771.23, -8061.96, -7892.20, -7788.26, -144021.92, -137399.36, -129911.84, -149941.67, 0.000, 0.000, 0.000, 16:28:20.687
75, -7773.62, -8064.24, -7894.57, -7790.61, -144024.20, -137401.75, -129914.13, -149943.97, 0.000, 0.000, 0.000, 16:28:20.688
76, -7773.42, -8064.04, -7894.37, -7790.36, -144024.06, -137401.52, -129913.68, -149943.77, 0.000, 0.000, 0.000, 16:28:20.688
77, -7772.37, -8062.92, -7893.27, -7789.20, -144022.97, -137400.45, -129912.67, -149942.61, 0.000, 0.000, 0.000, 16:28:20.688
78, -7770.52, -8060.98, -7891.48, -7787.35, -144021.20, -137398.72, -129911.02, -149940.59, 0.000, 0.000, 0.000, 16:28:20.688
79, -7770.23, -8060.64, -7891.26, -7786.86, -144020.91, -137398.41, -129910.57, -149940.39, 0.000, 0.000, 0.000, 16:28:20.695
80, -7770.38, -8060.66, -7891.26, -7787.08, -144021.06, -137398.38, -129910.62, -149940.56, 0.000, 0.000, 0.000, 16:28:20.695
81, -7769.00, -8059.39, -7889.81, -7785.81, -144019.81, -137397.16, -129909.32, -149939.28, 0.000, 0.000, 0.000, 16:28:20.695
82, -7771.37, -8061.49, -7892.15, -7788.04, -144022.03, -137399.47, -129911.64, -149941.44, 0.000, 0.000, 0.000, 16:28:20.695
83, -7770.38, -8060.69, -7891.22, -7787.19, -144021.16, -137398.66, -129910.99, -149940.89, 0.000, 0.000, 0.000, 16:28:20.695
84, -7768.15, -8058.56, -7888.98, -7784.91, -144019.03, -137396.50, -129908.80, -149938.77, 0.000, 0.000, 0.000, 16:28:20.696
85, -7768.46, -8058.97, -7889.54, -7785.43, -144019.70, -137397.06, -129909.41, -149939.19, 0.000, 0.000, 0.000, 16:28:20.696
86, -7767.48, -8058.16, -7888.73, -7784.82, -144019.11, -137396.44, -129908.94, -149938.77, 0.000, 0.000, 0.000, 16:28:20.696
87, -7766.83, -8057.38, -7888.09, -7784.08, -144018.31, -137396.02, -129908.31, -149938.16, 0.000, 0.000, 0.000, 16:28:20.696
88, -7765.85, -8056.28, -7887.15, -7783.01, -144017.22, -137395.08, -129907.13, -149937.17, 0.000, 0.000, 0.000, 16:28:20.696
89, -7766.20, -8056.75, -7887.62, -7783.41, -144017.81, -137395.31, -129907.51, -149937.44, 0.000, 0.000, 0.000, 16:28:20.705
90, -7767.30, -8057.89, -7888.40, -7784.42, -144018.77, -137396.45, -129908.67, -149938.47, 0.000, 0.000, 0.000, 16:28:20.705
91, -7769.85, -8060.46, -7890.88, -7786.95, -144021.36, -137398.98, -129911.22, -149941.11, 0.000, 0.000, 0.000, 16:28:20.705
92, -7772.30, -8062.92, -7893.27, -7789.38, -144023.81, -137401.23, -129913.56, -149943.44, 0.000, 0.000, 0.000, 16:28:20.705
93, -7770.72, -8061.29, -7891.75, -7787.77, -144022.23, -137399.77, -129911.95, -149941.69, 0.000, 0.000, 0.000, 16:28:20.705
94, -7771.12, -8061.51, -7892.20, -7787.93, -144022.39, -137400.13, -129912.18, -149941.95, 0.000, 0.000, 0.000, 16:28:20.705
95, -7771.97, -8062.43, -7893.03, -7788.67, -144023.17, -137400.97, -129912.88, -149942.78, 0.000, 0.000, 0.000, 16:28:20.705
96, -7771.10, -8061.54, -7892.09, -7788.00, -144022.55, -137400.19, -129912.23, -149941.95, 0.000, 0.000, 0.000, 16:28:20.706
97, -7769.87, -8060.40, -7890.93, -7786.86, -144021.47, -137398.94, -129911.22, -149940.84, 0.000, 0.000, 0.000, 16:28:20.706
98, -7770.74, -8061.29, -7891.89, -7787.73, -144022.41, -137399.83, -129912.02, -149941.91, 0.088, -0.064, 0.996, 16:28:20.706
99, -7771.57, -8062.12, -7892.58, -7788.44, -144023.17, -137400.64, -129912.83, -149942.73, 0.000, 0.000, 0.000, 16:28:20.715
100, -7769.11, -8059.66, -7890.19, -7786.01, -144020.95, -137398.45, -129910.59, -149940.33, 0.000, 0.000, 0.000, 16:28:20.715
101, -7767.90, -8058.56, -7889.16, -7784.96, -144019.80, -137397.33, -129909.56, -149939.19, 0.000, 0.000, 0.000, 16:28:20.715
102, -7770.70, -8061.31, -7891.86, -7787.82, -144022.70, -137400.08, -129912.38, -149942.11, 0.000, 0.000, 0.000, 16:28:20.716
103, -7769.04, -8059.52, -7889.99, -7785.98, -144021.27, -137398.73, -129910.84, -149940.77, 0.000, 0.000, 0.000, 16:28:20.716
104, -7766.69, -8057.20, -7887.64, -7783.79, -144018.97, -137396.39, -129908.70, -149938.56, 0.000, 0.000, 0.000, 16:28:20.716
105, -7767.59, -8058.00, -7888.69, -7784.58, -144019.69, -137397.33, -129909.41, -149939.39, 0.000, 0.000, 0.000, 16:28:20.716
106, -7769.06, -8059.64, -7890.03, -7786.05, -144021.30, -137399.13, -129911.13, -149940.95, 0.000, 0.000, 0.000, 16:28:20.716
107, -7768.55, -8059.19, -7889.50, -7785.51, -144020.88, -137398.45, -129910.75, -149940.48, 0.000, 0.000, 0.000, 16:28:20.716
108, -7767.59, -8058.34, -7888.58, -7784.53, -144019.84, -137397.42, -129909.83, -149939.47, 0.000, 0.000, 0.000, 16:28:20.717
109, -7766.25, -8056.95, -7887.26, -7783.30, -144018.66, -137396.25, -129908.42, -149938.16, 0.000, 0.000, 0.000, 16:28:20.725
110, -7767.32, -8057.85, -7888.13, -7784.20, -144019.44, -137397.13, -129909.32, -149939.03, 0.000, 0.000, 0.000, 16:28:20.725
111, -7768.46, -8059.03, -7889.32, -7785.38, -144020.64, -137398.27, -129910.55, -149940.13, 0.000, 0.000, 0.000, 16:28:20.725
112, -7767.14, -8057.58, -7888.20, -7784.02, -144019.38, -137396.89, -129909.27, -149938.64, 0.000, 0.000, 0.000, 16:28:20.725
113, -7769.18, -8059.32, -7890.01, -7785.78, -144021.36, -137398.78, -129910.99, -149940.64, 0.000, 0.000, 0.000, 16:28:20.726
114, -7771.28, -8061.67, -7892.22, -7788.06, -144023.50, -137400.91, -129913.23, -149943.03, 0.000, 0.000, 0.000, 16:28:20.726
115, -7771.08, -8061.60, -7892.18, -7788.00, -144023.39, -137400.92, -129913.34, -149942.97, 0.000, 0.000, 0.000, 16:28:20.726
116, -7770.09, -8060.64, -7890.99, -7787.01, -144022.50, -137400.08, -129912.29, -149942.02, 0.000, 0.000, 0.000, 16:28:20.726
117, -7769.40, -8059.97, -7890.21, -7786.32, -144021.98, -137399.41, -129911.69, -149941.39, 0.000, 0.000, 0.000, 16:28:20.726
118, -7768.46, -8059.12, -7889.50, -7785.54, -144021.19, -137398.77, -129910.93, -149940.66, 0.000, 0.000, 0.000, 16:28:20.726
119, -7767.01, -8057.71, -7888.24, -7784.11, -144019.89, -137397.47, -129909.70, -149939.31, 0.000, 0.000, 0.000, 16:28:20.735
120, -7765.80, -8056.62, -7887.08, -7783.12, -144018.94, -137396.45, -129908.70, -149938.38, 0.000, 0.000, 0.000, 16:28:20.735
121, -7767.05, -8057.78, -7888.20, -7784.42, -144020.05, -137397.69, -129909.90, -149939.88, 0.000, 0.000, 0.000, 16:28:20.735
122, -7769.22, -8059.86, -7890.23, -7786.48, -144022.36, -137399.83, -129912.00, -149941.91, 0.000, 0.000, 0.000, 16:28:20.735
123, -7770.72, -8061.36, -7891.77, -7787.93, -144024.16, -137401.63, -129913.56, -149943.47, 0.000, 0.000, 0.000, 16:28:20.735
124, -7770.56, -8061.25, -7891.60, -7787.88, -144023.84, -137401.38, -129913.34, -149943.25, 0.000, 0.000, 0.000, 16:28:20.736
125, -7770.47, -8061.29, -7891.44, -7787.82, -144023.89, -137401.16, -129913.43, -149943.16, 0.000, 0.000, 0.000, 16:28:20.736
126, -7768.55, -8059.23, -7889.38, -7785.72, -144021.83, -137399.20, -129911.27, -149941.27, 0.000, 0.000, 0.000, 16:28:20.736
127, -7766.07, -8056.64, -7886.92, -7782.99, -144019.30, -137396.58, -129908.76, -149938.67, 0.000, 0.000, 0.000, 16:28:20.736
128, -7766.52, -8057.04, -7887.26, -7783.41, -144019.75, -137397.05, -129909.27, -149938.92, 0.000, 0.000, 0.000, 16:28:20.736
129, -7767.41, -8057.92, -7888.11, -7784.35, -144020.52, -137397.98, -129910.08, -149939.72, 0.000, 0.000, 0.000, 16:28:20.745
130, -7767.45, -8057.89, -7888.24, -7784.31, -144020.63, -137397.95, -129910.08, -149939.77, 0.000, 0.000, 0.000, 16:28:20.745
131, -7767.54, -8057.94, -7888.29, -7784.37, -144020.72, -137397.91, -129909.98, -149939.77, 0.000, 0.000, 0.000, 16:28:20.745
132, -7766.27, -8056.75, -7886.99, -7783.15, -144019.45, -137396.80, -129908.76, -149938.72, 0.000, 0.000, 0.000, 16:28:20.745
133, -7768.08, -8058.81, -7888.82, -7785.05, -144021.69, -137398.94, -129911.02, -149940.92, 0.000, 0.000, 0.000, 16:28:20.745
134, -7771.39, -8062.21, -7892.38, -7788.51, -144025.05, -137402.30, -129914.52, -149944.34, 0.000, 0.000, 0.000, 16:28:20.745
135, -7771.39, -8062.12, -7892.40, -7788.67, -144025.19, -137402.56, -129914.68, -149944.58, 0.000, 0.000, 0.000, 16:28:20.745
136, -7769.44, -8060.11, -7890.39, -7786.68, -144023.39, -137400.86, -129912.85, -149942.77, 0.090, -0.064, 0.998, 16:28:20.746
137, -7766.87, -8057.49, -7887.91, -7784.22, -144020.91, -137398.50, -129910.50, -149940.45, 0.000, 0.000, 0.000, 16:28:20.746
138, -7765.93, -8056.53, -7887.17, -7783.37, -144019.97, -137397.64, -129909.66, -149939.67, 0.000, 0.000, 0.000, 16:28:20.746
139, -7766.09, -8056.78, -7887.28, -7783.37, -144020.27, -137397.75, -129909.95, -149939.78, 0.000, 0.000, 0.000, 16:28:20.755
140, -7767.59, -8058.34, -7888.60, -7784.93, -144021.77, -137399.34, -129911.35, -149941.16, 0.000, 0.000, 0.000, 16:28:20.755
141, -7768.46, -8059.28, -7889.47, -7785.89, -144022.67, -137400.11, -129912.36, -149942.00, 0.000, 0.000, 0.000, 16:28:20.755
142, -7769.49, -8060.35, -7890.57, -7786.95, -144023.80, -137401.02, -129913.41, -149943.03, 0.000, 0.000, 0.000, 16:28:20.755
143, -7768.19, -8059.12, -7889.27, -7785.49, -144022.34, -137399.66, -129911.87, -149941.70, 0.000, 0.000, 0.000, 16:28:20.756
144, -7768.26, -8059.01, -7889.18, -7785.34, -144022.28, -137399.75, -129911.89, -149941.64, 0.000, 0.000, 0.000, 16:28:20.756
145, -7769.42, -8060.13, -7890.43, -7786.48, -144023.59, -137400.95, -129913.03, -149942.88, 0.000, 0.000, 0.000, 16:28:20.756
146, -7769.33, -8059.95, -7890.19, -7786.16, -144023.39, -137400.77, -129912.83, -149942.72, 0.000, 0.000, 0.000, 16:28:20.756
147, -7767.16, -8057.94, -7887.91, -7784.20, -144021.20, -137398.72, -129910.73, -149940.56, 0.000, 0.000, 0.000, 16:28:20.756
148, -7765.53, -8056.19, -7886.23, -7782.56, -144019.69, -137397.05, -129909.20, -149939.13, 0.000, 0.000, 0.000, 16:28:20.756
149, -7768.86, -8059.37, -7889.63, -7785.76, -144022.98, -137400.39, -129912.60, -149942.45, 0.000, 0.000, 0.000, 16:28:20.765
150, -7768.93, -8059.66, -7889.88, -7785.96, -144023.30, -137400.61, -129912.80, -149942.69, 0.000, 0.000, 0.000, 16:28:20.765
151, -7767.34, -8058.05, -7888.29, -7784.64, -144021.84, -137399.14, -129911.27, -149941.27, 0.000, 0.000, 0.000, 16:28:20.765
152, -7765.98, -8056.84, -7887.08, -7783.46, -144020.42, -137397.75, -129909.95, -149939.88, 0.000, 0.000, 0.000, 16:28:20.765
153, -7763.90, -8054.83, -7885.00, -7781.45, -144018.63, -137396.14, -129908.24, -149938.02, 0.000, 0.000, 0.000, 16:28:20.766
154, -7764.71, -8055.55, -7885.78, -7782.39, -144019.58, -137397.27, -129909.38, -149939.09, 0.000, 0.000, 0.000, 16:28:20.766
155, -7767.72, -8058.63, -7888.76, -7785.20, -144022.70, -137400.22, -129912.27, -149942.14, 0.000, 0.000, 0.000, 16:28:20.766
156, -7764.93, -8055.86, -7885.94, -7782.54, -144020.02, -137397.52, -129909.48, -149939.45, 0.000, 0.000, 0.000, 16:28:20.766
157, -7765.51, -8056.44, -7886.59, -7783.03, -144020.48, -137397.89, -129910.05, -149939.94, 0.000, 0.000, 0.000, 16:28:20.766
158, -7766.98, -8058.00, -7888.13, -7784.37, -144021.83, -137399.30, -129911.48, -149941.27, 0.000, 0.000, 0.000, 16:28:20.766
159, -7765.53, -8056.69, -7886.63, -7782.90, -144020.55, -137398.05, -129910.13, -149940.02, 0.000, 0.000, 0.000, 16:28:20.775
160, -7764.15, -8054.99, -7885.07, -7781.27, -144018.92, -137396.59, -129908.71, -149938.41, 0.000, 0.000, 0.000, 16:28:20.776
161, -7764.75, -8055.66, -7885.70, -7781.85, -144019.84, -137397.28, -129909.25, -149939.05, 0.000, 0.000, 0.000, 16:28:20.776
162, -7764.71, -8055.46, -7885.52, -7781.74, -144019.53, -137396.95, -129909.07, -149938.83, 0.000, 0.000, 0.000, 16:28:20.776
163, -7765.69, -8056.28, -7886.28, -7782.59, -144020.52, -137397.89, -129909.95, -149939.78, 0.000, 0.000, 0.000, 16:28:20.776
164, -7766.92, -8057.63, -7887.68, -7783.91, -144021.89, -137399.28, -129911.38, -149941.13, 0.000, 0.000, 0.000, 16:28:20.776
165, -7767.05, -8057.80, -7887.84, -7783.93, -144021.88, -137399.39, -129911.59, -149941.33, 0.000, 0.000, 0.000, 16:28:20.776
166, -7767.01, -8057.69, -7887.86, -7783.97, -144021.97, -137399.44, -129911.62, -149941.48, 0.000, 0.000, 0.000, 16:28:20.776
167, -7768.71, -8059.52, -7889.67, -7785.92, -144023.86, -137401.44, -129913.43, -149943.31, 0.000, 0.000, 0.000, 16:28:20.776
168, -7768.59, -8059.59, -7889.70, -7786.05, -144023.84, -137401.67, -129913.59, -149943.34, 0.000, 0.000, 0.000, 16:28:20.777
169, -7766.72, -8057.67, -7887.73, -7784.20, -144022.09, -137399.67, -129911.82, -149941.53, 0.000, 0.000, 0.000, 16:28:20.785
170, -7768.13, -8059.01, -7889.29, -7785.60, -144023.69, -137401.20, -129913.52, -149943.28, 0.000, 0.000, 0.000, 16:28:20.785
171, -7767.86, -8058.68, -7888.98, -7785.36, -144023.34, -137401.05, -129913.05, -149943.16, 0.000, 0.000, 0.000, 16:28:20.785
172, -7768.55, -8059.52, -7889.70, -7786.21, -144024.00, -137401.58, -129913.72, -149943.70, 0.000, 0.000, 0.000, 16:28:20.786
173, -7768.48, -8059.48, -7889.65, -7786.21, -144024.11, -137401.73, -129913.95, -149943.67, 0.000, 0.000, 0.000, 16:28:20.786
174, -7769.40, -8060.42, -7890.48, -7786.88, -144025.16, -137402.61, -129914.75, -149944.69, 0.000, 0.000, 0.000, 16:28:20.786
175, -7770.20, -8061.29, -7891.37, -7787.82, -144025.97, -137403.64, -129915.69, -149945.59, 0.090, -0.058, 0.998, 16:28:20.786
176, -7768.17, -8059.26, -7889.36, -7785.83, -144024.02, -137401.67, -129913.68, -149943.67, 0.000, 0.000, 0.000, 16:28:20.786
177, -7767.23, -8058.27, -7888.13, -7784.53, -144022.97, -137400.50, -129912.49, -149942.61, 0.000, 0.000, 0.000, 16:28:20.786
178, -7767.37, -8058.38, -7888.38, -7784.67, -144023.22, -137400.55, -129912.55, -149942.66, 0.000, 0.000, 0.000, 16:28:20.786
179, -7767.03, -8057.94, -7888.06, -7784.29, -144022.75, -137400.08, -129912.00, -149941.98, 0.000, 0.000, 0.000, 16:28:20.786
180, -7767.12, -8057.78, -7887.86, -7784.15, -144022.59, -137400.17, -129912.18, -149942.02, 0.000, 0.000, 0.000, 16:28:20.795
181, -7767.10, -8057.80, -7887.84, -7784.17, -144022.56, -137400.11, -129912.18, -149941.91, 0.000, 0.000, 0.000, 16:28:20.795
182, -7766.83, -8057.60, -7887.57, -7784.04, -144022.48, -137400.02, -129911.93, -149941.78, 0.000, 0.000, 0.000, 16:28:20.795
183, -7769.06, -8059.90, -7889.76, -7786.25, -144025.14, -137402.45, -129914.44, -149944.34, 0.000, 0.000, 0.000, 16:28:20.796
184, -7769.44, -8060.20, -7890.23, -7786.61, -144025.47, -137402.81, -129914.93, -149944.80, 0.000, 0.000, 0.000, 16:28:20.796
185, -7766.49, -8057.49, -7887.35, -7783.84, -144022.67, -137400.17, -129912.29, -149942.05, 0.000, 0.000, 0.000, 16:28:20.796
186, -7765.47, -8056.48, -7886.46, -7782.97, -144021.72, -137399.23, -129911.27, -149941.20, 0.000, 0.000, 0.000, 16:28:20.796
187, -7765.20, -8056.28, -7886.19, -7782.70, -144021.53, -137399.16, -129911.22, -149941.13, 0.000, 0.000, 0.000, 16:28:20.796
188, -7763.99, -8055.21, -7884.98, -7781.63, -144020.53, -137398.25, -129910.32, -149940.13, 0.000, 0.000, 0.000, 16:28:20.796
189, -7763.48, -8054.65, -7884.67, -7781.16, -144020.13, -137397.78, -129909.85, -149939.75, 0.000, 0.000, 0.000, 16:28:20.796
190, -7765.29, -8056.44, -7886.41, -7782.92, -144022.05, -137399.39, -129911.62, -149941.52, 0.000, 0.000, 0.000, 16:28:20.805
191, -7764.75, -8055.77, -7885.92, -7782.34, -144021.47, -137398.83, -129911.06, -149940.95, 0.000, 0.000, 0.000, 16:28:20.805
192, -7765.93, -8056.75, -7886.83, -7783.19, -144022.36, -137399.91, -129911.82, -149941.78, 0.000, 0.000, 0.000, 16:28:20.805
193, -7764.86, -8055.73, -7885.56, -7781.94, -144021.38, -137398.63, -129910.73, -149940.59, 0.000, 0.000, 0.000, 16:28:20.806
194, -7764.91, -8055.61, -7885.65, -7782.21, -144021.27, -137398.63, -129910.75, -149940.69, 0.000, 0.000, 0.000, 16:28:20.806
195, -7765.87, -8056.73, -7886.50, -7783.08, -144022.19, -137399.83, -129911.71, -149941.39, 0.000, 0.000, 0.000, 16:28:20.806
196, -7766.07, -8057.00, -7886.75, -7783.32, -144022.55, -137399.92, -129912.05, -149941.73, 0.000, 0.000, 0.000, 16:28:20.806
197, -7763.68, -8054.56, -7884.51, -7780.84, -144020.27, -137397.36, -129909.67, -149939.50, 0.000, 0.000, 0.000, 16:28:20.806
198, -7764.71, -8055.37, -7885.49, -7781.78, -144021.31, -137398.36, -129910.62, -149940.41, 0.000, 0.000, 0.000, 16:28:20.806
199, -7764.62, -8055.41, -7885.43, -7781.80, -144021.38, -137398.58, -129910.63, -149940.45, 0.000, 0.000, 0.000, 16:28:20.806
200, -7763.70, -8054.70, -7884.49, -7781.11, -144020.44, -137397.83, -129909.77, -149939.63, 0.000, 0.000, 0.000, 16:28:20.815
201, -7765.24, -8056.37, -7886.19, -7782.74, -144022.16, -137399.75, -129911.62, -149941.53, 0.000, 0.000, 0.000, 16:28:20.815
202, -7765.24, -8056.40, -7886.16, -7782.59, -144022.16, -137399.67, -129911.59, -149941.55, 0.000, 0.000, 0.000, 16:28:20.815
203, -7764.53, -8055.48, -7885.29, -7781.96, -144021.50, -137399.08, -129910.99, -149940.91, 0.000, 0.000, 0.000, 16:28:20.815
204, -7762.18, -8053.29, -7883.26, -7779.73, -144019.50, -137397.13, -129909.02, -149938.98, 0.000, 0.000, 0.000, 16:28:20.816
205, -7760.53, -8051.61, -7881.58, -7777.96, -144018.03, -137395.36, -129907.38, -149937.13, 0.000, 0.000, 0.000, 16:28:20.816
206, -7761.62, -8052.75, -7882.61, -7779.17, -144018.94, -137396.38, -129908.54, -149938.17, 0.000, 0.000, 0.000, 16:28:20.816
207, -7761.51, -8052.86, -7882.77, -7779.21, -144019.02, -137396.38, -129908.54, -149938.45, 0.000, 0.000, 0.000, 16:28:20.816
208, -7762.74, -8053.91, -7884.00, -7780.46, -144020.42, -137397.73, -129909.81, -149939.63, 0.000, 0.000, 0.000, 16:28:20.816
209, -7762.74, -8053.83, -7883.66, -7780.31, -144020.28, -137397.75, -129909.83, -149939.56, 0.000, 0.000, 0.000, 16:28:20.816
210, -7761.62, -8052.82, -7882.59, -7779.10, -144019.17, -137396.50, -129908.52, -149938.30, 0.000, 0.000, 0.000, 16:28:20.826
211, -7763.12, -8054.16, -7884.00, -7780.44, -144020.69, -137397.94, -129909.97, -149939.70, 0.000, 0.000, 0.000, 16:28:20.826
212, -7764.82, -8055.59, -7885.34, -7781.85, -144022.03, -137399.28, -129911.24, -149941.11, 0.000, 0.000, 0.000, 16:28:20.826
213, -7765.85, -8056.78, -7886.46, -7782.88, -144023.17, -137400.45, -129912.40, -149942.38, 0.092, -0.058, 1.006, 16:28:20.826
214, -7766.36, -8057.31, -7887.10, -7783.39, -144023.64, -137400.89, -129913.01, -149942.92, 0.000, 0.000, 0.000, 16:28:20.826
215, -7766.85, -8057.83, -7887.84, -7784.15, -144024.44, -137401.67, -129913.74, -149943.63, 0.000, 0.000, 0.000, 16:28:20.826
216, -7764.12, -8055.17, -7884.85, -7781.36, -144021.66, -137399.00, -129910.95, -149940.81, 0.000, 0.000, 0.000, 16:28:20.826
217, -7763.79, -8054.90, -7884.67, -7781.07, -144021.25, -137398.73, -129910.70, -149940.44, 0.000, 0.000, 0.000, 16:28:20.827
218, -7762.60, -8053.87, -7883.64, -7780.13, -144020.42, -137397.98, -129909.95, -149939.78, 0.000, 0.000, 0.000, 16:28:20.827
219, -7762.31, -8053.51, -7883.48, -7779.99, -144020.42, -137397.86, -129909.83, -149939.75, 0.000, 0.000, 0.000, 16:28:20.827
220, -7761.96, -8053.31, -7883.21, -7779.61, -144020.13, -137397.47, -129909.54, -149939.45, 0.000, 0.000, 0.000, 16:28:20.835
221, -7761.64, -8052.91, -7882.63, -7779.32, -144019.86, -137397.22, -129909.41, -149939.14, 0.000, 0.000, 0.000, 16:28:20.835
222, -7762.18, -8053.31, -7883.10, -7779.84, -144020.31, -137397.80, -129909.88, -149939.55, 0.000, 0.000, 0.000, 16:28:20.836
223, -7762.29, -8053.60, -7883.15, -7779.79, -144020.42, -137397.91, -129909.81, -149939.63, 0.000, 0.000, 0.000, 16:28:20.836
224, -7761.29, -8052.39, -7881.98, -7778.72, -144019.48, -137396.81, -129908.83, -149938.72, 0.000, 0.000, 0.000, 16:28:20.836
225, -7759.74, -8050.96, -7880.76, -7777.38, -144017.98, -137395.31, -129907.38, -149937.22, 0.000, 0.000, 0.000, 16:28:20.836
226, -7760.23, -8051.41, -7881.27, -7777.67, -144018.44, -137395.77, -129907.80, -149937.84, 0.000, 0.000, 0.000, 16:28:20.836
227, -7762.09, -8053.15, -7883.01, -7779.59, -144020.23, -137397.67, -129909.43, -149939.50, 0.000, 0.000, 0.000, 16:28:20.836
228, -7764.62, -8055.68, -7885.52, -7781.89, -144022.66, -137400.11, -129912.05, -149941.78, 0.000, 0.000, 0.000, 16:28:20.836
229, -7763.68, -8054.67, -7884.40, -7780.80, -144021.63, -137399.23, -129911.06, -149940.89, 0.000, 0.000, 0.000, 16:28:20.836
230, -7761.75, -8052.75, -7882.48, -7778.85, -144019.89, -137397.27, -129909.20, -149938.97, 0.000, 0.000, 0.000, 16:28:20.845
231, -7761.67, -8052.60, -7882.32, -7778.83, -144019.77, -137396.86, -129909.05, -149938.80, 0.000, 0.000, 0.000, 16:28:20.845
232, -7759.99, -8050.87, -7880.49, -7777.07, -144018.08, -137395.19, -129907.24, -149937.11, 0.000, 0.000, 0.000, 16:28:20.846
233, -7759.12, -8050.05, -7879.75, -7776.19, -144017.38, -137394.58, -129906.66, -149936.41, 0.000, 0.000, 0.000, 16:28:20.846
234, -7758.78, -8049.78, -7879.77, -7775.99, -144017.33, -137394.53, -129906.70, -149936.41, 0.000, 0.000, 0.000, 16:28:20.846
235, -7761.29, -8052.42, -7882.14, -7778.61, -144020.02, -137397.22, -129909.20, -149939.00, 0.000, 0.000, 0.000, 16:28:20.846
236, -7761.87, -8053.00, -7882.68, -7779.28, -144020.59, -137397.89, -129909.81, -149939.72, 0.000, 0.000, 0.000, 16:28:20.846
237, -7761.11, -8052.31, -7882.03, -7778.79, -144020.00, -137397.44, -129909.38, -149939.19, 0.000, 0.000, 0.000, 16:28:20.846
238, -7760.28, -8051.66, -7881.43, -7778.03, -144019.34, -137396.95, -129908.91, -149938.61, 0.000, 0.000, 0.000, 16:28:20.846
239, -7759.39, -8050.70, -7880.38, -7777.00, -144018.47, -137395.97, -129907.91, -149937.75, 0.000, 0.000, 0.000, 16:28:20.846
240, -7760.08, -8051.30, -7881.05, -7777.87, -144019.28, -137396.58, -129908.45, -149938.47, 0.000, 0.000, 0.000, 16:28:20.856
241, -7762.63, -8053.67, -7883.50, -7780.17, -144021.69, -137398.97, -129910.95, -149940.84, 0.000, 0.000, 0.000, 16:28:20.856
242, -7761.42, -8052.53, -7882.25, -7778.72, -144020.27, -137397.75, -129909.67, -149939.34, 0.000, 0.000, 0.000, 16:28:20.856
243, -7761.46, -8052.57, -7882.39, -7778.83, -144020.44, -137397.73, -129909.83, -149939.52, 0.000, 0.000, 0.000, 16:28:20.857
244, -7762.05, -8053.02, -7882.99, -7779.32, -144021.09, -137398.20, -129910.30, -149940.06, 0.000, 0.000, 0.000, 16:28:20.857
245, -7761.60, -8052.69, -7882.61, -7778.81, -144020.53, -137397.69, -129909.72, -149939.66, 0.000, 0.000, 0.000, 16:28:20.857
246, -7761.06, -8052.04, -7881.76, -7778.12, -144019.95, -137397.17, -129909.05, -149938.98, 0.000, 0.000, 0.000, 16:28:20.857
247, -7759.27, -8050.14, -7879.93, -7776.31, -144018.23, -137395.47, -129907.35, -149937.16, 0.000, 0.000, 0.000, 16:28:20.857
248, -7758.45, -8049.44, -7879.32, -7775.55, -144017.47, -137394.73, -129906.81, -149936.61, 0.000, 0.000, 0.000, 16:28:20.857
249, -7760.44, -8051.59, -7881.31, -7777.69, -144019.53, -137396.95, -129908.98, -149938.63, 0.000, 0.000, 0.000, 16:28:20.857
250, -7762.49, -8053.58, -7883.21, -7779.59, -144021.63, -137398.92, -129910.88, -149940.56, 0.000, 0.000, 0.000, 16:28:20.865
251, -7762.11, -8053.24, -7882.92, -7779.32, -144021.50, -137398.69, -129910.73, -149940.55, 0.088, -0.058, 1.004, 16:28:20.866
252, -7759.54, -8050.94, -7880.60, -7777.00, -144019.03, -137396.42, -129908.45, -149938.33, 0.000, 0.000, 0.000, 16:28:20.866
253, -7759.65, -8051.03, -7880.46, -7777.16, -144019.08, -137396.75, -129908.47, -149938.42, 0.000, 0.000, 0.000, 16:28:20.866
254, -7760.39, -8051.93, -7881.67, -7778.14, -144020.28, -137397.83, -129909.74, -149939.61, 0.000, 0.000, 0.000, 16:28:20.866
255, -7760.46, -8051.95, -7881.81, -7778.21, -144020.59, -137397.78, -129909.92, -149939.88, 0.000, 0.000, 0.000, 16:28:20.866
0, -7761.13, -8052.44, -7882.16, -7778.67, -144020.94, -137398.30, -129910.26, -149940.23, 0.000, 0.000, 0.000, 16:28:20.866
1, -7761.02, -8052.33, -7882.10, -7778.61, -144020.80, -137398.22, -129910.26, -149940.02, 0.000, 0.000, 0.000, 16:28:20.866
2, -7761.51, -8052.86, -7882.63, -7779.12, -144021.30, -137398.83, -129910.77, -149940.55, 0.000, 0.000, 0.000, 16:28:20.866
3, -7762.74, -8053.98, -7883.68, -7780.11, -144022.61, -137400.02, -129912.07, -149941.80, 0.000, 0.000, 0.000, 16:28:20.866
4, -7763.12, -8054.29, -7884.04, -7780.46, -144023.03, -137400.34, -129912.45, -149942.11, 0.000, 0.000, 0.000, 16:28:20.875
5, -7764.35, -8055.39, -7885.07, -7781.69, -144024.17, -137401.41, -129913.41, -149943.34, 0.000, 0.000, 0.000, 16:28:20.876
6, -7762.13, -8053.27, -7882.79, -7779.32, -144021.73, -137399.05, -129911.06, -149940.84, 0.000, 0.000, 0.000, 16:28:20.876
7, -7760.93, -8051.86, -7881.49, -7778.00, -144020.48, -137397.78, -129909.70, -149939.44, 0.000, 0.000, 0.000, 16:28:20.876
8, -7762.89, -8053.71, -7883.44, -7779.99, -144022.70, -137399.88, -129911.77, -149941.63, 0.000, 0.000, 0.000, 16:28:20.876
9, -7764.75, -8055.66, -7885.40, -7781.85, -144024.56, -137401.84, -129913.84, -149943.52, 0.000, 0.000, 0.000, 16:28:20.876
10, -7765.15, -8056.15, -7885.94, -7782.50, -144025.16, -137402.61, -129914.39, -149944.02, 0.000, 0.000, 0.000, 16:28:20.876
11, -7764.86, -8055.99, -7885.70, -7782.25, -144025.11, -137402.25, -129914.23, -149943.97, 0.000, 0.000, 0.000, 16:28:20.876
12, -7765.31, -8056.44, -7886.05, -7782.61, -144025.31, -137402.83, -129914.93, -149944.53, 0.000, 0.000, 0.000, 16:28:20.876
13, -7763.70, -8054.92, -7884.62, -7781.18, -144023.84, -137401.53, -129913.45, -149943.16, 0.000, 0.000, 0.000, 16:28:20.876
14, -7762.07, -8053.29, -7883.15, -7779.73, -144022.55, -137400.11, -129912.00, -149941.67, 0.000, 0.000, 0.000, 16:28:20.887
15, -7762.11, -8053.51, -7882.99, -7779.90, -144022.64, -137400.28, -129912.13, -149941.80, 0.000, 0.000, 0.000, 16:28:20.887
16, -7761.98, -8053.40, -7882.99, -7779.79, -144022.50, -137400.11, -129912.00, -149941.75, 0.000, 0.000, 0.000, 16:28:20.887
17, -7762.34, -8053.83, -7883.62, -7780.13, -144022.95, -137400.58, -129912.45, -149942.22, 0.000, 0.000, 0.000, 16:28:20.887
18, -7762.56, -8053.74, -7883.71, -7780.15, -144023.17, -137400.77, -129912.63, -149942.52, 0.000, 0.000, 0.000, 16:28:20.887
19, -7761.91, -8053.20, -7882.92, -7779.41, -144022.34, -137399.88, -129911.77, -149941.70, 0.000, 0.000, 0.000, 16:28:20.888
20, -7761.17, -8052.37, -7881.98, -7778.34, -144021.50, -137399.13, -129911.02, -149940.77, 0.000, 0.000, 0.000, 16:28:20.888
21, -7763.07, -8054.27, -7883.84, -7780.44, -144023.48, -137401.11, -129913.01, -149942.61, 0.000, 0.000, 0.000, 16:28:20.888
22, -7765.20, -8056.24, -7885.94, -7782.56, -144025.78, -137403.19, -129915.06, -149944.69, 0.000, 0.000, 0.000, 16:28:20.888
23, -7766.63, -8057.63, -7887.35, -7783.77, -144027.28, -137404.50, -129916.27, -149946.20, 0.000, 0.000, 0.000, 16:28:20.888
24, -7766.31, -8057.36, -7887.08, -7783.48, -144026.75, -137404.23, -129916.11, -149945.78, 0.000, 0.000, 0.000, 16:28:20.896
25, -7763.97, -8055.10, -7884.89, -7781.11, -144024.47, -137401.91, -129913.84, -149943.63, 0.000, 0.000, 0.000, 16:28:20.896
26, -7764.17, -8055.39, -7885.11, -7781.33, -144024.94, -137402.11, -129914.19, -149943.92, 0.000, 0.000, 0.000, 16:28:20.896
27, -7763.74, -8055.03, -7884.89, -7781.11, -144024.48, -137401.95, -129913.84, -149943.61, 0.000, 0.000, 0.000, 16:28:20.897
28, -7761.93, -8052.98, -7882.81, -7779.12, -144022.59, -137400.13, -129911.98, -149941.64, 0.000, 0.000, 0.000, 16:28:20.897
29, -7762.11, -8053.29, -7882.97, -7779.41, -144022.97, -137400.53, -129912.31, -149942.09, 0.000, 0.000, 0.000, 16:28:20.897
30, -7760.79, -8051.99, -7881.74, -7778.27, -144021.81, -137399.30, -129911.17, -149940.89, 0.000, 0.000, 0.000, 16:28:20.897
31, -7759.56, -8050.74, -7880.53, -7777.11, -144020.58, -137398.16, -129910.03, -149939.86, 0.000, 0.000, 0.000, 16:28:20.897
32, -7759.90, -8051.05, -7880.76, -7777.36, -144020.94, -137398.61, -129910.46, -149940.33, 0.000, 0.000, 0.000, 16:28:20.897
33, -7760.66, -8051.97, -7881.69, -7778.12, -144022.03, -137399.52, -129911.51, -149941.27, 0.000, 0.000, 0.000, 16:28:20.897
34, -7762.25, -8053.42, -7883.15, -7779.77, -144023.48, -137401.17, -129912.96, -149942.84, 0.090, -0.054, 1.002, 16:28:20.906
35, -7763.05, -8054.32, -7884.15, -7780.80, -144024.38, -137402.11, -129913.90, -149943.92, 0.000, 0.000, 0.000, 16:28:20.906
36, -7763.07, -8054.38, -7884.24, -7780.80, -144024.41, -137402.14, -129913.92, -149943.81, 0.000, 0.000, 0.000, 16:28:20.906
37, -7762.22, -8053.38, -7883.15, -7779.73, -144023.45, -137401.00, -129912.83, -149942.78, 0.000, 0.000, 0.000, 16:28:20.906
38, -7762.27, -8053.31, -7883.15, -7779.55, -144023.42, -137400.95, -129912.72, -149942.50, 0.000, 0.000, 0.000, 16:28:20.906
39, -7761.73, -8052.75, -7882.59, -7778.76, -144022.81, -137400.28, -129912.16, -149941.73, 0.000, 0.000, 0.000, 16:28:20.906
40, -7760.82, -8051.84, -7881.49, -7777.80, -144022.14, -137399.34, -129911.33, -149941.02, 0.000, 0.000, 0.000, 16:28:20.906
41, -7762.34, -8053.29, -7882.77, -7779.35, -144023.58, -137400.75, -129912.70, -149942.36, 0.000, 0.000, 0.000, 16:28:20.906
42, -7763.86, -8054.90, -7884.44, -7781.07, -144024.94, -137402.47, -129914.21, -149943.97, 0.000, 0.000, 0.000, 16:28:20.906
43, -7759.65, -8050.67, -7880.20, -7776.75, -144020.91, -137398.41, -129909.98, -149939.94, 0.000, 0.000, 0.000, 16:28:20.906
44, -7758.96, -8050.07, -7879.59, -7776.15, -144020.38, -137397.75, -129909.48, -149939.31, 0.000, 0.000, 0.000, 16:28:20.916
45, -7761.55, -8052.66, -7882.36, -7778.94, -144023.13, -137400.77, -129912.40, -149942.25, 0.000, 0.000, 0.000, 16:28:20.916
46, -7760.57, -8051.86, -7881.58, -7778.12, -144022.31, -137399.86, -129911.59, -149941.58, 0.000, 0.000, 0.000, 16:28:20.916
47, -7758.87, -8050.07, -7879.93, -7776.42, -144020.53, -137398.20, -129909.97, -149939.88, 0.000, 0.000, 0.000, 16:28:20.916
48, -7757.82, -8049.22, -7879.08, -7775.59, -144019.91, -137397.58, -129909.38, -149939.28, 0.000, 0.000, 0.000, 16:28:20.916
49, -7755.63, -8046.99, -7876.69, -7773.18, -144017.67, -137395.44, -129906.99, -149937.08, 0.000, 0.000, 0.000, 16:28:20.916
50, -7756.79, -8048.10, -7877.85, -7774.34, -144018.88, -137396.69, -129908.18, -149938.20, 0.000, 0.000, 0.000, 16:28:20.916
51, -7759.43, -8050.90, -7880.40, -7777.09, -144021.56, -137399.25, -129910.95, -149940.81, 0.000, 0.000, 0.000, 16:28:20.916
52, -7759.99, -8051.37, -7880.96, -7777.60, -144022.09, -137399.70, -129911.64, -149941.13, 0.000, 0.000, 0.000, 16:28:20.916
53, -7760.35, -8051.61, -7881.14, -7777.76, -144022.55, -137400.06, -129911.84, -149941.47, 0.000, 0.000, 0.000, 16:28:20.917
54, -7759.09, -8050.25, -7879.79, -7776.40, -144021.25, -137398.66, -129910.44, -149940.34, 0.000, 0.000, 0.000, 16:28:20.926
55, -7760.32, -8051.41, -7881.05, -7777.67, -144022.44, -137399.80, -129911.69, -149941.64, 0.000, 0.000, 0.000, 16:28:20.926
56, -7761.24, -8052.31, -7881.94, -7778.43, -144023.19, -137400.50, -129912.42, -149942.17, 0.000, 0.000, 0.000, 16:28:20.926
57, -7761.55, -8052.80, -7882.28, -7778.72, -144023.42, -137400.73, -129912.63, -149942.22, 0.000, 0.000, 0.000, 16:28:20.926
58, -7762.87, -8054.21, -7883.66, -7780.11, -144025.03, -137402.34, -129914.19, -149943.86, 0.000, 0.000, 0.000, 16:28:20.926
59, -7763.70, -8054.92, -7884.49, -7780.89, -144025.86, -137403.14, -129915.04, -149944.91, 0.000, 0.000, 0.000, 16:28:20.926
60, -7762.56, -8053.74, -7883.28, -7779.79, -144024.69, -137402.11, -129913.90, -149943.91, 0.000, 0.000, 0.000, 16:28:20.926
61, -7760.53, -8051.90, -7881.29, -7777.92, -144022.77, -137400.33, -129912.07, -149941.89, 0.000, 0.000, 0.000, 16:28:20.926
62, -7760.91, -8052.31, -7881.72, -7778.32, -144023.44, -137400.84, -129912.67, -149942.56, 0.000, 0.000, 0.000, 16:28:20.927
63, -7761.75, -8053.15, -7882.59, -7779.17, -144024.52, -137401.73, -129913.59, -149943.55, 0.000, 0.000, 0.000, 16:28:20.927
64, -7759.56, -8050.96, -7880.53, -7777.20, -144022.48, -137399.86, -129911.73, -149941.52, 0.000, 0.000, 0.000, 16:28:20.927
65, -7756.21, -8047.72, -7877.49, -7773.96, -144019.27, -137396.64, -129908.65, -149938.36, 0.000, 0.000, 0.000, 16:28:20.936
66, -7755.52, -8047.10, -7876.89, -7773.31, -144018.67, -137396.03, -129907.98, -149937.84, 0.000, 0.000, 0.000, 16:28:20.936
67, -7757.26, -8048.84, -7878.45, -7774.99, -144020.28, -137397.69, -129909.52, -149939.50, 0.000, 0.000, 0.000, 16:28:20.936
68, -7758.04, -8049.58, -7879.03, -7775.64, -144020.98, -137398.61, -129910.32, -149940.23, 0.000, 0.000, 0.000, 16:28:20.936
69, -7760.46, -8051.93, -7881.40, -7777.92, -144023.28, -137401.02, -129912.73, -149942.56, 0.000, 0.000, 0.000, 16:28:20.936
70, -7760.88, -8052.39, -7881.85, -7778.41, -144023.80, -137401.44, -129913.20, -149942.98, 0.000, 0.000, 0.000, 16:28:20.936
71, -7759.68, -8051.34, -7880.73, -7777.16, -144022.67, -137400.28, -129912.07, -149941.84, 0.000, 0.000, 0.000, 16:28:20.936
72, -7758.65, -8050.00, -7879.35, -7775.81, -144021.56, -137399.00, -129910.66, -149940.44, 0.094, -0.058, 1.002, 16:28:20.936
73, -7759.83, -8051.01, -7880.49, -7776.93, -144022.55, -137399.88, -129911.73, -149941.47, 0.000, 0.000, 0.000, 16:28:20.936
74, -7758.22, -8049.58, -7878.97, -7775.48, -144021.09, -137398.38, -129910.19, -149939.98, 0.000, 0.000, 0.000, 16:28:20.936
75, -7757.31, -8048.64, -7878.07, -7774.58, -144020.27, -137397.67, -129909.38, -149939.28, 0.000, 0.000, 0.000, 16:28:20.946
76, -7757.55, -8048.89, -7878.23, -7774.70, -144020.42, -137397.94, -129909.67, -149939.50, 0.000, 0.000, 0.000, 16:28:20.946
77, -7757.60, -8049.06, -7878.56, -7774.85, -144020.58, -137398.11, -129909.88, -149939.77, 0.000, 0.000, 0.000, 16:28:20.946
78, -7755.99, -8047.34, -7876.96, -7773.36, -144019.02, -137396.42, -129908.47, -149938.17, 0.000, 0.000, 0.000, 16:28:20.946
79, -7754.92, -8046.25, -7875.82, -7772.28, -144018.14, -137395.67, -129907.40, -149937.08, 0.000, 0.000, 0.000, 16:28:20.946
80, -7757.35, -8048.89, -7878.52, -7774.99, -144020.83, -137398.31, -129910.10, -149939.83, 0.000, 0.000, 0.000, 16:28:20.946
81, -7760.21, -8051.79, -7881.47, -7778.00, -144024.00, -137401.47, -129913.23, -149943.03, 0.000, 0.000, 0.000, 16:28:20.946
82, -7760.10, -8051.81, -7881.38, -7777.74, -144023.92, -137401.42, -129913.32, -149943.19, 0.000, 0.000, 0.000, 16:28:20.946
83, -7759.52, -8051.23, -7880.73, -7777.22, -144023.22, -137400.95, -129912.73, -149942.69, 0.000, 0.000, 0.000, 16:28:20.947
84, -7759.68, -8051.46, -7881.00, -7777.33, -144023.55, -137401.05, -129912.89, -149942.72, 0.000, 0.000, 0.000, 16:28:20.947
85, -7757.19, -8048.75, -7878.23, -7774.56, -144020.91, -137398.16, -129910.15, -149940.08, 0.000, 0.000, 0.000, 16:28:20.956
86, -7756.41, -8047.83, -7877.29, -7773.76, -144020.05, -137397.42, -129909.27, -149939.05, 0.000, 0.000, 0.000, 16:28:20.956
87, -7756.30, -8047.79, -7877.18, -7773.65, -144020.11, -137397.52, -129909.27, -149939.05, 0.000, 0.000, 0.000, 16:28:20.956
88, -7753.78, -8045.22, -7874.74, -7770.92, -144017.63, -137394.98, -129906.79, -149936.53, 0.000, 0.000, 0.000, 16:28:20.956
89, -7752.34, -8043.74, -7873.22, -7769.42, -144015.95, -137393.36, -129905.23, -149934.77, 0.000, 0.000, 0.000, 16:28:20.956
90, -7753.40, -8044.86, -7874.12, -7770.54, -144016.89, -137394.56, -129906.28, -149935.97, 0.000, 0.000, 0.000, 16:28:20.956
91, -7752.59, -8044.10, -7873.33, -7769.82, -144016.47, -137393.91, -129905.52, -149935.42, 0.000, 0.000, 0.000, 16:28:20.956
92, -7752.57, -8044.15, -7873.36, -7769.91, -144016.39, -137393.89, -129905.52, -149935.42, 0.000, 0.000, 0.000, 16:28:20.956
93, -7753.22, -8045.00, -7874.30, -7770.78, -144017.17, -137394.88, -129906.44, -149936.17, 0.000, 0.000, 0.000, 16:28:20.957
94, -7753.06, -8044.77, -7874.09, -7770.49, -144017.14, -137394.64, -129906.21, -149936.08, 0.000, 0.000, 0.000, 16:28:20.957
95, -7753.95, -8045.64, -7874.94, -7771.37, -144017.83, -137395.44, -129906.97, -149937.03, 0.000, 0.000, 0.000, 16:28:20.966
96, -7753.91, -8045.60, -7874.99, -7771.34, -144018.05, -137395.59, -129907.26, -149937.16, 0.000, 0.000, 0.000, 16:28:20.966
97, -7753.08, -8044.91, -7874.27, -7770.72, -144017.41, -137395.03, -129906.86, -149936.61, 0.000, 0.000, 0.000, 16:28:20.966
98, -7753.19, -8045.13, -7874.50, -7770.94, -144017.77, -137395.39, -129907.38, -149937.08, 0.000, 0.000, 0.000, 16:28:20.966
99, -7752.32, -8044.08, -7873.47, -7770.11, -144016.95, -137394.52, -129906.57, -149936.19, 0.000, 0.000, 0.000, 16:28:20.966
100, -7753.75, -8045.60, -7874.97, -7771.66, -144018.55, -137396.08, -129908.05, -149937.70, 0.000, 0.000, 0.000, 16:28:20.966
101, -7754.69, -8046.61, -7875.93, -7772.53, -144019.48, -137397.05, -129908.91, -149938.53, 0.000, 0.000, 0.000, 16:28:20.967
102, -7754.11, -8045.64, -7874.94, -7771.61, -144018.59, -137396.14, -129907.87, -149937.67, 0.000, 0.000, 0.000, 16:28:20.967
103, -7752.37, -8043.81, -7873.27, -7769.69, -144016.95, -137394.48, -129906.08, -149936.02, 0.000, 0.000, 0.000, 16:28:20.967
104, -7753.64, -8045.20, -7874.56, -7771.05, -144018.19, -137395.75, -129907.46, -149937.19, 0.000, 0.000, 0.000, 16:28:20.967
105, -7755.47, -8047.07, -7876.44, -7772.86, -144019.92, -137397.38, -129909.36, -149939.09, 0.000, 0.000, 0.000, 16:28:20.976
106, -7754.31, -8045.89, -7875.21, -7771.52, -144018.67, -137396.13, -129907.91, -149937.78, 0.000, 0.000, 0.000, 16:28:20.976
107, -7753.86, -8045.31, -7874.72, -7771.08, -144018.08, -137395.52, -129907.26, -149936.97, 0.000, 0.000, 0.000, 16:28:20.976
108, -7752.28, -8043.81, -7872.98, -7769.38, -144016.55, -137394.17, -129905.85, -149935.47, 0.000, 0.000, 0.000, 16:28:20.976
109, -7753.24, -8044.64, -7873.98, -7770.27, -144017.52, -137395.30, -129906.97, -149936.59, 0.000, 0.000, 0.000, 16:28:20.976
110, -7751.83, -8043.41, -7872.60, -7769.00, -144016.33, -137393.86, -129905.70, -149935.34, 0.090, -0.058, 1.008, 16:28:20.976
111, -7753.98, -8045.71, -7875.06, -7771.52, -144019.14, -137396.44, -129908.34, -149938.05, 0.000, 0.000, 0.000, 16:28:20.976
112, -7755.76, -8047.37, -7876.78, -7773.24, -144020.75, -137398.31, -129910.13, -149939.97, 0.000, 0.000, 0.000, 16:28:20.977
113, -7757.60, -8049.31, -7878.63, -7775.12, -144022.77, -137400.28, -129911.95, -149941.84, 0.000, 0.000, 0.000, 16:28:20.977
114, -7755.32, -8047.23, -7876.46, -7773.06, -144020.91, -137398.45, -129910.05, -149939.75, 0.000, 0.000, 0.000, 16:28:20.986
115, -7755.74, -8047.45, -7876.89, -7773.40, -144021.31, -137398.81, -129910.48, -149940.30, 0.000, 0.000, 0.000, 16:28:20.986
116, -7755.99, -8047.68, -7876.96, -7773.60, -144021.30, -137398.89, -129910.70, -149940.55, 0.000, 0.000, 0.000, 16:28:20.986
117, -7756.64, -8048.21, -7877.54, -7773.96, -144021.89, -137399.56, -129911.27, -149941.22, 0.000, 0.000, 0.000, 16:28:20.986
118, -7757.02, -8048.77, -7877.81, -7774.45, -144022.50, -137400.13, -129911.55, -149941.59, 0.000, 0.000, 0.000, 16:28:20.986
119, -7758.92, -8050.76, -7879.84, -7776.44, -144024.27, -137401.88, -129913.48, -149943.41, 0.000, 0.000, 0.000, 16:28:20.986
120, -7757.19, -8048.77, -7878.07, -7774.52, -144022.31, -137399.80, -129911.89, -149941.52, 0.000, 0.000, 0.000, 16:28:20.986
121, -7756.75, -8048.35, -7877.58, -7774.07, -144021.98, -137399.44, -129911.38, -149941.02, 0.000, 0.000, 0.000, 16:28:20.987
122, -7758.56, -8050.20, -7879.28, -7775.75, -144023.66, -137401.28, -129912.85, -149942.72, 0.000, 0.000, 0.000, 16:28:20.987
123, -7756.93, -8048.35, -7877.51, -7774.05, -144022.05, -137399.56, -129911.28, -149941.02, 0.000, 0.000, 0.000, 16:28:20.987
124, -7756.32, -8047.95, -7877.07, -7773.58, -144021.72, -137399.13, -129910.93, -149940.66, 0.000, 0.000, 0.000, 16:28:20.996
125, -7755.36, -8047.21, -7876.15, -7772.66, -144020.88, -137398.31, -129910.01, -149939.78, 0.000, 0.000, 0.000, 16:28:20.996
126, -7752.05, -8043.65, -7872.89, -7769.27, -144017.47, -137395.09, -129906.79, -149936.38, 0.000, 0.000, 0.000, 16:28:20.996
127, -7752.48, -8043.99, -7873.38, -7769.69, -144017.83, -137395.61, -129907.26, -149936.92, 0.000, 0.000, 0.000, 16:28:20.996
128, -7754.07, -8045.73, -7875.10, -7771.46, -144019.77, -137397.38, -129908.96, -149938.72, 0.000, 0.000, 0.000, 16:28:20.996
129, -7754.49, -8046.20, -7875.50, -7772.06, -144020.44, -137397.94, -129909.72, -149939.34, 0.000, 0.000, 0.000, 16:28:20.996
130, -7754.85, -8046.87, -7875.99, -7772.53, -144020.95, -137398.45, -129910.41, -149940.09, 0.000, 0.000, 0.000, 16:28:20.997
131, -7755.25, -8047.34, -7876.51, -7773.09, -144021.58, -137399.31, -129911.04, -149940.66, 0.000, 0.000, 0.000, 16:28:20.997
132, -7755.25, -8047.34, -7876.55, -7773.02, -144021.69, -137399.39, -129910.91, -149940.69, 0.000, 0.000, 0.000, 16:28:20.997
133, -7756.77, -8048.84, -7877.98, -7774.52, -144022.95, -137400.89, -129912.29, -149942.14, 0.000, 0.000, 0.000, 16:28:21.006
134, -7756.26, -8048.21, -7877.36, -7773.78, -144022.44, -137400.13, -129911.71, -149941.52, 0.000, 0.000, 0.000, 16:28:21.006
135, -7755.70, -8047.39, -7876.69, -7773.09, -144021.94, -137399.63, -129910.99, -149940.84, 0.000, 0.000, 0.000, 16:28:21.006
136, -7755.65, -8047.05, -7876.51, -7772.86, -144021.78, -137399.31, -129910.62, -149940.66, 0.000, 0.000, 0.000, 16:28:21.006
137, -7756.86, -8048.39, -7877.87, -7774.03, -144022.97, -137400.55, -129911.95, -149941.94, 0.000, 0.000, 0.000, 16:28:21.006
138, -7756.81, -8048.35, -7877.85, -7773.96, -144023.11, -137400.64, -129912.11, -149941.95, 0.000, 0.000, 0.000, 16:28:21.007
139, -7759.85, -8051.48, -7880.76, -7776.95, -144025.94, -137403.52, -129915.09, -149944.89, 0.000, 0.000, 0.000, 16:28:21.007
140, -7759.52, -8051.12, -7880.51, -7776.77, -144025.63, -137403.23, -129914.93, -149944.73, 0.000, 0.000, 0.000, 16:28:21.007
141, -7760.55, -8052.28, -7881.58, -7777.92, -144026.75, -137404.38, -129915.98, -149945.98, 0.000, 0.000, 0.000, 16:28:21.007
142, -7759.01, -8050.74, -7879.91, -7776.40, -144025.19, -137402.88, -129914.52, -149944.42, 0.000, 0.000, 0.000, 16:28:21.007
143, -7756.99, -8048.73, -7877.96, -7774.50, -144023.44, -137400.75, -129912.55, -149942.45, 0.000, 0.000, 0.000, 16:28:21.016
144, -7757.37, -8049.06, -7878.43, -7774.88, -144023.91, -137401.52, -129913.19, -149942.84, 0.000, 0.000, 0.000, 16:28:21.016
145, -7758.31, -8049.94, -7879.28, -7775.81, -144024.89, -137402.58, -129914.28, -149943.91, 0.000, 0.000, 0.000, 16:28:21.016
146, -7756.93, -8048.68, -7877.85, -7774.54, -144023.66, -137401.41, -129912.94, -149942.73, 0.000, 0.000, 0.000, 16:28:21.016
147, -7755.23, -8047.21, -7876.22, -7772.73, -144022.09, -137399.88, -129911.53, -149941.17, 0.086, -0.060, 1.002, 16:28:21.017
148, -7754.24, -8046.31, -7875.39, -7771.79, -144021.11, -137398.83, -129910.66, -149940.34, 0.000, 0.000, 0.000, 16:28:21.017
149, -7755.97, -8047.75, -7876.93, -7773.47, -144022.81, -137400.58, -129912.09, -149942.00, 0.000, 0.000, 0.000, 16:28:21.017
150, -7758.31, -8049.96, -7879.15, -7775.66, -144025.16, -137402.81, -129914.26, -149944.30, 0.000, 0.000, 0.000, 16:28:21.017
151, -7757.15, -8049.02, -7878.14, -7774.58, -144024.11, -137401.73, -129913.27, -149943.19, 0.000, 0.000, 0.000, 16:28:21.017
152, -7758.16, -8049.85, -7878.92, -7775.43, -144024.89, -137402.61, -129914.23, -149944.03, 0.000, 0.000, 0.000, 16:28:21.017
153, -7756.39, -8048.06, -7877.27, -7773.69, -144023.19, -137401.06, -129912.42, -149942.34, 0.000, 0.000, 0.000, 16:28:21.026
154, -7756.17, -8047.95, -7877.02, -7773.42, -144022.98, -137400.64, -129912.34, -149942.02, 0.000, 0.000, 0.000, 16:28:21.026
155, -7757.78, -8049.42, -7878.52, -7774.85, -144024.48, -137402.11, -129913.90, -149943.28, 0.000, 0.000, 0.000, 16:28:21.026
156, -7758.98, -8050.58, -7879.93, -7776.22, -144025.78, -137403.41, -129915.02, -149944.45, 0.000, 0.000, 0.000, 16:28:21.026
157, -7759.90, -8051.48, -7880.80, -7777.16, -144026.75, -137404.39, -129915.98, -149945.56, 0.000, 0.000, 0.000, 16:28:21.027
158, -7758.56, -8050.18, -7879.37, -7775.90, -144025.45, -137403.23, -129915.02, -149944.33, 0.000, 0.000, 0.000, 16:28:21.027
159, -7757.87, -8049.62, -7878.74, -7775.14, -144024.83, -137402.61, -129914.39, -149943.86, 0.000, 0.000, 0.000, 16:28:21.027
160, -7756.93, -8048.91, -7878.03, -7774.32, -144024.13, -137401.88, -129913.63, -149943.16, 0.000, 0.000, 0.000, 16:28:21.027
161, -7755.79, -8047.90, -7876.87, -7773.20, -144023.19, -137400.75, -129912.54, -149942.05, 0.000, 0.000, 0.000, 16:28:21.027
162, -7756.21, -8048.39, -7877.25, -7773.67, -144023.80, -137401.33, -129913.09, -149942.67, 0.000, 0.000, 0.000, 16:28:21.027
163, -7756.81, -8048.89, -7877.98, -7774.50, -144024.28, -137402.22, -129913.79, -149943.56, 0.000, 0.000, 0.000, 16:28:21.036
164, -7757.78, -8049.73, -7878.81, -7775.39, -144025.30, -137403.34, -129914.93, -149944.53, 0.000, 0.000, 0.000, 16:28:21.036
165, -7755.94, -8047.95, -7877.02, -7773.71, -144023.69, -137401.63, -129913.20, -149942.78, 0.000, 0.000, 0.000, 16:28:21.036
166, -7754.09, -8046.16, -7875.19, -7771.84, -144021.88, -137399.75, -129911.27, -149941.00, 0.000, 0.000, 0.000, 16:28:21.036
167, -7755.07, -8047.12, -7876.13, -7772.62, -144022.77, -137400.59, -129912.11, -149941.98, 0.000, 0.000, 0.000, 16:28:21.036
168, -7754.69, -8046.72, -7875.57, -7772.13, -144022.59, -137400.17, -129911.71, -149941.55, 0.000, 0.000, 0.000, 16:28:21.037
169, -7757.73, -8049.76, -7878.77, -7775.32, -144025.56, -137403.23, -129914.80, -149944.64, 0.000, 0.000, 0.000, 16:28:21.037
170, -7755.63, -8047.50, -7876.58, -7772.95, -144023.17, -137401.11, -129912.52, -149942.09, 0.000, 0.000, 0.000, 16:28:21.037
171, -7756.99, -8048.62, -7877.72, -7774.09, -144024.42, -137402.14, -129913.84, -149943.47, 0.000, 0.000, 0.000, 16:28:21.037
172, -7757.04, -8048.66, -7877.81, -7774.18, -144024.59, -137402.11, -129913.85, -149943.70, 0.000, 0.000, 0.000, 16:28:21.037
173, -7754.98, -8046.72, -7875.73, -7772.06, -144022.50, -137400.13, -129911.69, -149941.53, 0.000, 0.000, 0.000, 16:28:21.046
174, -7756.10, -8047.88, -7876.87, -7773.20, -144023.73, -137401.33, -129912.85, -149942.66, 0.000, 0.000, 0.000, 16:28:21.046
175, -7754.76, -8046.61, -7875.77, -7771.97, -144022.50, -137400.13, -129911.62, -149941.42, 0.000, 0.000, 0.000, 16:28:21.046
176, -7754.42, -8046.34, -7875.50, -7771.86, -144022.13, -137399.91, -129911.42, -149941.16, 0.000, 0.000, 0.000, 16:28:21.046
