%OpenBCI Raw EEG Data
%
%Sample Rate = 250.0 Hz
%First Column = SampleIndex
%Last Column = Timestamp 
%Other Columns = EEG data in microvolts followed by Accel Data (in G) interleaved with Aux Data
0, 0.00, 0.00, 0.00, 0.00, 0.00, 0.00, 0.00, 0.00, 432, 759, 1018,0.0,0.0,0.0,0.0,0.0, 21:01:59.136
1, -67434.02, -112715.93, -187500.02, -125829.97, -136076.75, -104389.84, -85215.27, -100770.60, 431, 613, 1018,0.0,0.0,0.0,0.0,0.0, 21:01:59.615
2, -67415.61, -112688.80, -187500.02, -125897.23, -136147.27, -104487.56, -85285.47, -100844.01, 438, 507, 1018,0.0,0.0,0.0,0.0,0.0, 21:01:59.615
3, -67384.63, -112650.38, -187500.02, -126064.52, -136175.05, -104717.72, -85333.46, -100881.06, 435, 433, 1019,0.0,0.0,0.0,0.0,0.0, 21:01:59.615
4, -67395.07, -112671.63, -187500.02, -126025.73, -136105.11, -104674.98, -85266.34, -100802.88, 433, 384, 1018,0.0,0.0,0.0,0.0,0.0, 21:01:59.616
5, -67420.66, -112699.64, -187500.02, -125859.65, -136071.77, -104440.35, -85213.66, -100756.95, 436, 349, 1019,0.0,0.0,0.0,0.0,0.0, 21:01:59.616
6, -67416.08, -112683.86, -187500.02, -125891.10, -136136.47, -104490.40, -85275.91, -100825.72, 444, 326, 1019,0.0,0.0,0.0,0.0,0.0, 21:01:59.617
7, -67387.89, -112651.09, -187500.02, -126050.13, -136168.92, -104709.38, -85329.16, -100877.91, 443, 311, 1018,0.0,0.0,0.0,0.0,0.0, 21:01:59.617
8, -67395.36, -112667.34, -187500.02, -126055.68, -136121.72, -104724.20, -85288.24, -100825.09, 437, 299, 1019,0.0,0.0,0.0,0.0,0.0, 21:01:59.617
9, -67435.97, -112717.70, -187500.02, -125853.55, -136060.08, -104439.39, -85208.91, -100752.02, 439, 291, 1019,0.0,0.0,0.0,0.0,0.0, 21:01:59.618
10, -67433.00, -112705.74, -187500.02, -125848.74, -136131.70, -104435.23, -85266.80, -100816.80, 447, 287, 1018,0.0,0.0,0.0,0.0,0.0, 21:01:59.618
11, -67405.62, -112672.50, -187500.02, -126002.50, -136170.88, -104641.59, -85326.22, -100880.13, 447, 284, 1019,0.0,0.0,0.0,0.0,0.0, 21:01:59.619
12, -67397.08, -112665.48, -187500.02, -126077.94, -136147.53, -104744.05, -85316.85, -100859.83, 440, 281, 1019,0.0,0.0,0.0,0.0,0.0, 21:01:59.619
13, -67431.05, -112709.77, -187500.02, -125902.25, -136066.22, -104499.79, -85229.91, -100771.16, 442, 279, 1019,0.0,0.0,0.0,0.0,0.0, 21:01:59.620
14, -67436.87, -112706.97, -187500.02, -125854.51, -136118.08, -104439.10, -85264.77, -100813.20, 446, 279, 1019,0.0,0.0,0.0,0.0,0.0, 21:01:59.620
15, -67406.66, -112670.02, -187500.02, -125979.50, -136158.28, -104614.38, -85316.02, -100869.26, 448, 279, 1019,0.0,0.0,0.0,0.0,0.0, 21:01:59.621
16, -67395.07, -112660.30, -187500.02, -126059.12, -136139.83, -104729.68, -85310.95, -100853.91, 440, 277, 1018,0.0,0.0,0.0,0.0,0.0, 21:01:59.621
17, -67428.70, -112703.23, -187500.02, -125894.66, -136062.80, -104498.49, -85223.89, -100767.16, 443, 277, 1018,0.0,0.0,0.0,0.0,0.0, 21:01:59.622
18, -67426.65, -112698.95, -187500.02, -125829.74, -136115.02, -104402.18, -85251.67, -100797.47, 445, 276, 1019,0.0,0.0,0.0,0.0,0.0, 21:01:59.622
19, -67398.04, -112663.41, -187500.02, -125954.55, -136167.20, -104575.92, -85316.74, -100863.09, 449, 277, 1019,0.0,0.0,0.0,0.0,0.0, 21:01:59.623
20, -67379.31, -112641.75, -187500.02, -126094.26, -136172.44, -104767.00, -85338.22, -100878.20, 442, 276, 1019,0.0,0.0,0.0,0.0,0.0, 21:01:59.623
21, -67410.71, -112689.29, -187500.02, -125955.12, -136075.53, -104581.38, -85242.87, -100780.77, 442, 276, 1019,0.0,0.0,0.0,0.0,0.0, 21:01:59.624
22, -67439.48, -112718.10, -187500.02, -125802.85, -136077.95, -104372.52, -85227.35, -100777.71, 446, 276, 1019,0.0,0.0,0.0,0.0,0.0, 21:01:59.624
23, -67416.91, -112686.34, -187500.02, -125896.66, -136151.22, -104501.80, -85300.84, -100860.66, 451, 278, 1018,0.0,0.0,0.0,0.0,0.0, 21:01:59.625
24, -67379.22, -112641.37, -187500.02, -126068.80, -136172.61, -104730.34, -85339.45, -100891.44, 444, 277, 1018,0.0,0.0,0.0,0.0,0.0, 21:01:59.625
25, -67400.23, -112677.30, -187500.02, -125984.66, -136086.61, -104622.68, -85255.48, -100798.02, 441, 276, 1018,0.0,0.0,0.0,0.0,0.0, 21:01:59.625
26, -67424.30, -112707.23, -187500.02, -125817.79, -136068.77, -104386.71, -85216.11, -100764.05, 444, 276, 1018,0.0,0.0,0.0,0.0,0.0, 21:01:59.626
27, -67408.66, -112680.86, -187500.02, -125888.73, -136145.13, -104485.39, -85288.46, -100844.18, 449, 277, 1018,0.0,0.0,0.0,0.0,0.0, 21:01:59.626
28, -67382.15, -112645.73, -187500.02, -126057.55, -136173.80, -104716.17, -85335.65, -100889.55, 445, 277, 1018,0.0,0.0,0.0,0.0,0.0, 21:01:59.627
29, -67401.03, -112671.45, -187500.02, -126032.03, -136110.81, -104688.88, -85275.97, -100822.16, 442, 276, 1019,0.0,0.0,0.0,0.0,0.0, 21:01:59.627
30, -67442.77, -112717.63, -187500.02, -125842.02, -136066.98, -104424.59, -85211.69, -100762.80, 445, 276, 1018,0.0,0.0,0.0,0.0,0.0, 21:01:59.628
31, -67433.80, -112699.70, -187500.02, -125859.07, -136139.44, -104452.98, -85273.29, -100830.28, 451, 277, 1018,0.0,0.0,0.0,0.0,0.0, 21:01:59.628
32, -67401.59, -112660.81, -187500.02, -126013.72, -136175.47, -104661.16, -85328.48, -100886.16, 447, 277, 1019,0.0,0.0,0.0,0.0,0.0, 21:01:59.628
33, -67396.38, -112655.90, -187500.02, -126046.65, -136138.28, -104711.28, -85297.36, -100844.23, 441, 276, 1019,0.0,0.0,0.0,0.0,0.0, 21:01:59.629
34, -67428.37, -112703.75, -187500.02, -125844.77, -136059.56, -104432.69, -85201.12, -100760.21, 443, 276, 1018,0.0,0.0,0.0,0.0,0.0, 21:01:59.629
35, -67426.54, -112697.07, -187500.02, -125822.66, -136119.70, -104404.15, -85247.80, -100815.41, 450, 277, 1019,0.0,0.0,0.0,0.0,0.0, 21:01:59.630
36, -67392.77, -112656.21, -187500.02, -125983.10, -136169.17, -104616.98, -85313.27, -100879.99, 450, 277, 1019,0.0,0.0,0.0,0.0,0.0, 21:01:59.630
37, -67381.16, -112646.66, -187500.02, -126069.89, -136146.58, -104736.05, -85300.98, -100851.00, 443, 276, 1019,0.0,0.0,0.0,0.0,0.0, 21:01:59.630
38, -67423.70, -112702.68, -187500.02, -125878.47, -136051.94, -104468.90, -85201.94, -100753.68, 441, 276, 1019,0.0,0.0,0.0,0.0,0.0, 21:01:59.631
39, -67430.63, -112705.20, -187500.02, -125808.78, -136097.28, -104371.04, -85232.83, -100792.30, 448, 276, 1019,0.0,0.0,0.0,0.0,0.0, 21:01:59.631
40, -67398.71, -112665.71, -187500.02, -125942.06, -136153.95, -104554.80, -85300.91, -100865.44, 451, 277, 1019,0.0,0.0,0.0,0.0,0.0, 21:01:59.631
41, -67377.05, -112643.38, -187500.02, -126067.61, -136157.48, -104718.91, -85315.29, -100862.94, 442, 276, 1019,0.0,0.0,0.0,0.0,0.0, 21:01:59.631
42, -67406.91, -112687.84, -187500.02, -125933.05, -136077.34, -104528.96, -85226.69, -100764.92, 441, 275, 1019,0.0,0.0,0.0,0.0,0.0, 21:01:59.632
43, -67431.05, -112708.11, -187500.02, -125828.18, -136101.31, -104381.46, -85233.28, -100779.68, 446, 276, 1019,0.0,0.0,0.0,0.0,0.0, 21:01:59.632
44, -67412.03, -112680.86, -187500.02, -125938.02, -136155.36, -104531.51, -85299.20, -100853.64, 450, 277, 1019,0.0,0.0,0.0,0.0,0.0, 21:01:59.632
45, -67397.08, -112657.59, -187500.02, -126081.34, -136164.41, -104719.87, -85324.25, -100871.45, 443, 276, 1018,0.0,0.0,0.0,0.0,0.0, 21:01:59.632
46, -67427.08, -112697.60, -187500.02, -125961.75, -136073.97, -104556.18, -85235.52, -100781.04, 441, 276, 1019,0.0,0.0,0.0,0.0,0.0, 21:01:59.632
47, -67448.04, -112714.37, -187500.02, -125822.46, -136084.14, -104361.38, -85222.26, -100778.71, 445, 276, 1019,0.0,0.0,0.0,0.0,0.0, 21:01:59.633
48, -67425.89, -112683.01, -187500.02, -125916.07, -136155.17, -104489.40, -85294.25, -100856.56, 450, 277, 1019,0.0,0.0,0.0,0.0,0.0, 21:01:59.633
49, -67399.98, -112656.61, -187500.02, -126063.09, -136162.70, -104686.00, -85323.73, -100880.33, 444, 276, 1018,0.0,0.0,0.0,0.0,0.0, 21:01:59.633
50, -67412.13, -112680.08, -187500.02, -126002.14, -136093.83, -104599.99, -85255.30, -100804.29, 441, 275, 1019,0.0,0.0,0.0,0.0,0.0, 21:01:59.634
51, -67440.44, -112716.06, -187500.02, -125831.40, -136069.91, -104356.88, -85214.16, -100769.08, 445, 276, 1018,0.0,0.0,0.0,0.0,0.0, 21:01:59.634
52, -67421.22, -112691.55, -187500.02, -125894.23, -136147.11, -104445.02, -85288.51, -100840.54, 450, 277, 1019,0.0,0.0,0.0,0.0,0.0, 21:01:59.634
53, -67389.52, -112654.80, -187500.02, -126058.52, -136168.70, -104670.89, -85330.98, -100875.48, 446, 277, 1018,0.0,0.0,0.0,0.0,0.0, 21:01:59.634
54, -67394.33, -112668.01, -187500.02, -126046.87, -136107.67, -104661.41, -85275.41, -100808.63, 441, 276, 1018,0.0,0.0,0.0,0.0,0.0, 21:01:59.635
55, -67432.93, -112716.49, -187500.02, -125841.50, -136043.84, -104373.30, -85196.29, -100739.58, 444, 276, 1019,0.0,0.0,0.0,0.0,0.0, 21:01:59.635
56, -67422.56, -112691.50, -187500.02, -125863.80, -136121.45, -104405.87, -85264.80, -100814.09, 450, 276, 1019,0.0,0.0,0.0,0.0,0.0, 21:01:59.642
57, -67393.21, -112650.20, -187500.02, -126027.00, -136160.55, -104631.06, -85323.76, -100870.34, 448, 277, 1019,0.0,0.0,0.0,0.0,0.0, 21:01:59.642
58, -67400.68, -112659.70, -187500.02, -126058.78, -136123.33, -104679.09, -85292.87, -100832.11, 440, 276, 1019,0.0,0.0,0.0,0.0,0.0, 21:01:59.643
59, -67442.43, -112707.70, -187500.02, -125876.82, -136061.52, -104418.83, -85217.70, -100759.42, 444, 276, 1019,5.8233616E-4,7.7138323E-4,9.481753E-4,0.0029829158,0.0037886098, 21:01:59.643
60, -67442.97, -112697.73, -187500.02, -125861.57, -136127.44, -104399.27, -85270.43, -100817.80, 448, 276, 1019,5.8233616E-4,7.7138323E-4,9.481753E-4,0.0029829158,0.0037886098, 21:01:59.643
61, -67420.10, -112666.58, -187500.02, -125998.66, -136164.56, -104591.45, -85324.32, -100878.36, 448, 277, 1019,5.8233616E-4,7.7138323E-4,9.481753E-4,0.0029829158,0.0037886098, 21:01:59.643
62, -67411.56, -112655.49, -187500.02, -126086.23, -136149.70, -104711.66, -85317.39, -100863.41, 443, 276, 1019,5.8233616E-4,7.7138323E-4,9.481753E-4,0.0029829158,0.0037886098, 21:01:59.644
63, -67449.60, -112704.63, -187500.02, -125901.98, -136060.83, -104456.67, -85217.43, -100766.00, 443, 276, 1019,5.8233616E-4,7.7138323E-4,9.481753E-4,0.0029829158,0.0037886098, 21:01:59.644
64, -67456.09, -112703.57, -187500.02, -125834.55, -136114.81, -104363.22, -85252.55, -100808.51, 447, 276, 1018,5.8233616E-4,7.7138323E-4,9.481753E-4,0.0029829158,0.0037886098, 21:01:59.644
65, -67422.60, -112661.08, -187500.02, -125980.20, -136170.44, -104561.39, -85325.97, -100877.71, 449, 277, 1019,5.8233616E-4,7.7138323E-4,9.481753E-4,0.0029829158,0.0037886098, 21:01:59.644
66, -67409.20, -112649.99, -187500.02, -126087.82, -136152.83, -104708.11, -85330.51, -100869.48, 442, 276, 1019,5.8233616E-4,7.7138323E-4,9.481753E-4,0.0029829158,0.0037886098, 21:01:59.645
67, -67441.40, -112695.68, -187500.02, -125931.55, -136062.70, -104487.65, -85236.74, -100773.75, 442, 275, 1019,5.8233616E-4,7.7138323E-4,9.481753E-4,0.0029829158,0.0037886098, 21:01:59.645
68, -67442.19, -112694.79, -187500.02, -125832.00, -136096.95, -104344.33, -85245.35, -100790.30, 446, 276, 1019,5.8233616E-4,7.7138323E-4,9.481753E-4,0.0029829158,0.0037886098, 21:01:59.645
69, -67418.78, -112663.31, -187500.02, -125938.55, -136152.66, -104495.97, -85307.71, -100865.24, 450, 277, 1019,5.8233616E-4,7.7138323E-4,9.481753E-4,0.0029829158,0.0037886098, 21:01:59.646
70, -67401.08, -112638.28, -187500.02, -126078.79, -136156.09, -104687.45, -85333.28, -100884.20, 442, 276, 1018,5.8233616E-4,7.7138323E-4,9.481753E-4,0.0029829158,0.0037886098, 21:01:59.646
71, -67426.02, -112675.05, -187500.02, -125973.42, -136070.08, -104548.34, -85247.45, -100789.17, 442, 275, 1019,5.8233616E-4,7.7138323E-4,9.481753E-4,0.0029829158,0.0037886098, 21:01:59.646
72, -67455.22, -112704.47, -187500.02, -125819.10, -136070.23, -104332.64, -85226.20, -100775.61, 445, 275, 1019,5.8233616E-4,7.7138323E-4,9.481753E-4,0.0029829158,0.0037886098, 21:01:59.647
73, -67429.87, -112666.38, -187500.02, -125920.56, -136149.19, -104467.45, -85308.49, -100852.72, 450, 276, 1019,5.8233616E-4,7.7138323E-4,9.481753E-4,0.0029829158,0.0037886098, 21:01:59.647
74, -67412.13, -112645.21, -187500.02, -126066.80, -136147.42, -104669.69, -85336.99, -100875.63, 444, 276, 1018,5.8233616E-4,7.7138323E-4,9.481753E-4,0.0029829158,0.0037886098, 21:01:59.647
75, -67440.82, -112683.95, -187500.02, -125996.17, -136074.91, -104574.69, -85264.34, -100801.89, 442, 275, 1019,5.8233616E-4,7.7138323E-4,9.481753E-4,0.0029829158,0.0037886098, 21:01:59.648
76, -67452.16, -112698.30, -187500.02, -125849.05, -136061.91, -104357.19, -85222.20, -100760.70, 444, 275, 1019,5.8233616E-4,7.7138323E-4,9.481753E-4,0.0029829158,0.0037886098, 21:01:59.648
77, -67435.03, -112673.48, -187500.02, -125896.95, -136128.16, -104432.33, -85282.63, -100825.68, 450, 276, 1019,5.8233616E-4,7.7138323E-4,9.481753E-4,0.0029829158,0.0037886098, 21:01:59.648
78, -67408.52, -112642.66, -187500.02, -126045.59, -136147.00, -104639.51, -85324.45, -100866.85, 446, 276, 1019,5.8233616E-4,7.7138323E-4,9.481753E-4,0.0029829158,0.0037886098, 21:01:59.648
79, -67415.34, -112656.48, -187500.02, -126038.35, -136097.95, -104632.89, -85277.13, -100811.05, 442, 276, 1019,5.8233616E-4,7.7138323E-4,9.481753E-4,0.0029829158,0.0037886098, 21:01:59.649
80, -67447.62, -112694.18, -187500.02, -125859.61, -136058.48, -104380.09, -85209.90, -100750.02, 443, 275, 1019,5.8233616E-4,7.7138323E-4,9.481753E-4,0.0029829158,0.0037886098, 21:01:59.649
81, -67434.48, -112673.77, -187500.02, -125875.25, -136126.28, -104408.98, -85266.54, -100813.27, 450, 276, 1019,5.8233616E-4,7.7138323E-4,9.481753E-4,0.0029829158,0.0037886098, 21:01:59.649
82, -67403.49, -112637.12, -187500.02, -126032.63, -136161.33, -104626.66, -85324.25, -100873.40, 448, 277, 1019,5.8233616E-4,7.7138323E-4,9.481753E-4,0.0029829158,0.0037886098, 21:01:59.649
83, -67402.51, -112637.45, -187500.02, -126085.67, -136127.75, -104705.60, -85302.77, -100838.91, 441, 276, 1019,5.8233616E-4,7.7138323E-4,9.481753E-4,0.0029829158,0.0037886098, 21:01:59.650
84, -67438.63, -112689.02, -187500.02, -125886.43, -136049.23, -104432.66, -85210.37, -100750.64, 443, 275, 1018,5.8233616E-4,7.7138323E-4,9.481753E-4,0.0029829158,0.0037886098, 21:01:59.650
85, -67447.05, -112694.30, -187500.02, -125835.00, -136102.30, -104367.71, -85252.19, -100804.60, 448, 276, 1019,5.8233616E-4,7.7138323E-4,9.481753E-4,0.0029829158,0.0037886098, 21:01:59.651
86, -67423.05, -112660.97, -187500.02, -125980.28, -136160.52, -104560.27, -85325.34, -100879.61, 449, 277, 1019,5.8233616E-4,7.7138323E-4,9.481753E-4,0.0029829158,0.0037886098, 21:01:59.651
87, -67400.99, -112642.28, -187500.02, -126083.41, -136150.50, -104700.33, -85322.95, -100863.96, 442, 276, 1019,5.8233616E-4,7.7138323E-4,9.481753E-4,0.0029829158,0.0037886098, 21:01:59.651
88, -67429.42, -112686.78, -187500.02, -125910.44, -136054.77, -104465.10, -85222.35, -100764.50, 441, 275, 1018,5.8233616E-4,7.7138323E-4,9.481753E-4,0.0029829158,0.0037886098, 21:01:59.651
89, -67439.37, -112695.41, -187500.02, -125816.76, -136090.95, -104343.77, -85240.70, -100791.03, 447, 276, 1019,5.8233616E-4,7.7138323E-4,9.481753E-4,0.0029829158,0.0037886098, 21:01:59.651
90, -67407.56, -112651.78, -187500.02, -125949.82, -136154.39, -104527.73, -85309.72, -100860.99, 450, 277, 1019,5.8233616E-4,7.7138323E-4,9.481753E-4,0.0029829158,0.0037886098, 21:01:59.651
91, -67393.23, -112634.75, -187500.02, -126073.18, -136148.92, -104700.17, -85323.09, -100862.04, 442, 276, 1018,5.8233616E-4,7.7138323E-4,9.481753E-4,0.0029829158,0.0037886098, 21:01:59.652
92, -67425.69, -112681.40, -187500.02, -125928.20, -136058.91, -104504.05, -85231.38, -100765.13, 442, 276, 1019,5.8233616E-4,7.7138323E-4,9.481753E-4,0.0029829158,0.0037886098, 21:01:59.652
93, -67437.22, -112690.12, -187500.02, -125813.70, -136079.56, -104342.01, -85229.57, -100767.94, 446, 276, 1018,5.8233616E-4,7.7138323E-4,9.481753E-4,0.0029829158,0.0037886098, 21:01:59.652
94, -67413.69, -112655.74, -187500.02, -125917.95, -136143.20, -104491.72, -85301.72, -100842.41, 449, 277, 1018,5.8233616E-4,7.7138323E-4,9.481753E-4,0.0029829158,0.0037886098, 21:01:59.653
95, -67395.36, -112634.21, -187500.02, -126058.00, -136153.59, -104685.46, -85328.83, -100865.02, 444, 276, 1018,5.8233616E-4,7.7138323E-4,9.481753E-4,0.0029829158,0.0037886098, 21:01:59.653
96, -67417.69, -112665.98, -187500.02, -125964.28, -136073.44, -104558.02, -85244.70, -100776.34, 442, 276, 1018,5.8233616E-4,7.7138323E-4,9.481753E-4,0.0029829158,0.0037886098, 21:01:59.654
97, -67442.50, -112691.70, -187500.02, -125805.27, -136064.83, -104334.20, -85213.88, -100753.30, 446, 276, 1019,5.8233616E-4,7.7138323E-4,9.481753E-4,0.0029829158,0.0037886098, 21:01:59.654
98, -67422.11, -112663.65, -187500.02, -125883.84, -136140.38, -104445.27, -85289.27, -100832.98, 451, 277, 1019,5.8233616E-4,7.7138323E-4,9.481753E-4,0.0029829158,0.0037886098, 21:01:59.654
99, -67391.34, -112628.07, -187500.02, -126048.23, -136162.89, -104669.33, -85336.05, -100874.73, 444, 276, 1019,5.8233616E-4,7.7138323E-4,9.481753E-4,0.0029829158,0.0037886098, 21:01:59.655
100, -67400.99, -112645.50, -187500.02, -126013.66, -136094.45, -104629.27, -85272.26, -100805.20, 442, 276, 1019,5.8233616E-4,7.7138323E-4,9.481753E-4,0.0029829158,0.0037886098, 21:01:59.655
101, -67439.63, -112691.59, -187500.02, -125816.45, -136043.83, -104355.28, -85205.90, -100749.70, 444, 275, 1018,5.8233616E-4,7.7138323E-4,9.481753E-4,0.0029829158,0.0037886098, 21:01:59.655
102, -67431.45, -112675.79, -187500.02, -125844.54, -136120.98, -104392.16, -85276.08, -100827.95, 450, 276, 1018,5.8233616E-4,7.7138323E-4,9.481753E-4,0.0029829158,0.0037886098, 21:01:59.656
103, -67402.02, -112637.34, -187500.02, -126018.59, -136163.36, -104617.36, -85334.24, -100881.11, 447, 276, 1019,5.8233616E-4,7.7138323E-4,9.481753E-4,0.0029829158,0.0037886098, 21:01:59.656
104, -67410.04, -112644.45, -187500.02, -126040.50, -136118.91, -104647.87, -85299.04, -100829.99, 441, 276, 1019,5.8233616E-4,7.7138323E-4,9.481753E-4,0.0029829158,0.0037886098, 21:01:59.656
105, -67449.94, -112691.91, -187500.02, -125840.67, -136049.75, -104369.70, -85218.23, -100753.86, 444, 276, 1018,5.8233616E-4,7.7138323E-4,9.481753E-4,0.0029829158,0.0037886098, 21:01:59.657
106, -67437.65, -112669.93, -187500.02, -125855.34, -136128.78, -104389.05, -85284.51, -100820.69, 450, 277, 1019,5.8233616E-4,7.7138323E-4,9.481753E-4,0.0029829158,0.0037886098, 21:01:59.657
107, -67398.71, -112625.83, -187500.02, -126024.34, -136168.36, -104620.84, -85346.83, -100881.38, 448, 277, 1019,5.8233616E-4,7.7138323E-4,9.481753E-4,0.0029829158,0.0037886098, 21:01:59.657
108, -67402.78, -112633.92, -187500.02, -126068.13, -136121.72, -104690.78, -85316.23, -100843.85, 442, 276, 1019,5.8233616E-4,7.7138323E-4,9.481753E-4,0.0029829158,0.0037886098, 21:01:59.657
109, -67438.30, -112681.38, -187500.02, -125889.42, -136053.55, -104436.66, -85232.14, -100758.29, 443, 276, 1018,5.8233616E-4,7.7138323E-4,9.481753E-4,0.0029829158,0.0037886098, 21:01:59.657
110, -67437.87, -112680.23, -187500.02, -125857.93, -136116.20, -104390.31, -85273.73, -100805.49, 449, 276, 1018,5.8233616E-4,7.7138323E-4,9.481753E-4,0.0029829158,0.0037886098, 21:01:59.658
111, -67405.80, -112644.45, -187500.02, -126002.79, -136163.02, -104589.48, -85335.16, -100870.16, 449, 277, 1018,5.8233616E-4,7.7138323E-4,9.481753E-4,0.0029829158,0.0037886098, 21:01:59.658
112, -67397.64, -112643.45, -187500.02, -126085.00, -136137.44, -104711.21, -85327.09, -100850.38, 442, 276, 1019,5.8233616E-4,7.7138323E-4,9.481753E-4,0.0029829158,0.0037886098, 21:01:59.658
113, -67436.71, -112695.95, -187500.02, -125895.97, -136040.92, -104453.59, -85225.21, -100751.09, 443, 276, 1018,5.8233616E-4,7.7138323E-4,9.481753E-4,0.0029829158,0.0037886098, 21:01:59.658
114, -67444.82, -112694.59, -187500.02, -125813.43, -136089.70, -104333.85, -85251.43, -100787.25, 446, 276, 1018,5.8233616E-4,7.7138323E-4,9.481753E-4,0.0029829158,0.0037886098, 21:01:59.659
115, -67420.16, -112662.22, -187500.02, -125942.46, -136155.67, -104507.55, -85325.70, -100866.22, 450, 277, 1019,5.8233616E-4,7.7138323E-4,9.481753E-4,0.0029829158,0.0037886098, 21:01:59.659
116, -67394.55, -112630.77, -187500.02, -126089.78, -136163.30, -104704.87, -85344.59, -100881.33, 442, 276, 1018,5.8233616E-4,7.7138323E-4,9.481753E-4,0.0029829158,0.0037886098, 21:01:59.659
117, -67422.34, -112673.28, -187500.02, -125960.08, -136063.80, -104533.07, -85245.26, -100776.95, 442, 275, 1019,5.8233616E-4,7.7138323E-4,9.481753E-4,0.0029829158,0.0037886098, 21:01:59.659
118, -67454.23, -112706.03, -187500.02, -125824.34, -136071.36, -104341.56, -85239.38, -100781.11, 446, 276, 1018,5.8233616E-4,7.7138323E-4,9.481753E-4,0.0029829158,0.0037886098, 21:01:59.660
119, -67437.60, -112679.72, -187500.02, -125922.44, -136142.33, -104478.95, -85316.20, -100863.59, 451, 277, 1018,5.8233616E-4,7.7138323E-4,9.481753E-4,0.0029829158,0.0037886098, 21:01:59.660
120, -67412.48, -112646.38, -187500.02, -126080.28, -136158.38, -104693.13, -85353.28, -100894.95, 444, 276, 1018,5.8233616E-4,7.7138323E-4,9.481753E-4,0.0029829158,0.0037886098, 21:01:59.660
121, -67425.42, -112670.16, -187500.02, -126011.17, -136084.44, -104600.95, -85277.09, -100813.56, 442, 276, 1018,0.0,0.0,0.0,0.0,0.0, 21:02:00.094
122, -67454.68, -112703.99, -187500.02, -125840.34, -136064.98, -104364.70, -85234.71, -100775.56, 445, 276, 1019,0.0,0.0,0.0,0.0,0.0, 21:02:00.094
123, -67441.85, -112683.21, -187500.02, -125906.50, -136144.03, -104454.99, -85308.36, -100851.00, 451, 277, 1018,0.0,0.0,0.0,0.0,0.0, 21:02:00.094
124, -67410.20, -112643.91, -187500.02, -126078.67, -136170.41, -104683.84, -85351.92, -100891.23, 445, 277, 1018,0.0,0.0,0.0,0.0,0.0, 21:02:00.095
125, -67424.80, -112669.44, -187500.02, -126032.50, -136096.06, -104629.38, -85282.45, -100817.02, 442, 276, 1018,0.0,0.0,0.0,0.0,0.0, 21:02:00.095
126, -67458.79, -112712.38, -187500.02, -125841.13, -136057.92, -104361.19, -85225.73, -100767.27, 443, 276, 1018,0.0,0.0,0.0,0.0,0.0, 21:02:00.095
127, -67444.87, -112686.52, -187500.02, -125880.86, -136138.30, -104414.63, -85291.75, -100839.96, 449, 277, 1018,0.0,0.0,0.0,0.0,0.0, 21:02:00.095
128, -67413.77, -112651.38, -187500.02, -126052.63, -136167.58, -104644.56, -85340.68, -100886.41, 446, 276, 1019,0.0,0.0,0.0,0.0,0.0, 21:02:00.095
129, -67419.09, -112662.94, -187500.02, -126071.16, -136121.14, -104669.17, -85301.27, -100838.98, 442, 276, 1018,0.0,0.0,0.0,0.0,0.0, 21:02:00.095
130, -67443.57, -112696.46, -187500.02, -125891.44, -136054.86, -104412.93, -85218.68, -100756.54, 443, 275, 1018,0.0,0.0,0.0,0.0,0.0, 21:02:00.096
131, -67439.81, -112683.61, -187500.02, -125873.91, -136117.11, -104392.57, -85268.91, -100815.06, 449, 276, 1018,0.0,0.0,0.0,0.0,0.0, 21:02:00.096
132, -67407.09, -112643.98, -187500.02, -126039.29, -136165.13, -104617.72, -85333.26, -100880.08, 449, 277, 1018,0.0,0.0,0.0,0.0,0.0, 21:02:00.096
133, -67407.27, -112652.41, -187500.02, -126089.90, -136128.64, -104698.05, -85313.05, -100847.70, 441, 276, 1018,0.0,0.0,0.0,0.0,0.0, 21:02:00.096
134, -67439.68, -112697.36, -187500.02, -125903.70, -136049.00, -104441.12, -85217.63, -100751.13, 442, 276, 1018,0.0,0.0,0.0,0.0,0.0, 21:02:00.096
135, -67438.95, -112690.80, -187500.02, -125846.28, -136097.48, -104362.84, -85248.37, -100790.45, 447, 276, 1019,0.0,0.0,0.0,0.0,0.0, 21:02:00.097
136, -67411.79, -112661.35, -187500.02, -125987.91, -136152.98, -104554.69, -85317.70, -100865.64, 449, 277, 1019,0.0,0.0,0.0,0.0,0.0, 21:02:00.097
137, -67395.34, -112643.76, -187500.02, -126108.13, -136151.73, -104718.45, -85330.51, -100868.63, 441, 276, 1019,0.0,0.0,0.0,0.0,0.0, 21:02:00.097
138, -67430.78, -112696.38, -187500.02, -125948.81, -136058.66, -104506.59, -85230.93, -100766.51, 442, 275, 1019,0.0,0.0,0.0,0.0,0.0, 21:02:00.097
139, -67451.88, -112723.69, -187500.02, -125844.50, -136095.50, -104362.93, -85245.26, -100787.30, 446, 276, 1018,0.0,0.0,0.0,0.0,0.0, 21:02:00.097
140, -67417.93, -112704.51, -187500.02, -125971.56, -136158.91, -104537.34, -85318.59, -100858.53, 451, 277, 1018,0.0,0.0,0.0,0.0,0.0, 21:02:00.097
141, -67402.24, -112708.71, -187500.02, -126100.38, -136156.70, -104717.25, -85338.51, -100870.71, 443, 276, 1019,0.0,0.0,0.0,0.0,0.0, 21:02:00.098
142, -67435.28, -112760.95, -187500.02, -125971.90, -136067.41, -104543.55, -85247.56, -100776.97, 442, 276, 1018,0.0,0.0,0.0,0.0,0.0, 21:02:00.098
143, -67450.21, -112775.88, -187500.02, -125844.07, -136081.27, -104358.48, -85238.28, -100771.43, 447, 276, 1018,0.0,0.0,0.0,0.0,0.0, 21:02:00.098
144, -67431.23, -112748.19, -187500.02, -125935.98, -136146.03, -104486.35, -85307.58, -100845.86, 449, 277, 1018,0.0,0.0,0.0,0.0,0.0, 21:02:00.098
145, -67408.73, -112720.88, -187500.02, -126088.16, -136159.58, -104691.27, -85342.49, -100877.82, 444, 276, 1018,0.0,0.0,0.0,0.0,0.0, 21:02:00.098
146, -67423.12, -112746.64, -187500.02, -126015.80, -136082.98, -104595.95, -85270.25, -100795.57, 443, 276, 1019,0.0,0.0,0.0,0.0,0.0, 21:02:00.099
147, -67456.35, -112787.55, -187500.02, -125833.08, -136059.98, -104340.76, -85228.07, -100761.68, 445, 276, 1019,0.0,0.0,0.0,0.0,0.0, 21:02:00.099
148, -67436.66, -112757.15, -187500.02, -125898.12, -136141.83, -104431.08, -85303.62, -100846.51, 451, 276, 1018,0.0,0.0,0.0,0.0,0.0, 21:02:00.099
149, -67409.10, -112724.38, -187500.02, -126056.91, -136164.44, -104644.25, -85345.30, -100888.41, 447, 276, 1018,0.0,0.0,0.0,0.0,0.0, 21:02:00.099
150, -67420.21, -112744.12, -187500.02, -126044.45, -136109.42, -104625.02, -85291.26, -100822.70, 441, 276, 1019,0.0,0.0,0.0,0.0,0.0, 21:02:00.100
151, -67464.24, -112791.95, -187500.02, -125856.39, -136061.66, -104356.13, -85226.84, -100764.84, 443, 275, 1019,0.0,0.0,0.0,0.0,0.0, 21:02:00.100
152, -67462.13, -112777.66, -187500.02, -125881.69, -136139.48, -104389.91, -85295.82, -100840.45, 450, 276, 1019,0.0,0.0,0.0,0.0,0.0, 21:02:00.100
153, -67426.54, -112729.34, -187500.02, -126056.84, -136184.59, -104622.86, -85361.06, -100898.61, 448, 277, 1019,0.0,0.0,0.0,0.0,0.0, 21:02:00.101
154, -67426.80, -112738.13, -187500.02, -126090.68, -136139.59, -104679.27, -85325.68, -100849.88, 442, 276, 1018,0.0,0.0,0.0,0.0,0.0, 21:02:00.101
155, -67468.49, -112797.98, -187500.02, -125876.55, -136056.53, -104389.95, -85225.61, -100758.53, 443, 276, 1018,0.0,0.0,0.0,0.0,0.0, 21:02:00.101
156, -67474.17, -112792.80, -187500.02, -125857.10, -136125.30, -104366.93, -85274.23, -100819.93, 448, 276, 1018,0.0,0.0,0.0,0.0,0.0, 21:02:00.101
157, -67447.52, -112761.66, -187500.02, -126016.27, -136170.59, -104588.55, -85336.43, -100883.79, 450, 277, 1019,0.0,0.0,0.0,0.0,0.0, 21:02:00.102
158, -67437.54, -112750.51, -187500.02, -126092.65, -136144.73, -104702.92, -85328.27, -100861.28, 441, 276, 1018,0.0,0.0,0.0,0.0,0.0, 21:02:00.102
159, -67473.66, -112801.49, -187500.02, -125906.75, -136052.36, -104452.00, -85226.17, -100757.13, 442, 275, 1019,0.0,0.0,0.0,0.0,0.0, 21:02:00.102
160, -67488.09, -112810.28, -187500.02, -125847.34, -136106.30, -104367.87, -85259.03, -100799.16, 447, 276, 1019,0.0,0.0,0.0,0.0,0.0, 21:02:00.102
161, -67467.93, -112782.52, -187500.02, -125989.88, -136166.64, -104565.32, -85329.97, -100872.66, 451, 277, 1018,0.0,0.0,0.0,0.0,0.0, 21:02:00.103
162, -67460.55, -112772.52, -187500.02, -126114.64, -136162.95, -104737.50, -85341.80, -100872.03, 442, 276, 1018,0.0,0.0,0.0,0.0,0.0, 21:02:00.103
163, -67497.57, -112823.42, -187500.02, -125967.81, -136067.41, -104540.24, -85242.94, -100767.85, 441, 275, 1019,0.0,0.0,0.0,0.0,0.0, 21:02:00.103
164, -67525.98, -112849.22, -187500.02, -125855.65, -136087.52, -104381.39, -85245.37, -100780.01, 446, 276, 1018,0.0,0.0,0.0,0.0,0.0, 21:02:00.103
165, -67517.48, -112832.48, -187500.02, -125967.37, -136150.97, -104534.95, -85317.41, -100858.06, 451, 277, 1018,0.0,0.0,0.0,0.0,0.0, 21:02:00.104
166, -67506.45, -112822.98, -187500.02, -126082.54, -136146.14, -104698.96, -85331.89, -100867.98, 444, 276, 1019,0.0,0.0,0.0,0.0,0.0, 21:02:00.104
167, -67535.95, -112863.86, -187500.02, -125974.45, -136069.44, -104546.98, -85250.55, -100783.14, 442, 276, 1018,0.0,0.0,0.0,0.0,0.0, 21:02:00.104
168, -67563.82, -112892.00, -187500.02, -125835.40, -136075.14, -104347.10, -85236.74, -100772.37, 446, 276, 1018,0.0,0.0,0.0,0.0,0.0, 21:02:00.104
169, -67552.13, -112875.10, -187500.02, -125919.60, -136147.20, -104462.64, -85313.41, -100849.05, 451, 276, 1018,0.0,0.0,0.0,0.0,0.0, 21:02:00.105
170, -67534.70, -112851.80, -187500.02, -126074.61, -136167.45, -104668.90, -85356.08, -100882.72, 444, 276, 1019,0.0,0.0,0.0,0.0,0.0, 21:02:00.105
171, -67552.38, -112871.95, -187500.02, -126029.23, -136104.28, -104605.78, -85293.92, -100809.65, 442, 275, 1019,0.0,0.0,0.0,0.0,0.0, 21:02:00.105
172, -67584.97, -112908.47, -187500.02, -125857.66, -136078.78, -104359.13, -85247.13, -100770.06, 445, 276, 1018,0.0,0.0,0.0,0.0,0.0, 21:02:00.105
173, -67566.23, -112879.81, -187500.02, -125923.33, -136160.36, -104450.28, -85323.20, -100847.70, 449, 276, 1018,0.0,0.0,0.0,0.0,0.0, 21:02:00.106
174, -67536.89, -112845.41, -187500.02, -126083.62, -136184.75, -104668.19, -85369.34, -100887.10, 447, 276, 1018,0.0,0.0,0.0,0.0,0.0, 21:02:00.106
175, -67540.20, -112854.20, -187500.02, -126086.66, -136130.84, -104675.98, -85317.90, -100824.49, 443, 276, 1018,0.0,0.0,0.0,0.0,0.0, 21:02:00.106
176, -67576.70, -112899.98, -187500.02, -125891.66, -136066.38, -104404.46, -85237.15, -100752.67, 443, 275, 1019,0.0,0.0,0.0,0.0,0.0, 21:02:00.106
177, -67565.08, -112887.17, -187500.02, -125892.42, -136135.33, -104410.60, -85296.73, -100820.80, 449, 276, 1019,0.0,0.0,0.0,0.0,0.0, 21:02:00.107
178, -67524.13, -112842.76, -187500.02, -126061.73, -136182.64, -104637.37, -85357.89, -100880.82, 449, 277, 1018,0.0,0.0,0.0,0.0,0.0, 21:02:00.107
179, -67509.75, -112834.98, -187500.02, -126105.19, -136141.14, -104702.90, -85324.54, -100839.65, 441, 276, 1018,0.0,0.0,0.0,0.0,0.0, 21:02:00.107
180, -67538.66, -112877.47, -187500.02, -125898.03, -136052.83, -104419.01, -85228.02, -100748.30, 442, 276, 1018,0.0,0.0,0.0,0.0,0.0, 21:02:00.107
181, -67527.19, -112858.96, -187500.02, -125869.46, -136116.00, -104378.20, -85276.59, -100802.05, 449, 276, 1018,0.0,0.0,0.0,0.0,0.0, 21:02:00.108
182, -67496.32, -112819.02, -187500.02, -126021.34, -136161.70, -104586.49, -85339.88, -100867.54, 449, 277, 1018,0.0,0.0,0.0,0.0,0.0, 21:02:00.108
183, -67486.89, -112805.95, -187500.02, -126093.72, -136141.16, -104690.67, -85328.12, -100848.72, 443, 276, 1018,0.0,0.0,0.0,0.0,0.0, 21:02:00.108
184, -67510.89, -112843.63, -187500.02, -125926.95, -136061.36, -104456.38, -85233.03, -100757.13, 443, 276, 1018,0.0,0.0,0.0,0.0,0.0, 21:02:00.108
185, -67512.70, -112841.13, -187500.02, -125853.08, -136107.17, -104350.37, -85260.73, -100793.98, 447, 276, 1018,0.0,0.0,0.0,0.0,0.0, 21:02:00.109
186, -67475.38, -112792.53, -187500.02, -125996.09, -136173.27, -104545.85, -85336.72, -100871.25, 450, 277, 1018,0.0,0.0,0.0,0.0,0.0, 21:02:00.109
187, -67464.76, -112785.31, -187500.02, -126091.02, -136152.86, -104682.09, -85334.62, -100863.95, 443, 276, 1019,0.0,0.0,0.0,0.0,0.0, 21:02:00.109
188, -67481.84, -112814.15, -187500.02, -125955.88, -136070.08, -104490.06, -85244.74, -100770.29, 442, 275, 1019,0.0,0.0,0.0,0.0,0.0, 21:02:00.109
189, -67486.80, -112812.31, -187500.02, -125854.04, -136099.92, -104341.23, -85252.08, -100780.77, 447, 276, 1018,0.0,0.0,0.0,0.0,0.0, 21:02:00.110
190, -67455.35, -112774.59, -187500.02, -125958.55, -136161.75, -104493.02, -85320.90, -100852.99, 451, 276, 1019,0.0,0.0,0.0,0.0,0.0, 21:02:00.110
191, -67424.75, -112739.83, -187500.02, -126101.52, -136168.19, -104694.88, -85346.58, -100875.59, 443, 276, 1019,0.0,0.0,0.0,0.0,0.0, 21:02:00.110
192, -67434.20, -112758.20, -187500.02, -126015.47, -136083.55, -104582.40, -85260.03, -100783.38, 443, 276, 1019,0.0,0.0,0.0,0.0,0.0, 21:02:00.111
193, -67456.38, -112782.52, -187500.02, -125859.61, -136069.22, -104365.70, -85224.74, -100757.26, 445, 276, 1019,0.0,0.0,0.0,0.0,0.0, 21:02:00.111
194, -67446.63, -112764.62, -187500.02, -125911.46, -136130.88, -104445.48, -85288.17, -100830.59, 451, 277, 1019,0.0,0.0,0.0,0.0,0.0, 21:02:00.111
195, -67413.84, -112722.75, -187500.02, -126079.44, -136167.47, -104671.34, -85336.52, -100869.87, 445, 276, 1018,0.0,0.0,0.0,0.0,0.0, 21:02:00.112
196, -67422.91, -112743.27, -187500.02, -126037.39, -136101.05, -104620.06, -85271.88, -100796.15, 443, 276, 1018,0.0,0.0,0.0,0.0,0.0, 21:02:00.112
197, -67452.84, -112781.45, -187500.02, -125847.13, -136061.39, -104356.42, -85217.68, -100752.34, 444, 276, 1018,0.0,0.0,0.0,0.0,0.0, 21:02:00.112
198, -67436.53, -112754.20, -187500.02, -125888.26, -136132.09, -104414.98, -85284.04, -100826.50, 449, 277, 1019,0.0,0.0,0.0,0.0,0.0, 21:02:00.112
199, -67406.63, -112710.12, -187500.02, -126065.06, -136174.95, -104648.95, -85343.18, -100880.05, 445, 276, 1018,0.0,0.0,0.0,0.0,0.0, 21:02:00.113
200, -67407.25, -112724.23, -187500.02, -126065.48, -136119.33, -104656.20, -85295.59, -100819.48, 441, 276, 1019,0.0,0.0,0.0,0.0,0.0, 21:02:00.113
201, -67441.60, -112769.27, -187500.02, -125855.29, -136053.28, -104366.82, -85217.95, -100745.12, 444, 275, 1018,0.0,0.0,0.0,0.0,0.0, 21:02:00.113
202, -67423.70, -112738.33, -187500.02, -125870.40, -136136.58, -104391.85, -85289.59, -100818.92, 450, 277, 1018,0.0,0.0,0.0,0.0,0.0, 21:02:00.113
203, -67394.58, -112704.76, -187500.02, -126018.95, -136167.11, -104599.55, -85339.12, -100871.16, 448, 277, 1018,0.0,0.0,0.0,0.0,0.0, 21:02:00.114
204, -67390.20, -112696.40, -187500.02, -126080.17, -136142.28, -104684.64, -85320.74, -100838.59, 441, 276, 1018,0.0,0.0,0.0,0.0,0.0, 21:02:00.114
205, -67431.73, -112748.03, -187500.02, -125894.03, -136059.53, -104425.36, -85225.43, -100744.96, 442, 275, 1018,0.0,0.0,0.0,0.0,0.0, 21:02:00.114
206, -67443.55, -112751.16, -187500.02, -125848.16, -136123.34, -104364.09, -85275.91, -100801.20, 448, 276, 1019,0.0,0.0,0.0,0.0,0.0, 21:02:00.115
207, -67407.09, -112705.31, -187500.02, -126003.95, -136184.13, -104580.27, -85350.06, -100871.95, 451, 277, 1018,0.0,0.0,0.0,0.0,0.0, 21:02:00.115
208, -67392.59, -112693.31, -187500.02, -126092.80, -136160.03, -104707.50, -85342.11, -100853.26, 442, 276, 1018,0.0,0.0,0.0,0.0,0.0, 21:02:00.115
209, -67425.80, -112742.84, -187500.02, -125935.27, -136073.55, -104483.94, -85248.84, -100755.96, 441, 275, 1019,0.0,0.0,0.0,0.0,0.0, 21:02:00.115
210, -67440.20, -112754.40, -187500.02, -125845.86, -136105.16, -104360.54, -85262.70, -100778.00, 448, 276, 1019,0.0,0.0,0.0,0.0,0.0, 21:02:00.116
211, -67415.30, -112719.75, -187500.02, -125968.30, -136163.47, -104528.73, -85331.52, -100852.81, 451, 277, 1018,0.0,0.0,0.0,0.0,0.0, 21:02:00.116
212, -67392.74, -112690.92, -187500.02, -126111.94, -136172.56, -104722.14, -85356.37, -100866.67, 443, 276, 1018,0.0,0.0,0.0,0.0,0.0, 21:02:00.116
213, -67424.99, -112732.74, -187500.02, -125981.87, -136085.13, -104547.48, -85264.28, -100763.80, 442, 276, 1019,0.0,0.0,0.0,0.0,0.0, 21:02:00.116
214, -67450.95, -112754.78, -187500.02, -125838.64, -136093.59, -104350.55, -85249.86, -100759.54, 447, 276, 1019,0.0,0.0,0.0,0.0,0.0, 21:02:00.117
215, -67412.66, -112701.38, -187500.02, -125946.45, -136166.13, -104502.09, -85320.98, -100840.30, 451, 277, 1019,0.0,0.0,0.0,0.0,0.0, 21:02:00.117
216, -67384.80, -112667.25, -187500.02, -126096.45, -136175.41, -104708.91, -85349.09, -100864.34, 443, 276, 1019,0.0,0.0,0.0,0.0,0.0, 21:02:00.117
217, -67410.24, -112696.59, -187500.02, -126010.21, -136098.89, -104590.65, -85272.51, -100788.23, 442, 275, 1019,0.0,0.0,0.0,0.0,0.0, 21:02:00.117
218, -67429.71, -112715.24, -187500.02, -125852.97, -136088.53, -104371.45, -85243.65, -100768.39, 445, 276, 1018,0.0,0.0,0.0,0.0,0.0, 21:02:00.118
219, -67406.29, -112683.32, -187500.02, -125928.77, -136159.05, -104482.47, -85315.20, -100848.14, 450, 276, 1019,0.0,0.0,0.0,0.0,0.0, 21:02:00.118
220, -67381.03, -112651.88, -187500.02, -126085.65, -136173.69, -104701.96, -85354.70, -100887.30, 445, 276, 1019,0.0,0.0,0.0,0.0,0.0, 21:02:00.118
221, -67405.55, -112681.20, -187500.02, -126041.84, -136107.50, -104649.79, -85292.76, -100822.41, 442, 276, 1019,0.0,0.0,0.0,0.0,0.0, 21:02:00.118
222, -67442.16, -112724.42, -187500.02, -125848.16, -136064.50, -104380.43, -85228.20, -100772.52, 444, 275, 1019,0.0,0.0,0.0,0.0,0.0, 21:02:00.119
223, -67429.89, -112702.27, -187500.02, -125878.85, -136137.81, -104428.55, -85293.07, -100842.04, 449, 276, 1018,0.0,0.0,0.0,0.0,0.0, 21:02:00.119
224, -67396.56, -112660.57, -187500.02, -126049.59, -136170.41, -104660.30, -85347.98, -100895.34, 448, 277, 1018,0.0,0.0,0.0,0.0,0.0, 21:02:00.119
225, -67393.84, -112667.45, -187500.02, -126069.34, -136115.72, -104694.98, -85303.80, -100839.04, 441, 276, 1018,0.0,0.0,0.0,0.0,0.0, 21:02:00.120
226, -67434.54, -112715.28, -187500.02, -125872.62, -136043.75, -104420.62, -85219.06, -100757.10, 442, 275, 1018,0.0,0.0,0.0,0.0,0.0, 21:02:00.120
227, -67440.89, -112708.09, -187500.02, -125878.23, -136127.53, -104423.03, -85284.69, -100825.45, 449, 276, 1018,0.0,0.0,0.0,0.0,0.0, 21:02:00.120
228, -67407.27, -112663.02, -187500.02, -126053.35, -136183.86, -104661.77, -85353.35, -100890.34, 449, 277, 1018,0.0,0.0,0.0,0.0,0.0, 21:02:00.120
229, -67411.88, -112667.70, -187500.02, -126104.88, -136145.45, -104746.46, -85327.98, -100853.33, 442, 276, 1019,0.0,0.0,0.0,0.0,0.0, 21:02:00.121
230, -67447.99, -112712.22, -187500.02, -125907.48, -136061.36, -104475.34, -85230.87, -100763.00, 442, 275, 1019,0.0,0.0,0.0,0.0,0.0, 21:02:00.121
231, -67446.09, -112699.30, -187500.02, -125862.06, -136126.17, -104411.37, -85275.84, -100814.16, 448, 276, 1018,0.0,0.0,0.0,0.0,0.0, 21:02:00.121
232, -67416.75, -112655.80, -187500.02, -126010.52, -136179.77, -104616.82, -85344.91, -100884.20, 451, 277, 1019,0.0,0.0,0.0,0.0,0.0, 21:02:00.121
233, -67409.22, -112645.66, -187500.02, -126099.02, -136156.89, -104746.24, -85337.13, -100869.87, 442, 276, 1018,0.0,0.0,0.0,0.0,0.0, 21:02:00.121
234, -67430.54, -112678.25, -187500.02, -125946.31, -136070.95, -104539.69, -85242.73, -100773.82, 441, 275, 1019,0.0,0.0,0.0,0.0,0.0, 21:02:00.122
235, -67446.19, -112686.83, -187500.02, -125833.52, -136090.56, -104389.37, -85249.08, -100792.41, 447, 276, 1019,0.0,0.0,0.0,0.0,0.0, 21:02:00.122
236, -67437.00, -112670.54, -187500.02, -125947.38, -136157.44, -104542.34, -85326.93, -100882.07, 452, 277, 1019,0.0,0.0,0.0,0.0,0.0, 21:02:00.122
237, -67410.53, -112635.98, -187500.02, -126096.47, -136168.83, -104738.23, -85352.05, -100898.34, 444, 276, 1019,0.0,0.0,0.0,0.0,0.0, 21:02:00.122
238, -67434.43, -112667.90, -187500.02, -125988.27, -136084.17, -104589.71, -85264.26, -100801.71, 442, 275, 1019,0.0,0.0,0.0,0.0,0.0, 21:02:00.122
239, -67455.53, -112692.40, -187500.02, -125848.74, -136081.97, -104393.73, -85246.02, -100788.05, 447, 276, 1019,0.0,0.0,0.0,0.0,0.0, 21:02:00.122
240, -67434.00, -112661.98, -187500.02, -125938.11, -136149.09, -104518.09, -85316.92, -100861.39, 451, 277, 1018,0.0,0.0,0.0,0.0,0.0, 21:02:00.123
241, -67413.13, -112636.05, -187500.02, -126107.20, -136177.53, -104742.15, -85361.29, -100897.49, 444, 276, 1018,0.0,0.0,0.0,0.0,0.0, 21:02:00.575
242, -67433.13, -112665.17, -187500.02, -126036.74, -136097.69, -104646.21, -85282.38, -100811.68, 442, 276, 1018,0.0,0.0,0.0,0.0,0.0, 21:02:00.575
243, -67447.68, -112682.34, -187500.02, -125863.02, -136063.64, -104402.34, -85231.06, -100766.29, 445, 276, 1018,0.0,0.0,0.0,0.0,0.0, 21:02:00.576
244, -67441.98, -112664.48, -187500.02, -125920.47, -136137.78, -104481.23, -85302.50, -100842.04, 451, 277, 1018,0.0,0.0,0.0,0.0,0.0, 21:02:00.576
245, -67416.37, -112628.63, -187500.02, -126090.84, -136170.44, -104707.10, -85348.61, -100888.38, 446, 276, 1018,0.0,0.0,0.0,0.0,0.0, 21:02:00.576
246, -67423.92, -112647.38, -187500.02, -126057.55, -136099.47, -104668.05, -85283.91, -100814.16, 442, 275, 1019,0.0,0.0,0.0,0.0,0.0, 21:02:00.576
247, -67453.92, -112685.34, -187500.02, -125875.55, -136056.58, -104404.99, -85224.34, -100756.32, 444, 275, 1019,0.0,0.0,0.0,0.0,0.0, 21:02:00.577
248, -67441.05, -112663.41, -187500.02, -125907.57, -136130.61, -104447.73, -85289.65, -100824.49, 449, 276, 1019,0.0,0.0,0.0,0.0,0.0, 21:02:00.577
249, -67413.28, -112629.14, -187500.02, -126065.33, -136158.86, -104661.41, -85339.38, -100878.70, 448, 277, 1019,0.0,0.0,0.0,0.0,0.0, 21:02:00.577
250, -67419.14, -112636.02, -187500.02, -126099.46, -136121.45, -104710.88, -85312.05, -100844.09, 441, 276, 1019,0.0,0.0,0.0,0.0,0.0, 21:02:00.578
251, -67448.82, -112675.92, -187500.02, -125906.08, -136045.08, -104439.91, -85225.05, -100758.13, 443, 276, 1018,0.0,0.0,0.0,0.0,0.0, 21:02:00.578
252, -67440.11, -112664.23, -187500.02, -125895.19, -136109.11, -104428.11, -85276.40, -100816.73, 449, 276, 1018,0.0,0.0,0.0,0.0,0.0, 21:02:00.578
253, -67418.85, -112636.12, -187500.02, -126035.94, -136149.95, -104624.29, -85335.78, -100878.67, 450, 277, 1018,0.0,0.0,0.0,0.0,0.0, 21:02:00.578
254, -67411.18, -112623.55, -187500.02, -126130.87, -136139.39, -104753.66, -85332.85, -100858.20, 441, 276, 1018,0.0,0.0,0.0,0.0,0.0, 21:02:00.579
255, -67453.92, -112680.57, -187500.02, -125933.16, -136040.58, -104485.88, -85223.91, -100752.34, 442, 275, 1018,0.0,0.0,0.0,0.0,0.0, 21:02:00.579
0, -67454.12, -112670.31, -187500.02, -125878.85, -136094.78, -104406.31, -85257.95, -100792.77, 447, 276, 1019,0.0,0.0,0.0,0.0,0.0, 21:02:00.579
1, -67434.07, -112640.31, -187500.02, -126016.31, -136147.95, -104592.48, -85323.76, -100860.48, 452, 277, 1019,0.0,0.0,0.0,0.0,0.0, 21:02:00.580
2, -67419.34, -112623.41, -187500.02, -126122.26, -136138.59, -104744.14, -85329.93, -100859.49, 442, 276, 1019,0.0,0.0,0.0,0.0,0.0, 21:02:00.580
3, -67458.16, -112678.63, -187500.02, -125945.30, -136039.22, -104508.64, -85229.01, -100760.14, 441, 275, 1018,0.0,0.0,0.0,0.0,0.0, 21:02:00.580
4, -67463.20, -112681.94, -187500.02, -125839.29, -136079.14, -104360.16, -85245.95, -100785.94, 446, 276, 1019,0.0,0.0,0.0,0.0,0.0, 21:02:00.580
5, -67428.77, -112637.34, -187500.02, -125965.76, -136151.67, -104532.53, -85321.57, -100865.69, 452, 277, 1018,0.0,0.0,0.0,0.0,0.0, 21:02:00.581
6, -67404.61, -112608.09, -187500.02, -126123.24, -136166.55, -104747.91, -85352.15, -100884.05, 443, 276, 1019,0.0,0.0,0.0,0.0,0.0, 21:02:00.581
7, -67438.27, -112655.85, -187500.02, -125998.77, -136072.28, -104587.01, -85258.73, -100785.91, 442, 275, 1019,0.0,0.0,0.0,0.0,0.0, 21:02:00.582
8, -67466.88, -112686.07, -187500.02, -125853.19, -136073.55, -104381.16, -85242.04, -100780.52, 447, 276, 1019,0.0,0.0,0.0,0.0,0.0, 21:02:00.582
9, -67454.27, -112664.79, -187500.02, -125931.00, -136140.73, -104488.61, -85313.72, -100860.37, 451, 277, 1018,0.0,0.0,0.0,0.0,0.0, 21:02:00.582
10, -67429.22, -112631.82, -187500.02, -126079.23, -136158.23, -104688.23, -85347.25, -100890.45, 445, 276, 1018,0.0,0.0,0.0,0.0,0.0, 21:02:00.583
11, -67444.51, -112661.30, -187500.02, -126034.80, -136099.47, -104626.21, -85284.24, -100813.77, 442, 276, 1018,0.0,0.0,0.0,0.0,0.0, 21:02:00.583
12, -67462.05, -112693.27, -187500.02, -125853.57, -136061.03, -104375.42, -85233.03, -100764.32, 445, 276, 1018,0.0,0.0,0.0,0.0,0.0, 21:02:00.583
13, -67442.30, -112662.42, -187500.02, -125909.41, -136135.19, -104454.73, -85304.13, -100839.24, 450, 277, 1018,0.0,0.0,0.0,0.0,0.0, 21:02:00.583
14, -67415.36, -112624.38, -187500.02, -126083.91, -136164.09, -104684.81, -85349.24, -100886.45, 447, 276, 1018,0.0,0.0,0.0,0.0,0.0, 21:02:00.584
15, -67415.18, -112635.29, -187500.02, -126081.98, -136106.58, -104683.81, -85295.28, -100824.89, 443, 276, 1018,0.0,0.0,0.0,0.0,0.0, 21:02:00.584
16, -67443.86, -112677.82, -187500.02, -125877.31, -136037.45, -104401.22, -85212.70, -100750.28, 443, 276, 1018,0.0,0.0,0.0,0.0,0.0, 21:02:00.584
17, -67447.08, -112672.81, -187500.02, -125887.30, -136114.78, -104414.59, -85283.95, -100826.10, 452, 277, 1018,0.0,0.0,0.0,0.0,0.0, 21:02:00.584
18, -67415.92, -112630.55, -187500.02, -126055.09, -136165.97, -104637.50, -85349.66, -100887.34, 449, 277, 1018,0.0,0.0,0.0,0.0,0.0, 21:02:00.585
19, -67415.56, -112629.03, -187500.02, -126093.59, -136119.13, -104696.26, -85310.80, -100841.16, 442, 276, 1019,0.0,0.0,0.0,0.0,0.0, 21:02:00.585
20, -67463.28, -112683.55, -187500.02, -125902.21, -136045.98, -104427.52, -85226.59, -100757.80, 442, 275, 1019,0.0,0.0,0.0,0.0,0.0, 21:02:00.585
21, -67463.13, -112675.88, -187500.02, -125887.10, -136116.69, -104405.84, -85283.28, -100815.22, 449, 276, 1019,0.0,0.0,0.0,0.0,0.0, 21:02:00.585
22, -67430.98, -112636.43, -187500.02, -126033.55, -136162.59, -104609.38, -85343.59, -100878.18, 450, 277, 1019,0.0,0.0,0.0,0.0,0.0, 21:02:00.586
23, -67420.68, -112627.24, -187500.02, -126122.44, -136146.23, -104736.23, -85340.08, -100864.84, 442, 276, 1019,0.0,0.0,0.0,0.0,0.0, 21:02:00.586
24, -67449.27, -112669.82, -187500.02, -125945.19, -136051.38, -104493.24, -85238.77, -100766.33, 442, 276, 1018,0.0,0.0,0.0,0.0,0.0, 21:02:00.586
25, -67452.51, -112666.58, -187500.02, -125879.73, -136099.31, -104401.71, -85266.65, -100804.55, 448, 276, 1019,0.0,0.0,0.0,0.0,0.0, 21:02:00.586
26, -67432.17, -112636.12, -187500.02, -126014.88, -136158.47, -104585.95, -85336.25, -100876.59, 451, 277, 1018,0.0,0.0,0.0,0.0,0.0, 21:02:00.587
27, -67426.70, -112634.59, -187500.02, -126147.56, -136162.86, -104763.98, -85358.41, -100889.58, 443, 276, 1019,0.0,0.0,0.0,0.0,0.0, 21:02:00.587
28, -67457.05, -112676.64, -187500.02, -126001.80, -136071.77, -104565.44, -85261.55, -100790.90, 441, 275, 1018,0.0,0.0,0.0,0.0,0.0, 21:02:00.587
29, -67474.28, -112690.83, -187500.02, -125863.88, -136082.52, -104373.97, -85254.45, -100790.25, 447, 276, 1019,0.0,0.0,0.0,0.0,0.0, 21:02:00.587
30, -67442.92, -112648.85, -187500.02, -125981.18, -136156.34, -104533.67, -85329.46, -100866.91, 451, 277, 1018,0.0,0.0,0.0,0.0,0.0, 21:02:00.587
31, -67424.05, -112629.81, -187500.02, -126122.40, -136163.20, -104727.73, -85355.70, -100886.23, 443, 276, 1018,0.0,0.0,0.0,0.0,0.0, 21:02:00.587
32, -67455.93, -112670.63, -187500.02, -126010.23, -136075.72, -104573.80, -85268.21, -100791.32, 442, 276, 1018,0.0,0.0,0.0,0.0,0.0, 21:02:00.587
33, -67473.21, -112688.64, -187500.02, -125840.23, -136061.25, -104335.10, -85230.26, -100761.03, 444, 276, 1018,0.0,0.0,0.0,0.0,0.0, 21:02:00.588
34, -67440.55, -112648.92, -187500.02, -125927.35, -136136.45, -104453.43, -85305.30, -100836.29, 450, 277, 1019,0.0,0.0,0.0,0.0,0.0, 21:02:00.588
35, -67415.92, -112619.39, -187500.02, -126101.59, -136162.86, -104686.60, -85352.08, -100874.83, 445, 276, 1018,0.0,0.0,0.0,0.0,0.0, 21:02:00.588
36, -67431.41, -112645.66, -187500.02, -126049.55, -136087.61, -104621.65, -85283.99, -100797.78, 442, 275, 1019,0.0,0.0,0.0,0.0,0.0, 21:02:00.588
37, -67456.27, -112680.15, -187500.02, -125864.99, -136046.70, -104367.24, -85226.55, -100749.97, 444, 276, 1019,0.0,0.0,0.0,0.0,0.0, 21:02:00.588
38, -67441.31, -112660.01, -187500.02, -125923.55, -136126.83, -104452.70, -85302.77, -100832.20, 451, 276, 1019,0.0,0.0,0.0,0.0,0.0, 21:02:00.588
39, -67410.55, -112626.97, -187500.02, -126085.23, -136149.72, -104673.26, -85349.15, -100874.45, 447, 276, 1019,0.0,0.0,0.0,0.0,0.0, 21:02:00.589
40, -67414.87, -112636.67, -187500.02, -126085.94, -136093.89, -104682.18, -85295.91, -100811.04, 441, 275, 1019,0.0,0.0,0.0,0.0,0.0, 21:02:00.589
41, -67460.42, -112687.84, -187500.02, -125881.91, -136035.59, -104398.38, -85223.53, -100743.31, 444, 275, 1019,0.0,0.0,0.0,0.0,0.0, 21:02:00.589
42, -67459.28, -112673.73, -187500.02, -125886.79, -136116.47, -104404.01, -85290.09, -100820.71, 449, 276, 1018,0.0,0.0,0.0,0.0,0.0, 21:02:00.589
43, -67430.78, -112643.34, -187500.02, -126040.88, -136154.22, -104605.67, -85343.74, -100872.44, 448, 277, 1018,0.0,0.0,0.0,0.0,0.0, 21:02:00.589
44, -67419.72, -112638.57, -187500.02, -126096.38, -136120.39, -104678.60, -85324.77, -100834.51, 442, 276, 1019,0.0,0.0,0.0,0.0,0.0, 21:02:00.589
45, -67455.62, -112686.52, -187500.02, -125914.15, -136039.34, -104419.14, -85225.16, -100747.18, 443, 276, 1018,0.0,0.0,0.0,0.0,0.0, 21:02:00.590
46, -67456.16, -112677.98, -187500.02, -125886.00, -136105.78, -104377.37, -85276.55, -100800.84, 449, 276, 1018,0.0,0.0,0.0,0.0,0.0, 21:02:00.590
47, -67416.68, -112632.98, -187500.02, -126030.89, -136151.69, -104577.93, -85336.74, -100859.47, 450, 277, 1018,0.0,0.0,0.0,0.0,0.0, 21:02:00.590
48, -67400.77, -112616.20, -187500.02, -126129.08, -136134.34, -104718.99, -85328.32, -100842.38, 442, 276, 1019,0.0,0.0,0.0,0.0,0.0, 21:02:00.590
49, -67429.16, -112659.94, -187500.02, -125955.07, -136039.47, -104481.91, -85226.02, -100742.86, 442, 276, 1018,0.0,0.0,0.0,0.0,0.0, 21:02:00.590
50, -67434.95, -112667.23, -187500.02, -125878.16, -136078.17, -104374.80, -85247.49, -100767.88, 447, 276, 1019,0.0,0.0,0.0,0.0,0.0, 21:02:00.590
51, -67419.68, -112644.61, -187500.02, -125992.02, -136133.31, -104534.05, -85307.82, -100836.90, 450, 277, 1018,0.0,0.0,0.0,0.0,0.0, 21:02:00.591
52, -67401.64, -112621.25, -187500.02, -126119.52, -136135.91, -104709.65, -85325.41, -100846.04, 442, 276, 1019,0.0,0.0,0.0,0.0,0.0, 21:02:00.591
53, -67417.77, -112650.91, -187500.02, -125993.94, -136045.47, -104542.81, -85233.95, -100746.82, 442, 275, 1019,0.0,0.0,0.0,0.0,0.0, 21:02:00.591
54, -67438.95, -112673.76, -187500.02, -125860.68, -136051.98, -104363.31, -85223.94, -100746.04, 446, 275, 1019,0.0,0.0,0.0,0.0,0.0, 21:02:00.591
55, -67423.79, -112643.13, -187500.02, -125965.29, -136126.86, -104513.53, -85305.81, -100831.94, 450, 276, 1019,0.0,0.0,0.0,0.0,0.0, 21:02:00.591
56, -67409.69, -112623.33, -187500.02, -126098.86, -136135.73, -104698.67, -85337.95, -100857.93, 443, 276, 1019,0.0,0.0,0.0,0.0,0.0, 21:02:00.591
57, -67421.48, -112642.48, -187500.02, -126022.08, -136065.14, -104593.66, -85264.73, -100776.46, 442, 275, 1018,0.0,0.0,0.0,0.0,0.0, 21:02:00.591
58, -67454.26, -112683.39, -187500.02, -125844.77, -136033.03, -104347.69, -85221.41, -100736.42, 445, 275, 1019,0.0,0.0,0.0,0.0,0.0, 21:02:00.592
59, -67434.25, -112653.57, -187500.02, -125926.86, -136117.17, -104457.39, -85300.83, -100817.77, 451, 277, 1018,0.0,0.0,0.0,0.0,0.0, 21:02:00.592
60, -67409.64, -112625.52, -187500.02, -126105.56, -136147.63, -104701.11, -85341.88, -100862.18, 444, 276, 1018,0.0,0.0,0.0,0.0,0.0, 21:02:00.592
61, -67432.73, -112660.14, -187500.02, -126057.58, -136076.23, -104643.13, -85279.77, -100790.41, 442, 275, 1019,0.0,0.0,0.0,0.0,0.0, 21:02:00.592
62, -67463.17, -112698.99, -187500.02, -125863.56, -136029.72, -104368.09, -85218.19, -100733.20, 445, 275, 1019,0.0,0.0,0.0,0.0,0.0, 21:02:00.592
63, -67455.69, -112680.98, -187500.02, -125898.97, -136107.33, -104416.10, -85283.84, -100807.98, 451, 276, 1018,0.0,0.0,0.0,0.0,0.0, 21:02:00.592
64, -67415.01, -112631.98, -187500.02, -126082.88, -136151.78, -104663.11, -85348.16, -100863.74, 447, 276, 1019,0.0,0.0,0.0,0.0,0.0, 21:02:00.592
65, -67407.07, -112635.55, -187500.02, -126093.65, -136092.14, -104686.83, -85301.34, -100804.45, 441, 275, 1019,0.0,0.0,0.0,0.0,0.0, 21:02:00.593
66, -67443.73, -112683.70, -187500.02, -125901.18, -136024.59, -104416.75, -85217.16, -100730.21, 444, 275, 1019,0.0,0.0,0.0,0.0,0.0, 21:02:00.593
67, -67438.38, -112666.67, -187500.02, -125893.88, -136090.80, -104409.17, -85276.02, -100792.93, 451, 276, 1019,0.0,0.0,0.0,0.0,0.0, 21:02:00.593
68, -67417.71, -112638.46, -187500.02, -126037.82, -136124.59, -104605.13, -85327.38, -100848.25, 449, 277, 1018,0.0,0.0,0.0,0.0,0.0, 21:02:00.593
69, -67413.64, -112641.08, -187500.02, -126105.50, -136106.89, -104696.69, -85314.15, -100830.48, 443, 276, 1018,0.0,0.0,0.0,0.0,0.0, 21:02:00.593
70, -67446.59, -112687.68, -187500.02, -125925.01, -136027.06, -104442.63, -85224.65, -100740.60, 442, 276, 1018,0.0,0.0,0.0,0.0,0.0, 21:02:00.593
71, -67454.45, -112688.30, -187500.02, -125876.99, -136084.66, -104373.63, -85265.13, -100787.55, 449, 276, 1018,0.0,0.0,0.0,0.0,0.0, 21:02:00.594
72, -67426.20, -112647.80, -187500.02, -126024.72, -136144.03, -104574.63, -85333.64, -100859.25, 451, 277, 1018,0.0,0.0,0.0,0.0,0.0, 21:02:00.594
73, -67405.39, -112629.74, -187500.02, -126130.87, -136129.73, -104725.09, -85333.73, -100850.20, 442, 276, 1018,0.0,0.0,0.0,0.0,0.0, 21:02:00.595
74, -67437.80, -112680.66, -187500.02, -125956.44, -136030.30, -104490.53, -85231.36, -100749.14, 441, 276, 1018,0.0,0.0,0.0,0.0,0.0, 21:02:00.595
75, -67454.27, -112696.66, -187500.02, -125860.41, -136073.03, -104352.34, -85256.50, -100777.44, 446, 276, 1019,0.0,0.0,0.0,0.0,0.0, 21:02:00.595
76, -67420.01, -112652.54, -187500.02, -125980.02, -136133.88, -104515.63, -85326.71, -100853.57, 451, 277, 1018,0.0,0.0,0.0,0.0,0.0, 21:02:00.595
77, -67396.07, -112619.87, -187500.02, -126124.84, -136140.02, -104711.64, -85352.68, -100870.27, 443, 276, 1019,0.0,0.0,0.0,0.0,0.0, 21:02:00.596
78, -67421.42, -112659.70, -187500.02, -125986.68, -136039.69, -104530.74, -85255.61, -100762.30, 442, 276, 1019,0.0,0.0,0.0,0.0,0.0, 21:02:00.596
79, -67449.38, -112688.33, -187500.02, -125830.55, -136045.14, -104316.33, -85242.46, -100753.08, 446, 276, 1018,0.0,0.0,0.0,0.0,0.0, 21:02:00.596
80, -67430.67, -112660.66, -187500.02, -125929.84, -136129.55, -104449.77, -85327.05, -100842.57, 450, 276, 1019,0.0,0.0,0.0,0.0,0.0, 21:02:00.596
81, -67405.73, -112634.66, -187500.02, -126100.96, -136156.42, -104677.51, -85372.84, -100876.64, 443, 276, 1018,0.0,0.0,0.0,0.0,0.0, 21:02:00.596
82, -67417.02, -112677.76, -187500.02, -126033.52, -136083.03, -104584.50, -85297.70, -100793.45, 442, 275, 1019,0.0,0.0,0.0,0.0,0.0, 21:02:00.596
83, -67437.70, -112734.98, -187500.02, -125874.54, -136064.92, -104358.26, -85250.51, -100759.70, 446, 275, 1020,0.0,0.0,0.0,0.0,0.0, 21:02:00.597
84, -67422.94, -112729.99, -187500.02, -125928.85, -136127.39, -104441.27, -85309.63, -100829.01, 451, 276, 1018,0.0,0.0,0.0,0.0,0.0, 21:02:00.597
85, -67405.93, -112707.05, -187500.02, -126084.45, -136153.55, -104654.30, -85360.23, -100877.35, 446, 276, 1019,0.0,0.0,0.0,0.0,0.0, 21:02:00.597
86, -67424.23, -112726.86, -187500.02, -126067.26, -136101.31, -104631.66, -85308.89, -100824.20, 441, 275, 1018,0.0,0.0,0.0,0.0,0.0, 21:02:00.597
87, -67465.84, -112775.66, -187500.02, -125875.55, -136053.66, -104359.82, -85238.17, -100771.02, 443, 275, 1019,0.0,0.0,0.0,0.0,0.0, 21:02:00.598
88, -67457.92, -112754.76, -187500.02, -125900.06, -136134.23, -104395.07, -85311.91, -100847.16, 449, 276, 1019,0.0,0.0,0.0,0.0,0.0, 21:02:00.598
89, -67422.27, -112711.28, -187500.02, -126072.35, -136172.98, -104622.19, -85367.37, -100896.15, 449, 276, 1018,0.0,0.0,0.0,0.0,0.0, 21:02:00.598
90, -67423.21, -112721.72, -187500.02, -126108.05, -136129.92, -104670.34, -85330.40, -100844.56, 442, 276, 1018,0.0,0.0,0.0,0.0,0.0, 21:02:00.598
91, -67456.52, -112770.60, -187500.02, -125899.70, -136046.48, -104385.93, -85235.83, -100752.90, 443, 275, 1019,0.0,0.0,0.0,0.0,0.0, 21:02:00.598
92, -67455.71, -112758.29, -187500.02, -125863.32, -136109.53, -104340.84, -85283.70, -100815.44, 449, 276, 1019,0.0,0.0,0.0,0.0,0.0, 21:02:00.599
93, -67410.78, -112705.56, -187500.02, -126033.03, -136163.33, -104570.04, -85347.95, -100881.40, 449, 277, 1018,0.0,0.0,0.0,0.0,0.0, 21:02:00.599
94, -67403.56, -112698.81, -187500.02, -126110.93, -136139.05, -104680.34, -85341.77, -100854.02, 441, 276, 1019,0.0,0.0,0.0,0.0,0.0, 21:02:00.599
95, -67441.63, -112748.86, -187500.02, -125931.65, -136050.50, -104434.48, -85244.37, -100753.26, 443, 275, 1019,0.0,0.0,0.0,0.0,0.0, 21:02:00.599
96, -67450.90, -112749.93, -187500.02, -125867.95, -136096.61, -104350.21, -85274.43, -100791.32, 447, 276, 1019,0.0,0.0,0.0,0.0,0.0, 21:02:00.600
97, -67416.95, -112710.99, -187500.02, -126001.92, -136149.77, -104535.06, -85341.73, -100854.46, 451, 277, 1019,0.0,0.0,0.0,0.0,0.0, 21:02:00.600
98, -67416.34, -112716.91, -187500.02, -126108.31, -136147.08, -104680.95, -85344.95, -100851.63, 442, 276, 1019,0.0,0.0,0.0,0.0,0.0, 21:02:00.600
99, -67443.93, -112756.55, -187500.02, -125943.09, -136056.86, -104453.19, -85245.39, -100749.32, 441, 275, 1018,0.0,0.0,0.0,0.0,0.0, 21:02:00.600
100, -67453.02, -112760.61, -187500.02, -125853.33, -136098.20, -104324.93, -85264.91, -100773.48, 446, 276, 1019,0.0,0.0,0.0,0.0,0.0, 21:02:00.601
101, -67413.13, -112716.80, -187500.02, -125965.89, -136144.63, -104484.09, -85318.75, -100833.97, 451, 277, 1018,0.0,0.0,0.0,0.0,0.0, 21:02:00.601
102, -67384.85, -112682.05, -187500.02, -126107.80, -136143.22, -104675.05, -85334.17, -100846.13, 443, 276, 1018,0.0,0.0,0.0,0.0,0.0, 21:02:00.601
103, -67425.17, -112734.30, -187500.02, -126006.48, -136065.06, -104530.41, -85257.28, -100764.14, 442, 276, 1018,0.0,0.0,0.0,0.0,0.0, 21:02:00.602
104, -67445.85, -112755.49, -187500.02, -125855.02, -136061.91, -104317.51, -85234.48, -100750.84, 446, 276, 1018,0.0,0.0,0.0,0.0,0.0, 21:02:00.602
105, -67425.47, -112729.39, -187500.02, -125939.54, -136138.13, -104431.10, -85311.02, -100832.67, 449, 277, 1019,0.0,0.0,0.0,0.0,0.0, 21:02:01.054
106, -67387.60, -112684.91, -187500.02, -126095.66, -136147.47, -104638.68, -85337.59, -100856.48, 444, 276, 1018,0.0,0.0,0.0,0.0,0.0, 21:02:01.054
107, -67400.95, -112702.21, -187500.02, -126060.17, -136084.70, -104586.42, -85273.11, -100781.27, 442, 275, 1018,0.0,0.0,0.0,0.0,0.0, 21:02:01.055
108, -67431.21, -112733.79, -187500.02, -125889.24, -136049.28, -104352.45, -85226.13, -100738.03, 444, 275, 1018,0.0,0.0,0.0,0.0,0.0, 21:02:01.055
109, -67435.97, -112731.63, -187500.02, -125929.79, -136124.95, -104416.53, -85301.30, -100822.48, 450, 276, 1018,0.0,0.0,0.0,0.0,0.0, 21:02:01.055
110, -67417.20, -112705.09, -187500.02, -126105.68, -136164.56, -104647.80, -85361.02, -100883.23, 447, 276, 1018,0.0,0.0,0.0,0.0,0.0, 21:02:01.055
111, -67401.33, -112695.01, -187500.02, -126100.00, -136101.42, -104649.21, -85302.13, -100814.63, 442, 276, 1018,0.0,0.0,0.0,0.0,0.0, 21:02:01.056
112, -67406.00, -112706.97, -187500.02, -125892.20, -136024.33, -104374.91, -85208.16, -100726.03, 443, 275, 1019,0.0,0.0,0.0,0.0,0.0, 21:02:01.056
113, -67424.86, -112712.89, -187500.02, -125924.65, -136113.48, -104421.42, -85290.16, -100812.71, 451, 277, 1018,0.0,0.0,0.0,0.0,0.0, 21:02:01.056
114, -67364.42, -112642.55, -187500.02, -126063.86, -136119.53, -104623.10, -85312.78, -100837.92, 449, 277, 1018,0.0,0.0,0.0,0.0,0.0, 21:02:01.056
115, -67369.81, -112650.38, -187500.02, -126102.52, -136077.17, -104683.99, -85280.53, -100797.13, 441, 276, 1018,0.0,0.0,0.0,0.0,0.0, 21:02:01.057
116, -67453.83, -112747.91, -187500.02, -125916.24, -136028.31, -104413.65, -85218.46, -100734.84, 442, 275, 1019,0.0,0.0,0.0,0.0,0.0, 21:02:01.057
117, -67463.51, -112746.46, -187500.02, -125884.15, -136100.17, -104363.47, -85271.99, -100798.16, 449, 276, 1018,0.0,0.0,0.0,0.0,0.0, 21:02:01.057
118, -67422.00, -112694.95, -187500.02, -126034.09, -136141.70, -104562.69, -85327.76, -100858.84, 451, 277, 1019,0.0,0.0,0.0,0.0,0.0, 21:02:01.057
119, -67415.52, -112690.32, -187500.02, -126122.09, -136119.95, -104678.71, -85323.22, -100846.22, 442, 276, 1018,0.0,0.0,0.0,0.0,0.0, 21:02:01.057
120, -67450.43, -112727.60, -187500.02, -125941.23, -136035.42, -104427.23, -85231.76, -100753.10, 442, 276, 1018,0.0,0.0,0.0,0.0,0.0, 21:02:01.058
121, -67440.17, -112703.33, -187500.02, -125870.36, -136080.23, -104330.50, -85244.90, -100779.20, 448, 276, 1018,0.0,0.0,0.0,0.0,0.0, 21:02:01.058
122, -67408.68, -112674.45, -187500.02, -126012.45, -136135.89, -104522.61, -85313.99, -100849.32, 450, 277, 1019,0.0,0.0,0.0,0.0,0.0, 21:02:01.058
123, -67395.02, -112663.54, -187500.02, -126139.77, -136134.69, -104696.20, -85341.84, -100859.36, 443, 276, 1018,0.0,0.0,0.0,0.0,0.0, 21:02:01.058
124, -67427.74, -112714.75, -187500.02, -125985.88, -136040.58, -104488.19, -85249.04, -100762.09, 441, 275, 1018,0.0,0.0,0.0,0.0,0.0, 21:02:01.059
125, -67445.80, -112733.23, -187500.02, -125859.27, -136062.19, -104309.59, -85249.86, -100773.40, 447, 276, 1019,0.0,0.0,0.0,0.0,0.0, 21:02:01.059
126, -67422.31, -112697.36, -187500.02, -125966.85, -136132.78, -104453.54, -85315.76, -100851.20, 452, 277, 1018,0.0,0.0,0.0,0.0,0.0, 21:02:01.059
127, -67384.36, -112651.67, -187500.02, -126115.18, -136136.05, -104654.89, -85346.76, -100861.82, 443, 276, 1018,0.0,0.0,0.0,0.0,0.0, 21:02:01.059
128, -67428.44, -112711.48, -187500.02, -126010.21, -136059.67, -104514.43, -85267.77, -100781.13, 442, 275, 1018,0.0,0.0,0.0,0.0,0.0, 21:02:01.059
129, -67446.70, -112727.87, -187500.02, -125858.76, -136060.27, -104302.94, -85244.79, -100762.35, 445, 276, 1018,0.0,0.0,0.0,0.0,0.0, 21:02:01.060
130, -67415.98, -112683.63, -187500.02, -125941.99, -136122.28, -104423.68, -85306.66, -100833.41, 450, 276, 1019,0.0,0.0,0.0,0.0,0.0, 21:02:01.060
131, -67396.25, -112658.42, -187500.02, -126098.79, -136138.81, -104637.97, -85339.77, -100865.93, 444, 276, 1018,0.0,0.0,0.0,0.0,0.0, 21:02:01.060
132, -67394.40, -112656.07, -187500.02, -126053.75, -136064.61, -104580.55, -85262.07, -100775.32, 441, 275, 1018,0.0,0.0,0.0,0.0,0.0, 21:02:01.060
133, -67440.24, -112710.73, -187500.02, -125869.59, -136026.83, -104324.57, -85208.49, -100723.71, 445, 275, 1018,0.0,0.0,0.0,0.0,0.0, 21:02:01.061
134, -67448.09, -112707.02, -187500.02, -125915.35, -136113.25, -104389.17, -85287.44, -100815.82, 451, 276, 1019,0.0,0.0,0.0,0.0,99.1648, 21:02:01.061
135, -67399.42, -112647.49, -187500.02, -126077.00, -136140.38, -104612.42, -85334.13, -100866.40, 446, 276, 1019,0.0,0.0,0.0,0.0,99.1648, 21:02:01.061
136, -67398.20, -112667.88, -187500.02, -126087.55, -136085.39, -104639.13, -85283.66, -100812.82, 441, 275, 1019,0.0,0.0,0.0,0.0,99.1648, 21:02:01.061
137, -67437.00, -112718.70, -187500.02, -125897.13, -136029.09, -104380.99, -85217.56, -100746.91, 444, 275, 1018,0.0,0.0,0.0,0.0,99.1648, 21:02:01.062
138, -67427.30, -112697.52, -187500.02, -125902.03, -136097.36, -104400.28, -85280.95, -100812.69, 448, 276, 1019,0.0,0.0,0.0,0.0,99.1648, 21:02:01.062
139, -67392.79, -112657.59, -187500.02, -126062.59, -136135.33, -104624.29, -85340.99, -100872.21, 448, 276, 1019,0.0,0.0,0.0,0.0,99.1648, 21:02:01.062
140, -67396.01, -112664.61, -187500.02, -126108.47, -136092.92, -104696.59, -85314.73, -100835.33, 442, 276, 1019,0.0,0.0,0.0,0.0,99.1648, 21:02:01.062
141, -67437.91, -112710.39, -187500.02, -125895.33, -136004.61, -104408.88, -85206.37, -100737.34, 444, 275, 1019,0.0,0.0,0.0,0.0,99.1648, 21:02:01.062
142, -67448.42, -112714.63, -187500.02, -125833.21, -136059.98, -104324.53, -85245.88, -100781.93, 450, 276, 1019,0.0,0.0,0.0,0.0,99.1648, 21:02:01.062
143, -67403.18, -112658.58, -187500.02, -125985.18, -136116.55, -104523.48, -85313.14, -100848.59, 449, 277, 1019,0.0,0.0,0.0,0.0,99.1648, 21:02:01.062
144, -67383.84, -112638.08, -187500.02, -126093.05, -136101.58, -104667.92, -85307.87, -100832.43, 443, 276, 1019,0.0,0.0,0.0,0.0,99.1648, 21:02:01.063
145, -67442.97, -112715.57, -187500.02, -125936.72, -136029.45, -104440.69, -85231.05, -100754.62, 443, 275, 1019,0.0,0.0,0.0,0.0,99.1648, 21:02:01.063
146, -67451.51, -112717.70, -187500.02, -125856.05, -136068.63, -104326.07, -85247.92, -100782.91, 447, 276, 1019,0.0,0.0,0.0,0.0,99.1648, 21:02:01.063
147, -67418.58, -112672.77, -187500.02, -125976.46, -136117.30, -104491.41, -85304.34, -100848.81, 450, 277, 1018,0.0,0.0,0.0,0.0,99.1648, 21:02:01.065
148, -67402.45, -112664.57, -187500.02, -126114.08, -136122.88, -104676.59, -85328.92, -100859.27, 443, 276, 1018,0.0,0.0,0.0,0.0,99.1648, 21:02:01.065
149, -67417.44, -112694.54, -187500.02, -125980.53, -136029.42, -104499.74, -85225.52, -100757.21, 442, 276, 1018,0.0,0.0,0.0,0.0,99.1648, 21:02:01.065
150, -67442.16, -112715.09, -187500.02, -125856.45, -136043.16, -104325.78, -85225.77, -100762.24, 446, 276, 1017,0.0,0.0,0.0,0.0,99.1648, 21:02:01.065
151, -67431.68, -112693.58, -187500.02, -125953.17, -136110.77, -104461.03, -85301.30, -100843.40, 449, 277, 1018,0.0,0.0,0.0,0.0,99.1648, 21:02:01.066
152, -67406.47, -112662.04, -187500.02, -126105.37, -136132.38, -104664.68, -85335.31, -100870.52, 443, 276, 1018,0.0,0.0,0.0,0.0,99.1648, 21:02:01.066
153, -67407.77, -112675.85, -187500.02, -126033.26, -136054.53, -104568.09, -85257.51, -100778.40, 442, 275, 1018,0.0,0.0,0.0,0.0,99.1648, 21:02:01.066
154, -67444.91, -112721.45, -187500.02, -125861.64, -136033.09, -104330.05, -85213.99, -100747.45, 445, 275, 1018,0.0,0.0,0.0,0.0,99.1648, 21:02:01.066
155, -67427.70, -112695.95, -187500.02, -125931.84, -136106.30, -104433.02, -85284.11, -100830.37, 450, 277, 1018,0.0,0.0,0.0,0.0,99.1648, 21:02:01.066
156, -67407.85, -112668.03, -187500.02, -126074.72, -136119.27, -104627.87, -85322.44, -100864.50, 446, 276, 1018,0.0,0.0,0.0,0.0,99.1648, 21:02:01.067
157, -67418.67, -112681.87, -187500.02, -126038.84, -136063.16, -104577.30, -85256.86, -100794.49, 442, 276, 1019,0.0,0.0,0.0,0.0,99.1648, 21:02:01.067
158, -67454.12, -112726.57, -187500.02, -125860.59, -136031.50, -104321.80, -85209.23, -100751.22, 444, 276, 1018,0.0,0.0,0.0,0.0,99.1648, 21:02:01.067
159, -67433.45, -112693.85, -187500.02, -125925.09, -136116.58, -104406.60, -85283.95, -100823.62, 449, 276, 1018,0.0,0.0,0.0,0.0,99.1648, 21:02:01.067
160, -67399.13, -112653.26, -187500.02, -126079.50, -136129.66, -104618.34, -85317.14, -100853.88, 446, 276, 1018,0.0,0.0,0.0,0.0,99.1648, 21:02:01.068
161, -67425.51, -112686.56, -187500.02, -126095.95, -136089.08, -104636.42, -85286.90, -100814.81, 441, 275, 1018,0.0,0.0,0.0,0.0,99.1648, 21:02:01.068
162, -67468.96, -112737.95, -187500.02, -125905.95, -136031.06, -104361.34, -85215.11, -100748.34, 444, 275, 1019,0.0,0.0,0.0,0.0,99.1648, 21:02:01.068
163, -67467.71, -112726.75, -187500.02, -125889.05, -136096.95, -104338.63, -85277.84, -100807.57, 449, 276, 1019,0.0,0.0,0.0,0.0,99.1648, 21:02:01.068
164, -67431.95, -112685.00, -187500.02, -126046.89, -136146.23, -104549.59, -85334.84, -100872.57, 448, 277, 1018,0.0,0.0,0.0,0.0,99.1648, 21:02:01.069
165, -67419.50, -112674.73, -187500.02, -126137.13, -136133.20, -104670.13, -85320.90, -100851.05, 441, 275, 1019,0.0,0.0,0.0,0.0,99.1648, 21:02:01.069
166, -67445.36, -112712.24, -187500.02, -125940.16, -136035.75, -104399.61, -85223.96, -100748.92, 443, 275, 1019,0.0,0.0,0.0,0.0,99.1648, 21:02:01.069
167, -67452.73, -112716.09, -187500.02, -125881.80, -136090.92, -104322.65, -85264.41, -100800.98, 448, 276, 1019,0.0,0.0,0.0,0.0,99.1648, 21:02:01.070
168, -67429.60, -112690.95, -187500.02, -126041.86, -136157.03, -104532.98, -85342.80, -100882.05, 450, 277, 1018,0.0,0.0,0.0,0.0,99.1648, 21:02:01.070
169, -67429.98, -112685.11, -187500.02, -126134.48, -136136.11, -104657.05, -85328.59, -100861.91, 443, 276, 1019,0.0,0.0,0.0,0.0,99.1648, 21:02:01.070
170, -67465.63, -112726.80, -187500.02, -125974.96, -136048.83, -104434.52, -85220.54, -100752.56, 443, 275, 1019,0.0,0.0,0.0,0.0,99.1648, 21:02:01.071
171, -67459.51, -112716.22, -187500.02, -125878.31, -136076.83, -104302.71, -85243.43, -100767.56, 446, 276, 1019,0.0,0.0,0.0,0.0,99.1648, 21:02:01.071
172, -67419.54, -112669.44, -187500.02, -126016.43, -136139.94, -104491.25, -85317.05, -100845.44, 449, 276, 1019,0.0,0.0,0.0,0.0,99.1648, 21:02:01.071
173, -67415.20, -112663.14, -187500.02, -126143.77, -136140.25, -104671.85, -85333.13, -100860.27, 442, 276, 1019,0.0,0.0,0.0,0.0,99.1648, 21:02:01.071
174, -67460.00, -112724.63, -187500.02, -125999.84, -136051.91, -104478.20, -85244.56, -100772.08, 442, 275, 1019,0.0,0.0,0.0,0.0,99.1648, 21:02:01.072
175, -67465.88, -112726.19, -187500.02, -125873.64, -136073.45, -104294.17, -85241.37, -100771.65, 445, 275, 1019,0.0,0.0,0.0,0.0,99.1648, 21:02:01.072
176, -67430.30, -112682.45, -187500.02, -125980.22, -136138.03, -104442.86, -85317.03, -100837.79, 450, 277, 1018,0.0,0.0,0.0,0.0,99.1648, 21:02:01.072
177, -67407.92, -112656.74, -187500.02, -126120.02, -136141.20, -104639.84, -85338.55, -100861.13, 443, 276, 1019,0.0,0.0,0.0,0.0,99.1648, 21:02:01.072
178, -67420.88, -112679.27, -187500.02, -126038.47, -136061.59, -104541.25, -85261.77, -100778.73, 440, 275, 1019,0.0,0.0,0.0,0.0,99.1648, 21:02:01.072
179, -67444.04, -112705.65, -187500.02, -125869.24, -136040.80, -104313.55, -85219.09, -100748.83, 445, 275, 1018,0.0,0.0,0.0,0.0,99.1648, 21:02:01.073
180, -67430.56, -112684.51, -187500.02, -125926.59, -136113.52, -104400.44, -85291.10, -100821.72, 450, 277, 1018,0.0,0.0,0.0,0.0,99.1648, 21:02:01.073
181, -67407.70, -112654.64, -187500.02, -126101.19, -136154.42, -104634.97, -85350.16, -100869.89, 445, 276, 1018,0.0,0.0,0.0,0.0,99.1648, 21:02:01.073
182, -67414.94, -112670.18, -187500.02, -126080.55, -136093.63, -104610.32, -85291.20, -100802.09, 440, 275, 1018,0.0,0.0,0.0,0.0,99.1648, 21:02:01.073
183, -67440.04, -112700.84, -187500.02, -125888.89, -136037.70, -104346.26, -85221.09, -100734.99, 444, 275, 1019,0.0,0.0,0.0,0.0,99.1648, 21:02:01.074
184, -67431.12, -112687.19, -187500.02, -125902.70, -136100.39, -104376.14, -85276.62, -100800.35, 450, 276, 1019,0.0,0.0,0.0,0.0,99.1648, 21:02:01.074
185, -67392.16, -112637.30, -187500.02, -126064.35, -136134.77, -104595.03, -85335.09, -100850.77, 447, 276, 1019,0.0,0.0,0.0,0.0,99.1648, 21:02:01.074
186, -67393.37, -112645.16, -187500.02, -126113.90, -136101.31, -104662.35, -85311.51, -100812.29, 442, 275, 1019,0.0,0.0,0.0,0.0,99.1648, 21:02:01.074
187, -67430.16, -112697.65, -187500.02, -125914.21, -136024.23, -104382.73, -85221.03, -100728.05, 443, 275, 1019,0.0,0.0,0.0,0.0,99.1648, 21:02:01.075
188, -67423.38, -112680.95, -187500.02, -125899.48, -136093.48, -104362.66, -85271.90, -100792.55, 448, 276, 1019,0.0,0.0,0.0,0.0,99.1648, 21:02:01.075
189, -67386.15, -112633.05, -187500.02, -126056.44, -136136.41, -104577.95, -85325.50, -100850.71, 448, 276, 1018,0.0,0.0,0.0,0.0,99.1648, 21:02:01.075
190, -67376.70, -112625.23, -187500.02, -126114.82, -136098.97, -104668.09, -85302.62, -100812.76, 441, 276, 1018,0.0,0.0,0.0,0.0,99.1648, 21:02:01.075
191, -67434.25, -112692.55, -187500.02, -125929.41, -136023.33, -104409.24, -85215.51, -100730.59, 443, 276, 1019,0.0,0.0,0.0,0.0,99.1648, 21:02:01.075
192, -67440.48, -112686.65, -187500.02, -125869.13, -136080.44, -104322.56, -85257.95, -100780.26, 447, 276, 1018,0.0,0.0,0.0,0.0,99.1648, 21:02:01.075
193, -67406.42, -112639.98, -187500.02, -126016.43, -136139.78, -104517.91, -85328.56, -100858.80, 450, 276, 1018,0.0,0.0,0.0,0.0,99.1648, 21:02:01.076
194, -67393.13, -112629.48, -187500.02, -126118.02, -136120.13, -104660.54, -85325.08, -100845.32, 442, 276, 1018,0.0,0.0,0.0,0.0,99.1648, 21:02:01.076
195, -67430.56, -112679.09, -187500.02, -125965.33, -136029.47, -104449.05, -85226.59, -100742.37, 441, 275, 1018,0.0,0.0,0.0,0.0,99.1648, 21:02:01.076
196, -67442.01, -112685.24, -187500.02, -125858.40, -136057.77, -104302.04, -85233.57, -100755.70, 446, 275, 1018,0.0,0.0,0.0,0.0,99.1648, 21:02:01.076
197, -67412.28, -112644.20, -187500.02, -125982.25, -136121.31, -104474.13, -85303.77, -100827.45, 450, 276, 1018,0.0,0.0,0.0,0.0,99.1648, 21:02:01.076
198, -67396.07, -112625.97, -187500.02, -126111.94, -136118.59, -104651.91, -85319.49, -100841.26, 443, 276, 1018,0.0,0.0,0.0,0.0,99.1648, 21:02:01.076
199, -67420.21, -112660.79, -187500.02, -125990.12, -136030.55, -104487.07, -85230.80, -100754.51, 443, 275, 1018,0.0,0.0,0.0,0.0,99.1648, 21:02:01.077
200, -67433.78, -112675.34, -187500.02, -125864.03, -136046.72, -104304.32, -85224.36, -100748.49, 446, 276, 1018,0.0,0.0,0.0,0.0,99.1648, 21:02:01.077
201, -67415.45, -112647.63, -187500.02, -125946.53, -136110.30, -104423.95, -85292.47, -100817.70, 449, 276, 1019,0.0,0.0,0.0,0.0,99.1648, 21:02:01.078
202, -67392.16, -112614.70, -187500.02, -126116.00, -136141.20, -104652.74, -85339.56, -100858.42, 444, 276, 1019,0.0,0.0,0.0,0.0,99.1648, 21:02:01.078
203, -67409.80, -112643.29, -187500.02, -126050.58, -136064.31, -104570.46, -85261.62, -100775.38, 442, 275, 1018,0.0,0.0,0.0,0.0,99.1648, 21:02:01.078
204, -67429.73, -112669.35, -187500.02, -125872.80, -136034.52, -104322.56, -85213.14, -100736.13, 444, 275, 1019,0.0,0.0,0.0,0.0,99.1648, 21:02:01.078
205, -67404.50, -112635.38, -187500.02, -125929.32, -136099.80, -104408.13, -85274.65, -100802.95, 449, 276, 1019,0.0,0.0,0.0,0.0,99.1648, 21:02:01.079
206, -67388.32, -112615.48, -187500.02, -126082.61, -136123.59, -104617.80, -85319.20, -100843.73, 447, 276, 1019,0.0,0.0,0.0,0.0,99.1648, 21:02:01.079
207, -67408.52, -112645.08, -187500.02, -126064.21, -136074.27, -104590.29, -85268.93, -100787.45, 443, 276, 1018,0.0,0.0,0.0,0.0,99.1648, 21:02:01.079
208, -67438.16, -112680.41, -187500.02, -125880.41, -136034.14, -104327.05, -85206.50, -100728.89, 443, 275, 1018,0.0,0.0,0.0,0.0,99.1648, 21:02:01.079
209, -67417.33, -112649.93, -187500.02, -125908.24, -136107.19, -104369.03, -85274.45, -100797.73, 450, 276, 1018,0.0,0.0,0.0,0.0,99.1648, 21:02:01.079
210, -67388.12, -112615.66, -187500.02, -126062.70, -136134.34, -104582.29, -85326.04, -100852.99, 447, 276, 1019,0.0,0.0,0.0,0.0,99.1648, 21:02:01.079
211, -67394.93, -112624.67, -187500.02, -126103.38, -136100.81, -104641.01, -85302.66, -100816.71, 441, 276, 1018,0.0,0.0,0.0,0.0,99.1648, 21:02:01.080
212, -67424.21, -112663.07, -187500.02, -125914.13, -136025.53, -104378.82, -85216.09, -100727.98, 443, 275, 1018,0.0,0.0,0.0,0.0,99.1648, 21:02:01.080
213, -67422.49, -112658.13, -187500.02, -125875.07, -136075.42, -104335.13, -85257.20, -100773.30, 449, 276, 1018,0.0,0.0,0.0,0.0,99.1648, 21:02:01.080
214, -67393.86, -112622.88, -187500.02, -126012.96, -136120.73, -104527.28, -85316.74, -100839.00, 449, 276, 1019,0.0,0.0,0.0,0.0,99.1648, 21:02:01.080
215, -67388.90, -112618.92, -187500.02, -126101.63, -136110.08, -104646.26, -85314.15, -100826.21, 442, 276, 1019,0.0,0.0,0.0,0.0,99.1648, 21:02:01.080
216, -67427.81, -112675.07, -187500.02, -125917.66, -136021.25, -104390.42, -85218.19, -100727.30, 443, 275, 1019,0.0,0.0,0.0,0.0,99.1648, 21:02:01.080
217, -67428.70, -112672.34, -187500.02, -125849.28, -136074.84, -104297.21, -85247.70, -100763.34, 448, 276, 1018,0.0,0.0,0.0,0.0,99.1648, 21:02:01.080
218, -67391.00, -112627.48, -187500.02, -125992.22, -136136.17, -104495.79, -85315.47, -100834.62, 449, 277, 1018,0.0,0.0,0.0,0.0,99.1648, 21:02:01.081
219, -67372.00, -112604.55, -187500.02, -126112.13, -136127.02, -104665.44, -85322.51, -100836.07, 443, 276, 1018,0.0,0.0,0.0,0.0,99.1648, 21:02:01.081
220, -67401.44, -112648.66, -187500.02, -125962.70, -136033.97, -104467.38, -85224.65, -100740.80, 443, 276, 1019,0.0,0.0,0.0,0.0,99.1648, 21:02:01.081
221, -67420.08, -112664.91, -187500.02, -125848.41, -136061.56, -104308.34, -85229.39, -100755.76, 447, 276, 1018,0.0,0.0,0.0,0.0,99.1648, 21:02:01.081
222, -67396.79, -112632.05, -187500.02, -125951.98, -136124.84, -104452.31, -85299.48, -100833.99, 450, 277, 1018,0.0,0.0,0.0,0.0,99.1648, 21:02:01.081
223, -67380.05, -112610.09, -187500.02, -126094.12, -136136.47, -104646.55, -85326.98, -100858.04, 444, 276, 1018,0.0,0.0,0.0,0.0,99.1648, 21:02:01.081
224, -67395.63, -112635.40, -187500.02, -125993.52, -136053.61, -104509.34, -85242.27, -100769.64, 442, 275, 1018,0.0,0.0,0.0,0.0,99.1648, 21:02:01.081
225, -67417.35, -112660.59, -187500.02, -125845.95, -136050.39, -104304.66, -85223.69, -100759.58, 445, 275, 1018,6.7698374,11.666916,9.443679,14.253344,6.7621427, 21:02:01.534
226, -67403.05, -112638.39, -187500.02, -125932.09, -136123.77, -104428.98, -85300.27, -100839.84, 451, 277, 1019,6.7698374,11.666916,9.443679,14.253344,6.7621427, 21:02:01.535
227, -67374.15, -112606.68, -187500.02, -126085.47, -136142.70, -104636.38, -85336.09, -100867.90, 444, 276, 1019,6.7698374,11.666916,9.443679,14.253344,6.7621427, 21:02:01.535
228, -67393.19, -112642.80, -187500.02, -126029.59, -136070.52, -104561.19, -85265.24, -100790.09, 442, 275, 1018,6.7698374,11.666916,9.443679,14.253344,6.7621427, 21:02:01.536
229, -67420.48, -112672.88, -187500.02, -125853.66, -136043.75, -104313.20, -85216.02, -100750.84, 444, 275, 1018,6.7698374,11.666916,9.443679,14.253344,6.7621427, 21:02:01.536
230, -67405.53, -112650.42, -187500.02, -125905.36, -136121.31, -104390.98, -85287.52, -100826.77, 450, 276, 1019,6.7698374,11.666916,9.443679,14.253344,6.7621427, 21:02:01.536
231, -67377.56, -112616.55, -187500.02, -126070.23, -136154.64, -104616.76, -85336.63, -100876.80, 447, 276, 1018,6.7698374,11.666916,9.443679,14.253344,6.7621427, 21:02:01.536
232, -67386.35, -112632.67, -187500.02, -126070.54, -136101.41, -104621.74, -85290.14, -100820.22, 442, 275, 1019,6.7698374,11.666916,9.443679,14.253344,6.7621427, 21:02:01.537
233, -67418.88, -112678.07, -187500.02, -125870.73, -136032.73, -104340.15, -85210.37, -100741.01, 443, 275, 1018,6.7698374,11.666916,9.443679,14.253344,6.7621427, 21:02:01.537
234, -67403.90, -112653.84, -187500.02, -125884.87, -136107.30, -104358.99, -85271.34, -100804.84, 451, 276, 1019,6.7698374,11.666916,9.443679,14.253344,6.7621427, 21:02:01.537
235, -67375.55, -112618.19, -187500.02, -126051.88, -136143.06, -104584.19, -85328.32, -100856.88, 449, 277, 1018,6.7698374,11.666916,9.443679,14.253344,6.7621427, 21:02:01.537
236, -67374.13, -112619.62, -187500.02, -126093.79, -136098.88, -104647.22, -85298.21, -100811.64, 441, 276, 1018,6.7698374,11.666916,9.443679,14.253344,6.7621427, 21:02:01.537
237, -67409.98, -112665.66, -187500.02, -125902.99, -136022.19, -104381.23, -85208.34, -100725.72, 442, 275, 1018,6.7698374,11.666916,9.443679,14.253344,6.7621427, 21:02:01.538
238, -67405.26, -112651.34, -187500.02, -125888.53, -136090.06, -104363.84, -85258.63, -100783.09, 447, 276, 1019,6.7698374,11.666916,9.443679,14.253344,6.7621427, 21:02:01.538
239, -67380.59, -112620.24, -187500.02, -126023.58, -136132.38, -104555.89, -85318.05, -100846.64, 451, 277, 1018,6.7698374,11.666916,9.443679,14.253344,6.7621427, 21:02:01.538
240, -67373.05, -112611.73, -187500.02, -126116.85, -136122.16, -104688.99, -85321.30, -100838.20, 441, 276, 1018,6.7698374,11.666916,9.443679,14.253344,6.7621427, 21:02:01.538
241, -67405.41, -112659.88, -187500.02, -125949.88, -136034.44, -104459.58, -85226.77, -100742.70, 441, 275, 1018,6.7698374,11.666916,9.443679,14.253344,6.7621427, 21:02:01.538
242, -67413.33, -112661.44, -187500.02, -125867.05, -136069.81, -104347.88, -85246.87, -100768.73, 447, 275, 1018,6.7698374,11.666916,9.443679,14.253344,6.7621427, 21:02:01.538
243, -67381.39, -112623.55, -187500.02, -125987.16, -136115.72, -104521.85, -85309.54, -100830.48, 451, 276, 1019,6.7698374,11.666916,9.443679,14.253344,6.7621427, 21:02:01.538
244, -67385.92, -112629.23, -187500.02, -126113.21, -136124.98, -104690.90, -85336.63, -100845.39, 442, 275, 1019,6.7698374,11.666916,9.443679,14.253344,6.7621427, 21:02:01.539
245, -67406.69, -112659.29, -187500.02, -125983.08, -136044.14, -104510.98, -85244.79, -100747.73, 442, 275, 1019,6.7698374,11.666916,9.443679,14.253344,6.7621427, 21:02:01.539
246, -67427.55, -112681.42, -187500.02, -125866.47, -136064.20, -104350.41, -85246.35, -100759.20, 446, 275, 1018,6.7698374,11.666916,9.443679,14.253344,6.7621427, 21:02:01.539
247, -67405.80, -112653.77, -187500.02, -125956.77, -136122.95, -104486.20, -85314.15, -100834.30, 451, 277, 1018,6.7698374,11.666916,9.443679,14.253344,6.7621427, 21:02:01.539
248, -67382.66, -112630.37, -187500.02, -126085.65, -136129.25, -104662.38, -85337.41, -100856.41, 443, 276, 1019,6.7698374,11.666916,9.443679,14.253344,6.7621427, 21:02:01.539
249, -67402.11, -112661.15, -187500.02, -125998.91, -136059.52, -104540.52, -85261.33, -100779.34, 440, 275, 1018,6.7698374,11.666916,9.443679,14.253344,6.7621427, 21:02:01.539
250, -67423.38, -112681.35, -187500.02, -125856.81, -136060.86, -104340.48, -85236.45, -100762.15, 446, 275, 1019,6.7698374,11.666916,9.443679,14.253344,6.7621427, 21:02:01.539
251, -67402.11, -112657.39, -187500.02, -125917.07, -136116.28, -104432.13, -85301.12, -100823.84, 450, 276, 1018,6.7698374,11.666916,9.443679,14.253344,6.7621427, 21:02:01.539
252, -67376.07, -112627.82, -187500.02, -126073.42, -136138.55, -104643.11, -85339.83, -100856.70, 444, 276, 1018,6.7698374,11.666916,9.443679,14.253344,6.7621427, 21:02:01.540
253, -67388.70, -112647.42, -187500.02, -126030.73, -136071.33, -104588.19, -85272.30, -100783.99, 441, 275, 1019,6.7698374,11.666916,9.443679,14.253344,6.7621427, 21:02:01.540
254, -67413.06, -112679.63, -187500.02, -125845.95, -136035.33, -104330.36, -85217.34, -100741.90, 444, 275, 1018,6.7698374,11.666916,9.443679,14.253344,6.7621427, 21:02:01.540
255, -67399.05, -112659.74, -187500.02, -125892.87, -136111.38, -104397.22, -85285.09, -100816.27, 450, 276, 1018,6.7698374,11.666916,9.443679,14.253344,6.7621427, 21:02:01.540
0, -67373.77, -112625.79, -187500.02, -126063.21, -136143.47, -104623.57, -85339.07, -100861.70, 447, 276, 1018,6.7698374,11.666916,9.443679,14.253344,6.7621427, 21:02:01.540
1, -67378.70, -112635.38, -187500.02, -126088.76, -136100.02, -104661.64, -85306.52, -100814.50, 442, 276, 1018,6.7698374,11.666916,9.443679,14.253344,6.7621427, 21:02:01.540
2, -67413.06, -112680.19, -187500.02, -125886.95, -136029.97, -104385.39, -85222.08, -100731.73, 442, 275, 1018,6.7698374,11.666916,9.443679,14.253344,6.7621427, 21:02:01.540
3, -67410.27, -112667.67, -187500.02, -125874.00, -136094.38, -104372.83, -85275.39, -100788.86, 449, 276, 1018,6.7698374,11.666916,9.443679,14.253344,6.7621427, 21:02:01.540
4, -67377.21, -112625.48, -187500.02, -126029.44, -136140.27, -104580.19, -85332.59, -100847.40, 450, 277, 1019,6.7698374,11.666916,9.443679,14.253344,6.7621427, 21:02:01.541
5, -67383.66, -112632.27, -187500.02, -126087.55, -136112.55, -104663.91, -85312.41, -100820.58, 441, 276, 1019,6.7698374,11.666916,9.443679,14.253344,6.7621427, 21:02:01.541
6, -67429.45, -112689.98, -187500.02, -125883.08, -136029.73, -104381.70, -85219.13, -100733.54, 441, 275, 1019,6.7698374,11.666916,9.443679,14.253344,6.7621427, 21:02:01.542
7, -67425.58, -112676.88, -187500.02, -125845.84, -136096.44, -104330.66, -85269.42, -100787.72, 448, 276, 1018,6.7698374,11.666916,9.443679,14.253344,6.7621427, 21:02:01.542
8, -67387.36, -112634.80, -187500.02, -125994.03, -136141.63, -104537.32, -85332.16, -100849.37, 451, 277, 1019,6.7698374,11.666916,9.443679,14.253344,6.7621427, 21:02:01.542
9, -67368.36, -112616.51, -187500.02, -126098.32, -136125.52, -104682.42, -85329.10, -100839.31, 442, 276, 1019,6.7698374,11.666916,9.443679,14.253344,6.7621427, 21:02:01.542
10, -67391.54, -112653.08, -187500.02, -125949.37, -136037.73, -104478.22, -85232.05, -100742.20, 442, 275, 1019,6.7698374,11.666916,9.443679,14.253344,6.7621427, 21:02:01.542
11, -67411.09, -112669.51, -187500.02, -125851.98, -136062.53, -104348.31, -85243.56, -100762.13, 447, 275, 1018,6.7698374,11.666916,9.443679,14.253344,6.7621427, 21:02:01.542
12, -67396.25, -112640.18, -187500.02, -125966.25, -136118.13, -104507.73, -85313.70, -100836.45, 450, 276, 1019,6.7698374,11.666916,9.443679,14.253344,6.7621427, 21:02:01.542
13, -67388.09, -112626.63, -187500.02, -126098.86, -136126.86, -104690.80, -85337.21, -100851.85, 442, 276, 1019,6.7698374,11.666916,9.443679,14.253344,6.7621427, 21:02:01.543
14, -67410.42, -112659.31, -187500.02, -125964.93, -136041.47, -104512.64, -85243.38, -100756.38, 441, 275, 1018,6.7698374,11.666916,9.443679,14.253344,6.7621427, 21:02:01.543
15, -67432.75, -112682.63, -187500.02, -125836.83, -136056.63, -104337.07, -85236.41, -100751.18, 446, 275, 1019,6.7698374,11.666916,9.443679,14.253344,6.7621427, 21:02:01.543
16, -67425.98, -112664.59, -187500.02, -125917.03, -136121.20, -104453.14, -85305.63, -100826.28, 451, 276, 1018,6.7698374,11.666916,9.443679,14.253344,6.7621427, 21:02:01.543
17, -67399.58, -112629.14, -187500.02, -126064.82, -136134.22, -104649.23, -85331.65, -100846.17, 444, 276, 1018,6.7698374,11.666916,9.443679,14.253344,6.7621427, 21:02:01.543
18, -67412.66, -112654.51, -187500.02, -125988.93, -136059.17, -104540.63, -85254.02, -100759.45, 441, 275, 1019,6.7698374,11.666916,9.443679,14.253344,6.7621427, 21:02:01.543
19, -67432.10, -112674.88, -187500.02, -125844.36, -136055.02, -104331.23, -85229.14, -100737.01, 445, 275, 1019,6.7698374,11.666916,9.443679,14.253344,6.7621427, 21:02:01.543
20, -67413.46, -112649.77, -187500.02, -125906.39, -136115.95, -104425.36, -85293.27, -100803.81, 450, 277, 1018,6.7698374,11.666916,9.443679,14.253344,6.7621427, 21:02:01.544
21, -67393.23, -112622.55, -187500.02, -126061.29, -136138.14, -104638.33, -85337.68, -100847.55, 444, 276, 1018,6.7698374,11.666916,9.443679,14.253344,6.7621427, 21:02:01.544
22, -67407.88, -112647.00, -187500.02, -126023.06, -136070.98, -104592.57, -85277.73, -100783.01, 441, 275, 1019,6.7698374,11.666916,9.443679,14.253344,6.7621427, 21:02:01.544
23, -67423.30, -112669.71, -187500.02, -125843.87, -136029.06, -104340.60, -85216.89, -100727.06, 444, 275, 1019,6.7698374,11.666916,9.443679,14.253344,6.7621427, 21:02:01.544
24, -67401.10, -112640.30, -187500.02, -125891.86, -136102.66, -104413.13, -85279.97, -100795.05, 449, 276, 1018,6.7698374,11.666916,9.443679,14.253344,6.7621427, 21:02:01.544
25, -67387.38, -112634.80, -187500.02, -126037.44, -136122.30, -104617.42, -85323.80, -100838.82, 447, 276, 1018,6.7698374,11.666916,9.443679,14.253344,6.7621427, 21:02:01.544
26, -67395.23, -112661.64, -187500.02, -126056.34, -136083.58, -104649.77, -85288.04, -100793.80, 442, 275, 1018,6.7698374,11.666916,9.443679,14.253344,6.7621427, 21:02:01.544
27, -67431.19, -112733.48, -187500.02, -125846.58, -136011.50, -104364.11, -85205.67, -100716.47, 442, 275, 1019,6.7698374,11.666916,9.443679,14.253344,6.7621427, 21:02:01.545
28, -67435.57, -112732.30, -187500.02, -125836.31, -136087.45, -104349.95, -85265.22, -100784.17, 449, 276, 1019,6.7698374,11.666916,9.443679,14.253344,6.7621427, 21:02:01.545
29, -67409.04, -112697.00, -187500.02, -125997.36, -136133.50, -104567.27, -85327.83, -100849.52, 449, 276, 1018,6.7698374,11.666916,9.443679,14.253344,6.7621427, 21:02:01.545
30, -67393.99, -112684.51, -187500.02, -126071.79, -136108.48, -104667.88, -85313.05, -100821.32, 442, 276, 1018,6.7698374,11.666916,9.443679,14.253344,6.7621427, 21:02:01.545
31, -67423.97, -112726.86, -187500.02, -125903.05, -136026.50, -104427.77, -85218.34, -100728.58, 442, 275, 1018,6.7698374,11.666916,9.443679,14.253344,6.7621427, 21:02:01.545
32, -67429.42, -112726.68, -187500.02, -125848.12, -136077.23, -104354.14, -85258.89, -100767.80, 448, 276, 1019,6.7698374,11.666916,9.443679,14.253344,6.7621427, 21:02:01.545
33, -67401.35, -112691.05, -187500.02, -125977.20, -136122.55, -104540.16, -85317.03, -100828.89, 450, 277, 1018,6.7698374,11.666916,9.443679,14.253344,6.7621427, 21:02:01.545
34, -67395.27, -112675.68, -187500.02, -126085.23, -136119.48, -104690.43, -85329.59, -100835.35, 442, 276, 1019,6.7698374,11.666916,9.443679,14.253344,6.7621427, 21:02:01.545
35, -67428.77, -112713.98, -187500.02, -125928.30, -136029.30, -104474.98, -85227.76, -100732.52, 441, 275, 1018,6.7698374,11.666916,9.443679,14.253344,6.7621427, 21:02:01.546
36, -67454.70, -112734.80, -187500.02, -125811.30, -136055.95, -104312.88, -85234.51, -100746.98, 446, 276, 1018,6.7698374,11.666916,9.443679,14.253344,6.7621427, 21:02:01.546
37, -67433.83, -112706.23, -187500.02, -125945.64, -136134.69, -104487.56, -85321.45, -100835.13, 452, 277, 1018,6.7698374,11.666916,9.443679,14.253344,6.7621427, 21:02:01.546
38, -67407.88, -112674.83, -187500.02, -126096.76, -136139.95, -104687.79, -85337.21, -100850.06, 443, 276, 1018,6.7698374,11.666916,9.443679,14.253344,6.7621427, 21:02:01.546
39, -67426.59, -112705.74, -187500.02, -125987.26, -136050.02, -104537.59, -85242.89, -100751.29, 442, 275, 1018,6.7698374,11.666916,9.443679,14.253344,6.7621427, 21:02:01.546
40, -67451.62, -112731.63, -187500.02, -125845.03, -136048.16, -104340.58, -85224.27, -100745.48, 446, 276, 1019,6.7698374,11.666916,9.443679,14.253344,6.7621427, 21:02:01.546
41, -67434.48, -112703.99, -187500.02, -125929.70, -136115.80, -104459.73, -85296.98, -100822.99, 451, 277, 1018,6.7698374,11.666916,9.443679,14.253344,6.7621427, 21:02:01.546
42, -67396.45, -112658.71, -187500.02, -126094.05, -136135.06, -104685.35, -85331.54, -100852.97, 444, 276, 1018,6.7698374,11.666916,9.443679,14.253344,6.7621427, 21:02:01.547
43, -67422.34, -112698.30, -187500.02, -126009.45, -136045.63, -104583.23, -85246.45, -100764.59, 443, 276, 1018,6.7698374,11.666916,9.443679,14.253344,6.7621427, 21:02:01.547
44, -67455.53, -112732.94, -187500.02, -125817.61, -136013.52, -104317.31, -85195.80, -100724.87, 444, 276, 1018,6.7698374,11.666916,9.443679,14.253344,6.7621427, 21:02:01.547
45, -67427.66, -112698.38, -187500.02, -125888.89, -136098.56, -104415.74, -85269.91, -100807.15, 450, 276, 1019,6.7698374,11.666916,9.443679,14.253344,6.7621427, 21:02:01.547
46, -67397.44, -112666.34, -187500.02, -126041.33, -136118.36, -104628.45, -85313.84, -100841.14, 445, 276, 1018,6.7698374,11.666916,9.443679,14.253344,6.7621427, 21:02:01.547
47, -67425.24, -112703.84, -187500.02, -126014.41, -136065.70, -104589.42, -85262.83, -100783.32, 441, 275, 1018,6.7698374,11.666916,9.443679,14.253344,6.7621427, 21:02:01.547
48, -67458.48, -112743.40, -187500.02, -125822.68, -136018.56, -104309.06, -85197.90, -100724.27, 444, 275, 1018,6.7698374,11.666916,9.443679,14.253344,6.7621427, 21:02:01.547
49, -67442.84, -112710.88, -187500.02, -125869.58, -136108.42, -104366.20, -85278.85, -100800.69, 449, 276, 1018,6.7698374,11.666916,9.443679,14.253344,6.7621427, 21:02:01.548
50, -67409.44, -112674.29, -187500.02, -126015.51, -136131.44, -104570.73, -85323.29, -100842.41, 447, 276, 1018,6.7698374,11.666916,9.443679,14.253344,6.7621427, 21:02:01.548
51, -67409.75, -112679.81, -187500.02, -126060.52, -136099.81, -104633.41, -85302.16, -100807.13, 443, 275, 1019,6.7698374,11.666916,9.443679,14.253344,6.7621427, 21:02:01.548
52, -67446.14, -112724.73, -187500.02, -125876.91, -136030.05, -104372.85, -85219.04, -100726.86, 443, 275, 1018,6.7698374,11.666916,9.443679,14.253344,6.7621427, 21:02:01.548
53, -67444.84, -112716.24, -187500.02, -125841.75, -136080.92, -104330.05, -85259.16, -100773.71, 449, 276, 1019,6.7698374,11.666916,9.443679,14.253344,6.7621427, 21:02:01.548
54, -67431.21, -112696.59, -187500.02, -125969.35, -136124.42, -104503.16, -85315.31, -100836.34, 450, 277, 1019,6.7698374,11.666916,9.443679,14.253344,6.7621427, 21:02:01.548
55, -67426.38, -112689.76, -187500.02, -126068.26, -136122.05, -104627.20, -85320.56, -100827.91, 441, 276, 1019,6.7698374,11.666916,9.443679,14.253344,6.7621427, 21:02:01.548
56, -67458.50, -112735.76, -187500.02, -125900.04, -136039.00, -104385.66, -85228.95, -100735.27, 441, 275, 1019,6.7698374,11.666916,9.443679,14.253344,6.7621427, 21:02:01.548
57, -67459.73, -112730.70, -187500.02, -125840.74, -136088.56, -104301.98, -85259.41, -100770.73, 447, 275, 1019,6.7698374,11.666916,9.443679,14.253344,6.7621427, 21:02:01.549
58, -67417.75, -112681.16, -187500.02, -125979.44, -136136.63, -104496.97, -85318.77, -100832.65, 451, 276, 1019,6.7698374,11.666916,9.443679,14.253344,6.7621427, 21:02:01.549
59, -67408.43, -112667.00, -187500.02, -126102.15, -136126.70, -104668.08, -85327.06, -100829.37, 441, 275, 1019,6.7698374,11.666916,9.443679,14.253344,6.7621427, 21:02:01.549
60, -67452.45, -112725.07, -187500.02, -125934.69, -136031.19, -104445.30, -85229.34, -100733.70, 441, 275, 1019,6.7698374,11.666916,9.443679,14.253344,6.7621427, 21:02:01.549
61, -67465.99, -112737.66, -187500.02, -125822.46, -136068.39, -104287.24, -85241.98, -100757.73, 446, 275, 1019,6.7698374,11.666916,9.443679,14.253344,6.7621427, 21:02:01.549
62, -67433.53, -112696.93, -187500.02, -125948.19, -136144.38, -104455.09, -85320.88, -100839.02, 452, 276, 1019,6.7698374,11.666916,9.443679,14.253344,6.7621427, 21:02:01.549
63, -67412.05, -112668.45, -187500.02, -126088.40, -136147.28, -104644.59, -85346.24, -100857.23, 443, 276, 1019,6.7698374,11.666916,9.443679,14.253344,6.7621427, 21:02:01.549
64, -67444.42, -112711.10, -187500.02, -125974.07, -136055.44, -104487.09, -85252.84, -100765.52, 442, 275, 1019,6.7698374,11.666916,9.443679,14.253344,6.7621427, 21:02:01.550
65, -67450.55, -112715.59, -187500.02, -125841.66, -136061.34, -104297.80, -85229.08, -100750.28, 446, 275, 1018,6.7698374,11.666916,9.443679,14.253344,6.7621427, 21:02:01.550
66, -67422.83, -112673.89, -187500.02, -125946.58, -136133.50, -104450.08, -85300.29, -100823.44, 450, 276, 1019,6.7698374,11.666916,9.443679,14.253344,6.7621427, 21:02:01.550
67, -67411.32, -112657.64, -187500.02, -126090.41, -136138.91, -104658.73, -85333.21, -100849.41, 445, 276, 1018,6.7698374,11.666916,9.443679,14.253344,6.7621427, 21:02:01.550
68, -67431.73, -112683.43, -187500.02, -126036.88, -136071.88, -104592.08, -85270.36, -100773.59, 442, 275, 1019,6.7698374,11.666916,9.443679,14.253344,6.7621427, 21:02:01.550
69, -67470.95, -112722.10, -187500.02, -125854.94, -136042.38, -104337.34, -85224.20, -100732.85, 444, 275, 1019,6.7698374,11.666916,9.443679,14.253344,6.7621427, 21:02:01.550
70, -67454.19, -112691.59, -187500.02, -125907.30, -136125.05, -104414.29, -85300.98, -100809.18, 450, 276, 1019,6.7698374,11.666916,9.443679,14.253344,6.7621427, 21:02:01.550
71, -67421.94, -112654.04, -187500.02, -126050.52, -136145.34, -104616.58, -85342.00, -100846.40, 446, 276, 1018,6.7698374,11.666916,9.443679,14.253344,6.7621427, 21:02:01.551
72, -67426.74, -112661.59, -187500.02, -126028.12, -136087.67, -104597.38, -85288.78, -100788.04, 442, 275, 1019,6.7698374,11.666916,9.443679,14.253344,6.7621427, 21:02:01.551
73, -67463.55, -112703.08, -187500.02, -125827.80, -136032.41, -104317.06, -85222.04, -100727.59, 444, 275, 1019,6.7698374,11.666916,9.443679,14.253344,6.7621427, 21:02:01.551
74, -67441.05, -112667.52, -187500.02, -125844.38, -136107.88, -104343.02, -85281.05, -100794.54, 449, 276, 1019,6.7698374,11.666916,9.443679,14.253344,6.7621427, 21:02:01.551
75, -67412.23, -112631.30, -187500.02, -126012.80, -136140.36, -104575.96, -85336.81, -100850.73, 448, 277, 1019,6.7698374,11.666916,9.443679,14.253344,6.7621427, 21:02:01.551
76, -67426.92, -112646.62, -187500.02, -126064.21, -136113.94, -104650.75, -85320.31, -100822.52, 441, 276, 1019,6.7698374,11.666916,9.443679,14.253344,6.7621427, 21:02:01.551
77, -67446.79, -112681.58, -187500.02, -125863.97, -136032.00, -104377.08, -85224.09, -100729.23, 443, 275, 1019,6.7698374,11.666916,9.443679,14.253344,6.7621427, 21:02:01.551
78, -67440.11, -112671.81, -187500.02, -125845.37, -136099.67, -104357.38, -85278.25, -100784.55, 448, 276, 1018,6.7698374,11.666916,9.443679,14.253344,6.7621427, 21:02:01.552
79, -67427.73, -112651.88, -187500.02, -125994.37, -136153.70, -104566.82, -85343.52, -100850.09, 450, 277, 1019,6.7698374,11.666916,9.443679,14.253344,6.7621427, 21:02:01.552
80, -67412.91, -112635.63, -187500.02, -126068.88, -136128.02, -104675.18, -85328.67, -100823.66, 442, 276, 1018,6.7698374,11.666916,9.443679,14.253344,6.7621427, 21:02:01.552
81, -67427.43, -112661.02, -187500.02, -125893.52, -136031.80, -104436.02, -85223.40, -100718.23, 442, 275, 1018,6.7698374,11.666916,9.443679,14.253344,6.7621427, 21:02:01.552
82, -67442.68, -112675.77, -187500.02, -125816.18, -136079.50, -104330.32, -85254.47, -100756.54, 448, 276, 1018,6.7698374,11.666916,9.443679,14.253344,6.7621427, 21:02:01.552
83, -67428.20, -112653.70, -187500.02, -125948.68, -136147.33, -104514.01, -85332.85, -100840.12, 451, 277, 1018,6.7698374,11.666916,9.443679,14.253344,6.7621427, 21:02:01.553
84, -67394.11, -112623.55, -187500.02, -126056.15, -136126.61, -104672.34, -85326.46, -100826.75, 443, 276, 1019,6.7698374,11.666916,9.443679,14.253344,6.7621427, 21:02:01.553
85, -67429.00, -112670.29, -187500.02, -125918.46, -136041.61, -104483.02, -85236.34, -100734.70, 441, 275, 1019,6.7698374,11.666916,9.443679,14.253344,6.7621427, 21:02:01.553
86, -67449.67, -112688.26, -187500.02, -125794.32, -136061.02, -104306.96, -85236.85, -100742.02, 447, 275, 1019,6.7698374,11.666916,9.443679,14.253344,6.7621427, 21:02:01.553
87, -67435.10, -112666.36, -187500.02, -125909.67, -136136.80, -104460.27, -85321.16, -100828.36, 451, 277, 1018,6.7698374,11.666916,9.443679,14.253344,6.7621427, 21:02:01.553
88, -67415.32, -112640.80, -187500.02, -126070.98, -136161.92, -104676.61, -85361.13, -100859.27, 443, 276, 1018,6.7698374,11.666916,9.443679,14.253344,6.7621427, 21:02:01.553
89, -67423.72, -112661.55, -187500.02, -125969.48, -136071.63, -104545.27, -85267.45, -100757.52, 443, 276, 1019,6.7698374,11.666916,9.443679,14.253344,6.7621427, 21:02:01.553
90, -67446.43, -112688.98, -187500.02, -125790.20, -136049.30, -104301.23, -85230.06, -100731.80, 445, 276, 1019,1.7276576,3.4027944,2.4596963,4.6929746,3.6469169, 21:02:02.016
91, -67416.50, -112648.95, -187500.02, -125870.27, -136125.03, -104416.66, -85305.02, -100810.37, 449, 276, 1019,1.7276576,3.4027944,2.4596963,4.6929746,3.6469169, 21:02:02.016
92, -67391.02, -112618.08, -187500.02, -126037.33, -136156.45, -104647.84, -85358.76, -100858.02, 445, 276, 1018,1.7276576,3.4027944,2.4596963,4.6929746,3.6469169, 21:02:02.017
93, -67425.89, -112661.73, -187500.02, -125996.13, -136099.08, -104591.85, -85300.49, -100795.73, 443, 275, 1018,1.7276576,3.4027944,2.4596963,4.6929746,3.6469169, 21:02:02.017
94, -67443.50, -112686.47, -187500.02, -125838.10, -136076.28, -104357.84, -85252.41, -100752.92, 444, 275, 1019,1.7276576,3.4027944,2.4596963,4.6929746,3.6469169, 21:02:02.017
95, -67424.30, -112667.52, -187500.02, -125858.69, -136122.95, -104401.58, -85299.33, -100812.65, 451, 276, 1019,1.7276576,3.4027944,2.4596963,4.6929746,3.6469169, 21:02:02.017
96, -67404.30, -112639.47, -187500.02, -126011.06, -136154.55, -104613.20, -85354.52, -100872.91, 447, 276, 1019,1.7276576,3.4027944,2.4596963,4.6929746,3.6469169, 21:02:02.017
97, -67391.31, -112635.60, -187500.02, -126017.25, -136099.00, -104634.16, -85304.91, -100812.33, 442, 276, 1019,1.7276576,3.4027944,2.4596963,4.6929746,3.6469169, 21:02:02.017
98, -67411.92, -112665.44, -187500.02, -125816.42, -136030.19, -104357.36, -85215.06, -100731.51, 444, 275, 1019,1.7276576,3.4027944,2.4596963,4.6929746,3.6469169, 21:02:02.017
99, -67403.83, -112655.38, -187500.02, -125810.43, -136099.30, -104356.47, -85271.45, -100791.63, 448, 276, 1018,1.7276576,3.4027944,2.4596963,4.6929746,3.6469169, 21:02:02.017
100, -67387.31, -112631.46, -187500.02, -125971.05, -136153.03, -104574.66, -85339.29, -100861.02, 448, 276, 1019,1.7276576,3.4027944,2.4596963,4.6929746,3.6469169, 21:02:02.018
101, -67376.49, -112619.87, -187500.02, -126048.50, -136134.08, -104685.53, -85337.23, -100839.89, 442, 276, 1018,1.7276576,3.4027944,2.4596963,4.6929746,3.6469169, 21:02:02.018
102, -67411.70, -112667.00, -187500.02, -125857.91, -136049.44, -104417.42, -85238.53, -100744.61, 442, 275, 1019,1.7276576,3.4027944,2.4596963,4.6929746,3.6469169, 21:02:02.018
103, -67421.40, -112669.82, -187500.02, -125811.64, -136102.05, -104348.80, -85275.68, -100786.11, 449, 276, 1018,1.7276576,3.4027944,2.4596963,4.6929746,3.6469169, 21:02:02.018
104, -67391.42, -112627.62, -187500.02, -125958.70, -136152.50, -104550.08, -85344.79, -100848.77, 451, 277, 1018,1.7276576,3.4027944,2.4596963,4.6929746,3.6469169, 21:02:02.018
105, -67372.45, -112607.81, -187500.02, -126060.17, -136132.77, -104692.33, -85335.47, -100832.45, 443, 276, 1019,1.7276576,3.4027944,2.4596963,4.6929746,3.6469169, 21:02:02.018
106, -67411.95, -112658.27, -187500.02, -125886.74, -136032.88, -104448.71, -85233.03, -100731.20, 441, 275, 1019,1.7276576,3.4027944,2.4596963,4.6929746,3.6469169, 21:02:02.019
107, -67424.02, -112660.12, -187500.02, -125804.71, -136076.50, -104328.59, -85253.22, -100759.38, 448, 276, 1019,1.7276576,3.4027944,2.4596963,4.6929746,3.6469169, 21:02:02.019
108, -67399.54, -112622.66, -187500.02, -125926.91, -136126.81, -104503.01, -85312.85, -100821.83, 451, 277, 1018,1.7276576,3.4027944,2.4596963,4.6929746,3.6469169, 21:02:02.019
109, -67381.90, -112597.78, -187500.02, -126056.80, -136129.16, -104685.48, -85329.15, -100826.05, 443, 276, 1018,1.7276576,3.4027944,2.4596963,4.6929746,3.6469169, 21:02:02.019
110, -67408.77, -112631.60, -187500.02, -125935.55, -136040.95, -104518.81, -85231.76, -100727.20, 442, 275, 1019,1.7276576,3.4027944,2.4596963,4.6929746,3.6469169, 21:02:02.019
111, -67430.92, -112649.70, -187500.02, -125800.95, -136054.34, -104328.48, -85224.78, -100733.12, 447, 276, 1018,1.7276576,3.4027944,2.4596963,4.6929746,3.6469169, 21:02:02.019
112, -67404.01, -112614.99, -187500.02, -125914.46, -136131.94, -104486.45, -85301.72, -100817.00, 450, 277, 1019,1.7276576,3.4027944,2.4596963,4.6929746,3.6469169, 21:02:02.019
113, -67381.34, -112590.70, -187500.02, -126058.85, -136135.91, -104691.41, -85332.21, -100840.59, 444, 276, 1018,1.7276576,3.4027944,2.4596963,4.6929746,3.6469169, 21:02:02.019
114, -67398.76, -112618.14, -187500.02, -125983.84, -136059.28, -104592.23, -85253.41, -100757.68, 443, 275, 1019,1.7276576,3.4027944,2.4596963,4.6929746,3.6469169, 21:02:02.020
115, -67429.17, -112655.13, -187500.02, -125804.46, -136035.23, -104341.65, -85208.85, -100718.92, 445, 275, 1019,1.7276576,3.4027944,2.4596963,4.6929746,3.6469169, 21:02:02.020
116, -67422.13, -112639.69, -187500.02, -125866.16, -136119.58, -104427.91, -85289.94, -100802.50, 450, 276, 1019,1.7276576,3.4027944,2.4596963,4.6929746,3.6469169, 21:02:02.020
117, -67389.73, -112599.30, -187500.02, -126039.74, -136156.89, -104661.39, -85340.08, -100853.02, 446, 276, 1019,1.7276576,3.4027944,2.4596963,4.6929746,3.6469169, 21:02:02.020
118, -67392.05, -112607.48, -187500.02, -126025.68, -136093.86, -104647.09, -85280.26, -100780.97, 443, 276, 1018,1.7276576,3.4027944,2.4596963,4.6929746,3.6469169, 21:02:02.020
119, -67430.65, -112655.41, -187500.02, -125808.89, -136026.55, -104349.38, -85198.52, -100707.23, 444, 276, 1019,1.7276576,3.4027944,2.4596963,4.6929746,3.6469169, 21:02:02.020
120, -67414.16, -112626.55, -187500.02, -125855.77, -136118.05, -104407.09, -85278.43, -100789.35, 449, 276, 1018,1.7276576,3.4027944,2.4596963,4.6929746,3.6469169, 21:02:02.020
121, -67378.02, -112587.84, -187500.02, -126020.80, -136149.48, -104631.55, -85332.01, -100840.59, 447, 276, 1018,1.7276576,3.4027944,2.4596963,4.6929746,3.6469169, 21:02:02.020
122, -67395.73, -112610.21, -187500.02, -126056.95, -136112.31, -104678.65, -85304.20, -100803.03, 441, 276, 1018,1.7276576,3.4027944,2.4596963,4.6929746,3.6469169, 21:02:02.020
123, -67441.96, -112663.78, -187500.02, -125867.23, -136039.95, -104400.79, -85221.14, -100723.93, 443, 275, 1018,1.7276576,3.4027944,2.4596963,4.6929746,3.6469169, 21:02:02.021
124, -67445.76, -112656.95, -187500.02, -125845.10, -136103.08, -104366.82, -85269.94, -100785.45, 449, 276, 1018,1.7276576,3.4027944,2.4596963,4.6929746,3.6469169, 21:02:02.021
125, -67397.13, -112603.15, -187500.02, -126014.98, -136165.23, -104599.21, -85340.61, -100857.75, 448, 277, 1018,1.7276576,3.4027944,2.4596963,4.6929746,3.6469169, 21:02:02.021
126, -67377.59, -112588.21, -187500.02, -126098.32, -136137.30, -104726.84, -85324.74, -100824.55, 443, 276, 1018,1.7276576,3.4027944,2.4596963,4.6929746,3.6469169, 21:02:02.021
127, -67426.92, -112653.10, -187500.02, -125894.56, -136034.44, -104444.27, -85221.12, -100719.39, 442, 275, 1019,1.7276576,3.4027944,2.4596963,4.6929746,3.6469169, 21:02:02.021
128, -67436.59, -112657.33, -187500.02, -125831.71, -136093.02, -104353.07, -85266.25, -100765.10, 448, 276, 1019,1.7276576,3.4027944,2.4596963,4.6929746,3.6469169, 21:02:02.021
129, -67407.34, -112621.80, -187500.02, -125974.54, -136157.39, -104547.15, -85337.70, -100840.96, 449, 276, 1019,1.7276576,3.4027944,2.4596963,4.6929746,3.6469169, 21:02:02.021
130, -67381.66, -112593.69, -187500.02, -126096.83, -136152.94, -104714.03, -85340.73, -100833.92, 442, 276, 1018,1.7276576,3.4027944,2.4596963,4.6929746,3.6469169, 21:02:02.021
131, -67429.35, -112657.64, -187500.02, -125934.57, -136055.20, -104483.94, -85241.80, -100730.34, 443, 275, 1018,1.5642744,3.1180925,2.263341,4.371563,3.409872, 21:02:02.021
132, -67448.53, -112667.83, -187500.02, -125833.88, -136090.42, -104333.45, -85254.94, -100750.73, 446, 276, 1018,1.5642744,3.1180925,2.263341,4.371563,3.409872, 21:02:02.021
133, -67413.44, -112624.65, -187500.02, -125962.67, -136157.70, -104513.31, -85327.31, -100829.38, 450, 276, 1018,1.5642744,3.1180925,2.263341,4.371563,3.409872, 21:02:02.022
134, -67398.40, -112610.12, -187500.02, -126095.57, -136156.45, -104703.19, -85343.88, -100848.63, 443, 276, 1018,1.5642744,3.1180925,2.263341,4.371563,3.409872, 21:02:02.022
135, -67432.06, -112659.59, -187500.02, -125966.25, -136062.95, -104526.39, -85249.98, -100750.30, 443, 275, 1018,1.5642744,3.1180925,2.263341,4.371563,3.409872, 21:02:02.022
136, -67448.24, -112681.45, -187500.02, -125820.38, -136075.94, -104314.38, -85237.91, -100741.14, 446, 276, 1018,1.5642744,3.1180925,2.263341,4.371563,3.409872, 21:02:02.022
137, -67417.75, -112640.96, -187500.02, -125929.66, -136162.55, -104465.27, -85321.27, -100823.06, 450, 277, 1018,1.5642744,3.1180925,2.263341,4.371563,3.409872, 21:02:02.022
138, -67394.91, -112614.27, -187500.02, -126095.66, -136181.08, -104697.49, -85361.40, -100852.70, 444, 276, 1018,1.5642744,3.1180925,2.263341,4.371563,3.409872, 21:02:02.022
139, -67410.02, -112641.21, -187500.02, -126019.78, -136095.86, -104601.40, -85276.55, -100763.94, 441, 275, 1018,1.5642744,3.1180925,2.263341,4.371563,3.409872, 21:02:02.022
140, -67449.07, -112683.52, -187500.02, -125841.08, -136071.98, -104346.39, -85235.45, -100729.38, 445, 276, 1018,1.5642744,3.1180925,2.263341,4.371563,3.409872, 21:02:02.022
141, -67431.77, -112657.19, -187500.02, -125900.27, -136150.70, -104428.22, -85310.44, -100807.95, 450, 276, 1019,1.5642744,3.1180925,2.263341,4.371563,3.409872, 21:02:02.022
142, -67385.34, -112604.98, -187500.02, -126063.32, -136170.88, -104655.13, -85348.05, -100842.95, 446, 276, 1018,1.5642744,3.1180925,2.263341,4.371563,3.409872, 21:02:02.023
143, -67394.24, -112625.70, -187500.02, -126037.03, -136100.70, -104627.20, -85283.28, -100773.55, 441, 276, 1018,1.5642744,3.1180925,2.263341,4.371563,3.409872, 21:02:02.023
144, -67431.79, -112676.15, -187500.02, -125838.84, -136047.59, -104343.55, -85213.61, -100717.25, 445, 276, 1018,1.5642744,3.1180925,2.263341,4.371563,3.409872, 21:02:02.023
145, -67426.70, -112659.96, -187500.02, -125862.49, -136125.94, -104376.61, -85280.26, -100787.95, 450, 276, 1018,1.5642744,3.1180925,2.263341,4.371563,3.409872, 21:02:02.023
146, -67405.08, -112627.66, -187500.02, -126033.01, -136171.47, -104606.77, -85339.88, -100843.45, 447, 276, 1018,1.5642744,3.1180925,2.263341,4.371563,3.409872, 21:02:02.023
147, -67407.02, -112634.59, -187500.02, -126069.24, -136134.50, -104661.57, -85307.82, -100800.35, 442, 276, 1018,1.5642744,3.1180925,2.263341,4.371563,3.409872, 21:02:02.023
148, -67436.46, -112677.51, -187500.02, -125879.68, -136063.25, -104389.37, -85220.47, -100717.60, 444, 275, 1019,1.5642744,3.1180925,2.263341,4.371563,3.409872, 21:02:02.023
149, -67422.74, -112653.03, -187500.02, -125873.53, -136130.59, -104376.16, -85272.62, -100770.91, 448, 276, 1018,1.5642744,3.1180925,2.263341,4.371563,3.409872, 21:02:02.023
150, -67388.16, -112609.47, -187500.02, -126011.73, -136157.69, -104576.97, -85324.67, -100821.16, 449, 276, 1019,1.5642744,3.1180925,2.263341,4.371563,3.409872, 21:02:02.024
151, -67393.88, -112617.05, -187500.02, -126084.15, -136131.75, -104682.70, -85314.52, -100801.07, 442, 276, 1019,1.5642744,3.1180925,2.263341,4.371563,3.409872, 21:02:02.024
152, -67429.06, -112661.70, -187500.02, -125917.41, -136051.06, -104438.09, -85224.56, -100712.71, 444, 275, 1019,1.5642744,3.1180925,2.263341,4.371563,3.409872, 21:02:02.024
153, -67425.76, -112657.17, -187500.02, -125848.61, -136089.98, -104342.34, -85246.35, -100745.88, 448, 276, 1019,1.5642744,3.1180925,2.263341,4.371563,3.409872, 21:02:02.024
154, -67401.64, -112625.95, -187500.02, -125979.95, -136149.97, -104526.34, -85319.35, -100820.36, 449, 276, 1019,1.5642744,3.1180925,2.263341,4.371563,3.409872, 21:02:02.024
155, -67393.84, -112614.95, -187500.02, -126100.02, -136152.81, -104694.09, -85336.88, -100824.60, 443, 276, 1018,1.5642744,3.1180925,2.263341,4.371563,3.409872, 21:02:02.024
156, -67427.59, -112657.19, -187500.02, -125947.09, -136065.25, -104479.88, -85241.68, -100724.27, 443, 275, 1018,1.5642744,3.1180925,2.263341,4.371563,3.409872, 21:02:02.024
157, -67442.16, -112669.59, -187500.02, -125851.65, -136106.73, -104341.12, -85260.66, -100743.78, 447, 276, 1018,1.5642744,3.1180925,2.263341,4.371563,3.409872, 21:02:02.024
158, -67418.63, -112636.45, -187500.02, -125964.33, -136176.19, -104506.23, -85338.22, -100825.07, 450, 276, 1019,1.5642744,3.1180925,2.263341,4.371563,3.409872, 21:02:02.024
159, -67406.96, -112623.71, -187500.02, -126092.65, -136177.95, -104693.58, -85361.91, -100849.84, 443, 276, 1019,1.5642744,3.1180925,2.263341,4.371563,3.409872, 21:02:02.025
160, -67424.51, -112657.66, -187500.02, -125974.00, -136090.09, -104536.89, -85264.19, -100743.65, 442, 275, 1019,1.5642744,3.1180925,2.263341,4.371563,3.409872, 21:02:02.025
161, -67443.75, -112678.07, -187500.02, -125811.41, -136080.48, -104307.85, -85233.03, -100715.34, 446, 275, 1019,1.5642744,3.1180925,2.263341,4.371563,3.409872, 21:02:02.025
162, -67429.34, -112654.20, -187500.02, -125910.03, -136171.09, -104442.12, -85327.60, -100811.33, 450, 276, 1019,1.5642744,3.1180925,2.263341,4.371563,3.409872, 21:02:02.025
163, -67399.58, -112618.81, -187500.02, -126061.64, -136183.39, -104653.84, -85363.43, -100844.23, 444, 276, 1019,1.5642744,3.1180925,2.263341,4.371563,3.409872, 21:02:02.025
164, -67409.33, -112636.36, -187500.02, -126000.40, -136101.80, -104576.03, -85285.65, -100760.92, 442, 275, 1019,1.5642744,3.1180925,2.263341,4.371563,3.409872, 21:02:02.025
165, -67443.80, -112676.08, -187500.02, -125816.55, -136072.78, -104311.05, -85235.89, -100720.73, 445, 276, 1018,1.5642744,3.1180925,2.263341,4.371563,3.409872, 21:02:02.025
166, -67422.34, -112644.74, -187500.02, -125864.57, -136150.38, -104375.47, -85306.77, -100798.18, 450, 276, 1019,1.5642744,3.1180925,2.263341,4.371563,3.409872, 21:02:02.025
167, -67418.89, -112636.92, -187500.02, -126047.00, -136206.70, -104616.17, -85383.86, -100872.46, 446, 276, 1018,1.5642744,3.1180925,2.263341,4.371563,3.409872, 21:02:02.025
168, -67410.55, -112632.38, -187500.02, -126042.29, -136148.88, -104612.35, -85326.26, -100805.56, 442, 275, 1019,1.5642744,3.1180925,2.263341,4.371563,3.409872, 21:02:02.025
169, -67450.59, -112678.25, -187500.02, -125842.06, -136080.20, -104325.53, -85238.84, -100725.65, 444, 275, 1018,1.5642744,3.1180925,2.263341,4.371563,3.409872, 21:02:02.026
170, -67440.24, -112659.12, -187500.02, -125846.30, -136147.25, -104336.73, -85297.67, -100793.60, 448, 276, 1019,1.5642744,3.1180925,2.263341,4.371563,3.409872, 21:02:02.026
171, -67413.02, -112623.02, -187500.02, -126025.08, -136191.97, -104581.98, -85361.47, -100857.59, 448, 277, 1018,1.5642744,3.1180925,2.263341,4.371563,3.409872, 21:02:02.026
172, -67411.34, -112622.13, -187500.02, -126071.55, -136148.25, -104656.32, -85327.70, -100812.94, 441, 276, 1019,1.5642744,3.1180925,2.263341,4.371563,3.409872, 21:02:02.026
173, -67443.28, -112664.27, -187500.02, -125857.91, -136049.98, -104357.12, -85218.88, -100706.98, 444, 275, 1019,1.5642744,3.1180925,2.263341,4.371563,3.409872, 21:02:02.026
174, -67448.27, -112655.05, -187500.02, -125854.22, -136139.06, -104333.58, -85288.87, -100782.94, 449, 276, 1019,1.5642744,3.1180925,2.263341,4.371563,3.409872, 21:02:02.026
175, -67401.88, -112596.40, -187500.02, -126012.00, -136179.42, -104555.47, -85330.51, -100835.35, 448, 277, 1018,1.5642744,3.1180925,2.263341,4.371563,3.409872, 21:02:02.026
176, -67386.46, -112583.90, -187500.02, -126100.55, -136141.03, -104692.10, -85317.14, -100797.02, 443, 276, 1019,1.5642744,3.1180925,2.263341,4.371563,3.409872, 21:02:02.026
177, -67455.15, -112672.62, -187500.02, -125915.55, -136054.13, -104429.63, -85233.93, -100710.19, 443, 276, 1018,1.5642744,3.1180925,2.263341,4.371563,3.409872, 21:02:02.026
178, -67465.01, -112676.84, -187500.02, -125835.45, -136109.53, -104308.13, -85267.37, -100754.66, 447, 276, 1019,1.5642744,3.1180925,2.263341,4.371563,3.409872, 21:02:02.027
179, -67419.32, -112619.80, -187500.02, -125958.53, -136162.52, -104483.90, -85339.94, -100822.21, 449, 277, 1018,1.5642744,3.1180925,2.263341,4.371563,3.409872, 21:02:02.027
180, -67416.77, -112614.01, -187500.02, -126077.71, -136159.72, -104648.14, -85350.94, -100825.68, 443, 276, 1019,1.5642744,3.1180925,2.263341,4.371563,3.409872, 21:02:02.027
181, -67458.99, -112666.58, -187500.02, -125943.98, -136074.20, -104455.27, -85278.02, -100728.85, 442, 275, 1018,1.5642744,3.1180925,2.263341,4.371563,3.409872, 21:02:02.027
182, -67466.21, -112669.35, -187500.02, -125826.93, -136091.91, -104287.72, -85266.38, -100734.46, 447, 276, 1019,1.5642744,3.1180925,2.263341,4.371563,3.409872, 21:02:02.027
183, -67433.18, -112624.80, -187500.02, -125937.26, -136156.20, -104449.34, -85337.48, -100815.15, 449, 276, 1018,1.5642744,3.1180925,2.263341,4.371563,3.409872, 21:02:02.027
184, -67410.16, -112597.11, -187500.02, -126090.81, -136165.95, -104666.60, -85361.76, -100839.67, 443, 276, 1018,1.5642744,3.1180925,2.263341,4.371563,3.409872, 21:02:02.027
185, -67435.30, -112638.82, -187500.02, -125988.04, -136076.50, -104529.31, -85259.01, -100736.00, 442, 275, 1019,1.5642744,3.1180925,2.263341,4.371563,3.409872, 21:02:02.027
186, -67458.79, -112670.52, -187500.02, -125840.20, -136073.09, -104309.40, -85242.71, -100712.24, 445, 275, 1019,1.5642744,3.1180925,2.263341,4.371563,3.409872, 21:02:02.027
187, -67437.91, -112653.33, -187500.02, -125921.55, -136151.05, -104424.38, -85306.81, -100791.32, 449, 276, 1018,1.5642744,3.1180925,2.263341,4.371563,3.409872, 21:02:02.028
188, -67415.97, -112650.17, -187500.02, -126073.31, -136167.14, -104632.78, -85354.73, -100830.62, 444, 276, 1018,1.5642744,3.1180925,2.263341,4.371563,3.409872, 21:02:02.028
189, -67422.38, -112679.95, -187500.02, -126042.65, -136100.75, -104588.93, -85283.37, -100764.08, 442, 275, 1018,1.5642744,3.1180925,2.263341,4.371563,3.409872, 21:02:02.028
190, -67452.73, -112722.57, -187500.02, -125854.94, -136054.53, -104321.65, -85230.80, -100709.83, 444, 275, 1019,1.5642744,3.1180925,2.263341,4.371563,3.409872, 21:02:02.028
191, -67435.03, -112691.93, -187500.02, -125904.34, -136136.14, -104394.67, -85303.20, -100787.14, 451, 276, 1018,1.5642744,3.1180925,2.263341,4.371563,3.409872, 21:02:02.028
192, -67401.55, -112653.81, -187500.02, -126066.65, -136165.34, -104629.09, -85349.24, -100830.77, 446, 276, 1019,1.5642744,3.1180925,2.263341,4.371563,3.409872, 21:02:02.028
193, -67421.29, -112677.29, -187500.02, -126053.10, -136103.45, -104621.52, -85295.41, -100769.80, 441, 275, 1018,1.5642744,3.1180925,2.263341,4.371563,3.409872, 21:02:02.028
194, -67452.22, -112711.77, -187500.02, -125864.03, -136047.95, -104347.26, -85208.00, -100701.35, 444, 275, 1018,1.5642744,3.1180925,2.263341,4.371563,3.409872, 21:02:02.028
195, -67444.35, -112692.04, -187500.02, -125864.26, -136116.53, -104349.72, -85273.58, -100767.12, 450, 276, 1018,1.5642744,3.1180925,2.263341,4.371563,3.409872, 21:02:02.028
196, -67421.24, -112661.86, -187500.02, -126023.42, -136162.55, -104571.42, -85330.77, -100833.09, 448, 277, 1019,1.5642744,3.1180925,2.263341,4.371563,3.409872, 21:02:02.029
197, -67426.54, -112667.67, -187500.02, -126077.05, -136129.98, -104649.23, -85317.37, -100803.05, 443, 276, 1018,1.5642744,3.1180925,2.263341,4.371563,3.409872, 21:02:02.029
198, -67455.06, -112709.30, -187500.02, -125893.42, -136052.67, -104384.32, -85220.74, -100711.84, 443, 276, 1019,1.5642744,3.1180925,2.263341,4.371563,3.409872, 21:02:02.029
199, -67452.47, -112703.28, -187500.02, -125846.93, -136106.31, -104321.24, -85258.31, -100752.48, 449, 276, 1018,1.5642744,3.1180925,2.263341,4.371563,3.409872, 21:02:02.029
200, -67426.41, -112665.71, -187500.02, -125986.32, -136158.08, -104519.50, -85327.83, -100826.86, 448, 277, 1019,1.5642744,3.1180925,2.263341,4.371563,3.409872, 21:02:02.029
201, -67412.86, -112651.31, -187500.02, -126098.52, -136149.45, -104679.09, -85331.47, -100820.96, 442, 276, 1018,1.5642744,3.1180925,2.263341,4.371563,3.409872, 21:02:02.029
202, -67444.87, -112700.11, -187500.02, -125926.15, -136050.50, -104441.02, -85233.28, -100715.13, 443, 275, 1019,1.5642744,3.1180925,2.263341,4.371563,3.409872, 21:02:02.029
203, -67452.22, -112705.41, -187500.02, -125845.88, -136091.77, -104327.70, -85250.87, -100743.27, 446, 276, 1017,1.5642744,3.1180925,2.263341,4.371563,3.409872, 21:02:02.029
204, -67435.44, -112681.87, -187500.02, -125955.90, -136146.33, -104488.52, -85321.05, -100814.90, 449, 277, 1018,1.5642744,3.1180925,2.263341,4.371563,3.409872, 21:02:02.029
205, -67411.05, -112650.17, -187500.02, -126081.91, -136148.31, -104669.64, -85335.25, -100828.20, 443, 276, 1018,1.5642744,3.1180925,2.263341,4.371563,3.409872, 21:02:02.030
206, -67446.52, -112698.77, -187500.02, -125946.76, -136052.22, -104483.07, -85238.95, -100727.66, 442, 275, 1018,1.5642744,3.1180925,2.263341,4.371563,3.409872, 21:02:02.030
207, -67473.12, -112720.83, -187500.02, -125818.66, -136066.59, -104294.80, -85235.85, -100725.27, 447, 276, 1019,1.5642744,3.1180925,2.263341,4.371563,3.409872, 21:02:02.030
208, -67450.41, -112683.77, -187500.02, -125925.97, -136142.14, -104444.16, -85316.29, -100807.80, 450, 276, 1018,1.5642744,3.1180925,2.263341,4.371563,3.409872, 21:02:02.030
209, -67413.59, -112641.84, -187500.02, -126079.34, -136153.72, -104661.68, -85345.77, -100831.38, 444, 276, 1019,1.5642744,3.1180925,2.263341,4.371563,3.409872, 21:02:02.030
210, -67441.07, -112682.56, -187500.02, -126003.09, -136073.92, -104558.46, -85265.29, -100745.30, 443, 276, 1019,0.8677247,2.247877,1.9914006,4.086291,2.3796556, 21:02:02.495
211, -67470.51, -112712.00, -187500.02, -125852.55, -136068.77, -104338.68, -85235.16, -100717.29, 445, 275, 1019,0.8677247,2.247877,1.9914006,4.086291,2.3796556, 21:02:02.495
212, -67449.76, -112683.95, -187500.02, -125913.09, -136133.50, -104429.63, -85300.06, -100784.73, 450, 276, 1019,0.8677247,2.247877,1.9914006,4.086291,2.3796556, 21:02:02.496
213, -67419.25, -112650.76, -187500.02, -126053.15, -136143.33, -104629.65, -85329.59, -100816.49, 445, 276, 1018,0.8677247,2.247877,1.9914006,4.086291,2.3796556, 21:02:02.496
214, -67443.08, -112680.19, -187500.02, -126031.07, -136095.77, -104595.41, -85283.46, -100764.43, 443, 275, 1019,0.8677247,2.247877,1.9914006,4.086291,2.3796556, 21:02:02.496
215, -67490.17, -112730.08, -187500.02, -125860.52, -136067.06, -104340.60, -85232.61, -100723.59, 444, 275, 1019,0.8677247,2.247877,1.9914006,4.086291,2.3796556, 21:02:02.496
216, -67460.63, -112689.83, -187500.02, -125906.27, -136145.34, -104402.98, -85303.09, -100793.69, 450, 276, 1019,0.8677247,2.247877,1.9914006,4.086291,2.3796556, 21:02:02.496
217, -67418.05, -112640.78, -187500.02, -126079.23, -136174.31, -104646.48, -85351.95, -100838.26, 447, 276, 1018,0.8677247,2.247877,1.9914006,4.086291,2.3796556, 21:02:02.496
218, -67436.53, -112664.75, -187500.02, -126087.77, -136119.86, -104664.56, -85318.20, -100784.64, 442, 276, 1019,0.8677247,2.247877,1.9914006,4.086291,2.3796556, 21:02:02.497
219, -67477.95, -112713.43, -187500.02, -125904.63, -136063.88, -104396.77, -85228.00, -100716.42, 444, 276, 1018,0.8677247,2.247877,1.9914006,4.086291,2.3796556, 21:02:02.497
220, -67466.68, -112696.33, -187500.02, -125892.30, -136120.13, -104383.13, -85290.55, -100770.31, 450, 276, 1018,0.8677247,2.247877,1.9914006,4.086291,2.3796556, 21:02:02.497
221, -67431.34, -112652.38, -187500.02, -126023.63, -136143.94, -104576.99, -85318.69, -100821.41, 448, 277, 1018,0.8677247,2.247877,1.9914006,4.086291,2.3796556, 21:02:02.497
222, -67430.96, -112648.79, -187500.02, -126087.41, -136122.14, -104667.98, -85317.25, -100800.69, 442, 276, 1018,0.8677247,2.247877,1.9914006,4.086291,2.3796556, 21:02:02.497
223, -67467.64, -112698.36, -187500.02, -125914.62, -136051.58, -104414.92, -85228.23, -100720.63, 443, 275, 1018,0.8677247,2.247877,1.9914006,4.086291,2.3796556, 21:02:02.497
224, -67464.83, -112702.99, -187500.02, -125859.23, -136108.23, -104336.87, -85262.38, -100759.27, 447, 276, 1019,0.8677247,2.247877,1.9914006,4.086291,2.3796556, 21:02:02.498
225, -67446.03, -112678.54, -187500.02, -125999.44, -136161.66, -104529.27, -85336.25, -100823.71, 450, 276, 1018,0.8677247,2.247877,1.9914006,4.086291,2.3796556, 21:02:02.498
226, -67441.02, -112671.88, -187500.02, -126108.78, -136152.36, -104684.77, -85323.60, -100815.70, 441, 276, 1018,0.8677247,2.247877,1.9914006,4.086291,2.3796556, 21:02:02.498
227, -67466.55, -112708.53, -187500.02, -125955.12, -136057.80, -104471.78, -85247.74, -100718.48, 443, 275, 1018,0.8677247,2.247877,1.9914006,4.086291,2.3796556, 21:02:02.498
228, -67479.11, -112720.16, -187500.02, -125858.40, -136088.84, -104337.80, -85244.19, -100741.03, 446, 275, 1018,0.8677247,2.247877,1.9914006,4.086291,2.3796556, 21:02:02.498
