%OpenBCI Raw EEG Data
%
%Sample Rate = 250.0 Hz
%First Column = SampleIndex
%5 Columns before Timestamp are Frequency Power factors DELTA THETA ALPHA BETA GAMMA
%Last Column = Timestamp 
%Other Columns = EEG data in microvolts followed by Accel Data (in G) interleaved with Aux Data
187500.015625, 187500.015625, 187500.015625, 187500.015625, 187500.015625, 187500.015625, 184283.593750, 187500.015625, 0, 1, 1, 0, 1,0.0,0.0,0.0,0.0,0.0, 11:45:03.868
187500.015625, 187500.015625, 187500.015625, 187500.015625, 187500.015625, 187500.015625, 184274.171875, 187500.015625, 0, 1, 1, 0, 1,0.0,0.0,0.0,0.0,0.0, 11:45:03.869
187500.015625, 187500.015625, 187500.015625, 187500.015625, 187500.015625, 187500.015625, 184262.562500, 187500.015625, 0, 1, 1, 0, 1,0.0,0.0,0.0,0.0,0.0, 11:45:03.870
187500.015625, 187500.015625, 187500.015625, 187500.015625, 187500.015625, 187500.015625, 184251.453125, 187500.015625, 0, 1, 1, 0, 1,0.0,0.0,0.0,0.0,0.0, 11:45:03.870
187500.015625, 187500.015625, 187500.015625, 187500.015625, 187500.015625, 187500.015625, 184241.421875, 187500.015625, 0, 1, 1, 0, 1,0.0,0.0,0.0,0.0,0.0, 11:45:03.871
187500.015625, 187500.015625, 187500.015625, 187500.015625, 187500.015625, 187500.015625, 184231.859375, 187500.015625, 0, 1, 1, 0, 1,0.0,0.0,0.0,0.0,0.0, 11:45:03.873
187500.015625, 187500.015625, 187500.015625, 187500.015625, 187500.015625, 187500.015625, 184222.843750, 187500.015625, 0, 1, 1, 0, 1,0.0,0.0,0.0,0.0,0.0, 11:45:03.874
187500.015625, 187500.015625, 187500.015625, 187500.015625, 187500.015625, 187500.015625, 184213.968750, 187500.015625, 0, 1, 1, 0, 1,0.0,0.0,0.0,0.0,0.0, 11:45:03.875
187500.015625, 187500.015625, 187500.015625, 187500.015625, 187500.015625, 187500.015625, 184202.156250, 187500.015625, 0, 1, 1, 0, 1,0.0,0.0,0.0,0.0,0.0, 11:45:03.876
187500.015625, 187500.015625, 187500.015625, 187500.015625, 187500.015625, 187500.015625, 184191.265625, 187500.015625, 0, 1, 1, 0, 1,0.0,0.0,0.0,0.0,0.0, 11:45:03.876
187500.015625, 187500.015625, 187500.015625, 187500.015625, 187500.015625, 187500.015625, 184183.984375, 187500.015625, 0, 1, 1, 0, 1,0.0,0.0,0.0,0.0,0.0, 11:45:03.877
187500.015625, 187500.015625, 187500.015625, 187500.015625, 187500.015625, 187500.015625, 184173.093750, 187500.015625, 0, 1, 1, 0, 1,0.0,0.0,0.0,0.0,0.0, 11:45:03.877
187500.015625, 187500.015625, 187500.015625, 187500.015625, 187500.015625, 187500.015625, 184161.062500, 187500.015625, 0, 1, 1, 0, 1,0.0,0.0,0.0,0.0,0.0, 11:45:03.878
187500.015625, 187500.015625, 187500.015625, 187500.015625, 187500.015625, 187500.015625, 184151.046875, 187500.015625, 0, 1, 1, 0, 1,0.0,0.0,0.0,0.0,0.0, 11:45:03.878
187500.015625, 187500.015625, 187500.015625, 187500.015625, 187500.015625, 187500.015625, 184140.765625, 187500.015625, 0, 1, 1, 0, 1,0.0,0.0,0.0,0.0,0.0, 11:45:03.878
187500.015625, 187500.015625, 187500.015625, 187500.015625, 187500.015625, 187500.015625, 184128.656250, 187500.015625, 0, 1, 1, 0, 1,0.0,0.0,0.0,0.0,0.0, 11:45:03.879
187500.015625, 187500.015625, 187500.015625, 187500.015625, 187500.015625, 187500.015625, 184117.890625, 187500.015625, 0, 1, 1, 0, 1,0.0,0.0,0.0,0.0,0.0, 11:45:03.879
187500.015625, 187500.015625, 187500.015625, 187500.015625, 187500.015625, 187500.015625, 184107.875000, 187500.015625, 0, 1, 1, 0, 1,0.0,0.0,0.0,0.0,0.0, 11:45:03.880
187500.015625, 187500.015625, 187500.015625, 187500.015625, 187500.015625, 187500.015625, 184097.406250, 187500.015625, 0, 1, 1, 0, 1,0.0,0.0,0.0,0.0,0.0, 11:45:03.880
187500.015625, 187500.015625, 187500.015625, 187500.015625, 187500.015625, 187500.015625, 184089.765625, 187500.015625, 0, 1, 1, 0, 1,0.0,0.0,0.0,0.0,0.0, 11:45:03.881
187500.015625, 187500.015625, 187500.015625, 187500.015625, 187500.015625, 187500.015625, 184077.812500, 187500.015625, 0, 1, 1, 0, 1,0.0,0.0,0.0,0.0,0.0, 11:45:03.881
187500.015625, 187500.015625, 187500.015625, 187500.015625, 187500.015625, 187500.015625, 184065.218750, 187500.015625, 0, 1, 1, 0, 1,0.0,0.0,0.0,0.0,0.0, 11:45:03.882
187500.015625, 187500.015625, 187500.015625, 187500.015625, 187500.015625, 187500.015625, 184052.265625, 187500.015625, 0, 1, 1, 0, 1,0.0,0.0,0.0,0.0,0.0, 11:45:03.882
187500.015625, 187500.015625, 187500.015625, 187500.015625, 187500.015625, 187500.015625, 184040.140625, 187500.015625, 0, 1, 1, 0, 1,0.0,0.0,0.0,0.0,0.0, 11:45:03.883
187500.015625, 187500.015625, 187500.015625, 187500.015625, 187500.015625, 187500.015625, 184030.781250, 187500.015625, 0, 1, 1, 0, 1,0.0,0.0,0.0,0.0,0.0, 11:45:03.883
187500.015625, 187500.015625, 187500.015625, 187500.015625, 187500.015625, 187500.015625, 184018.109375, 187500.015625, 0, 1, 1, 0, 1,0.0,0.0,0.0,0.0,0.0, 11:45:03.884
187500.015625, 187500.015625, 187500.015625, 187500.015625, 187500.015625, 187500.015625, 184006.703125, 187500.015625, 0, 1, 1, 0, 1,0.0,0.0,0.0,0.0,0.0, 11:45:03.884
187500.015625, 187500.015625, 187500.015625, 187500.015625, 187500.015625, 187500.015625, 183999.156250, 187500.015625, 0, 1, 1, 0, 1,0.0,0.0,0.0,0.0,0.0, 11:45:03.884
187500.015625, 187500.015625, 187500.015625, 187500.015625, 187500.015625, 187500.015625, 183990.750000, 187500.015625, 0, 1, 1, 0, 1,0.0,0.0,0.0,0.0,0.0, 11:45:03.885
187500.015625, 187500.015625, 187500.015625, 187500.015625, 187500.015625, 187500.015625, 183979.640625, 187500.015625, 0, 1, 1, 0, 1,0.0,0.0,0.0,0.0,0.0, 11:45:03.885
187500.015625, 187500.015625, 187500.015625, 187500.015625, 187500.015625, 187500.015625, 183969.156250, 187500.015625, 0, 1, 1, 0, 1,0.0,0.0,0.0,0.0,0.0, 11:45:03.886
187500.015625, 187500.015625, 187500.015625, 187500.015625, 187500.015625, 187500.015625, 183958.406250, 187500.015625, 0, 1, 1, 0, 1,0.0,0.0,0.0,0.0,0.0, 11:45:03.886
187500.015625, 187500.015625, 187500.015625, 187500.015625, 187500.015625, 187500.015625, 183947.875000, 187500.015625, 0, 1, 1, 0, 1,0.0,0.0,0.0,0.0,0.0, 11:45:03.886
187500.015625, 187500.015625, 187500.015625, 187500.015625, 187500.015625, 187500.015625, 183936.765625, 187500.015625, 0, 1, 1, 0, 1,0.0,0.0,0.0,0.0,0.0, 11:45:03.887
187500.015625, 187500.015625, 187500.015625, 187500.015625, 187500.015625, 187500.015625, 183924.906250, 187500.015625, 0, 1, 1, 0, 1,0.0,0.0,0.0,0.0,0.0, 11:45:03.887
187500.015625, 187500.015625, 187500.015625, 187500.015625, 187500.015625, 187500.015625, 183916.046875, 187500.015625, 0, 1, 1, 0, 1,0.0,0.0,0.0,0.0,0.0, 11:45:03.889
187500.015625, 187500.015625, 187500.015625, 187500.015625, 187500.015625, 187500.015625, 183905.078125, 187500.015625, 0, 1, 1, 0, 1,0.0,0.0,0.0,0.0,0.0, 11:45:03.890
187500.015625, 187500.015625, 187500.015625, 187500.015625, 187500.015625, 187500.015625, 183895.578125, 187500.015625, 0, 1, 1, 0, 1,0.0,0.0,0.0,0.0,0.0, 11:45:03.890
187500.015625, 187500.015625, 187500.015625, 187500.015625, 187500.015625, 187500.015625, 183884.062500, 187500.015625, 0, 1, 1, 0, 1,0.0,0.0,0.0,0.0,0.0, 11:45:03.891
187500.015625, 187500.015625, 187500.015625, 187500.015625, 187500.015625, 187500.015625, 183871.921875, 187500.015625, 0, 1, 1, 0, 1,0.0,0.0,0.0,0.0,0.0, 11:45:03.891
187500.015625, 187500.015625, 187500.015625, 187500.015625, 187500.015625, 187500.015625, 183860.687500, 187500.015625, 0, 1, 1, 0, 1,0.0,0.0,0.0,0.0,0.0, 11:45:03.891
187500.015625, 187500.015625, 187500.015625, 187500.015625, 187500.015625, 187500.015625, 183848.593750, 187500.015625, 0, 1, 1, 0, 1,0.0,0.0,0.0,0.0,0.0, 11:45:03.892
187500.015625, 187500.015625, 187500.015625, 187500.015625, 187500.015625, 187500.015625, 183837.750000, 187500.015625, 0, 1, 1, 0, 1,0.0,0.0,0.0,0.0,0.0, 11:45:03.892
187500.015625, 187500.015625, 187500.015625, 187500.015625, 187500.015625, 187500.015625, 183827.328125, 187500.015625, 0, 1, 1, 0, 1,0.0,0.0,0.0,0.0,0.0, 11:45:03.893
187500.015625, 187500.015625, 187500.015625, 187500.015625, 187500.015625, 187500.015625, 183814.390625, 187500.015625, 0, 1, 1, 0, 1,0.0,0.0,0.0,0.0,0.0, 11:45:03.893
187500.015625, 187500.015625, 187500.015625, 187500.015625, 187500.015625, 187500.015625, 183803.437500, 187500.015625, 0, 1, 1, 0, 1,0.0,0.0,0.0,0.0,0.0, 11:45:03.893
187500.015625, 187500.015625, 187500.015625, 187500.015625, 187500.015625, 187500.015625, 183795.796875, 187500.015625, 0, 1, 1, 0, 1,0.0,0.0,0.0,0.0,0.0, 11:45:03.894
187500.015625, 187500.015625, 187500.015625, 187500.015625, 187500.015625, 187500.015625, 183787.562500, 187500.015625, 0, 1, 1, 0, 1,0.0,0.0,0.0,0.0,0.0, 11:45:03.895
187500.015625, 187500.015625, 187500.015625, 187500.015625, 187500.015625, 187500.015625, 183777.906250, 187500.015625, 0, 1, 1, 0, 1,0.0,0.0,0.0,0.0,0.0, 11:45:03.896
187500.015625, 187500.015625, 187500.015625, 187500.015625, 187500.015625, 187500.015625, 183767.125000, 187500.015625, 0, 1, 1, 0, 1,0.0,0.0,0.0,0.0,0.0, 11:45:03.904
187500.015625, 187500.015625, 187500.015625, 187500.015625, 187500.015625, 187500.015625, 183755.000000, 187500.015625, 0, 1, 1, 0, 1,6.48498E-4,8.590214E-4,0.001055934,0.00332313,0.0042227856, 11:45:03.904
187500.015625, 187500.015625, 187500.015625, 187500.015625, 187500.015625, 187500.015625, 183744.546875, 187500.015625, 0, 1, 1, 0, 1,6.48498E-4,8.590214E-4,0.001055934,0.00332313,0.0042227856, 11:45:03.904
187500.015625, 187500.015625, 187500.015625, 187500.015625, 187500.015625, 187500.015625, 183733.250000, 187500.015625, 0, 1, 1, 0, 1,6.48498E-4,8.590214E-4,0.001055934,0.00332313,0.0042227856, 11:45:03.905
187500.015625, 187500.015625, 187500.015625, 187500.015625, 187500.015625, 187500.015625, 183721.656250, 187500.015625, 0, 1, 1, 0, 1,6.48498E-4,8.590214E-4,0.001055934,0.00332313,0.0042227856, 11:45:03.905
187500.015625, 187500.015625, 187500.015625, 187500.015625, 187500.015625, 187500.015625, 183711.578125, 187500.015625, 0, 1, 1, 0, 1,6.48498E-4,8.590214E-4,0.001055934,0.00332313,0.0042227856, 11:45:03.906
187500.015625, 187500.015625, 187500.015625, 187500.015625, 187500.015625, 187500.015625, 183701.343750, 187500.015625, 0, 1, 1, 0, 1,6.48498E-4,8.590214E-4,0.001055934,0.00332313,0.0042227856, 11:45:03.906
187500.015625, 187500.015625, 187500.015625, 187500.015625, 187500.015625, 187500.015625, 183690.265625, 187500.015625, 0, 1, 1, 0, 1,6.48498E-4,8.590214E-4,0.001055934,0.00332313,0.0042227856, 11:45:03.906
187500.015625, 187500.015625, 187500.015625, 187500.015625, 187500.015625, 187500.015625, 183680.796875, 187500.015625, 0, 1, 1, 0, 1,6.48498E-4,8.590214E-4,0.001055934,0.00332313,0.0042227856, 11:45:03.906
187500.015625, 187500.015625, 187500.015625, 187500.015625, 187500.015625, 187500.015625, 183670.843750, 187500.015625, 0, 1, 1, 0, 1,6.48498E-4,8.590214E-4,0.001055934,0.00332313,0.0042227856, 11:45:03.907
187500.015625, 187500.015625, 187500.015625, 187500.015625, 187500.015625, 187500.015625, 183659.109375, 187500.015625, 0, 1, 1, 0, 1,6.48498E-4,8.590214E-4,0.001055934,0.00332313,0.0042227856, 11:45:03.907
187500.015625, 187500.015625, 187500.015625, 187500.015625, 187500.015625, 187500.015625, 183647.890625, 187500.015625, 0, 1, 1, 0, 1,6.48498E-4,8.590214E-4,0.001055934,0.00332313,0.0042227856, 11:45:03.907
187500.015625, 187500.015625, 187500.015625, 187500.015625, 187500.015625, 187500.015625, 183637.406250, 187500.015625, 0, 1, 1, 0, 1,6.48498E-4,8.590214E-4,0.001055934,0.00332313,0.0042227856, 11:45:03.908
187500.015625, 187500.015625, 187500.015625, 187500.015625, 187500.015625, 187500.015625, 183630.453125, 187500.015625, 0, 1, 1, 0, 1,6.48498E-4,8.590214E-4,0.001055934,0.00332313,0.0042227856, 11:45:03.908
187500.015625, 187500.015625, 187500.015625, 187500.015625, 187500.015625, 187500.015625, 183621.390625, 187500.015625, 0, 1, 1, 0, 1,6.48498E-4,8.590214E-4,0.001055934,0.00332313,0.0042227856, 11:45:03.908
187500.015625, 187500.015625, 187500.015625, 187500.015625, 187500.015625, 187500.015625, 183609.531250, 187500.015625, 0, 1, 1, 0, 1,6.48498E-4,8.590214E-4,0.001055934,0.00332313,0.0042227856, 11:45:03.910
187500.015625, 187500.015625, 187500.015625, 187500.015625, 187500.015625, 187500.015625, 183599.125000, 187500.015625, 0, 1, 1, 0, 1,6.48498E-4,8.590214E-4,0.001055934,0.00332313,0.0042227856, 11:45:03.911
187500.015625, 187500.015625, 187500.015625, 187500.015625, 187500.015625, 187500.015625, 183587.921875, 187500.015625, 0, 1, 1, 0, 1,6.48498E-4,8.590214E-4,0.001055934,0.00332313,0.0042227856, 11:45:03.911
187500.015625, 187500.015625, 187500.015625, 187500.015625, 187500.015625, 187500.015625, 183577.515625, 187500.015625, 0, 1, 1, 0, 1,6.48498E-4,8.590214E-4,0.001055934,0.00332313,0.0042227856, 11:45:03.912
187500.015625, 187500.015625, 187500.015625, 187500.015625, 187500.015625, 187500.015625, 183566.890625, 187500.015625, 0, 1, 1, 0, 1,6.48498E-4,8.590214E-4,0.001055934,0.00332313,0.0042227856, 11:45:03.912
187500.015625, 187500.015625, 187500.015625, 187500.015625, 187500.015625, 187500.015625, 183556.000000, 187500.015625, 0, 1, 1, 0, 1,6.48498E-4,8.590214E-4,0.001055934,0.00332313,0.0042227856, 11:45:03.912
187500.015625, 187500.015625, 187500.015625, 187500.015625, 187500.015625, 187500.015625, 183545.953125, 187500.015625, 0, 1, 1, 0, 1,6.48498E-4,8.590214E-4,0.001055934,0.00332313,0.0042227856, 11:45:03.913
187500.015625, 187500.015625, 187500.015625, 187500.015625, 187500.015625, 187500.015625, 183536.109375, 187500.015625, 0, 1, 1, 0, 1,6.48498E-4,8.590214E-4,0.001055934,0.00332313,0.0042227856, 11:45:03.913
187500.015625, 187500.015625, 187500.015625, 187500.015625, 187500.015625, 187500.015625, 183524.156250, 187500.015625, 0, 1, 1, 0, 1,6.48498E-4,8.590214E-4,0.001055934,0.00332313,0.0042227856, 11:45:03.914
187500.015625, 187500.015625, 187500.015625, 187500.015625, 187500.015625, 187500.015625, 183512.984375, 187500.015625, 0, 1, 1, 0, 1,6.48498E-4,8.590214E-4,0.001055934,0.00332313,0.0042227856, 11:45:03.914
187500.015625, 187500.015625, 187500.015625, 187500.015625, 187500.015625, 187500.015625, 183501.578125, 187500.015625, 0, 1, 1, 0, 1,6.48498E-4,8.590214E-4,0.001055934,0.00332313,0.0042227856, 11:45:03.914
187500.015625, 187500.015625, 187500.015625, 187500.015625, 187500.015625, 187500.015625, 183492.375000, 187500.015625, 0, 1, 1, 0, 1,6.48498E-4,8.590214E-4,0.001055934,0.00332313,0.0042227856, 11:45:03.915
187500.015625, 187500.015625, 187500.015625, 187500.015625, 187500.015625, 187500.015625, 183482.531250, 187500.015625, 0, 1, 1, 0, 1,6.48498E-4,8.590214E-4,0.001055934,0.00332313,0.0042227856, 11:45:03.915
187500.015625, 187500.015625, 187500.015625, 187500.015625, 187500.015625, 187500.015625, 183472.515625, 187500.015625, 0, 1, 1, 0, 1,6.48498E-4,8.590214E-4,0.001055934,0.00332313,0.0042227856, 11:45:03.915
187500.015625, 187500.015625, 187500.015625, 187500.015625, 187500.015625, 187500.015625, 183461.687500, 187500.015625, 0, 1, 1, 0, 1,6.48498E-4,8.590214E-4,0.001055934,0.00332313,0.0042227856, 11:45:03.916
187500.015625, 187500.015625, 187500.015625, 187500.015625, 187500.015625, 187500.015625, 183451.890625, 187500.015625, 0, 1, 1, 0, 1,6.48498E-4,8.590214E-4,0.001055934,0.00332313,0.0042227856, 11:45:03.916
187500.015625, 187500.015625, 187500.015625, 187500.015625, 187500.015625, 187500.015625, 183441.453125, 187500.015625, 0, 1, 1, 0, 1,6.48498E-4,8.590214E-4,0.001055934,0.00332313,0.0042227856, 11:45:03.917
187500.015625, 187500.015625, 187500.015625, 187500.015625, 187500.015625, 187500.015625, 183428.015625, 187500.015625, 0, 1, 1, 0, 1,6.48498E-4,8.590214E-4,0.001055934,0.00332313,0.0042227856, 11:45:03.917
187500.015625, 187500.015625, 187500.015625, 187500.015625, 187500.015625, 187500.015625, 183417.265625, 187500.015625, 0, 1, 1, 0, 1,6.48498E-4,8.590214E-4,0.001055934,0.00332313,0.0042227856, 11:45:03.917
187500.015625, 187500.015625, 187500.015625, 187500.015625, 187500.015625, 187500.015625, 183408.343750, 187500.015625, 0, 1, 1, 0, 1,6.48498E-4,8.590214E-4,0.001055934,0.00332313,0.0042227856, 11:45:03.918
187500.015625, 187500.015625, 187500.015625, 187500.015625, 187500.015625, 187500.015625, 183397.062500, 187500.015625, 0, 1, 1, 0, 1,6.48498E-4,8.590214E-4,0.001055934,0.00332313,0.0042227856, 11:45:03.918
187500.015625, 187500.015625, 187500.015625, 187500.015625, 187500.015625, 187500.015625, 183386.203125, 187500.015625, 0, 1, 1, 0, 1,6.48498E-4,8.590214E-4,0.001055934,0.00332313,0.0042227856, 11:45:03.918
187500.015625, 187500.015625, 187500.015625, 187500.015625, 187500.015625, 187500.015625, 183375.140625, 187500.015625, 0, 1, 1, 0, 1,6.48498E-4,8.590214E-4,0.001055934,0.00332313,0.0042227856, 11:45:03.919
187500.015625, 187500.015625, 187500.015625, 187500.015625, 187500.015625, 187500.015625, 183364.734375, 187500.015625, 0, 1, 1, 0, 1,6.48498E-4,8.590214E-4,0.001055934,0.00332313,0.0042227856, 11:45:03.919
187500.015625, 187500.015625, 187500.015625, 187500.015625, 187500.015625, 187500.015625, 183353.390625, 187500.015625, 0, 1, 1, 0, 1,6.48498E-4,8.590214E-4,0.001055934,0.00332313,0.0042227856, 11:45:03.920
187500.015625, 187500.015625, 187500.015625, 187500.015625, 187500.015625, 187500.015625, 183343.984375, 187500.015625, 0, 1, 1, 0, 1,6.48498E-4,8.590214E-4,0.001055934,0.00332313,0.0042227856, 11:45:03.920
187500.015625, 187500.015625, 187500.015625, 187500.015625, 187500.015625, 187500.015625, 183332.484375, 187500.015625, 0, 1, 1, 0, 1,6.48498E-4,8.590214E-4,0.001055934,0.00332313,0.0042227856, 11:45:03.921
187500.015625, 187500.015625, 187500.015625, 187500.015625, 187500.015625, 187500.015625, 183322.109375, 187500.015625, 0, 1, 1, 0, 1,6.48498E-4,8.590214E-4,0.001055934,0.00332313,0.0042227856, 11:45:03.921
187500.015625, 187500.015625, 187500.015625, 187500.015625, 187500.015625, 187500.015625, 183311.812500, 187500.015625, 0, 1, 1, 0, 1,6.48498E-4,8.590214E-4,0.001055934,0.00332313,0.0042227856, 11:45:03.922
187500.015625, 187500.015625, 187500.015625, 187500.015625, 187500.015625, 187500.015625, 183301.468750, 187500.015625, 0, 1, 1, 0, 1,6.48498E-4,8.590214E-4,0.001055934,0.00332313,0.0042227856, 11:45:03.922
187500.015625, 187500.015625, 187500.015625, 187500.015625, 187500.015625, 187500.015625, 183292.750000, 187500.015625, 0, 1, 1, 0, 1,6.48498E-4,8.590214E-4,0.001055934,0.00332313,0.0042227856, 11:45:03.923
187500.015625, 187500.015625, 187500.015625, 187500.015625, 187500.015625, 187500.015625, 183283.343750, 187500.015625, 0, 1, 1, 0, 1,6.48498E-4,8.590214E-4,0.001055934,0.00332313,0.0042227856, 11:45:03.923
187500.015625, 187500.015625, 187500.015625, 187500.015625, 187500.015625, 187500.015625, 183270.531250, 187500.015625, 0, 1, 1, 0, 1,6.48498E-4,8.590214E-4,0.001055934,0.00332313,0.0042227856, 11:45:03.923
187500.015625, 187500.015625, 187500.015625, 187500.015625, 187500.015625, 187500.015625, 183261.484375, 187500.015625, 0, 1, 1, 0, 1,6.48498E-4,8.590214E-4,0.001055934,0.00332313,0.0042227856, 11:45:03.923
187500.015625, 187500.015625, 187500.015625, 187500.015625, 187500.015625, 187500.015625, 183249.812500, 187500.015625, 0, 1, 1, 0, 1,6.48498E-4,8.590214E-4,0.001055934,0.00332313,0.0042227856, 11:45:03.924
187500.015625, 187500.015625, 187500.015625, 187500.015625, 187500.015625, 187500.015625, 183237.781250, 187500.015625, 0, 1, 1, 0, 1,6.48498E-4,8.590214E-4,0.001055934,0.00332313,0.0042227856, 11:45:03.924
187500.015625, 187500.015625, 187500.015625, 187500.015625, 187500.015625, 187500.015625, 183225.375000, 187500.015625, 0, 1, 1, 0, 1,6.48498E-4,8.590214E-4,0.001055934,0.00332313,0.0042227856, 11:45:03.924
187500.015625, 187500.015625, 187500.015625, 187500.015625, 187500.015625, 187500.015625, 183215.515625, 187500.015625, 0, 1, 1, 0, 1,6.48498E-4,8.590214E-4,0.001055934,0.00332313,0.0042227856, 11:45:03.925
187500.015625, 187500.015625, 187500.015625, 187500.015625, 187500.015625, 187500.015625, 183203.765625, 187500.015625, 0, 1, 1, 0, 1,6.48498E-4,8.590214E-4,0.001055934,0.00332313,0.0042227856, 11:45:03.925
187500.015625, 187500.015625, 187500.015625, 187500.015625, 187500.015625, 187500.015625, 183194.093750, 187500.015625, 0, 1, 1, 0, 1,6.48498E-4,8.590214E-4,0.001055934,0.00332313,0.0042227856, 11:45:03.925
187500.015625, 187500.015625, 187500.015625, 187500.015625, 187500.015625, 187500.015625, 183184.921875, 187500.015625, 0, 1, 1, 0, 1,6.48498E-4,8.590214E-4,0.001055934,0.00332313,0.0042227856, 11:45:03.925
187500.015625, 187500.015625, 187500.015625, 187500.015625, 187500.015625, 187500.015625, 183174.343750, 187500.015625, 0, 1, 1, 0, 1,6.48498E-4,8.590214E-4,0.001055934,0.00332313,0.0042227856, 11:45:03.926
187500.015625, 187500.015625, 187500.015625, 187500.015625, 187500.015625, 187500.015625, 183165.046875, 187500.015625, 0, 1, 1, 0, 1,6.48498E-4,8.590214E-4,0.001055934,0.00332313,0.0042227856, 11:45:03.926
187500.015625, 187500.015625, 187500.015625, 187500.015625, 187500.015625, 187500.015625, 183154.765625, 187500.015625, 0, 1, 1, 0, 1,6.48498E-4,8.590214E-4,0.001055934,0.00332313,0.0042227856, 11:45:03.926
187500.015625, 187500.015625, 187500.015625, 187500.015625, 187500.015625, 187500.015625, 183143.906250, 187500.015625, 0, 1, 1, 0, 1,6.48498E-4,8.590214E-4,0.001055934,0.00332313,0.0042227856, 11:45:03.926
187500.015625, 187500.015625, 187500.015625, 187500.015625, 187500.015625, 187500.015625, 183132.937500, 187500.015625, 0, 1, 1, 0, 1,6.48498E-4,8.590214E-4,0.001055934,0.00332313,0.0042227856, 11:45:03.927
187500.015625, 187500.015625, 187500.015625, 187500.015625, 187500.015625, 187500.015625, 183120.484375, 187500.015625, 0, 1, 1, 0, 1,6.48498E-4,8.590214E-4,0.001055934,0.00332313,0.0042227856, 11:45:03.927
187500.015625, 187500.015625, 187500.015625, 187500.015625, 187500.015625, 187500.015625, 183110.265625, 187500.015625, 0, 1, 1, 0, 1,6.48498E-4,8.590214E-4,0.001055934,0.00332313,0.0042227856, 11:45:03.927
187500.015625, 187500.015625, 187500.015625, 187500.015625, 187500.015625, 187500.015625, 183101.906250, 187500.015625, 0, 1, 1, 0, 1,6.48498E-4,8.590214E-4,0.001055934,0.00332313,0.0042227856, 11:45:03.928
187500.015625, 187500.015625, 187500.015625, 187500.015625, 187500.015625, 187500.015625, 183093.437500, 187500.015625, 0, 1, 1, 0, 1,6.48498E-4,8.590214E-4,0.001055934,0.00332313,0.0042227856, 11:45:03.928
187500.015625, 187500.015625, 187500.015625, 187500.015625, 187500.015625, 187500.015625, 183082.390625, 187500.015625, 0, 1, 1, 0, 1,6.48498E-4,8.590214E-4,0.001055934,0.00332313,0.0042227856, 11:45:03.928
187500.015625, 187500.015625, 187500.015625, 187500.015625, 187500.015625, 187500.015625, 183071.265625, 187500.015625, 0, 1, 1, 0, 1,6.48498E-4,8.590214E-4,0.001055934,0.00332313,0.0042227856, 11:45:03.928
187500.015625, 187500.015625, 187500.015625, 187500.015625, 187500.015625, 187500.015625, 183060.265625, 187500.015625, 0, 1, 1, 0, 1,6.48498E-4,8.590214E-4,0.001055934,0.00332313,0.0042227856, 11:45:03.928
187500.015625, 187500.015625, 187500.015625, 187500.015625, 187500.015625, 187500.015625, 183051.031250, 187500.015625, 0, 1, 1, 0, 1,6.48498E-4,8.590214E-4,0.001055934,0.00332313,0.0042227856, 11:45:03.929
187500.015625, 187500.015625, 187500.015625, 187500.015625, 187500.015625, 187500.015625, 183041.375000, 187500.015625, 0, 1, 1, 0, 1,6.48498E-4,8.590214E-4,0.001055934,0.00332313,0.0042227856, 11:45:03.929
187500.015625, 187500.015625, 187500.015625, 187500.015625, 187500.015625, 187500.015625, 183030.109375, 187500.015625, 0, 1, 1, 0, 1,6.48498E-4,8.590214E-4,0.001055934,0.00332313,0.0042227856, 11:45:03.929
187500.015625, 187500.015625, 187500.015625, 187500.015625, 187500.015625, 187500.015625, 183020.390625, 187500.015625, 0, 1, 1, 0, 1,0.0,0.0,0.0,0.0,0.0, 11:45:04.349
187500.015625, 187500.015625, 187500.015625, 187500.015625, 187500.015625, 187500.015625, 183007.609375, 187500.015625, 0, 1, 1, 0, 1,0.0,0.0,0.0,0.0,0.0, 11:45:04.349
187500.015625, 187500.015625, 187500.015625, 187500.015625, 187500.015625, 187500.015625, 182994.984375, 187500.015625, 0, 1, 1, 0, 1,0.0,0.0,0.0,0.0,0.0, 11:45:04.349
187500.015625, 187500.015625, 187500.015625, 187500.015625, 187500.015625, 187500.015625, 182985.812500, 187500.015625, 0, 1, 1, 0, 1,0.0,0.0,0.0,0.0,0.0, 11:45:04.350
187500.015625, 187500.015625, 187500.015625, 187500.015625, 187500.015625, 187500.015625, 182974.968750, 187500.015625, 0, 1, 1, 0, 1,0.0,0.0,0.0,0.0,0.0, 11:45:04.350
187500.015625, 187500.015625, 187500.015625, 187500.015625, 187500.015625, 187500.015625, 182963.078125, 187500.015625, 0, 1, 1, 0, 1,0.0,0.0,0.0,0.0,0.0, 11:45:04.350
187500.015625, 187500.015625, 187500.015625, 187500.015625, 187500.015625, 187500.015625, 182953.296875, 187500.015625, 0, 1, 1, 0, 1,0.0,0.0,0.0,0.0,0.0, 11:45:04.351
187500.015625, 187500.015625, 187500.015625, 187500.015625, 187500.015625, 187500.015625, 182944.171875, 187500.015625, 0, 1, 1, 0, 1,0.0,0.0,0.0,0.0,0.0, 11:45:04.351
187500.015625, 187500.015625, 187500.015625, 187500.015625, 187500.015625, 187500.015625, 182933.281250, 187500.015625, 0, 1, 1, 0, 1,0.0,0.0,0.0,0.0,0.0, 11:45:04.351
187500.015625, 187500.015625, 187500.015625, 187500.015625, 187500.015625, 187500.015625, 182923.625000, 187500.015625, 0, 1, 1, 0, 1,0.0,0.0,0.0,0.0,0.0, 11:45:04.352
187500.015625, 187500.015625, 187500.015625, 187500.015625, 187500.015625, 187500.015625, 182911.671875, 187500.015625, 0, 1, 1, 0, 1,0.0,0.0,0.0,0.0,0.0, 11:45:04.352
187500.015625, 187500.015625, 187500.015625, 187500.015625, 187500.015625, 187500.015625, 182899.796875, 187500.015625, 0, 1, 1, 0, 1,0.0,0.0,0.0,0.0,0.0, 11:45:04.353
187500.015625, 187500.015625, 187500.015625, 187500.015625, 187500.015625, 187500.015625, 182892.562500, 187500.015625, 0, 1, 1, 0, 1,0.0,0.0,0.0,0.0,0.0, 11:45:04.353
187500.015625, 187500.015625, 187500.015625, 187500.015625, 187500.015625, 187500.015625, 182881.296875, 187500.015625, 0, 1, 1, 0, 1,0.0,0.0,0.0,0.0,0.0, 11:45:04.353
187500.015625, 187500.015625, 187500.015625, 187500.015625, 187500.015625, 187500.015625, 182869.875000, 187500.015625, 0, 1, 1, 0, 1,0.0,0.0,0.0,0.0,0.0, 11:45:04.354
187500.015625, 187500.015625, 187500.015625, 187500.015625, 187500.015625, 187500.015625, 182858.859375, 187500.015625, 0, 1, 1, 0, 1,0.0,0.0,0.0,0.0,0.0, 11:45:04.354
187500.015625, 187500.015625, 187500.015625, 187500.015625, 187500.015625, 187500.015625, 182850.187500, 187500.015625, 0, 1, 1, 0, 1,0.0,0.0,0.0,0.0,0.0, 11:45:04.354
187500.015625, 187500.015625, 187500.015625, 187500.015625, 187500.015625, 187500.015625, 182841.390625, 187500.015625, 0, 1, 1, 0, 1,0.0,0.0,0.0,0.0,0.0, 11:45:04.355
187500.015625, 187500.015625, 187500.015625, 187500.015625, 187500.015625, 187500.015625, 182830.625000, 187500.015625, 0, 1, 1, 0, 1,0.0,0.0,0.0,0.0,0.0, 11:45:04.356
187500.015625, 187500.015625, 187500.015625, 187500.015625, 187500.015625, 187500.015625, 182821.421875, 187500.015625, 0, 1, 1, 0, 1,0.0,0.0,0.0,0.0,0.0, 11:45:04.356
187500.015625, 187500.015625, 187500.015625, 187500.015625, 187500.015625, 187500.015625, 182809.843750, 187500.015625, 0, 1, 1, 0, 1,0.0,0.0,0.0,0.0,0.0, 11:45:04.356
187500.015625, 187500.015625, 187500.015625, 187500.015625, 187500.015625, 187500.015625, 182798.843750, 187500.015625, 0, 1, 1, 0, 1,0.0,0.0,0.0,0.0,0.0, 11:45:04.357
187500.015625, 187500.015625, 187500.015625, 187500.015625, 187500.015625, 187500.015625, 182786.875000, 187500.015625, 0, 1, 1, 0, 1,0.0,0.0,0.0,0.0,0.0, 11:45:04.357
187500.015625, 187500.015625, 187500.015625, 187500.015625, 187500.015625, 187500.015625, 182775.343750, 187500.015625, 0, 1, 1, 0, 1,0.0,0.0,0.0,0.0,0.0, 11:45:04.357
187500.015625, 187500.015625, 187500.015625, 187500.015625, 187500.015625, 187500.015625, 182766.703125, 187500.015625, 0, 1, 1, 0, 1,0.0,0.0,0.0,0.0,0.0, 11:45:04.357
187500.015625, 187500.015625, 187500.015625, 187500.015625, 187500.015625, 187500.015625, 182756.062500, 187500.015625, 0, 1, 1, 0, 1,0.0,0.0,0.0,0.0,0.0, 11:45:04.357
187500.015625, 187500.015625, 187500.015625, 187500.015625, 187500.015625, 187500.015625, 182743.500000, 187500.015625, 0, 1, 1, 0, 1,0.0,0.0,0.0,0.0,0.0, 11:45:04.358
187500.015625, 187500.015625, 187500.015625, 187500.015625, 187500.015625, 187500.015625, 182731.875000, 187500.015625, 0, 1, 1, 0, 1,0.0,0.0,0.0,0.0,0.0, 11:45:04.358
187500.015625, 187500.015625, 187500.015625, 187500.015625, 187500.015625, 187500.015625, 182722.000000, 187500.015625, 0, 1, 1, 0, 1,0.0,0.0,0.0,0.0,0.0, 11:45:04.358
187500.015625, 187500.015625, 187500.015625, 187500.015625, 187500.015625, 187500.015625, 182714.015625, 187500.015625, 0, 1, 1, 0, 1,0.0,0.0,0.0,0.0,0.0, 11:45:04.359
187500.015625, 187500.015625, 187500.015625, 187500.015625, 187500.015625, 187500.015625, 182704.609375, 187500.015625, 0, 1, 1, 0, 1,0.0,0.0,0.0,0.0,0.0, 11:45:04.359
187500.015625, 187500.015625, 187500.015625, 187500.015625, 187500.015625, 187500.015625, 182692.937500, 187500.015625, 0, 1, 1, 0, 1,0.0,0.0,0.0,0.0,0.0, 11:45:04.359
187500.015625, 187500.015625, 187500.015625, 187500.015625, 187500.015625, 187500.015625, 182682.953125, 187500.015625, 0, 1, 1, 0, 1,0.0,0.0,0.0,0.0,0.0, 11:45:04.359
187500.015625, 187500.015625, 187500.015625, 187500.015625, 187500.015625, 187500.015625, 182673.218750, 187500.015625, 0, 1, 1, 0, 1,0.0,0.0,0.0,0.0,0.0, 11:45:04.360
187500.015625, 187500.015625, 187500.015625, 187500.015625, 187500.015625, 187500.015625, 182663.515625, 187500.015625, 0, 1, 1, 0, 1,0.0,0.0,0.0,0.0,0.0, 11:45:04.360
187500.015625, 187500.015625, 187500.015625, 187500.015625, 187500.015625, 187500.015625, 182653.703125, 187500.015625, 0, 1, 1, 0, 1,0.0,0.0,0.0,0.0,0.0, 11:45:04.360
187500.015625, 187500.015625, 187500.015625, 187500.015625, 187500.015625, 187500.015625, 182641.500000, 187500.015625, 0, 1, 1, 0, 1,0.0,0.0,0.0,0.0,0.0, 11:45:04.360
187500.015625, 187500.015625, 187500.015625, 187500.015625, 187500.015625, 187500.015625, 182629.140625, 187500.015625, 0, 1, 1, 0, 1,0.0,0.0,0.0,0.0,0.0, 11:45:04.361
187500.015625, 187500.015625, 187500.015625, 187500.015625, 187500.015625, 187500.015625, 182618.468750, 187500.015625, 0, 1, 1, 0, 1,0.0,0.0,0.0,0.0,0.0, 11:45:04.361
187500.015625, 187500.015625, 187500.015625, 187500.015625, 187500.015625, 187500.015625, 182608.687500, 187500.015625, 0, 1, 1, 0, 1,0.0,0.0,0.0,0.0,0.0, 11:45:04.361
187500.015625, 187500.015625, 187500.015625, 187500.015625, 187500.015625, 187500.015625, 182600.250000, 187500.015625, 0, 1, 1, 0, 1,0.0,0.0,0.0,0.0,0.0, 11:45:04.361
187500.015625, 187500.015625, 187500.015625, 187500.015625, 187500.015625, 187500.015625, 182590.390625, 187500.015625, 0, 1, 1, 0, 1,0.0,0.0,0.0,0.0,0.0, 11:45:04.361
187500.015625, 187500.015625, 187500.015625, 187500.015625, 187500.015625, 187500.015625, 182578.156250, 187500.015625, 0, 1, 1, 0, 1,0.0,0.0,0.0,0.0,0.0, 11:45:04.362
187500.015625, 187500.015625, 187500.015625, 187500.015625, 187500.015625, 187500.015625, 182566.109375, 187500.015625, 0, 1, 1, 0, 1,0.0,0.0,0.0,0.0,0.0, 11:45:04.362
187500.015625, 187500.015625, 187500.015625, 187500.015625, 187500.015625, 187500.015625, 182555.109375, 187500.015625, 0, 1, 1, 0, 1,0.0,0.0,0.0,0.0,0.0, 11:45:04.362
187500.015625, 187500.015625, 187500.015625, 187500.015625, 187500.015625, 187500.015625, 182545.546875, 187500.015625, 0, 1, 1, 0, 1,0.0,0.0,0.0,0.0,0.0, 11:45:04.362
187500.015625, 187500.015625, 187500.015625, 187500.015625, 187500.015625, 187500.015625, 182533.062500, 187500.015625, 0, 1, 1, 0, 1,0.0,0.0,0.0,0.0,0.0, 11:45:04.363
187500.015625, 187500.015625, 187500.015625, 187500.015625, 187500.015625, 187500.015625, 182523.015625, 187500.015625, 0, 1, 1, 0, 1,0.0,0.0,0.0,0.0,0.0, 11:45:04.363
187500.015625, 187500.015625, 187500.015625, 187500.015625, 187500.015625, 187500.015625, 182513.656250, 187500.015625, 0, 1, 1, 0, 1,0.0,0.0,0.0,0.0,0.0, 11:45:04.363
187500.015625, 187500.015625, 187500.015625, 187500.015625, 187500.015625, 187500.015625, 182503.234375, 187500.015625, 0, 1, 1, 0, 1,0.0,0.0,0.0,0.0,0.0, 11:45:04.364
187500.015625, 187500.015625, 187500.015625, 187500.015625, 187500.015625, 187500.015625, 182492.125000, 187500.015625, 0, 1, 1, 0, 1,0.0,0.0,0.0,0.0,0.0, 11:45:04.364
187500.015625, 187500.015625, 187500.015625, 187500.015625, 187500.015625, 187500.015625, 182481.843750, 187500.015625, 0, 1, 1, 0, 1,0.0,0.0,0.0,0.0,0.0, 11:45:04.364
187500.015625, 187500.015625, 187500.015625, 187500.015625, 187500.015625, 187500.015625, 182472.390625, 187500.015625, 0, 1, 1, 0, 1,0.0,0.0,0.0,0.0,0.0, 11:45:04.364
187500.015625, 187500.015625, 187500.015625, 187500.015625, 187500.015625, 187500.015625, 182461.015625, 187500.015625, 0, 1, 1, 0, 1,0.0,0.0,0.0,0.0,0.0, 11:45:04.365
187500.015625, 187500.015625, 187500.015625, 187500.015625, 187500.015625, 187500.015625, 182449.218750, 187500.015625, 0, 1, 1, 0, 1,0.0,0.0,0.0,0.0,0.0, 11:45:04.365
187500.015625, 187500.015625, 187500.015625, 187500.015625, 187500.015625, 187500.015625, 182439.406250, 187500.015625, 0, 1, 1, 0, 1,0.0,0.0,0.0,0.0,0.0, 11:45:04.365
187500.015625, 187500.015625, 187500.015625, 187500.015625, 187500.015625, 187500.015625, 182428.421875, 187500.015625, 0, 1, 1, 0, 1,0.0,0.0,0.0,0.0,0.0, 11:45:04.366
187500.015625, 187500.015625, 187500.015625, 187500.015625, 187500.015625, 187500.015625, 182418.343750, 187500.015625, 0, 1, 1, 0, 1,0.0,0.0,0.0,0.0,0.0, 11:45:04.366
187500.015625, 187500.015625, 187500.015625, 187500.015625, 187500.015625, 187500.015625, 182406.921875, 187500.015625, 0, 1, 1, 0, 1,0.0,0.0,0.0,0.0,0.0, 11:45:04.367
187500.015625, 187500.015625, 187500.015625, 187500.015625, 187500.015625, 187500.015625, 182395.765625, 187500.015625, 0, 1, 1, 0, 1,0.0,0.0,0.0,0.0,0.0, 11:45:04.367
187500.015625, 187500.015625, 187500.015625, 187500.015625, 187500.015625, 187500.015625, 182386.078125, 187500.015625, 0, 1, 1, 0, 1,0.0,0.0,0.0,0.0,0.0, 11:45:04.368
187500.015625, 187500.015625, 187500.015625, 187500.015625, 187500.015625, 187500.015625, 182376.109375, 187500.015625, 0, 1, 1, 0, 1,0.0,0.0,0.0,0.0,0.0, 11:45:04.370
187500.015625, 187500.015625, 187500.015625, 187500.015625, 187500.015625, 187500.015625, 182366.406250, 187500.015625, 0, 1, 1, 0, 1,0.0,0.0,0.0,0.0,0.0, 11:45:04.371
187500.015625, 187500.015625, 187500.015625, 187500.015625, 187500.015625, 187500.015625, 182355.093750, 187500.015625, 0, 1, 1, 0, 1,0.0,0.0,0.0,0.0,0.0, 11:45:04.371
187500.015625, 187500.015625, 187500.015625, 187500.015625, 187500.015625, 187500.015625, 182346.484375, 187500.015625, 0, 1, 1, 0, 1,0.0,0.0,0.0,0.0,0.0, 11:45:04.372
187500.015625, 187500.015625, 187500.015625, 187500.015625, 187500.015625, 187500.015625, 182337.671875, 187500.015625, 0, 1, 1, 0, 1,0.0,0.0,0.0,0.0,0.0, 11:45:04.372
187500.015625, 187500.015625, 187500.015625, 187500.015625, 187500.015625, 187500.015625, 182328.140625, 187500.015625, 0, 1, 1, 0, 1,0.0,0.0,0.0,0.0,0.0, 11:45:04.373
187500.015625, 187500.015625, 187500.015625, 187500.015625, 187500.015625, 187500.015625, 182314.609375, 187500.015625, 0, 1, 1, 0, 1,0.0,0.0,0.0,0.0,0.0, 11:45:04.373
187500.015625, 187500.015625, 187500.015625, 187500.015625, 187500.015625, 187500.015625, 182302.125000, 187500.015625, 0, 1, 1, 0, 1,0.0,0.0,0.0,0.0,0.0, 11:45:04.373
187500.015625, 187500.015625, 187500.015625, 187500.015625, 187500.015625, 187500.015625, 182292.500000, 187500.015625, 0, 1, 1, 0, 1,0.0,0.0,0.0,0.0,0.0, 11:45:04.374
187500.015625, 187500.015625, 187500.015625, 187500.015625, 187500.015625, 187500.015625, 182282.500000, 187500.015625, 0, 1, 1, 0, 1,0.0,0.0,0.0,0.0,0.0, 11:45:04.374
187500.015625, 187500.015625, 187500.015625, 187500.015625, 187500.015625, 187500.015625, 182271.609375, 187500.015625, 0, 1, 1, 0, 1,0.0,0.0,0.0,0.0,0.0, 11:45:04.374
187500.015625, 187500.015625, 187500.015625, 187500.015625, 187500.015625, 187500.015625, 182262.171875, 187500.015625, 0, 1, 1, 0, 1,0.0,0.0,0.0,0.0,0.0, 11:45:04.374
187500.015625, 187500.015625, 187500.015625, 187500.015625, 187500.015625, 187500.015625, 182251.109375, 187500.015625, 0, 1, 1, 0, 1,0.0,0.0,0.0,0.0,0.0, 11:45:04.374
187500.015625, 187500.015625, 187500.015625, 187500.015625, 187500.015625, 187500.015625, 182240.312500, 187500.015625, 0, 1, 1, 0, 1,0.0,0.0,0.0,0.0,0.0, 11:45:04.375
187500.015625, 187500.015625, 187500.015625, 187500.015625, 187500.015625, 187500.015625, 182229.156250, 187500.015625, 0, 1, 1, 0, 1,0.0,0.0,0.0,0.0,0.0, 11:45:04.375
187500.015625, 187500.015625, 187500.015625, 187500.015625, 187500.015625, 187500.015625, 182219.296875, 187500.015625, 0, 1, 1, 0, 1,0.0,0.0,0.0,0.0,0.0, 11:45:04.375
187500.015625, 187500.015625, 187500.015625, 187500.015625, 187500.015625, 187500.015625, 182208.671875, 187500.015625, 0, 1, 1, 0, 1,0.0,0.0,0.0,0.0,0.0, 11:45:04.376
187500.015625, 187500.015625, 187500.015625, 187500.015625, 187500.015625, 187500.015625, 182197.515625, 187500.015625, 0, 1, 1, 0, 1,0.0,0.0,0.0,0.0,0.0, 11:45:04.377
187500.015625, 187500.015625, 187500.015625, 187500.015625, 187500.015625, 187500.015625, 182185.125000, 187500.015625, 0, 1, 1, 0, 1,0.0,0.0,0.0,0.0,0.0, 11:45:04.377
187500.015625, 187500.015625, 187500.015625, 187500.015625, 187500.015625, 187500.015625, 182173.843750, 187500.015625, 0, 1, 1, 0, 1,0.0,0.0,0.0,0.0,0.0, 11:45:04.377
187500.015625, 187500.015625, 187500.015625, 187500.015625, 187500.015625, 187500.015625, 182166.375000, 187500.015625, 0, 1, 1, 0, 1,0.0,0.0,0.0,0.0,0.0, 11:45:04.377
187500.015625, 187500.015625, 187500.015625, 187500.015625, 187500.015625, 187500.015625, 182157.531250, 187500.015625, 0, 1, 1, 0, 1,0.0,0.0,0.0,0.0,0.0, 11:45:04.378
187500.015625, 187500.015625, 187500.015625, 187500.015625, 187500.015625, 187500.015625, 182146.343750, 187500.015625, 0, 1, 1, 0, 1,0.0,0.0,0.0,0.0,0.0, 11:45:04.378
187500.015625, 187500.015625, 187500.015625, 187500.015625, 187500.015625, 187500.015625, 182132.375000, 187500.015625, 0, 1, 1, 0, 1,0.0,0.0,0.0,0.0,0.0, 11:45:04.378
187500.015625, 187500.015625, 187500.015625, 187500.015625, 187500.015625, 187500.015625, 182119.750000, 187500.015625, 0, 1, 1, 0, 1,0.0,0.0,0.0,0.0,0.0, 11:45:04.379
187500.015625, 187500.015625, 187500.015625, 187500.015625, 187500.015625, 187500.015625, 182109.609375, 187500.015625, 0, 1, 1, 0, 1,0.0,0.0,0.0,0.0,0.0, 11:45:04.379
187500.015625, 187500.015625, 187500.015625, 187500.015625, 187500.015625, 187500.015625, 182100.062500, 187500.015625, 0, 1, 1, 0, 1,0.0,0.0,0.0,0.0,0.0, 11:45:04.379
187500.015625, 187500.015625, 187500.015625, 187500.015625, 187500.015625, 187500.015625, 182090.062500, 187500.015625, 0, 1, 1, 0, 1,0.0,0.0,0.0,0.0,0.0, 11:45:04.379
187500.015625, 187500.015625, 187500.015625, 187500.015625, 187500.015625, 187500.015625, 182080.296875, 187500.015625, 0, 1, 1, 0, 1,0.0,0.0,0.0,0.0,0.0, 11:45:04.379
187500.015625, 187500.015625, 187500.015625, 187500.015625, 187500.015625, 187500.015625, 182071.156250, 187500.015625, 0, 1, 1, 0, 1,0.0,0.0,0.0,0.0,0.0, 11:45:04.380
187500.015625, 187500.015625, 187500.015625, 187500.015625, 187500.015625, 187500.015625, 182060.656250, 187500.015625, 0, 1, 1, 0, 1,0.0,0.0,0.0,0.0,0.0, 11:45:04.380
187500.015625, 187500.015625, 187500.015625, 187500.015625, 187500.015625, 187500.015625, 182049.187500, 187500.015625, 0, 1, 1, 0, 1,0.0,0.0,0.0,0.0,0.0, 11:45:04.380
187500.015625, 187500.015625, 187500.015625, 187500.015625, 187500.015625, 187500.015625, 182039.390625, 187500.015625, 0, 1, 1, 0, 1,0.0,0.0,0.0,0.0,0.0, 11:45:04.380
187500.015625, 187500.015625, 187500.015625, 187500.015625, 187500.015625, 187500.015625, 182029.625000, 187500.015625, 0, 1, 1, 0, 1,0.0,0.0,0.0,0.0,0.0, 11:45:04.380
187500.015625, 187500.015625, 187500.015625, 187500.015625, 187500.015625, 187500.015625, 182018.921875, 187500.015625, 0, 1, 1, 0, 1,0.0,0.0,0.0,0.0,0.0, 11:45:04.381
187500.015625, 187500.015625, 187500.015625, 187500.015625, 187500.015625, 187500.015625, 182008.812500, 187500.015625, 0, 1, 1, 0, 1,0.0,0.0,0.0,0.0,0.0, 11:45:04.381
187500.015625, 187500.015625, 187500.015625, 187500.015625, 187500.015625, 187500.015625, 181997.984375, 187500.015625, 0, 1, 1, 0, 1,0.0,0.0,0.0,0.0,0.0, 11:45:04.381
187500.015625, 187500.015625, 187500.015625, 187500.015625, 187500.015625, 187500.015625, 181985.328125, 187500.015625, 0, 1, 1, 0, 1,0.0,0.0,0.0,0.0,0.0, 11:45:04.381
187500.015625, 187500.015625, 187500.015625, 187500.015625, 187500.015625, 187500.015625, 181975.890625, 187500.015625, 0, 1, 1, 0, 1,0.0,0.0,0.0,0.0,0.0, 11:45:04.381
187500.015625, 187500.015625, 187500.015625, 187500.015625, 187500.015625, 187500.015625, 181967.421875, 187500.015625, 0, 1, 1, 0, 1,0.0,0.0,0.0,0.0,0.0, 11:45:04.381
187500.015625, 187500.015625, 187500.015625, 187500.015625, 187500.015625, 187500.015625, 181954.031250, 187500.015625, 0, 1, 1, 0, 1,0.0,0.0,0.0,0.0,0.0, 11:45:04.382
187500.015625, 187500.015625, 187500.015625, 187500.015625, 187500.015625, 187500.015625, 181942.812500, 187500.015625, 0, 1, 1, 0, 1,0.0,0.0,0.0,0.0,0.0, 11:45:04.383
187500.015625, 187500.015625, 187500.015625, 187500.015625, 187500.015625, 187500.015625, 181932.375000, 187500.015625, 0, 1, 1, 0, 1,0.0,0.0,0.0,0.0,0.0, 11:45:04.383
187500.015625, 187500.015625, 187500.015625, 187500.015625, 187500.015625, 187500.015625, 181922.656250, 187500.015625, 0, 1, 1, 0, 1,0.0,0.0,0.0,0.0,0.0, 11:45:04.383
187500.015625, 187500.015625, 187500.015625, 187500.015625, 187500.015625, 187500.015625, 181911.859375, 187500.015625, 0, 1, 1, 0, 1,0.0,0.0,0.0,0.0,0.0, 11:45:04.384
187500.015625, 187500.015625, 187500.015625, 187500.015625, 187500.015625, 187500.015625, 181901.593750, 187500.015625, 0, 1, 1, 0, 1,0.0,0.0,0.0,0.0,0.0, 11:45:04.384
187500.015625, 187500.015625, 187500.015625, 187500.015625, 187500.015625, 187500.015625, 181892.250000, 187500.015625, 0, 1, 1, 0, 1,0.0,0.0,0.0,0.0,0.0, 11:45:04.385
187500.015625, 187500.015625, 187500.015625, 187500.015625, 187500.015625, 187500.015625, 181882.000000, 187500.015625, 0, 1, 1, 0, 1,0.0,0.0,0.0,0.0,0.0, 11:45:04.386
187500.015625, 187500.015625, 187500.015625, 187500.015625, 187500.015625, 187500.015625, 181870.015625, 187500.015625, 0, 1, 1, 0, 1,0.0,0.0,0.0,0.0,0.0, 11:45:04.386
187500.015625, 187500.015625, 187500.015625, 187500.015625, 187500.015625, 187500.015625, 181858.093750, 187500.015625, 0, 1, 1, 0, 1,0.0,0.0,0.0,0.0,0.0, 11:45:04.386
187500.015625, 187500.015625, 187500.015625, 187500.015625, 187500.015625, 187500.015625, 181849.421875, 187500.015625, 0, 1, 1, 0, 1,0.0,0.0,0.0,0.0,0.0, 11:45:04.387
187500.015625, 187500.015625, 187500.015625, 187500.015625, 187500.015625, 187500.015625, 181838.078125, 187500.015625, 0, 1, 1, 0, 1,0.0,0.0,0.0,0.0,0.0, 11:45:04.387
187500.015625, 187500.015625, 187500.015625, 187500.015625, 187500.015625, 187500.015625, 181828.171875, 187500.015625, 0, 1, 1, 0, 1,0.0,0.0,0.0,0.0,0.0, 11:45:04.387
187500.015625, 187500.015625, 187500.015625, 187500.015625, 187500.015625, 187500.015625, 181819.640625, 187500.015625, 0, 1, 1, 0, 1,0.0,0.0,0.0,0.0,0.0, 11:45:04.388
187500.015625, 187500.015625, 187500.015625, 187500.015625, 187500.015625, 187500.015625, 181810.062500, 187500.015625, 0, 1, 1, 0, 1,0.0,0.0,0.0,0.0,0.0, 11:45:04.388
187500.015625, 187500.015625, 187500.015625, 187500.015625, 187500.015625, 187500.015625, 181800.984375, 187500.015625, 0, 1, 1, 0, 1,0.0,0.0,0.0,0.0,0.0, 11:45:04.388
187500.015625, 187500.015625, 187500.015625, 187500.015625, 187500.015625, 187500.015625, 181787.453125, 187500.015625, 0, 1, 1, 0, 1,0.0,0.0,0.0,0.0,0.0, 11:45:04.388
187500.015625, 187500.015625, 187500.015625, 187500.015625, 187500.015625, 187500.015625, 181774.125000, 187500.015625, 0, 1, 1, 0, 1,0.0,0.0,0.0,0.0,0.0, 11:45:04.389
187500.015625, 187500.015625, 187500.015625, 187500.015625, 187500.015625, 187500.015625, 181765.765625, 187500.015625, 0, 1, 1, 0, 1,0.0,0.0,0.0,0.0,0.0, 11:45:04.390
187500.015625, 187500.015625, 187500.015625, 187500.015625, 187500.015625, 187500.015625, 181757.468750, 187500.015625, 0, 1, 1, 0, 1,0.0,0.0,0.0,0.0,0.0, 11:45:04.827
187500.015625, 187500.015625, 187500.015625, 187500.015625, 187500.015625, 187500.015625, 181745.296875, 187500.015625, 0, 1, 1, 0, 1,0.0,0.0,0.0,0.0,0.0, 11:45:04.828
187500.015625, 187500.015625, 187500.015625, 187500.015625, 187500.015625, 187500.015625, 181734.312500, 187500.015625, 0, 1, 1, 0, 1,0.0,0.0,0.0,0.0,0.0, 11:45:04.828
187500.015625, 187500.015625, 187500.015625, 187500.015625, 187500.015625, 187500.015625, 181724.093750, 187500.015625, 0, 1, 1, 0, 1,0.0,0.0,0.0,0.0,0.0, 11:45:04.828
187500.015625, 187500.015625, 187500.015625, 187500.015625, 187500.015625, 187500.015625, 181713.484375, 187500.015625, 0, 1, 1, 0, 1,0.0,0.0,0.0,0.0,0.0, 11:45:04.829
187500.015625, 187500.015625, 187500.015625, 187500.015625, 187500.015625, 187500.015625, 181700.250000, 187500.015625, 0, 1, 1, 0, 1,0.0,0.0,0.0,0.0,0.0, 11:45:04.829
187500.015625, 187500.015625, 187500.015625, 187500.015625, 187500.015625, 187500.015625, 181689.750000, 187500.015625, 0, 1, 1, 0, 1,0.0,0.0,0.0,0.0,0.0, 11:45:04.829
187500.015625, 187500.015625, 187500.015625, 187500.015625, 187500.015625, 187500.015625, 181681.437500, 187500.015625, 0, 1, 1, 0, 1,0.0,0.0,0.0,0.0,0.0, 11:45:04.829
187500.015625, 187500.015625, 187500.015625, 187500.015625, 187500.015625, 187500.015625, 181672.937500, 187500.015625, 0, 1, 1, 0, 1,0.0,0.0,0.0,0.0,0.0, 11:45:04.830
187500.015625, 187500.015625, 187500.015625, 187500.015625, 187500.015625, 187500.015625, 181660.828125, 187500.015625, 0, 1, 1, 0, 1,0.0,0.0,0.0,0.0,0.0, 11:45:04.830
187500.015625, 187500.015625, 187500.015625, 187500.015625, 187500.015625, 187500.015625, 181651.968750, 187500.015625, 0, 1, 1, 0, 1,0.0,0.0,0.0,0.0,0.0, 11:45:04.830
187500.015625, 187500.015625, 187500.015625, 187500.015625, 187500.015625, 187500.015625, 181641.062500, 187500.015625, 0, 1, 1, 0, 1,0.0,0.0,0.0,0.0,0.0, 11:45:04.831
187500.015625, 187500.015625, 187500.015625, 187500.015625, 187500.015625, 187500.015625, 181630.734375, 187500.015625, 0, 1, 1, 0, 1,0.0,0.0,0.0,0.0,0.0, 11:45:04.831
187500.015625, 187500.015625, 187500.015625, 187500.015625, 187500.015625, 187500.015625, 181621.343750, 187500.015625, 0, 1, 1, 0, 1,0.0,0.0,0.0,0.0,0.0, 11:45:04.831
187500.015625, 187500.015625, 187500.015625, 187500.015625, 187500.015625, 187500.015625, 181608.875000, 187500.015625, 0, 1, 1, 0, 1,0.0,0.0,0.0,0.0,0.0, 11:45:04.832
187500.015625, 187500.015625, 187500.015625, 187500.015625, 187500.015625, 187500.015625, 181598.484375, 187500.015625, 0, 1, 1, 0, 1,0.0,0.0,0.0,0.0,0.0, 11:45:04.832
187500.015625, 187500.015625, 187500.015625, 187500.015625, 187500.015625, 187500.015625, 181588.203125, 187500.015625, 0, 1, 1, 0, 1,0.0,0.0,0.0,0.0,0.0, 11:45:04.833
187500.015625, 187500.015625, 187500.015625, 187500.015625, 187500.015625, 187500.015625, 181579.000000, 187500.015625, 0, 1, 1, 0, 1,0.0,0.0,0.0,0.0,0.0, 11:45:04.833
187500.015625, 187500.015625, 187500.015625, 187500.015625, 187500.015625, 187500.015625, 181568.671875, 187500.015625, 0, 1, 1, 0, 1,0.0,0.0,0.0,0.0,0.0, 11:45:04.834
187500.015625, 187500.015625, 187500.015625, 187500.015625, 187500.015625, 187500.015625, 181557.359375, 187500.015625, 0, 1, 1, 0, 1,0.0,0.0,0.0,0.0,0.0, 11:45:04.834
187500.015625, 187500.015625, 187500.015625, 187500.015625, 187500.015625, 187500.015625, 181549.718750, 187500.015625, 0, 1, 1, 0, 1,0.0,0.0,0.0,0.0,0.0, 11:45:04.834
187500.015625, 187500.015625, 187500.015625, 187500.015625, 187500.015625, 187500.015625, 181536.656250, 187500.015625, 0, 1, 1, 0, 1,0.0,0.0,0.0,0.0,0.0, 11:45:04.835
187500.015625, 187500.015625, 187500.015625, 187500.015625, 187500.015625, 187500.015625, 181522.937500, 187500.015625, 0, 1, 1, 0, 1,0.0,0.0,0.0,0.0,0.0, 11:45:04.835
187500.015625, 187500.015625, 187500.015625, 187500.015625, 187500.015625, 187500.015625, 181511.531250, 187500.015625, 0, 1, 1, 0, 1,0.0,0.0,0.0,0.0,0.0, 11:45:04.835
187500.015625, 187500.015625, 187500.015625, 187500.015625, 187500.015625, 187500.015625, 181502.156250, 187500.015625, 0, 1, 1, 0, 1,0.0,0.0,0.0,0.0,0.0, 11:45:04.836
187500.015625, 187500.015625, 187500.015625, 187500.015625, 187500.015625, 187500.015625, 181492.109375, 187500.015625, 0, 1, 1, 0, 1,0.0,0.0,0.0,0.0,0.0, 11:45:04.836
187500.015625, 187500.015625, 187500.015625, 187500.015625, 187500.015625, 187500.015625, 181480.203125, 187500.015625, 0, 1, 1, 0, 1,0.0,0.0,0.0,0.0,0.0, 11:45:04.836
187500.015625, 187500.015625, 187500.015625, 187500.015625, 187500.015625, 187500.015625, 181469.578125, 187500.015625, 0, 1, 1, 0, 1,0.0,0.0,0.0,0.0,0.0, 11:45:04.836
187500.015625, 187500.015625, 187500.015625, 187500.015625, 187500.015625, 187500.015625, 181460.125000, 187500.015625, 0, 1, 1, 0, 1,0.0,0.0,0.0,0.0,0.0, 11:45:04.837
187500.015625, 187500.015625, 187500.015625, 187500.015625, 187500.015625, 187500.015625, 181450.187500, 187500.015625, 0, 1, 1, 0, 1,0.0,0.0,0.0,0.0,0.0, 11:45:04.837
187500.015625, 187500.015625, 187500.015625, 187500.015625, 187500.015625, 187500.015625, 181439.312500, 187500.015625, 0, 1, 1, 0, 1,0.0,0.0,0.0,0.0,0.0, 11:45:04.837
187500.015625, 187500.015625, 187500.015625, 187500.015625, 187500.015625, 187500.015625, 181429.625000, 187500.015625, 0, 1, 1, 0, 1,0.0,0.0,0.0,0.0,0.0, 11:45:04.838
187500.015625, 187500.015625, 187500.015625, 187500.015625, 187500.015625, 187500.015625, 181417.953125, 187500.015625, 0, 1, 1, 0, 1,0.0,0.0,0.0,0.0,0.0, 11:45:04.838
187500.015625, 187500.015625, 187500.015625, 187500.015625, 187500.015625, 187500.015625, 181407.593750, 187500.015625, 0, 1, 1, 0, 1,0.0,0.0,0.0,0.0,0.0, 11:45:04.838
187500.015625, 187500.015625, 187500.015625, 187500.015625, 187500.015625, 187500.015625, 181397.359375, 187500.015625, 0, 1, 1, 0, 1,0.0,0.0,0.0,0.0,0.0, 11:45:04.839
187500.015625, 187500.015625, 187500.015625, 187500.015625, 187500.015625, 187500.015625, 181386.562500, 187500.015625, 0, 1, 1, 0, 1,0.0,0.0,0.0,0.0,0.0, 11:45:04.839
187500.015625, 187500.015625, 187500.015625, 187500.015625, 187500.015625, 187500.015625, 181374.203125, 187500.015625, 0, 1, 1, 0, 1,0.0,0.0,0.0,0.0,0.0, 11:45:04.840
187500.015625, 187500.015625, 187500.015625, 187500.015625, 187500.015625, 187500.015625, 181361.890625, 187500.015625, 0, 1, 1, 0, 1,0.0,0.0,0.0,0.0,0.0, 11:45:04.840
187500.015625, 187500.015625, 187500.015625, 187500.015625, 187500.015625, 187500.015625, 181351.437500, 187500.015625, 0, 1, 1, 0, 1,0.0,0.0,0.0,0.0,0.0, 11:45:04.840
187500.015625, 187500.015625, 187500.015625, 187500.015625, 187500.015625, 187500.015625, 181340.765625, 187500.015625, 0, 1, 1, 0, 1,0.0,0.0,0.0,0.0,0.0, 11:45:04.841
187500.015625, 187500.015625, 187500.015625, 187500.015625, 187500.015625, 187500.015625, 181332.765625, 187500.015625, 0, 1, 1, 0, 1,0.0,0.0,0.0,0.0,0.0, 11:45:04.841
187500.015625, 187500.015625, 187500.015625, 187500.015625, 187500.015625, 187500.015625, 181325.218750, 187500.015625, 0, 1, 1, 0, 1,0.0,0.0,0.0,0.0,0.0, 11:45:04.842
187500.015625, 187500.015625, 187500.015625, 187500.015625, 187500.015625, 187500.015625, 181313.953125, 187500.015625, 0, 1, 1, 0, 1,0.0,0.0,0.0,0.0,0.0, 11:45:04.842
187500.015625, 187500.015625, 187500.015625, 187500.015625, 187500.015625, 187500.015625, 181303.734375, 187500.015625, 0, 1, 1, 0, 1,0.0,0.0,0.0,0.0,0.0, 11:45:04.842
187500.015625, 187500.015625, 187500.015625, 187500.015625, 187500.015625, 187500.015625, 181291.750000, 187500.015625, 0, 1, 1, 0, 1,0.0,0.0,0.0,0.0,0.0, 11:45:04.842
187500.015625, 187500.015625, 187500.015625, 187500.015625, 187500.015625, 187500.015625, 181280.156250, 187500.015625, 0, 1, 1, 0, 1,0.0,0.0,0.0,0.0,0.0, 11:45:04.843
187500.015625, 187500.015625, 187500.015625, 187500.015625, 187500.015625, 187500.015625, 181269.796875, 187500.015625, 0, 1, 1, 0, 1,0.0,0.0,0.0,0.0,0.0, 11:45:04.843
187500.015625, 187500.015625, 187500.015625, 187500.015625, 187500.015625, 187500.015625, 181259.031250, 187500.015625, 0, 1, 1, 0, 1,0.0,0.0,0.0,0.0,0.0, 11:45:04.844
187500.015625, 187500.015625, 187500.015625, 187500.015625, 187500.015625, 187500.015625, 181247.625000, 187500.015625, 0, 1, 1, 0, 1,0.0,0.0,0.0,0.0,0.0, 11:45:04.844
187500.015625, 187500.015625, 187500.015625, 187500.015625, 187500.015625, 187500.015625, 181235.109375, 187500.015625, 0, 1, 1, 0, 1,0.0,0.0,0.0,0.0,0.0, 11:45:04.844
187500.015625, 187500.015625, 187500.015625, 187500.015625, 187500.015625, 187500.015625, 181225.328125, 187500.015625, 0, 1, 1, 0, 1,0.0,0.0,0.0,0.0,0.0, 11:45:04.844
187500.015625, 187500.015625, 187500.015625, 187500.015625, 187500.015625, 187500.015625, 181215.937500, 187500.015625, 0, 1, 1, 0, 1,0.0,0.0,0.0,0.0,0.0, 11:45:04.845
187500.015625, 187500.015625, 187500.015625, 187500.015625, 187500.015625, 187500.015625, 181208.156250, 187500.015625, 0, 1, 1, 0, 1,0.0,0.0,0.0,0.0,0.0, 11:45:04.845
187500.015625, 187500.015625, 187500.015625, 187500.015625, 187500.015625, 187500.015625, 181198.750000, 187500.015625, 0, 1, 1, 0, 1,0.0,0.0,0.0,0.0,0.0, 11:45:04.845
187500.015625, 187500.015625, 187500.015625, 187500.015625, 187500.015625, 187500.015625, 181187.328125, 187500.015625, 0, 1, 1, 0, 1,0.0,0.0,0.0,0.0,0.0, 11:45:04.846
187500.015625, 187500.015625, 187500.015625, 187500.015625, 187500.015625, 187500.015625, 181176.781250, 187500.015625, 0, 1, 1, 0, 1,0.0,0.0,0.0,0.0,0.0, 11:45:04.846
187500.015625, 187500.015625, 187500.015625, 187500.015625, 187500.015625, 187500.015625, 181165.265625, 187500.015625, 0, 1, 1, 0, 1,0.0,0.0,0.0,0.0,0.0, 11:45:04.846
187500.015625, 187500.015625, 187500.015625, 187500.015625, 187500.015625, 187500.015625, 181156.203125, 187500.015625, 0, 1, 1, 0, 1,0.0,0.0,0.0,0.0,0.0, 11:45:04.847
187500.015625, 187500.015625, 187500.015625, 187500.015625, 187500.015625, 187500.015625, 181146.484375, 187500.015625, 0, 1, 1, 0, 1,0.0,0.0,0.0,0.0,0.0, 11:45:04.847
187500.015625, 187500.015625, 187500.015625, 187500.015625, 187500.015625, 187500.015625, 181136.031250, 187500.015625, 0, 1, 1, 0, 1,0.0,0.0,0.0,0.0,0.0, 11:45:04.847
187500.015625, 187500.015625, 187500.015625, 187500.015625, 187500.015625, 187500.015625, 181122.640625, 187500.015625, 0, 1, 1, 0, 1,0.0,0.0,0.0,0.0,0.0, 11:45:04.848
187500.015625, 187500.015625, 187500.015625, 187500.015625, 187500.015625, 187500.015625, 181112.109375, 187500.015625, 0, 1, 1, 0, 1,0.0,0.0,0.0,0.0,0.0, 11:45:04.848
187500.015625, 187500.015625, 187500.015625, 187500.015625, 187500.015625, 187500.015625, 181102.343750, 187500.015625, 0, 1, 1, 0, 1,0.0,0.0,0.0,0.0,0.0, 11:45:04.848
187500.015625, 187500.015625, 187500.015625, 187500.015625, 187500.015625, 187500.015625, 181093.250000, 187500.015625, 0, 1, 1, 0, 1,0.0,0.0,0.0,0.0,0.0, 11:45:04.849
187500.015625, 187500.015625, 187500.015625, 187500.015625, 187500.015625, 187500.015625, 181082.156250, 187500.015625, 0, 1, 1, 0, 1,0.0,0.0,0.0,0.0,0.0, 11:45:04.849
187500.015625, 187500.015625, 187500.015625, 187500.015625, 187500.015625, 187500.015625, 181071.937500, 187500.015625, 0, 1, 1, 0, 1,0.0,0.0,0.0,0.0,0.0, 11:45:04.849
187500.015625, 187500.015625, 187500.015625, 187500.015625, 187500.015625, 187500.015625, 181060.859375, 187500.015625, 0, 1, 1, 0, 1,0.0,0.0,0.0,0.0,0.0, 11:45:04.850
187500.015625, 187500.015625, 187500.015625, 187500.015625, 187500.015625, 187500.015625, 181051.406250, 187500.015625, 0, 1, 1, 0, 1,0.0,0.0,0.0,0.0,0.0, 11:45:04.850
187500.015625, 187500.015625, 187500.015625, 187500.015625, 187500.015625, 187500.015625, 181039.578125, 187500.015625, 0, 1, 1, 0, 1,0.0,0.0,0.0,0.0,0.0, 11:45:04.850
187500.015625, 187500.015625, 187500.015625, 187500.015625, 187500.015625, 187500.015625, 181029.640625, 187500.015625, 0, 1, 1, 0, 1,0.0,0.0,0.0,0.0,0.0, 11:45:04.850
187500.015625, 187500.015625, 187500.015625, 187500.015625, 187500.015625, 187500.015625, 181019.234375, 187500.015625, 0, 1, 1, 0, 1,0.0,0.0,0.0,0.0,0.0, 11:45:04.851
187500.015625, 187500.015625, 187500.015625, 187500.015625, 187500.015625, 187500.015625, 181007.218750, 187500.015625, 0, 1, 1, 0, 1,0.0,0.0,0.0,0.0,0.0, 11:45:04.851
187500.015625, 187500.015625, 187500.015625, 187500.015625, 187500.015625, 187500.015625, 180995.687500, 187500.015625, 0, 1, 1, 0, 1,0.0,0.0,0.0,0.0,0.0, 11:45:04.851
187500.015625, 187500.015625, 187500.015625, 187500.015625, 187500.015625, 187500.015625, 180984.640625, 187500.015625, 0, 1, 1, 0, 1,0.0,0.0,0.0,0.0,0.0, 11:45:04.851
187500.015625, 187500.015625, 187500.015625, 187500.015625, 187500.015625, 187500.015625, 180974.828125, 187500.015625, 0, 1, 1, 0, 1,0.0,0.0,0.0,0.0,0.0, 11:45:04.852
187500.015625, 187500.015625, 187500.015625, 187500.015625, 187500.015625, 187500.015625, 180967.109375, 187500.015625, 0, 1, 1, 0, 1,0.0,0.0,0.0,0.0,0.0, 11:45:04.852
187500.015625, 187500.015625, 187500.015625, 187500.015625, 187500.015625, 187500.015625, 180956.343750, 187500.015625, 0, 1, 1, 0, 1,0.0,0.0,0.0,0.0,0.0, 11:45:04.852
187500.015625, 187500.015625, 187500.015625, 187500.015625, 187500.015625, 187500.015625, 180944.703125, 187500.015625, 0, 1, 1, 0, 1,0.0,0.0,0.0,0.0,0.0, 11:45:04.852
187500.015625, 187500.015625, 187500.015625, 187500.015625, 187500.015625, 187500.015625, 180934.296875, 187500.015625, 0, 1, 1, 0, 1,0.0,0.0,0.0,0.0,0.0, 11:45:04.853
187500.015625, 187500.015625, 187500.015625, 187500.015625, 187500.015625, 187500.015625, 180926.031250, 187500.015625, 0, 1, 1, 0, 1,0.0,0.0,0.0,0.0,0.0, 11:45:04.853
187500.015625, 187500.015625, 187500.015625, 187500.015625, 187500.015625, 187500.015625, 180915.390625, 187500.015625, 0, 1, 1, 0, 1,0.0,0.0,0.0,0.0,0.0, 11:45:04.853
187500.015625, 187500.015625, 187500.015625, 187500.015625, 187500.015625, 187500.015625, 180904.671875, 187500.015625, 0, 1, 1, 0, 1,0.0,0.0,0.0,0.0,0.0, 11:45:04.853
187500.015625, 187500.015625, 187500.015625, 187500.015625, 187500.015625, 187500.015625, 180893.046875, 187500.015625, 0, 1, 1, 0, 1,0.0,0.0,0.0,0.0,0.0, 11:45:04.854
187500.015625, 187500.015625, 187500.015625, 187500.015625, 187500.015625, 187500.015625, 180884.906250, 187500.015625, 0, 1, 1, 0, 1,0.0,0.0,0.0,0.0,0.0, 11:45:04.855
187500.015625, 187500.015625, 187500.015625, 187500.015625, 187500.015625, 187500.015625, 180875.312500, 187500.015625, 0, 1, 1, 0, 1,0.0,0.0,0.0,0.0,0.0, 11:45:04.855
187500.015625, 187500.015625, 187500.015625, 187500.015625, 187500.015625, 187500.015625, 180862.484375, 187500.015625, 0, 1, 1, 0, 1,0.0,0.0,0.0,0.0,0.0, 11:45:04.855
187500.015625, 187500.015625, 187500.015625, 187500.015625, 187500.015625, 187500.015625, 180852.203125, 187500.015625, 0, 1, 1, 0, 1,0.0,0.0,0.0,0.0,0.0, 11:45:04.855
187500.015625, 187500.015625, 187500.015625, 187500.015625, 187500.015625, 187500.015625, 180842.843750, 187500.015625, 0, 1, 1, 0, 1,0.0,0.0,0.0,0.0,0.0, 11:45:04.855
187500.015625, 187500.015625, 187500.015625, 187500.015625, 187500.015625, 187500.015625, 180832.328125, 187500.015625, 0, 1, 1, 0, 1,0.0,0.0,0.0,0.0,0.0, 11:45:04.856
187500.015625, 187500.015625, 187500.015625, 187500.015625, 187500.015625, 187500.015625, 180821.921875, 187500.015625, 0, 1, 1, 0, 1,0.0,0.0,0.0,0.0,0.0, 11:45:04.856
187500.015625, 187500.015625, 187500.015625, 187500.015625, 187500.015625, 187500.015625, 180812.937500, 187500.015625, 0, 1, 1, 0, 1,0.0,0.0,0.0,0.0,0.0, 11:45:04.856
187500.015625, 187500.015625, 187500.015625, 187500.015625, 187500.015625, 187500.015625, 180801.593750, 187500.015625, 0, 1, 1, 0, 1,0.0,0.0,0.0,0.0,0.0, 11:45:04.856
187500.015625, 187500.015625, 187500.015625, 187500.015625, 187500.015625, 187500.015625, 180792.343750, 187500.015625, 0, 1, 1, 0, 1,0.0,0.0,0.0,0.0,0.0, 11:45:04.856
187500.015625, 187500.015625, 187500.015625, 187500.015625, 187500.015625, 187500.015625, 180781.484375, 187500.015625, 0, 1, 1, 0, 1,0.0,0.0,0.0,0.0,0.0, 11:45:04.856
187500.015625, 187500.015625, 187500.015625, 187500.015625, 187500.015625, 187500.015625, 180768.562500, 187500.015625, 0, 1, 1, 0, 1,0.0,0.0,0.0,0.0,0.0, 11:45:04.857
187500.015625, 187500.015625, 187500.015625, 187500.015625, 187500.015625, 187500.015625, 180757.906250, 187500.015625, 0, 1, 1, 0, 1,0.0,0.0,0.0,0.0,0.0, 11:45:04.857
187500.015625, 187500.015625, 187500.015625, 187500.015625, 187500.015625, 187500.015625, 180747.671875, 187500.015625, 0, 1, 1, 0, 1,0.0,0.0,0.0,0.0,0.0, 11:45:04.857
187500.015625, 187500.015625, 187500.015625, 187500.015625, 187500.015625, 187500.015625, 180736.328125, 187500.015625, 0, 1, 1, 0, 1,0.0,0.0,0.0,0.0,0.0, 11:45:04.857
187500.015625, 187500.015625, 187500.015625, 187500.015625, 187500.015625, 187500.015625, 180723.250000, 187500.015625, 0, 1, 1, 0, 1,0.0,0.0,0.0,0.0,0.0, 11:45:04.857
187500.015625, 187500.015625, 187500.015625, 187500.015625, 187500.015625, 187500.015625, 180714.515625, 187500.015625, 0, 1, 1, 0, 1,0.0,0.0,0.0,0.0,0.0, 11:45:04.857
187500.015625, 187500.015625, 187500.015625, 187500.015625, 187500.015625, 187500.015625, 180706.109375, 187500.015625, 0, 1, 1, 0, 1,0.0,0.0,0.0,0.0,0.0, 11:45:04.858
187500.015625, 187500.015625, 187500.015625, 187500.015625, 187500.015625, 187500.015625, 180696.343750, 187500.015625, 0, 1, 1, 0, 1,0.0,0.0,0.0,0.0,0.0, 11:45:04.858
187500.015625, 187500.015625, 187500.015625, 187500.015625, 187500.015625, 187500.015625, 180685.031250, 187500.015625, 0, 1, 1, 0, 1,0.0,0.0,0.0,0.0,0.0, 11:45:04.858
187500.015625, 187500.015625, 187500.015625, 187500.015625, 187500.015625, 187500.015625, 180674.000000, 187500.015625, 0, 1, 1, 0, 1,0.0,0.0,0.0,0.0,0.0, 11:45:04.858
187500.015625, 187500.015625, 187500.015625, 187500.015625, 187500.015625, 187500.015625, 180665.250000, 187500.015625, 0, 1, 1, 0, 1,0.0,0.0,0.0,0.0,0.0, 11:45:04.858
187500.015625, 187500.015625, 187500.015625, 187500.015625, 187500.015625, 187500.015625, 180654.843750, 187500.015625, 0, 1, 1, 0, 1,0.0,0.0,0.0,0.0,0.0, 11:45:04.858
187500.015625, 187500.015625, 187500.015625, 187500.015625, 187500.015625, 187500.015625, 180646.328125, 187500.015625, 0, 1, 1, 0, 1,0.0,0.0,0.0,0.0,0.0, 11:45:04.858
187500.015625, 187500.015625, 187500.015625, 187500.015625, 187500.015625, 187500.015625, 180638.500000, 187500.015625, 0, 1, 1, 0, 1,0.0,0.0,0.0,0.0,0.0, 11:45:04.859
187500.015625, 187500.015625, 187500.015625, 187500.015625, 187500.015625, 187500.015625, 180628.531250, 187500.015625, 0, 1, 1, 0, 1,0.0,0.0,0.0,0.0,0.0, 11:45:04.859
187500.015625, 187500.015625, 187500.015625, 187500.015625, 187500.015625, 187500.015625, 180618.093750, 187500.015625, 0, 1, 1, 0, 1,0.0,0.0,0.0,0.0,0.0, 11:45:04.859
187500.015625, 187500.015625, 187500.015625, 187500.015625, 187500.015625, 187500.015625, 180607.562500, 187500.015625, 0, 1, 1, 0, 1,0.0,0.0,0.0,0.0,0.0, 11:45:04.859
187500.015625, 187500.015625, 187500.015625, 187500.015625, 187500.015625, 187500.015625, 180595.765625, 187500.015625, 0, 1, 1, 0, 1,0.0,0.0,0.0,0.0,0.0, 11:45:04.859
187500.015625, 187500.015625, 187500.015625, 187500.015625, 187500.015625, 187500.015625, 180585.187500, 187500.015625, 0, 1, 1, 0, 1,0.0,0.0,0.0,0.0,0.0, 11:45:04.859
187500.015625, 187500.015625, 187500.015625, 187500.015625, 187500.015625, 187500.015625, 180573.546875, 187500.015625, 0, 1, 1, 0, 1,0.0,0.0,0.0,0.0,0.0, 11:45:04.860
187500.015625, 187500.015625, 187500.015625, 187500.015625, 187500.015625, 187500.015625, 180560.875000, 187500.015625, 0, 1, 1, 0, 1,0.0,0.0,0.0,0.0,0.0, 11:45:04.860
187500.015625, 187500.015625, 187500.015625, 187500.015625, 187500.015625, 187500.015625, 180548.171875, 187500.015625, 0, 1, 1, 0, 1,0.0,0.0,0.0,0.0,0.0, 11:45:04.860
187500.015625, 187500.015625, 187500.015625, 187500.015625, 187500.015625, 187500.015625, 180537.968750, 187500.015625, 0, 1, 1, 0, 1,0.0,0.0,0.0,0.0,0.0, 11:45:04.860
187500.015625, 187500.015625, 187500.015625, 187500.015625, 187500.015625, 187500.015625, 180528.500000, 187500.015625, 0, 1, 1, 0, 1,0.0,0.0,0.0,0.0,0.0, 11:45:04.860
187500.015625, 187500.015625, 187500.015625, 187500.015625, 187500.015625, 187500.015625, 180518.968750, 187500.015625, 0, 1, 1, 0, 1,0.0,0.0,0.0,0.0,0.0, 11:45:04.861
187500.015625, 187500.015625, 187500.015625, 187500.015625, 187500.015625, 187500.015625, 180508.812500, 187500.015625, 0, 1, 1, 0, 1,0.0,0.0,0.0,0.0,0.0, 11:45:04.861
187500.015625, 187500.015625, 187500.015625, 187500.015625, 187500.015625, 187500.015625, 180496.203125, 187500.015625, 0, 1, 1, 0, 1,0.0,0.0,0.0,0.0,0.0, 11:45:04.861
187500.015625, 187500.015625, 187500.015625, 187500.015625, 187500.015625, 187500.015625, 180486.890625, 187500.015625, 0, 1, 1, 0, 1,0.0,0.0,0.0,0.0,0.0, 11:45:05.307
187500.015625, 187500.015625, 187500.015625, 187500.015625, 187500.015625, 187500.015625, 180478.328125, 187500.015625, 0, 1, 1, 0, 1,0.0,0.0,0.0,0.0,0.0, 11:45:05.307
187500.015625, 187500.015625, 187500.015625, 187500.015625, 187500.015625, 187500.015625, 180466.281250, 187500.015625, 0, 1, 1, 0, 1,0.0,0.0,0.0,0.0,0.0, 11:45:05.308
187500.015625, 187500.015625, 187500.015625, 187500.015625, 187500.015625, 187500.015625, 180458.031250, 187500.015625, 0, 1, 1, 0, 1,0.0,0.0,0.0,0.0,0.0, 11:45:05.308
187500.015625, 187500.015625, 187500.015625, 187500.015625, 187500.015625, 187500.015625, 180448.781250, 187500.015625, 0, 1, 1, 0, 1,0.0,0.0,0.0,0.0,0.0, 11:45:05.308
187500.015625, 187500.015625, 187500.015625, 187500.015625, 187500.015625, 187500.015625, 180436.343750, 187500.015625, 0, 1, 1, 0, 1,0.0,0.0,0.0,0.0,0.0, 11:45:05.308
187500.015625, 187500.015625, 187500.015625, 187500.015625, 187500.015625, 187500.015625, 180424.859375, 187500.015625, 0, 1, 1, 0, 1,0.0,0.0,0.0,0.0,0.0, 11:45:05.308
187500.015625, 187500.015625, 187500.015625, 187500.015625, 187500.015625, 187500.015625, 180414.312500, 187500.015625, 0, 1, 1, 0, 1,0.0,0.0,0.0,0.0,0.0, 11:45:05.309
187500.015625, 187500.015625, 187500.015625, 187500.015625, 187500.015625, 187500.015625, 180404.296875, 187500.015625, 0, 1, 1, 0, 1,0.0,0.0,0.0,0.0,0.0, 11:45:05.309
187500.015625, 187500.015625, 187500.015625, 187500.015625, 187500.015625, 187500.015625, 180391.796875, 187500.015625, 0, 1, 1, 0, 1,0.0,0.0,0.0,0.0,0.0, 11:45:05.309
187500.015625, 187500.015625, 187500.015625, 187500.015625, 187500.015625, 187500.015625, 180379.281250, 187500.015625, 0, 1, 1, 0, 1,0.0,0.0,0.0,0.0,0.0, 11:45:05.309
187500.015625, 187500.015625, 187500.015625, 187500.015625, 187500.015625, 187500.015625, 180368.687500, 187500.015625, 0, 1, 1, 0, 1,0.0,0.0,0.0,0.0,0.0, 11:45:05.309
187500.015625, 187500.015625, 187500.015625, 187500.015625, 187500.015625, 187500.015625, 180360.375000, 187500.015625, 0, 1, 1, 0, 1,0.0,0.0,0.0,0.0,0.0, 11:45:05.309
187500.015625, 187500.015625, 187500.015625, 187500.015625, 187500.015625, 187500.015625, 180352.328125, 187500.015625, 0, 1, 1, 0, 1,0.0,0.0,0.0,0.0,0.0, 11:45:05.310
187500.015625, 187500.015625, 187500.015625, 187500.015625, 187500.015625, 187500.015625, 180340.171875, 187500.015625, 0, 1, 1, 0, 1,0.0,0.0,0.0,0.0,0.0, 11:45:05.310
187500.015625, 187500.015625, 187500.015625, 187500.015625, 187500.015625, 187500.015625, 180328.031250, 187500.015625, 0, 1, 1, 0, 1,0.0,0.0,0.0,0.0,0.0, 11:45:05.310
187500.015625, 187500.015625, 187500.015625, 187500.015625, 187500.015625, 187500.015625, 180316.234375, 187500.015625, 0, 1, 1, 0, 1,0.0,0.0,0.0,0.0,0.0, 11:45:05.310
187500.015625, 187500.015625, 187500.015625, 187500.015625, 187500.015625, 187500.015625, 180307.359375, 187500.015625, 0, 1, 1, 0, 1,0.0,0.0,0.0,0.0,0.0, 11:45:05.310
187500.015625, 187500.015625, 187500.015625, 187500.015625, 187500.015625, 187500.015625, 180295.953125, 187500.015625, 0, 1, 1, 0, 1,0.0,0.0,0.0,0.0,0.0, 11:45:05.310
187500.015625, 187500.015625, 187500.015625, 187500.015625, 187500.015625, 187500.015625, 180284.734375, 187500.015625, 0, 1, 1, 0, 1,0.0,0.0,0.0,0.0,0.0, 11:45:05.310
187500.015625, 187500.015625, 187500.015625, 187500.015625, 187500.015625, 187500.015625, 180275.500000, 187500.015625, 0, 1, 1, 0, 1,0.0,0.0,0.0,0.0,0.0, 11:45:05.311
187500.015625, 187500.015625, 187500.015625, 187500.015625, 187500.015625, 187500.015625, 180266.828125, 187500.015625, 0, 1, 1, 0, 1,0.0,0.0,0.0,0.0,0.0, 11:45:05.311
187500.015625, 187500.015625, 187500.015625, 187500.015625, 187500.015625, 187500.015625, 180256.171875, 187500.015625, 0, 1, 1, 0, 1,0.0,0.0,0.0,0.0,0.0, 11:45:05.311
187500.015625, 187500.015625, 187500.015625, 187500.015625, 187500.015625, 187500.015625, 180246.093750, 187500.015625, 0, 1, 1, 0, 1,0.0,0.0,0.0,0.0,0.0, 11:45:05.311
187500.015625, 187500.015625, 187500.015625, 187500.015625, 187500.015625, 187500.015625, 180236.843750, 187500.015625, 0, 1, 1, 0, 1,0.0,0.0,0.0,0.0,0.0, 11:45:05.311
187500.015625, 187500.015625, 187500.015625, 187500.015625, 187500.015625, 187500.015625, 180226.640625, 187500.015625, 0, 1, 1, 0, 1,0.0,0.0,0.0,0.0,0.0, 11:45:05.312
187500.015625, 187500.015625, 187500.015625, 187500.015625, 187500.015625, 187500.015625, 180216.140625, 187500.015625, 0, 1, 1, 0, 1,0.0,0.0,0.0,0.0,0.0, 11:45:05.312
187500.015625, 187500.015625, 187500.015625, 187500.015625, 187500.015625, 187500.015625, 180205.296875, 187500.015625, 0, 1, 1, 0, 1,0.0,0.0,0.0,0.0,0.0, 11:45:05.312
187500.015625, 187500.015625, 187500.015625, 187500.015625, 187500.015625, 187500.015625, 180195.843750, 187500.015625, 0, 1, 1, 0, 1,0.0,0.0,0.0,0.0,0.0, 11:45:05.312
187500.015625, 187500.015625, 187500.015625, 187500.015625, 187500.015625, 187500.015625, 180184.875000, 187500.015625, 0, 1, 1, 0, 1,0.0,0.0,0.0,0.0,0.0, 11:45:05.312
187500.015625, 187500.015625, 187500.015625, 187500.015625, 187500.015625, 187500.015625, 180173.109375, 187500.015625, 0, 1, 1, 0, 1,0.0,0.0,0.0,0.0,0.0, 11:45:05.312
187500.015625, 187500.015625, 187500.015625, 187500.015625, 187500.015625, 187500.015625, 180163.921875, 187500.015625, 0, 1, 1, 0, 1,0.0,0.0,0.0,0.0,0.0, 11:45:05.313
187500.015625, 187500.015625, 187500.015625, 187500.015625, 187500.015625, 187500.015625, 180150.671875, 187500.015625, 0, 1, 1, 0, 1,0.0,0.0,0.0,0.0,0.0, 11:45:05.313
187500.015625, 187500.015625, 187500.015625, 187500.015625, 187500.015625, 187500.015625, 180138.953125, 187500.015625, 0, 1, 1, 0, 1,0.0,0.0,0.0,0.0,0.0, 11:45:05.313
187500.015625, 187500.015625, 187500.015625, 187500.015625, 187500.015625, 187500.015625, 180131.390625, 187500.015625, 0, 1, 1, 0, 1,0.0,0.0,0.0,0.0,0.0, 11:45:05.313
187500.015625, 187500.015625, 187500.015625, 187500.015625, 187500.015625, 187500.015625, 180121.265625, 187500.015625, 0, 1, 1, 0, 1,0.0,0.0,0.0,0.0,0.0, 11:45:05.313
187500.015625, 187500.015625, 187500.015625, 187500.015625, 187500.015625, 187500.015625, 180108.656250, 187500.015625, 0, 1, 1, 0, 1,0.0,0.0,0.0,0.0,0.0, 11:45:05.314
187500.015625, 187500.015625, 187500.015625, 187500.015625, 187500.015625, 187500.015625, 180100.812500, 187500.015625, 0, 1, 1, 0, 1,0.0,0.0,0.0,0.0,0.0, 11:45:05.314
187500.015625, 187500.015625, 187500.015625, 187500.015625, 187500.015625, 187500.015625, 180090.484375, 187500.015625, 0, 1, 1, 0, 1,0.0,0.0,0.0,0.0,0.0, 11:45:05.314
187500.015625, 187500.015625, 187500.015625, 187500.015625, 187500.015625, 187500.015625, 180081.859375, 187500.015625, 0, 1, 1, 0, 1,0.0,0.0,0.0,0.0,0.0, 11:45:05.315
187500.015625, 187500.015625, 187500.015625, 187500.015625, 187500.015625, 187500.015625, 180071.703125, 187500.015625, 0, 1, 1, 0, 1,0.0,0.0,0.0,0.0,0.0, 11:45:05.315
187500.015625, 187500.015625, 187500.015625, 187500.015625, 187500.015625, 187500.015625, 180059.484375, 187500.015625, 0, 1, 1, 0, 1,0.0,0.0,0.0,0.0,0.0, 11:45:05.315
187500.015625, 187500.015625, 187500.015625, 187500.015625, 187500.015625, 187500.015625, 180047.078125, 187500.015625, 0, 1, 1, 0, 1,0.0,0.0,0.0,0.0,0.0, 11:45:05.315
187500.015625, 187500.015625, 187500.015625, 187500.015625, 187500.015625, 187500.015625, 180037.968750, 187500.015625, 0, 1, 1, 0, 1,0.0,0.0,0.0,0.0,0.0, 11:45:05.315
187500.015625, 187500.015625, 187500.015625, 187500.015625, 187500.015625, 187500.015625, 180026.390625, 187500.015625, 0, 1, 1, 0, 1,0.0,0.0,0.0,0.0,0.0, 11:45:05.315
187500.015625, 187500.015625, 187500.015625, 187500.015625, 187500.015625, 187500.015625, 180016.046875, 187500.015625, 0, 1, 1, 0, 1,0.0,0.0,0.0,0.0,0.0, 11:45:05.316
187500.015625, 187500.015625, 187500.015625, 187500.015625, 187500.015625, 187500.015625, 180005.046875, 187500.015625, 0, 1, 1, 0, 1,0.0,0.0,0.0,0.0,0.0, 11:45:05.316
187500.015625, 187500.015625, 187500.015625, 187500.015625, 187500.015625, 187500.015625, 179995.593750, 187500.015625, 0, 1, 1, 0, 1,0.0,0.0,0.0,0.0,0.0, 11:45:05.316
187500.015625, 187500.015625, 187500.015625, 187500.015625, 187500.015625, 187500.015625, 179984.421875, 187500.015625, 0, 1, 1, 0, 1,0.0,0.0,0.0,0.0,0.0, 11:45:05.316
187500.015625, 187500.015625, 187500.015625, 187500.015625, 187500.015625, 187500.015625, 179973.250000, 187500.015625, 0, 1, 1, 0, 1,0.0,0.0,0.0,0.0,0.0, 11:45:05.316
187500.015625, 187500.015625, 187500.015625, 187500.015625, 187500.015625, 187500.015625, 179962.718750, 187500.015625, 0, 1, 1, 0, 1,0.0,0.0,0.0,0.0,0.0, 11:45:05.316
187500.015625, 187500.015625, 187500.015625, 187500.015625, 187500.015625, 187500.015625, 179953.796875, 187500.015625, 0, 1, 1, 0, 1,0.0,0.0,0.0,0.0,0.0, 11:45:05.317
187500.015625, 187500.015625, 187500.015625, 187500.015625, 187500.015625, 187500.015625, 179943.000000, 187500.015625, 0, 1, 1, 0, 1,0.0,0.0,0.0,0.0,0.0, 11:45:05.317
187500.015625, 187500.015625, 187500.015625, 187500.015625, 187500.015625, 187500.015625, 179932.343750, 187500.015625, 0, 1, 1, 0, 1,0.0,0.0,0.0,0.0,0.0, 11:45:05.317
187500.015625, 187500.015625, 187500.015625, 187500.015625, 187500.015625, 187500.015625, 179922.343750, 187500.015625, 0, 1, 1, 0, 1,0.0,0.0,0.0,0.0,0.0, 11:45:05.317
187500.015625, 187500.015625, 187500.015625, 187500.015625, 187500.015625, 187500.015625, 179911.984375, 187500.015625, 0, 1, 1, 0, 1,0.0,0.0,0.0,0.0,0.0, 11:45:05.317
187500.015625, 187500.015625, 187500.015625, 187500.015625, 187500.015625, 187500.015625, 179899.703125, 187500.015625, 0, 1, 1, 0, 1,0.0,0.0,0.0,0.0,0.0, 11:45:05.318
187500.015625, 187500.015625, 187500.015625, 187500.015625, 187500.015625, 187500.015625, 179890.281250, 187500.015625, 0, 1, 1, 0, 1,0.0,0.0,0.0,0.0,0.0, 11:45:05.318
187500.015625, 187500.015625, 187500.015625, 187500.015625, 187500.015625, 187500.015625, 179881.265625, 187500.015625, 0, 1, 1, 0, 1,0.0,0.0,0.0,0.0,0.0, 11:45:05.318
187500.015625, 187500.015625, 187500.015625, 187500.015625, 187500.015625, 187500.015625, 179868.921875, 187500.015625, 0, 1, 1, 0, 1,0.0,0.0,0.0,0.0,0.0, 11:45:05.318
187500.015625, 187500.015625, 187500.015625, 187500.015625, 187500.015625, 187500.015625, 179857.578125, 187500.015625, 0, 1, 1, 0, 1,0.0,0.0,0.0,0.0,0.0, 11:45:05.318
187500.015625, 187500.015625, 187500.015625, 187500.015625, 187500.015625, 187500.015625, 179849.375000, 187500.015625, 0, 1, 1, 0, 1,0.0,0.0,0.0,0.0,0.0, 11:45:05.318
187500.015625, 187500.015625, 187500.015625, 187500.015625, 187500.015625, 187500.015625, 179838.390625, 187500.015625, 0, 1, 1, 0, 1,0.0,0.0,0.0,0.0,0.0, 11:45:05.318
187500.015625, 187500.015625, 187500.015625, 187500.015625, 187500.015625, 187500.015625, 179829.359375, 187500.015625, 0, 1, 1, 0, 1,0.0,0.0,0.0,0.0,0.0, 11:45:05.319
187500.015625, 187500.015625, 187500.015625, 187500.015625, 187500.015625, 187500.015625, 179818.500000, 187500.015625, 0, 1, 1, 0, 1,0.0,0.0,0.0,0.0,0.0, 11:45:05.319
187500.015625, 187500.015625, 187500.015625, 187500.015625, 187500.015625, 187500.015625, 179808.562500, 187500.015625, 0, 1, 1, 0, 1,0.0,0.0,0.0,0.0,0.0, 11:45:05.319
187500.015625, 187500.015625, 187500.015625, 187500.015625, 187500.015625, 187500.015625, 179798.234375, 187500.015625, 0, 1, 1, 0, 1,0.0,0.0,0.0,0.0,0.0, 11:45:05.319
187500.015625, 187500.015625, 187500.015625, 187500.015625, 187500.015625, 187500.015625, 179786.390625, 187500.015625, 0, 1, 1, 0, 1,0.0,0.0,0.0,0.0,0.0, 11:45:05.320
187500.015625, 187500.015625, 187500.015625, 187500.015625, 187500.015625, 187500.015625, 179773.265625, 187500.015625, 0, 1, 1, 0, 1,0.0,0.0,0.0,0.0,0.0, 11:45:05.320
187500.015625, 187500.015625, 187500.015625, 187500.015625, 187500.015625, 187500.015625, 179763.515625, 187500.015625, 0, 1, 1, 0, 1,0.0,0.0,0.0,0.0,0.0, 11:45:05.320
187500.015625, 187500.015625, 187500.015625, 187500.015625, 187500.015625, 187500.015625, 179754.171875, 187500.015625, 0, 1, 1, 0, 1,0.0,0.0,0.0,0.0,0.0, 11:45:05.320
187500.015625, 187500.015625, 187500.015625, 187500.015625, 187500.015625, 187500.015625, 179743.062500, 187500.015625, 0, 1, 1, 0, 1,0.0,0.0,0.0,0.0,0.0, 11:45:05.321
187500.015625, 187500.015625, 187500.015625, 187500.015625, 187500.015625, 187500.015625, 179733.015625, 187500.015625, 0, 1, 1, 0, 1,0.0,0.0,0.0,0.0,0.0, 11:45:05.321
187500.015625, 187500.015625, 187500.015625, 187500.015625, 187500.015625, 187500.015625, 179720.781250, 187500.015625, 0, 1, 1, 0, 1,0.0,0.0,0.0,0.0,0.0, 11:45:05.321
187500.015625, 187500.015625, 187500.015625, 187500.015625, 187500.015625, 187500.015625, 179710.765625, 187500.015625, 0, 1, 1, 0, 1,0.0,0.0,0.0,0.0,0.0, 11:45:05.321
187500.015625, 187500.015625, 187500.015625, 187500.015625, 187500.015625, 187500.015625, 179703.609375, 187500.015625, 0, 1, 1, 0, 1,0.0,0.0,0.0,0.0,0.0, 11:45:05.322
187500.015625, 187500.015625, 187500.015625, 187500.015625, 187500.015625, 187500.015625, 179690.671875, 187500.015625, 0, 1, 1, 0, 1,0.0,0.0,0.0,0.0,0.0, 11:45:05.322
187500.015625, 187500.015625, 187500.015625, 187500.015625, 187500.015625, 187500.015625, 179680.656250, 187500.015625, 0, 1, 1, 0, 1,0.0,0.0,0.0,0.0,0.0, 11:45:05.322
187500.015625, 187500.015625, 187500.015625, 187500.015625, 187500.015625, 187500.015625, 179673.531250, 187500.015625, 0, 1, 1, 0, 1,0.0,0.0,0.0,0.0,0.0, 11:45:05.322
187500.015625, 187500.015625, 187500.015625, 187500.015625, 187500.015625, 187500.015625, 179664.859375, 187500.015625, 0, 1, 1, 0, 1,0.0,0.0,0.0,0.0,0.0, 11:45:05.323
187500.015625, 187500.015625, 187500.015625, 187500.015625, 187500.015625, 187500.015625, 179651.359375, 187500.015625, 0, 1, 1, 0, 1,0.0,0.0,0.0,0.0,0.0, 11:45:05.323
187500.015625, 187500.015625, 187500.015625, 187500.015625, 187500.015625, 187500.015625, 179640.656250, 187500.015625, 0, 1, 1, 0, 1,0.0,0.0,0.0,0.0,0.0, 11:45:05.323
187500.015625, 187500.015625, 187500.015625, 187500.015625, 187500.015625, 187500.015625, 179629.250000, 187500.015625, 0, 1, 1, 0, 1,0.0,0.0,0.0,0.0,0.0, 11:45:05.324
187500.015625, 187500.015625, 187500.015625, 187500.015625, 187500.015625, 187500.015625, 179616.578125, 187500.015625, 0, 1, 1, 0, 1,0.0,0.0,0.0,0.0,0.0, 11:45:05.324
187500.015625, 187500.015625, 187500.015625, 187500.015625, 187500.015625, 187500.015625, 179607.796875, 187500.015625, 0, 1, 1, 0, 1,0.0,0.0,0.0,0.0,0.0, 11:45:05.324
187500.015625, 187500.015625, 187500.015625, 187500.015625, 187500.015625, 187500.015625, 179596.843750, 187500.015625, 0, 1, 1, 0, 1,0.0,0.0,0.0,0.0,0.0, 11:45:05.324
187500.015625, 187500.015625, 187500.015625, 187500.015625, 187500.015625, 187500.015625, 179584.750000, 187500.015625, 0, 1, 1, 0, 1,0.0,0.0,0.0,0.0,0.0, 11:45:05.325
187500.015625, 187500.015625, 187500.015625, 187500.015625, 187500.015625, 187500.015625, 179576.015625, 187500.015625, 0, 1, 1, 0, 1,0.0,0.0,0.0,0.0,0.0, 11:45:05.325
187500.015625, 187500.015625, 187500.015625, 187500.015625, 187500.015625, 187500.015625, 179564.984375, 187500.015625, 0, 1, 1, 0, 1,0.0,0.0,0.0,0.0,0.0, 11:45:05.325
187500.015625, 187500.015625, 187500.015625, 187500.015625, 187500.015625, 187500.015625, 179554.703125, 187500.015625, 0, 1, 1, 0, 1,0.0,0.0,0.0,0.0,0.0, 11:45:05.325
187500.015625, 187500.015625, 187500.015625, 187500.015625, 187500.015625, 187500.015625, 179543.750000, 187500.015625, 0, 1, 1, 0, 1,0.0,0.0,0.0,0.0,0.0, 11:45:05.326
187500.015625, 187500.015625, 187500.015625, 187500.015625, 187500.015625, 187500.015625, 179531.531250, 187500.015625, 0, 1, 1, 0, 1,0.0,0.0,0.0,0.0,0.0, 11:45:05.326
187500.015625, 187500.015625, 187500.015625, 187500.015625, 187500.015625, 187500.015625, 179519.234375, 187500.015625, 0, 1, 1, 0, 1,0.0,0.0,0.0,0.0,0.0, 11:45:05.326
187500.015625, 187500.015625, 187500.015625, 187500.015625, 187500.015625, 187500.015625, 179509.218750, 187500.015625, 0, 1, 1, 0, 1,0.0,0.0,0.0,0.0,0.0, 11:45:05.326
187500.015625, 187500.015625, 187500.015625, 187500.015625, 187500.015625, 187500.015625, 179498.875000, 187500.015625, 0, 1, 1, 0, 1,0.0,0.0,0.0,0.0,0.0, 11:45:05.327
187500.015625, 187500.015625, 187500.015625, 187500.015625, 187500.015625, 187500.015625, 179489.593750, 187500.015625, 0, 1, 1, 0, 1,0.0,0.0,0.0,0.0,0.0, 11:45:05.327
187500.015625, 187500.015625, 187500.015625, 187500.015625, 187500.015625, 187500.015625, 179480.031250, 187500.015625, 0, 1, 1, 0, 1,0.0,0.0,0.0,0.0,0.0, 11:45:05.327
187500.015625, 187500.015625, 187500.015625, 187500.015625, 187500.015625, 187500.015625, 179469.765625, 187500.015625, 0, 1, 1, 0, 1,0.0,0.0,85.7785,99.36987,92.152374, 11:45:05.328
187500.015625, 187500.015625, 187500.015625, 187500.015625, 187500.015625, 187500.015625, 179459.796875, 187500.015625, 0, 1, 1, 0, 1,0.0,0.0,85.7785,99.36987,92.152374, 11:45:05.328
187500.015625, 187500.015625, 187500.015625, 187500.015625, 187500.015625, 187500.015625, 179448.812500, 187500.015625, 0, 1, 1, 0, 1,0.0,0.0,85.7785,99.36987,92.152374, 11:45:05.328
187500.015625, 187500.015625, 187500.015625, 187500.015625, 187500.015625, 187500.015625, 179440.937500, 187500.015625, 0, 1, 1, 0, 1,0.0,0.0,85.7785,99.36987,92.152374, 11:45:05.328
187500.015625, 187500.015625, 187500.015625, 187500.015625, 187500.015625, 187500.015625, 179431.484375, 187500.015625, 0, 1, 1, 0, 1,0.0,0.0,85.7785,99.36987,92.152374, 11:45:05.329
187500.015625, 187500.015625, 187500.015625, 187500.015625, 187500.015625, 187500.015625, 179420.312500, 187500.015625, 0, 1, 1, 0, 1,0.0,0.0,85.7785,99.36987,92.152374, 11:45:05.329
187500.015625, 187500.015625, 187500.015625, 187500.015625, 187500.015625, 187500.015625, 179409.421875, 187500.015625, 0, 1, 1, 0, 1,0.0,0.0,85.7785,99.36987,92.152374, 11:45:05.329
187500.015625, 187500.015625, 187500.015625, 187500.015625, 187500.015625, 187500.015625, 179399.875000, 187500.015625, 0, 1, 1, 0, 1,0.0,0.0,85.7785,99.36987,92.152374, 11:45:05.329
187500.015625, 187500.015625, 187500.015625, 187500.015625, 187500.015625, 187500.015625, 179389.656250, 187500.015625, 0, 1, 1, 0, 1,0.0,0.0,85.7785,99.36987,92.152374, 11:45:05.330
187500.015625, 187500.015625, 187500.015625, 187500.015625, 187500.015625, 187500.015625, 179377.968750, 187500.015625, 0, 1, 1, 0, 1,0.0,0.0,85.7785,99.36987,92.152374, 11:45:05.330
187500.015625, 187500.015625, 187500.015625, 187500.015625, 187500.015625, 187500.015625, 179367.453125, 187500.015625, 0, 1, 1, 0, 1,0.0,0.0,85.7785,99.36987,92.152374, 11:45:05.331
187500.015625, 187500.015625, 187500.015625, 187500.015625, 187500.015625, 187500.015625, 179357.390625, 187500.015625, 0, 1, 1, 0, 1,0.0,0.0,85.7785,99.36987,92.152374, 11:45:05.331
187500.015625, 187500.015625, 187500.015625, 187500.015625, 187500.015625, 187500.015625, 179345.671875, 187500.015625, 0, 1, 1, 0, 1,0.0,0.0,85.7785,99.36987,92.152374, 11:45:05.331
187500.015625, 187500.015625, 187500.015625, 187500.015625, 187500.015625, 187500.015625, 179335.812500, 187500.015625, 0, 1, 1, 0, 1,0.0,0.0,85.7785,99.36987,92.152374, 11:45:05.331
187500.015625, 187500.015625, 187500.015625, 187500.015625, 187500.015625, 187500.015625, 179326.625000, 187500.015625, 0, 1, 1, 0, 1,0.0,0.0,85.7785,99.36987,92.152374, 11:45:05.332
187500.015625, 187500.015625, 187500.015625, 187500.015625, 187500.015625, 187500.015625, 179315.359375, 187500.015625, 0, 1, 1, 0, 1,0.0,0.0,85.7785,99.36987,92.152374, 11:45:05.332
187500.015625, 187500.015625, 187500.015625, 187500.015625, 187500.015625, 187500.015625, 179303.625000, 187500.015625, 0, 1, 1, 0, 1,0.0,0.0,85.7785,99.36987,92.152374, 11:45:05.332
187500.015625, 187500.015625, 187500.015625, 187500.015625, 187500.015625, 187500.015625, 179293.484375, 187500.015625, 0, 1, 1, 0, 1,0.0,0.0,85.7785,99.36987,92.152374, 11:45:05.332
187500.015625, 187500.015625, 187500.015625, 187500.015625, 187500.015625, 187500.015625, 179282.640625, 187500.015625, 0, 1, 1, 0, 1,0.0,0.0,85.7785,99.36987,92.152374, 11:45:05.333
187500.015625, 187500.015625, 187500.015625, 187500.015625, 187500.015625, 187500.015625, 179272.890625, 187500.015625, 0, 1, 1, 0, 1,0.0,0.0,85.7785,99.36987,92.152374, 11:45:05.333
187500.015625, 187500.015625, 187500.015625, 187500.015625, 187500.015625, 187500.015625, 179265.234375, 187500.015625, 0, 1, 1, 0, 1,0.0,0.0,85.7785,99.36987,92.152374, 11:45:05.333
187500.015625, 187500.015625, 187500.015625, 187500.015625, 187500.015625, 187500.015625, 179254.593750, 187500.015625, 0, 1, 1, 0, 1,0.0,0.0,85.7785,99.36987,92.152374, 11:45:05.334
187500.015625, 187500.015625, 187500.015625, 187500.015625, 187500.015625, 187500.015625, 179242.453125, 187500.015625, 0, 1, 1, 0, 1,0.0,0.0,85.7785,99.36987,92.152374, 11:45:05.334
187500.015625, 187500.015625, 187500.015625, 187500.015625, 187500.015625, 187500.015625, 179232.515625, 187500.015625, 0, 1, 1, 0, 1,0.0718637,0.1459049,0.17718823,0.36925668,1.0821046, 11:45:05.787
187500.015625, 187500.015625, 187500.015625, 187500.015625, 187500.015625, 187500.015625, 179223.718750, 187500.015625, 0, 1, 1, 0, 1,0.0718637,0.1459049,0.17718823,0.36925668,1.0821046, 11:45:05.787
187500.015625, 187500.015625, 187500.015625, 187500.015625, 187500.015625, 187500.015625, 179211.046875, 187500.015625, 0, 1, 1, 0, 1,0.0718637,0.1459049,0.17718823,0.36925668,1.0821046, 11:45:05.787
187500.015625, 187500.015625, 187500.015625, 187500.015625, 187500.015625, 187500.015625, 179199.046875, 187500.015625, 0, 1, 1, 0, 1,0.0718637,0.1459049,0.17718823,0.36925668,1.0821046, 11:45:05.788
187500.015625, 187500.015625, 187500.015625, 187500.015625, 187500.015625, 187500.015625, 179192.671875, 187500.015625, 0, 1, 1, 0, 1,0.0718637,0.1459049,0.17718823,0.36925668,1.0821046, 11:45:05.788
187500.015625, 187500.015625, 187500.015625, 187500.015625, 187500.015625, 187500.015625, 179179.421875, 187500.015625, 0, 1, 1, 0, 1,0.0718637,0.1459049,0.17718823,0.36925668,1.0821046, 11:45:05.788
187500.015625, 187500.015625, 187500.015625, 187500.015625, 187500.015625, 187500.015625, 179168.109375, 187500.015625, 0, 1, 1, 0, 1,0.0718637,0.1459049,0.17718823,0.36925668,1.0821046, 11:45:05.788
187500.015625, 187500.015625, 187500.015625, 187500.015625, 187500.015625, 187500.015625, 179159.078125, 187500.015625, 0, 1, 1, 0, 1,0.0718637,0.1459049,0.17718823,0.36925668,1.0821046, 11:45:05.788
187500.015625, 187500.015625, 187500.015625, 187500.015625, 187500.015625, 187500.015625, 179150.203125, 187500.015625, 0, 1, 1, 0, 1,0.0718637,0.1459049,0.17718823,0.36925668,1.0821046, 11:45:05.788
187500.015625, 187500.015625, 187500.015625, 187500.015625, 187500.015625, 187500.015625, 179140.359375, 187500.015625, 0, 1, 1, 0, 1,0.0718637,0.1459049,0.17718823,0.36925668,1.0821046, 11:45:05.788
187500.015625, 187500.015625, 187500.015625, 187500.015625, 187500.015625, 187500.015625, 179131.875000, 187500.015625, 0, 1, 1, 0, 1,0.0718637,0.1459049,0.17718823,0.36925668,1.0821046, 11:45:05.789
187500.015625, 187500.015625, 187500.015625, 187500.015625, 187500.015625, 187500.015625, 179118.687500, 187500.015625, 0, 1, 1, 0, 1,0.0718637,0.1459049,0.17718823,0.36925668,1.0821046, 11:45:05.789
187500.015625, 187500.015625, 187500.015625, 187500.015625, 187500.015625, 187500.015625, 179108.718750, 187500.015625, 0, 1, 1, 0, 1,0.0718637,0.1459049,0.17718823,0.36925668,1.0821046, 11:45:05.789
187500.015625, 187500.015625, 187500.015625, 187500.015625, 187500.015625, 187500.015625, 179098.640625, 187500.015625, 0, 1, 1, 0, 1,0.0718637,0.1459049,0.17718823,0.36925668,1.0821046, 11:45:05.789
187500.015625, 187500.015625, 187500.015625, 187500.015625, 187500.015625, 187500.015625, 179086.843750, 187500.015625, 0, 1, 1, 0, 1,0.0718637,0.1459049,0.17718823,0.36925668,1.0821046, 11:45:05.789
187500.015625, 187500.015625, 187500.015625, 187500.015625, 187500.015625, 187500.015625, 179072.515625, 187500.015625, 0, 1, 1, 0, 1,0.0718637,0.1459049,0.17718823,0.36925668,1.0821046, 11:45:05.789
187500.015625, 187500.015625, 187500.015625, 187500.015625, 187500.015625, 187500.015625, 179063.468750, 187500.015625, 0, 1, 1, 0, 1,0.0718637,0.1459049,0.17718823,0.36925668,1.0821046, 11:45:05.790
187500.015625, 187500.015625, 187500.015625, 187500.015625, 187500.015625, 187500.015625, 179055.453125, 187500.015625, 0, 1, 1, 0, 1,0.0718637,0.1459049,0.17718823,0.36925668,1.0821046, 11:45:05.790
187500.015625, 187500.015625, 187500.015625, 187500.015625, 187500.015625, 187500.015625, 179042.875000, 187500.015625, 0, 1, 1, 0, 1,0.0718637,0.1459049,0.17718823,0.36925668,1.0821046, 11:45:05.790
187500.015625, 187500.015625, 187500.015625, 187500.015625, 187500.015625, 187500.015625, 179030.968750, 187500.015625, 0, 1, 1, 0, 1,0.0718637,0.1459049,0.17718823,0.36925668,1.0821046, 11:45:05.790
187500.015625, 187500.015625, 187500.015625, 187500.015625, 187500.015625, 187500.015625, 179019.546875, 187500.015625, 0, 1, 1, 0, 1,0.0718637,0.1459049,0.17718823,0.36925668,1.0821046, 11:45:05.790
187500.015625, 187500.015625, 187500.015625, 187500.015625, 187500.015625, 187500.015625, 179009.281250, 187500.015625, 0, 1, 1, 0, 1,0.0718637,0.1459049,0.17718823,0.36925668,1.0821046, 11:45:05.790
187500.015625, 187500.015625, 187500.015625, 187500.015625, 187500.015625, 187500.015625, 178997.484375, 187500.015625, 0, 1, 1, 0, 1,0.0718637,0.1459049,0.17718823,0.36925668,1.0821046, 11:45:05.790
187500.015625, 187500.015625, 187500.015625, 187500.015625, 187500.015625, 187500.015625, 178987.890625, 187500.015625, 0, 1, 1, 0, 1,0.0718637,0.1459049,0.17718823,0.36925668,1.0821046, 11:45:05.791
187500.015625, 187500.015625, 187500.015625, 187500.015625, 187500.015625, 187500.015625, 178977.984375, 187500.015625, 0, 1, 1, 0, 1,0.0718637,0.1459049,0.17718823,0.36925668,1.0821046, 11:45:05.791
187500.015625, 187500.015625, 187500.015625, 187500.015625, 187500.015625, 187500.015625, 178968.828125, 187500.015625, 0, 1, 1, 0, 1,0.0718637,0.1459049,0.17718823,0.36925668,1.0821046, 11:45:05.791
187500.015625, 187500.015625, 187500.015625, 187500.015625, 187500.015625, 187500.015625, 178957.203125, 187500.015625, 0, 1, 1, 0, 1,0.0718637,0.1459049,0.17718823,0.36925668,1.0821046, 11:45:05.791
187500.015625, 187500.015625, 187500.015625, 187500.015625, 187500.015625, 187500.015625, 178944.109375, 187500.015625, 0, 1, 1, 0, 1,0.0718637,0.1459049,0.17718823,0.36925668,1.0821046, 11:45:05.791
187500.015625, 187500.015625, 187500.015625, 187500.015625, 187500.015625, 187500.015625, 178934.734375, 187500.015625, 0, 1, 1, 0, 1,0.0718637,0.1459049,0.17718823,0.36925668,1.0821046, 11:45:05.791
187500.015625, 187500.015625, 187500.015625, 187500.015625, 187500.015625, 187500.015625, 178924.500000, 187500.015625, 0, 1, 1, 0, 1,0.04391379,0.09909371,0.12982813,0.25411868,0.6823792, 11:45:05.796
187500.015625, 187500.015625, 187500.015625, 187500.015625, 187500.015625, 187500.015625, 178914.484375, 187500.015625, 0, 1, 1, 0, 1,0.04391379,0.09909371,0.12982813,0.25411868,0.6823792, 11:45:05.796
187500.015625, 187500.015625, 187500.015625, 187500.015625, 187500.015625, 187500.015625, 178907.250000, 187500.015625, 0, 1, 1, 0, 1,0.04391379,0.09909371,0.12982813,0.25411868,0.6823792, 11:45:05.796
187500.015625, 187500.015625, 187500.015625, 187500.015625, 187500.015625, 187500.015625, 178894.906250, 187500.015625, 0, 1, 1, 0, 1,0.04391379,0.09909371,0.12982813,0.25411868,0.6823792, 11:45:05.796
187500.015625, 187500.015625, 187500.015625, 187500.015625, 187500.015625, 187500.015625, 178885.468750, 187500.015625, 0, 1, 1, 0, 1,0.04391379,0.09909371,0.12982813,0.25411868,0.6823792, 11:45:05.797
187500.015625, 187500.015625, 187500.015625, 187500.015625, 187500.015625, 187500.015625, 178876.937500, 187500.015625, 0, 1, 1, 0, 1,0.04391379,0.09909371,0.12982813,0.25411868,0.6823792, 11:45:05.797
187500.015625, 187500.015625, 187500.015625, 187500.015625, 187500.015625, 187500.015625, 178864.109375, 187500.015625, 0, 1, 1, 0, 1,0.04391379,0.09909371,0.12982813,0.25411868,0.6823792, 11:45:05.797
187500.015625, 187500.015625, 187500.015625, 187500.015625, 187500.015625, 187500.015625, 178850.312500, 187500.015625, 0, 1, 1, 0, 1,0.04391379,0.09909371,0.12982813,0.25411868,0.6823792, 11:45:05.797
187500.015625, 187500.015625, 187500.015625, 187500.015625, 187500.015625, 187500.015625, 178839.187500, 187500.015625, 0, 1, 1, 0, 1,0.04391379,0.09909371,0.12982813,0.25411868,0.6823792, 11:45:05.797
187500.015625, 187500.015625, 187500.015625, 187500.015625, 187500.015625, 187500.015625, 178831.203125, 187500.015625, 0, 1, 1, 0, 1,0.04391379,0.09909371,0.12982813,0.25411868,0.6823792, 11:45:05.797
187500.015625, 187500.015625, 187500.015625, 187500.015625, 187500.015625, 187500.015625, 178822.796875, 187500.015625, 0, 1, 1, 0, 1,0.04391379,0.09909371,0.12982813,0.25411868,0.6823792, 11:45:05.798
187500.015625, 187500.015625, 187500.015625, 187500.015625, 187500.015625, 187500.015625, 178812.234375, 187500.015625, 0, 1, 1, 0, 1,0.04391379,0.09909371,0.12982813,0.25411868,0.6823792, 11:45:05.798
187500.015625, 187500.015625, 187500.015625, 187500.015625, 187500.015625, 187500.015625, 178800.937500, 187500.015625, 0, 1, 1, 0, 1,0.04391379,0.09909371,0.12982813,0.25411868,0.6823792, 11:45:05.798
187500.015625, 187500.015625, 187500.015625, 187500.015625, 187500.015625, 187500.015625, 178789.265625, 187500.015625, 0, 1, 1, 0, 1,0.04391379,0.09909371,0.12982813,0.25411868,0.6823792, 11:45:05.798
187500.015625, 187500.015625, 187500.015625, 187500.015625, 187500.015625, 187500.015625, 178781.140625, 187500.015625, 0, 1, 1, 0, 1,0.04391379,0.09909371,0.12982813,0.25411868,0.6823792, 11:45:05.798
187500.015625, 187500.015625, 187500.015625, 187500.015625, 187500.015625, 187500.015625, 178770.968750, 187500.015625, 0, 1, 1, 0, 1,0.04391379,0.09909371,0.12982813,0.25411868,0.6823792, 11:45:05.798
187500.015625, 187500.015625, 187500.015625, 187500.015625, 187500.015625, 187500.015625, 178758.609375, 187500.015625, 0, 1, 1, 0, 1,0.04391379,0.09909371,0.12982813,0.25411868,0.6823792, 11:45:05.799
187500.015625, 187500.015625, 187500.015625, 187500.015625, 187500.015625, 187500.015625, 178748.968750, 187500.015625, 0, 1, 1, 0, 1,0.04391379,0.09909371,0.12982813,0.25411868,0.6823792, 11:45:05.799
187500.015625, 187500.015625, 187500.015625, 187500.015625, 187500.015625, 187500.015625, 178739.046875, 187500.015625, 0, 1, 1, 0, 1,0.04391379,0.09909371,0.12982813,0.25411868,0.6823792, 11:45:05.799
187500.015625, 187500.015625, 187500.015625, 187500.015625, 187500.015625, 187500.015625, 178727.468750, 187500.015625, 0, 1, 1, 0, 1,0.04391379,0.09909371,0.12982813,0.25411868,0.6823792, 11:45:05.799
187500.015625, 187500.015625, 187500.015625, 187500.015625, 187500.015625, 187500.015625, 178717.015625, 187500.015625, 0, 1, 1, 0, 1,0.04391379,0.09909371,0.12982813,0.25411868,0.6823792, 11:45:05.799
187500.015625, 187500.015625, 187500.015625, 187500.015625, 187500.015625, 187500.015625, 178707.796875, 187500.015625, 0, 1, 1, 0, 1,0.04391379,0.09909371,0.12982813,0.25411868,0.6823792, 11:45:05.799
187500.015625, 187500.015625, 187500.015625, 187500.015625, 187500.015625, 187500.015625, 178699.546875, 187500.015625, 0, 1, 1, 0, 1,0.04391379,0.09909371,0.12982813,0.25411868,0.6823792, 11:45:05.799
187500.015625, 187500.015625, 187500.015625, 187500.015625, 187500.015625, 187500.015625, 178689.046875, 187500.015625, 0, 1, 1, 0, 1,0.04391379,0.09909371,0.12982813,0.25411868,0.6823792, 11:45:05.800
187500.015625, 187500.015625, 187500.015625, 187500.015625, 187500.015625, 187500.015625, 178676.890625, 187500.015625, 0, 1, 1, 0, 1,0.04391379,0.09909371,0.12982813,0.25411868,0.6823792, 11:45:05.800
187500.015625, 187500.015625, 187500.015625, 187500.015625, 187500.015625, 187500.015625, 178666.343750, 187500.015625, 0, 1, 1, 0, 1,0.04391379,0.09909371,0.12982813,0.25411868,0.6823792, 11:45:05.800
187500.015625, 187500.015625, 187500.015625, 187500.015625, 187500.015625, 187500.015625, 178656.640625, 187500.015625, 0, 1, 1, 0, 1,0.04391379,0.09909371,0.12982813,0.25411868,0.6823792, 11:45:05.800
187500.015625, 187500.015625, 187500.015625, 187500.015625, 187500.015625, 187500.015625, 178647.078125, 187500.015625, 0, 1, 1, 0, 1,0.04391379,0.09909371,0.12982813,0.25411868,0.6823792, 11:45:05.800
187500.015625, 187500.015625, 187500.015625, 187500.015625, 187500.015625, 187500.015625, 178635.687500, 187500.015625, 0, 1, 1, 0, 1,0.04391379,0.09909371,0.12982813,0.25411868,0.6823792, 11:45:05.800
187500.015625, 187500.015625, 187500.015625, 187500.015625, 187500.015625, 187500.015625, 178625.500000, 187500.015625, 0, 1, 1, 0, 1,0.04391379,0.09909371,0.12982813,0.25411868,0.6823792, 11:45:05.801
187500.015625, 187500.015625, 187500.015625, 187500.015625, 187500.015625, 187500.015625, 178612.734375, 187500.015625, 0, 1, 1, 0, 1,0.04391379,0.09909371,0.12982813,0.25411868,0.6823792, 11:45:05.801
187500.015625, 187500.015625, 187500.015625, 187500.015625, 187500.015625, 187500.015625, 178601.921875, 187500.015625, 0, 1, 1, 0, 1,0.04391379,0.09909371,0.12982813,0.25411868,0.6823792, 11:45:05.801
187500.015625, 187500.015625, 187500.015625, 187500.015625, 187500.015625, 187500.015625, 178592.265625, 187500.015625, 0, 1, 1, 0, 1,0.04391379,0.09909371,0.12982813,0.25411868,0.6823792, 11:45:05.801
187500.015625, 187500.015625, 187500.015625, 187500.015625, 187500.015625, 187500.015625, 178582.453125, 187500.015625, 0, 1, 1, 0, 1,0.04391379,0.09909371,0.12982813,0.25411868,0.6823792, 11:45:05.801
187500.015625, 187500.015625, 187500.015625, 187500.015625, 187500.015625, 187500.015625, 178572.531250, 187500.015625, 0, 1, 1, 0, 1,0.04391379,0.09909371,0.12982813,0.25411868,0.6823792, 11:45:05.801
187500.015625, 187500.015625, 187500.015625, 187500.015625, 187500.015625, 187500.015625, 178562.046875, 187500.015625, 0, 1, 1, 0, 1,0.04391379,0.09909371,0.12982813,0.25411868,0.6823792, 11:45:05.801
187500.015625, 187500.015625, 187500.015625, 187500.015625, 187500.015625, 187500.015625, 178551.031250, 187500.015625, 0, 1, 1, 0, 1,0.04391379,0.09909371,0.12982813,0.25411868,0.6823792, 11:45:05.802
187500.015625, 187500.015625, 187500.015625, 187500.015625, 187500.015625, 187500.015625, 178540.093750, 187500.015625, 0, 1, 1, 0, 1,0.04391379,0.09909371,0.12982813,0.25411868,0.6823792, 11:45:05.802
187500.015625, 187500.015625, 187500.015625, 187500.015625, 187500.015625, 187500.015625, 178529.437500, 187500.015625, 0, 1, 1, 0, 1,0.04391379,0.09909371,0.12982813,0.25411868,0.6823792, 11:45:05.802
187500.015625, 187500.015625, 187500.015625, 187500.015625, 187500.015625, 187500.015625, 178520.937500, 187500.015625, 0, 1, 1, 0, 1,0.04391379,0.09909371,0.12982813,0.25411868,0.6823792, 11:45:05.802
187500.015625, 187500.015625, 187500.015625, 187500.015625, 187500.015625, 187500.015625, 178509.203125, 187500.015625, 0, 1, 1, 0, 1,0.04391379,0.09909371,0.12982813,0.25411868,0.6823792, 11:45:05.802
187500.015625, 187500.015625, 187500.015625, 187500.015625, 187500.015625, 187500.015625, 178498.515625, 187500.015625, 0, 1, 1, 0, 1,0.04391379,0.09909371,0.12982813,0.25411868,0.6823792, 11:45:05.803
187500.015625, 187500.015625, 187500.015625, 187500.015625, 187500.015625, 187500.015625, 178489.531250, 187500.015625, 0, 1, 1, 0, 1,0.04391379,0.09909371,0.12982813,0.25411868,0.6823792, 11:45:05.803
187500.015625, 187500.015625, 187500.015625, 187500.015625, 187500.015625, 187500.015625, 178478.984375, 187500.015625, 0, 1, 1, 0, 1,0.04391379,0.09909371,0.12982813,0.25411868,0.6823792, 11:45:05.803
187500.015625, 187500.015625, 187500.015625, 187500.015625, 187500.015625, 187500.015625, 178468.250000, 187500.015625, 0, 1, 1, 0, 1,0.04391379,0.09909371,0.12982813,0.25411868,0.6823792, 11:45:05.803
187500.015625, 187500.015625, 187500.015625, 187500.015625, 187500.015625, 187500.015625, 178456.671875, 187500.015625, 0, 1, 1, 0, 1,0.04391379,0.09909371,0.12982813,0.25411868,0.6823792, 11:45:05.803
187500.015625, 187500.015625, 187500.015625, 187500.015625, 187500.015625, 187500.015625, 178446.578125, 187500.015625, 0, 1, 1, 0, 1,0.04391379,0.09909371,0.12982813,0.25411868,0.6823792, 11:45:05.803
187500.015625, 187500.015625, 187500.015625, 187500.015625, 187500.015625, 187500.015625, 178437.015625, 187500.015625, 0, 1, 1, 0, 1,0.04391379,0.09909371,0.12982813,0.25411868,0.6823792, 11:45:05.804
187500.015625, 187500.015625, 187500.015625, 187500.015625, 187500.015625, 187500.015625, 178427.625000, 187500.015625, 0, 1, 1, 0, 1,0.04391379,0.09909371,0.12982813,0.25411868,0.6823792, 11:45:05.804
187500.015625, 187500.015625, 187500.015625, 187500.015625, 187500.015625, 187500.015625, 178415.796875, 187500.015625, 0, 1, 1, 0, 1,0.04391379,0.09909371,0.12982813,0.25411868,0.6823792, 11:45:05.804
187500.015625, 187500.015625, 187500.015625, 187500.015625, 187500.015625, 187500.015625, 178404.515625, 187500.015625, 0, 1, 1, 0, 1,0.04391379,0.09909371,0.12982813,0.25411868,0.6823792, 11:45:05.805
187500.015625, 187500.015625, 187500.015625, 187500.015625, 187500.015625, 187500.015625, 178396.281250, 187500.015625, 0, 1, 1, 0, 1,0.04391379,0.09909371,0.12982813,0.25411868,0.6823792, 11:45:05.805
187500.015625, 187500.015625, 187500.015625, 187500.015625, 187500.015625, 187500.015625, 178386.265625, 187500.015625, 0, 1, 1, 0, 1,0.04391379,0.09909371,0.12982813,0.25411868,0.6823792, 11:45:05.805
187500.015625, 187500.015625, 187500.015625, 187500.015625, 187500.015625, 187500.015625, 178373.375000, 187500.015625, 0, 1, 1, 0, 1,0.04391379,0.09909371,0.12982813,0.25411868,0.6823792, 11:45:05.805
187500.015625, 187500.015625, 187500.015625, 187500.015625, 187500.015625, 187500.015625, 178365.437500, 187500.015625, 0, 1, 1, 0, 1,0.04391379,0.09909371,0.12982813,0.25411868,0.6823792, 11:45:05.806
187500.015625, 187500.015625, 187500.015625, 187500.015625, 187500.015625, 187500.015625, 178356.312500, 187500.015625, 0, 1, 1, 0, 1,0.04391379,0.09909371,0.12982813,0.25411868,0.6823792, 11:45:05.806
187500.015625, 187500.015625, 187500.015625, 187500.015625, 187500.015625, 187500.015625, 178342.687500, 187500.015625, 0, 1, 1, 0, 1,0.04391379,0.09909371,0.12982813,0.25411868,0.6823792, 11:45:05.806
187500.015625, 187500.015625, 187500.015625, 187500.015625, 187500.015625, 187500.015625, 178330.968750, 187500.015625, 0, 1, 1, 0, 1,0.04391379,0.09909371,0.12982813,0.25411868,0.6823792, 11:45:05.806
187500.015625, 187500.015625, 187500.015625, 187500.015625, 187500.015625, 187500.015625, 178322.390625, 187500.015625, 0, 1, 1, 0, 1,0.04391379,0.09909371,0.12982813,0.25411868,0.6823792, 11:45:05.806
187500.015625, 187500.015625, 187500.015625, 187500.015625, 187500.015625, 187500.015625, 178312.687500, 187500.015625, 0, 1, 1, 0, 1,0.04391379,0.09909371,0.12982813,0.25411868,0.6823792, 11:45:05.806
187500.015625, 187500.015625, 187500.015625, 187500.015625, 187500.015625, 187500.015625, 178301.109375, 187500.015625, 0, 1, 1, 0, 1,0.04391379,0.09909371,0.12982813,0.25411868,0.6823792, 11:45:05.806
187500.015625, 187500.015625, 187500.015625, 187500.015625, 187500.015625, 187500.015625, 178289.468750, 187500.015625, 0, 1, 1, 0, 1,0.04391379,0.09909371,0.12982813,0.25411868,0.6823792, 11:45:05.807
187500.015625, 187500.015625, 187500.015625, 187500.015625, 187500.015625, 187500.015625, 178278.781250, 187500.015625, 0, 1, 1, 0, 1,0.04391379,0.09909371,0.12982813,0.25411868,0.6823792, 11:45:05.807
187500.015625, 187500.015625, 187500.015625, 187500.015625, 187500.015625, 187500.015625, 178269.640625, 187500.015625, 0, 1, 1, 0, 1,0.04391379,0.09909371,0.12982813,0.25411868,0.6823792, 11:45:05.807
187500.015625, 187500.015625, 187500.015625, 187500.015625, 187500.015625, 187500.015625, 178260.000000, 187500.015625, 0, 1, 1, 0, 1,0.04391379,0.09909371,0.12982813,0.25411868,0.6823792, 11:45:05.808
187500.015625, 187500.015625, 187500.015625, 187500.015625, 187500.015625, 187500.015625, 178249.140625, 187500.015625, 0, 1, 1, 0, 1,0.04391379,0.09909371,0.12982813,0.25411868,0.6823792, 11:45:05.808
187500.015625, 187500.015625, 187500.015625, 187500.015625, 187500.015625, 187500.015625, 178237.125000, 187500.015625, 0, 1, 1, 0, 1,0.04391379,0.09909371,0.12982813,0.25411868,0.6823792, 11:45:05.808
187500.015625, 187500.015625, 187500.015625, 187500.015625, 187500.015625, 187500.015625, 178228.250000, 187500.015625, 0, 1, 1, 0, 1,0.04391379,0.09909371,0.12982813,0.25411868,0.6823792, 11:45:05.809
187500.015625, 187500.015625, 187500.015625, 187500.015625, 187500.015625, 187500.015625, 178220.015625, 187500.015625, 0, 1, 1, 0, 1,0.04391379,0.09909371,0.12982813,0.25411868,0.6823792, 11:45:05.809
187500.015625, 187500.015625, 187500.015625, 187500.015625, 187500.015625, 187500.015625, 178208.750000, 187500.015625, 0, 1, 1, 0, 1,0.04391379,0.09909371,0.12982813,0.25411868,0.6823792, 11:45:05.809
187500.015625, 187500.015625, 187500.015625, 187500.015625, 187500.015625, 187500.015625, 178196.968750, 187500.015625, 0, 1, 1, 0, 1,0.04391379,0.09909371,0.12982813,0.25411868,0.6823792, 11:45:05.809
187500.015625, 187500.015625, 187500.015625, 187500.015625, 187500.015625, 187500.015625, 178187.718750, 187500.015625, 0, 1, 1, 0, 1,0.04391379,0.09909371,0.12982813,0.25411868,0.6823792, 11:45:05.809
187500.015625, 187500.015625, 187500.015625, 187500.015625, 187500.015625, 187500.015625, 178177.859375, 187500.015625, 0, 1, 1, 0, 1,0.04391379,0.09909371,0.12982813,0.25411868,0.6823792, 11:45:05.810
187500.015625, 187500.015625, 187500.015625, 187500.015625, 187500.015625, 187500.015625, 178168.750000, 187500.015625, 0, 1, 1, 0, 1,0.04391379,0.09909371,0.12982813,0.25411868,0.6823792, 11:45:05.810
187500.015625, 187500.015625, 187500.015625, 187500.015625, 187500.015625, 187500.015625, 178155.093750, 187500.015625, 0, 1, 1, 0, 1,0.04391379,0.09909371,0.12982813,0.25411868,0.6823792, 11:45:05.810
187500.015625, 187500.015625, 187500.015625, 187500.015625, 187500.015625, 187500.015625, 178143.796875, 187500.015625, 0, 1, 1, 0, 1,0.04391379,0.09909371,0.12982813,0.25411868,0.6823792, 11:45:05.810
187500.015625, 187500.015625, 187500.015625, 187500.015625, 187500.015625, 187500.015625, 178133.156250, 187500.015625, 0, 1, 1, 0, 1,0.04391379,0.09909371,0.12982813,0.25411868,0.6823792, 11:45:05.810
187500.015625, 187500.015625, 187500.015625, 187500.015625, 187500.015625, 187500.015625, 178123.531250, 187500.015625, 0, 1, 1, 0, 1,0.04391379,0.09909371,0.12982813,0.25411868,0.6823792, 11:45:05.810
187500.015625, 187500.015625, 187500.015625, 187500.015625, 187500.015625, 187500.015625, 178114.546875, 187500.015625, 0, 1, 1, 0, 1,0.04391379,0.09909371,0.12982813,0.25411868,0.6823792, 11:45:05.811
187500.015625, 187500.015625, 187500.015625, 187500.015625, 187500.015625, 187500.015625, 178102.984375, 187500.015625, 0, 1, 1, 0, 1,0.04391379,0.09909371,0.12982813,0.25411868,0.6823792, 11:45:05.811
187500.015625, 187500.015625, 187500.015625, 187500.015625, 187500.015625, 187500.015625, 178093.125000, 187500.015625, 0, 1, 1, 0, 1,0.04391379,0.09909371,0.12982813,0.25411868,0.6823792, 11:45:05.811
187500.015625, 187500.015625, 187500.015625, 187500.015625, 187500.015625, 187500.015625, 178081.796875, 187500.015625, 0, 1, 1, 0, 1,0.04391379,0.09909371,0.12982813,0.25411868,0.6823792, 11:45:05.811
187500.015625, 187500.015625, 187500.015625, 187500.015625, 187500.015625, 187500.015625, 178070.671875, 187500.015625, 0, 1, 1, 0, 1,0.04391379,0.09909371,0.12982813,0.25411868,0.6823792, 11:45:05.812
187500.015625, 187500.015625, 187500.015625, 187500.015625, 187500.015625, 187500.015625, 178060.375000, 187500.015625, 0, 1, 1, 0, 1,0.04391379,0.09909371,0.12982813,0.25411868,0.6823792, 11:45:05.812
187500.015625, 187500.015625, 187500.015625, 187500.015625, 187500.015625, 187500.015625, 178052.000000, 187500.015625, 0, 1, 1, 0, 1,0.04391379,0.09909371,0.12982813,0.25411868,0.6823792, 11:45:05.812
187500.015625, 187500.015625, 187500.015625, 187500.015625, 187500.015625, 187500.015625, 178042.453125, 187500.015625, 0, 1, 1, 0, 1,0.04391379,0.09909371,0.12982813,0.25411868,0.6823792, 11:45:05.813
187500.015625, 187500.015625, 187500.015625, 187500.015625, 187500.015625, 187500.015625, 178031.328125, 187500.015625, 0, 1, 1, 0, 1,0.04391379,0.09909371,0.12982813,0.25411868,0.6823792, 11:45:05.813
187500.015625, 187500.015625, 187500.015625, 187500.015625, 187500.015625, 187500.015625, 178021.265625, 187500.015625, 0, 1, 1, 0, 1,0.04391379,0.09909371,0.12982813,0.25411868,0.6823792, 11:45:05.813
187500.015625, 187500.015625, 187500.015625, 187500.015625, 187500.015625, 187500.015625, 178010.531250, 187500.015625, 0, 1, 1, 0, 1,0.04391379,0.09909371,0.12982813,0.25411868,0.6823792, 11:45:05.813
187500.015625, 187500.015625, 187500.015625, 187500.015625, 187500.015625, 187500.015625, 178001.171875, 187500.015625, 0, 1, 1, 0, 1,0.04391379,0.09909371,0.12982813,0.25411868,0.6823792, 11:45:05.813
187500.015625, 187500.015625, 187500.015625, 187500.015625, 187500.015625, 187500.015625, 177991.093750, 187500.015625, 0, 1, 1, 0, 1,0.04391379,0.09909371,0.12982813,0.25411868,0.6823792, 11:45:05.814
187500.015625, 187500.015625, 187500.015625, 187500.015625, 187500.015625, 187500.015625, 177979.203125, 187500.015625, 0, 1, 1, 0, 1,0.0048354496,0.0131401,0.02641108,0.035310414,0.021617929, 11:45:06.268
187500.015625, 187500.015625, 187500.015625, 187500.015625, 187500.015625, 187500.015625, 177969.140625, 187500.015625, 0, 1, 1, 0, 1,0.0048354496,0.0131401,0.02641108,0.035310414,0.021617929, 11:45:06.268
187500.015625, 187500.015625, 187500.015625, 187500.015625, 187500.015625, 187500.015625, 177961.234375, 187500.015625, 0, 1, 1, 0, 1,0.0048354496,0.0131401,0.02641108,0.035310414,0.021617929, 11:45:06.268
187500.015625, 187500.015625, 187500.015625, 187500.015625, 187500.015625, 187500.015625, 177948.562500, 187500.015625, 0, 1, 1, 0, 1,0.0048354496,0.0131401,0.02641108,0.035310414,0.021617929, 11:45:06.268
187500.015625, 187500.015625, 187500.015625, 187500.015625, 187500.015625, 187500.015625, 177935.343750, 187500.015625, 0, 1, 1, 0, 1,0.0048354496,0.0131401,0.02641108,0.035310414,0.021617929, 11:45:06.268
187500.015625, 187500.015625, 187500.015625, 187500.015625, 187500.015625, 187500.015625, 177925.578125, 187500.015625, 0, 1, 1, 0, 1,0.0048354496,0.0131401,0.02641108,0.035310414,0.021617929, 11:45:06.269
187500.015625, 187500.015625, 187500.015625, 187500.015625, 187500.015625, 187500.015625, 177913.171875, 187500.015625, 0, 1, 1, 0, 1,0.0048354496,0.0131401,0.02641108,0.035310414,0.021617929, 11:45:06.269
187500.015625, 187500.015625, 187500.015625, 187500.015625, 187500.015625, 187500.015625, 177901.968750, 187500.015625, 0, 1, 1, 0, 1,0.0048354496,0.0131401,0.02641108,0.035310414,0.021617929, 11:45:06.269
187500.015625, 187500.015625, 187500.015625, 187500.015625, 187500.015625, 187500.015625, 177890.328125, 187500.015625, 0, 1, 1, 0, 1,0.0048354496,0.0131401,0.02641108,0.035310414,0.021617929, 11:45:06.269
187500.015625, 187500.015625, 187500.015625, 187500.015625, 187500.015625, 187500.015625, 177883.265625, 187500.015625, 0, 1, 1, 0, 1,0.0048354496,0.0131401,0.02641108,0.035310414,0.021617929, 11:45:06.269
187500.015625, 187500.015625, 187500.015625, 187500.015625, 187500.015625, 187500.015625, 177874.328125, 187500.015625, 0, 1, 1, 0, 1,0.0048354496,0.0131401,0.02641108,0.035310414,0.021617929, 11:45:06.270
187500.015625, 187500.015625, 187500.015625, 187500.015625, 187500.015625, 187500.015625, 177864.015625, 187500.015625, 0, 1, 1, 0, 1,0.0048354496,0.0131401,0.02641108,0.035310414,0.021617929, 11:45:06.270
187500.015625, 187500.015625, 187500.015625, 187500.015625, 187500.015625, 187500.015625, 177851.953125, 187500.015625, 0, 1, 1, 0, 1,0.0048354496,0.0131401,0.02641108,0.035310414,0.021617929, 11:45:06.270
187500.015625, 187500.015625, 187500.015625, 187500.015625, 187500.015625, 187500.015625, 177841.062500, 187500.015625, 0, 1, 1, 0, 1,0.0048354496,0.0131401,0.02641108,0.035310414,0.021617929, 11:45:06.270
187500.015625, 187500.015625, 187500.015625, 187500.015625, 187500.015625, 187500.015625, 177829.593750, 187500.015625, 0, 1, 1, 0, 1,0.0048354496,0.0131401,0.02641108,0.035310414,0.021617929, 11:45:06.270
187500.015625, 187500.015625, 187500.015625, 187500.015625, 187500.015625, 187500.015625, 177821.859375, 187500.015625, 0, 1, 1, 0, 1,0.0048354496,0.0131401,0.02641108,0.035310414,0.021617929, 11:45:06.271
187500.015625, 187500.015625, 187500.015625, 187500.015625, 187500.015625, 187500.015625, 177811.828125, 187500.015625, 0, 1, 1, 0, 1,0.0048354496,0.0131401,0.02641108,0.035310414,0.021617929, 11:45:06.271
187500.015625, 187500.015625, 187500.015625, 187500.015625, 187500.015625, 187500.015625, 177799.812500, 187500.015625, 0, 1, 1, 0, 1,0.0048354496,0.0131401,0.02641108,0.035310414,0.021617929, 11:45:06.271
187500.015625, 187500.015625, 187500.015625, 187500.015625, 187500.015625, 187500.015625, 177789.484375, 187500.015625, 0, 1, 1, 0, 1,0.0048354496,0.0131401,0.02641108,0.035310414,0.021617929, 11:45:06.271
187500.015625, 187500.015625, 187500.015625, 187500.015625, 187500.015625, 187500.015625, 177780.578125, 187500.015625, 0, 1, 1, 0, 1,0.0048354496,0.0131401,0.02641108,0.035310414,0.021617929, 11:45:06.271
187500.015625, 187500.015625, 187500.015625, 187500.015625, 187500.015625, 187500.015625, 177770.125000, 187500.015625, 0, 1, 1, 0, 1,0.0048354496,0.0131401,0.02641108,0.035310414,0.021617929, 11:45:06.272
187500.015625, 187500.015625, 187500.015625, 187500.015625, 187500.015625, 187500.015625, 177759.750000, 187500.015625, 0, 1, 1, 0, 1,0.0048354496,0.0131401,0.02641108,0.035310414,0.021617929, 11:45:06.273
187500.015625, 187500.015625, 187500.015625, 187500.015625, 187500.015625, 187500.015625, 177750.625000, 187500.015625, 0, 1, 1, 0, 1,0.0048354496,0.0131401,0.02641108,0.035310414,0.021617929, 11:45:06.274
187500.015625, 187500.015625, 187500.015625, 187500.015625, 187500.015625, 187500.015625, 177741.328125, 187500.015625, 0, 1, 1, 0, 1,0.0048354496,0.0131401,0.02641108,0.035310414,0.021617929, 11:45:06.274
187500.015625, 187500.015625, 187500.015625, 187500.015625, 187500.015625, 187500.015625, 177731.140625, 187500.015625, 0, 1, 1, 0, 1,0.0048354496,0.0131401,0.02641108,0.035310414,0.021617929, 11:45:06.274
187500.015625, 187500.015625, 187500.015625, 187500.015625, 187500.015625, 187500.015625, 177718.109375, 187500.015625, 0, 1, 1, 0, 1,0.0048354496,0.0131401,0.02641108,0.035310414,0.021617929, 11:45:06.274
187500.015625, 187500.015625, 187500.015625, 187500.015625, 187500.015625, 187500.015625, 177707.968750, 187500.015625, 0, 1, 1, 0, 1,0.0048354496,0.0131401,0.02641108,0.035310414,0.021617929, 11:45:06.275
187500.015625, 187500.015625, 187500.015625, 187500.015625, 187500.015625, 187500.015625, 177699.890625, 187500.015625, 0, 1, 1, 0, 1,0.0048354496,0.0131401,0.02641108,0.035310414,0.021617929, 11:45:06.275
187500.015625, 187500.015625, 187500.015625, 187500.015625, 187500.015625, 187500.015625, 177687.953125, 187500.015625, 0, 1, 1, 0, 1,0.0048354496,0.0131401,0.02641108,0.035310414,0.021617929, 11:45:06.275
187500.015625, 187500.015625, 187500.015625, 187500.015625, 187500.015625, 187500.015625, 177675.781250, 187500.015625, 0, 1, 1, 0, 1,0.0048354496,0.0131401,0.02641108,0.035310414,0.021617929, 11:45:06.275
187500.015625, 187500.015625, 187500.015625, 187500.015625, 187500.015625, 187500.015625, 177666.656250, 187500.015625, 0, 1, 1, 0, 1,0.0048354496,0.0131401,0.02641108,0.035310414,0.021617929, 11:45:06.275
187500.015625, 187500.015625, 187500.015625, 187500.015625, 187500.015625, 187500.015625, 177655.890625, 187500.015625, 0, 1, 1, 0, 1,0.0048354496,0.0131401,0.02641108,0.035310414,0.021617929, 11:45:06.275
187500.015625, 187500.015625, 187500.015625, 187500.015625, 187500.015625, 187500.015625, 177645.515625, 187500.015625, 0, 1, 1, 0, 1,0.0048354496,0.0131401,0.02641108,0.035310414,0.021617929, 11:45:06.276
187500.015625, 187500.015625, 187500.015625, 187500.015625, 187500.015625, 187500.015625, 177633.171875, 187500.015625, 0, 1, 1, 0, 1,0.0048354496,0.0131401,0.02641108,0.035310414,0.021617929, 11:45:06.276
187500.015625, 187500.015625, 187500.015625, 187500.015625, 187500.015625, 187500.015625, 177624.234375, 187500.015625, 0, 1, 1, 0, 1,0.0048354496,0.0131401,0.02641108,0.035310414,0.021617929, 11:45:06.276
187500.015625, 187500.015625, 187500.015625, 187500.015625, 187500.015625, 187500.015625, 177618.312500, 187500.015625, 0, 1, 1, 0, 1,0.0048354496,0.0131401,0.02641108,0.035310414,0.021617929, 11:45:06.276
187500.015625, 187500.015625, 187500.015625, 187500.015625, 187500.015625, 187500.015625, 177607.203125, 187500.015625, 0, 1, 1, 0, 1,0.0048354496,0.0131401,0.02641108,0.035310414,0.021617929, 11:45:06.276
187500.015625, 187500.015625, 187500.015625, 187500.015625, 187500.015625, 187500.015625, 177595.421875, 187500.015625, 0, 1, 1, 0, 1,0.0048354496,0.0131401,0.02641108,0.035310414,0.021617929, 11:45:06.276
187500.015625, 187500.015625, 187500.015625, 187500.015625, 187500.015625, 187500.015625, 177583.125000, 187500.015625, 0, 1, 1, 0, 1,0.0048354496,0.0131401,0.02641108,0.035310414,0.021617929, 11:45:06.276
187500.015625, 187500.015625, 187500.015625, 187500.015625, 187500.015625, 187500.015625, 177572.109375, 187500.015625, 0, 1, 1, 0, 1,0.0048354496,0.0131401,0.02641108,0.035310414,0.021617929, 11:45:06.276
187500.015625, 187500.015625, 187500.015625, 187500.015625, 187500.015625, 187500.015625, 177564.640625, 187500.015625, 0, 1, 1, 0, 1,0.0048354496,0.0131401,0.02641108,0.035310414,0.021617929, 11:45:06.277
187500.015625, 187500.015625, 187500.015625, 187500.015625, 187500.015625, 187500.015625, 177554.406250, 187500.015625, 0, 1, 1, 0, 1,0.0048354496,0.0131401,0.02641108,0.035310414,0.021617929, 11:45:06.277
187500.015625, 187500.015625, 187500.015625, 187500.015625, 187500.015625, 187500.015625, 177543.968750, 187500.015625, 0, 1, 1, 0, 1,0.0048354496,0.0131401,0.02641108,0.035310414,0.021617929, 11:45:06.277
187500.015625, 187500.015625, 187500.015625, 187500.015625, 187500.015625, 187500.015625, 177532.390625, 187500.015625, 0, 1, 1, 0, 1,0.0048354496,0.0131401,0.02641108,0.035310414,0.021617929, 11:45:06.277
187500.015625, 187500.015625, 187500.015625, 187500.015625, 187500.015625, 187500.015625, 177520.859375, 187500.015625, 0, 1, 1, 0, 1,0.0048354496,0.0131401,0.02641108,0.035310414,0.021617929, 11:45:06.277
187500.015625, 187500.015625, 187500.015625, 187500.015625, 187500.015625, 187500.015625, 177512.390625, 187500.015625, 0, 1, 1, 0, 1,0.0048354496,0.0131401,0.02641108,0.035310414,0.021617929, 11:45:06.277
187500.015625, 187500.015625, 187500.015625, 187500.015625, 187500.015625, 187500.015625, 177499.593750, 187500.015625, 0, 1, 1, 0, 1,0.0048354496,0.0131401,0.02641108,0.035310414,0.021617929, 11:45:06.277
187500.015625, 187500.015625, 187500.015625, 187500.015625, 187500.015625, 187500.015625, 177489.984375, 187500.015625, 0, 1, 1, 0, 1,0.0048354496,0.0131401,0.02641108,0.035310414,0.021617929, 11:45:06.277
187500.015625, 187500.015625, 187500.015625, 187500.015625, 187500.015625, 187500.015625, 177478.921875, 187500.015625, 0, 1, 1, 0, 1,0.0048354496,0.0131401,0.02641108,0.035310414,0.021617929, 11:45:06.277
187500.015625, 187500.015625, 187500.015625, 187500.015625, 187500.015625, 187500.015625, 177467.343750, 187500.015625, 0, 1, 1, 0, 1,0.0048354496,0.0131401,0.02641108,0.035310414,0.021617929, 11:45:06.278
187500.015625, 187500.015625, 187500.015625, 187500.015625, 187500.015625, 187500.015625, 177455.921875, 187500.015625, 0, 1, 1, 0, 1,0.0048354496,0.0131401,0.02641108,0.035310414,0.021617929, 11:45:06.278
187500.015625, 187500.015625, 187500.015625, 187500.015625, 187500.015625, 187500.015625, 177443.437500, 187500.015625, 0, 1, 1, 0, 1,0.0048354496,0.0131401,0.02641108,0.035310414,0.021617929, 11:45:06.278
187500.015625, 187500.015625, 187500.015625, 187500.015625, 187500.015625, 187500.015625, 177436.515625, 187500.015625, 0, 1, 1, 0, 1,0.0048354496,0.0131401,0.02641108,0.035310414,0.021617929, 11:45:06.278
187500.015625, 187500.015625, 187500.015625, 187500.015625, 187500.015625, 187500.015625, 177426.468750, 187500.015625, 0, 1, 1, 0, 1,0.0048354496,0.0131401,0.02641108,0.035310414,0.021617929, 11:45:06.278
187500.015625, 187500.015625, 187500.015625, 187500.015625, 187500.015625, 187500.015625, 177413.859375, 187500.015625, 0, 1, 1, 0, 1,0.0048354496,0.0131401,0.02641108,0.035310414,0.021617929, 11:45:06.278
187500.015625, 187500.015625, 187500.015625, 187500.015625, 187500.015625, 187500.015625, 177403.531250, 187500.015625, 0, 1, 1, 0, 1,0.0048354496,0.0131401,0.02641108,0.035310414,0.021617929, 11:45:06.278
