%OpenBCI Raw EEG Data
%
%Sample Rate = 250.0 Hz
%First Column = SampleIndex
%5 Columns before Timestamp are Frequency Power factors DELTA THETA ALPHA BETA GAMMA
%Last Column = Timestamp 
%Other Columns = EEG data in microvolts followed by Accel Data (in G) interleaved with Aux Data
0.000000, 0.000000, 0.000000, 0.000000, 0.000000, 0.000000, 0.000000, 0.000000, 0, 1, 1, 0, 1,0.0,0.0,0.0,0.0,0.0, 10:29:49.444
22349.441406, 42728.085938, 187500.015625, 187500.015625, 55458.765625, 40896.539063, 59900.527344, 85265.328125, 0, 1, 1, 0, 1,0.0,0.0,0.0,0.0,0.0, 10:29:49.919
22340.791016, 42721.445313, 187500.015625, 187500.015625, 55554.230469, 40934.113281, 59849.164063, 85204.195313, 0, 1, 1, 0, 1,0.0,0.0,0.0,0.0,0.0, 10:29:49.920
22425.884766, 42833.808594, 187500.015625, 187500.015625, 55275.593750, 40680.308594, 59755.933594, 85182.609375, 0, 1, 1, 0, 1,0.0,0.0,0.0,0.0,0.0, 10:29:49.920
22463.525391, 42873.953125, 187500.015625, 187500.015625, 55120.785156, 40597.046875, 59794.175781, 85247.093750, 0, 1, 1, 0, 1,0.0,0.0,0.0,0.0,0.0, 10:29:49.920
22388.378906, 42769.816406, 187500.015625, 187500.015625, 55376.578125, 40850.941406, 59895.500000, 85289.203125, 0, 1, 1, 0, 1,0.0,0.0,0.0,0.0,0.0, 10:29:49.920
22348.658203, 42722.250000, 187500.015625, 187500.015625, 55560.535156, 40962.410156, 59879.093750, 85231.023438, 0, 1, 1, 0, 1,0.0,0.0,0.0,0.0,0.0, 10:29:49.920
22416.318359, 42813.000000, 187500.015625, 187500.015625, 55338.558594, 40733.796875, 59777.593750, 85185.757813, 0, 1, 1, 0, 1,0.0,0.0,0.0,0.0,0.0, 10:29:49.920
22455.611328, 42860.406250, 187500.015625, 187500.015625, 55137.750000, 40589.023438, 59779.000000, 85224.492188, 0, 1, 1, 0, 1,0.0,0.0,0.0,0.0,0.0, 10:29:49.920
22394.189453, 42777.058594, 187500.015625, 187500.015625, 55328.589844, 40799.933594, 59879.292969, 85282.296875, 0, 1, 1, 0, 1,0.0,0.0,0.0,0.0,0.0, 10:29:49.920
22331.449219, 42697.015625, 187500.015625, 187500.015625, 55572.781250, 40979.621094, 59891.363281, 85246.867188, 0, 1, 1, 0, 1,0.0,0.0,0.0,0.0,0.0, 10:29:49.920
22395.218750, 42783.851563, 187500.015625, 187500.015625, 55412.140625, 40799.085938, 59799.832031, 85203.078125, 0, 1, 1, 0, 1,0.0,0.0,0.0,0.0,0.0, 10:29:49.920
22467.189453, 42873.035156, 187500.015625, 187500.015625, 55147.742188, 40595.328125, 59778.597656, 85226.351563, 0, 1, 1, 0, 1,0.0,0.0,0.0,0.0,0.0, 10:29:49.921
22416.697266, 42799.519531, 187500.015625, 187500.015625, 55282.433594, 40757.421875, 59874.980469, 85283.367188, 0, 1, 1, 0, 1,0.0,0.0,0.0,0.0,0.0, 10:29:49.921
22345.910156, 42709.175781, 187500.015625, 187500.015625, 55562.433594, 40972.625000, 59904.550781, 85253.171875, 0, 1, 1, 0, 1,0.0,0.0,0.0,0.0,0.0, 10:29:49.921
22386.544922, 42766.707031, 187500.015625, 187500.015625, 55465.984375, 40839.140625, 59814.250000, 85195.796875, 0, 1, 1, 0, 1,0.0,0.0,0.0,0.0,0.0, 10:29:49.921
22455.208984, 42858.730469, 187500.015625, 187500.015625, 55172.640625, 40603.105469, 59770.261719, 85219.507813, 0, 1, 1, 0, 1,0.0,0.0,0.0,0.0,0.0, 10:29:49.921
22422.912109, 42812.886719, 187500.015625, 187500.015625, 55229.593750, 40703.843750, 59852.179688, 85282.609375, 0, 1, 1, 0, 1,0.0,0.0,0.0,0.0,0.0, 10:29:49.921
22342.265625, 42704.949219, 187500.015625, 187500.015625, 55526.515625, 40955.589844, 59906.605469, 85267.031250, 0, 1, 1, 0, 1,0.0,0.0,0.0,0.0,0.0, 10:29:49.921
22362.896484, 42737.875000, 187500.015625, 187500.015625, 55510.644531, 40883.933594, 59828.332031, 85196.484375, 0, 1, 1, 0, 1,0.0,0.0,0.0,0.0,0.0, 10:29:49.921
22451.343750, 42852.761719, 187500.015625, 187500.015625, 55211.398438, 40623.890625, 59766.304688, 85195.703125, 0, 1, 1, 0, 1,0.0,0.0,0.0,0.0,0.0, 10:29:49.921
22455.925781, 42848.648438, 187500.015625, 187500.015625, 55178.007813, 40652.835938, 59840.000000, 85274.117188, 0, 1, 1, 0, 1,0.0,0.0,0.0,0.0,0.0, 10:29:49.922
22363.835938, 42727.792969, 187500.015625, 187500.015625, 55472.199219, 40922.957031, 59910.921875, 85278.585938, 0, 1, 1, 0, 1,0.0,0.0,0.0,0.0,0.0, 10:29:49.922
22362.494141, 42730.519531, 187500.015625, 187500.015625, 55533.621094, 40923.718750, 59842.660156, 85201.046875, 0, 1, 1, 0, 1,0.0,0.0,0.0,0.0,0.0, 10:29:49.922
22445.597656, 42842.972656, 187500.015625, 187500.015625, 55242.468750, 40666.449219, 59756.894531, 85189.851563, 0, 1, 1, 0, 1,0.0,0.0,0.0,0.0,0.0, 10:29:49.922
22458.943359, 42855.757813, 187500.015625, 187500.015625, 55146.714844, 40638.019531, 59810.113281, 85264.390625, 0, 1, 1, 0, 1,0.0,0.0,0.0,0.0,0.0, 10:29:49.922
22371.390625, 42737.761719, 187500.015625, 187500.015625, 55428.949219, 40904.160156, 59898.269531, 85277.757813, 0, 1, 1, 0, 1,0.0,0.0,0.0,0.0,0.0, 10:29:49.922
22353.888672, 42717.468750, 187500.015625, 187500.015625, 55559.593750, 40965.203125, 59864.765625, 85218.054688, 0, 1, 1, 0, 1,0.0,0.0,0.0,0.0,0.0, 10:29:49.922
22430.845703, 42822.746094, 187500.015625, 187500.015625, 55305.968750, 40718.527344, 59773.078125, 85187.789063, 0, 1, 1, 0, 1,0.0,0.0,0.0,0.0,0.0, 10:29:49.922
22477.449219, 42879.742188, 187500.015625, 187500.015625, 55124.785156, 40609.519531, 59800.390625, 85253.078125, 0, 1, 1, 0, 1,0.0,0.0,0.0,0.0,0.0, 10:29:49.922
22398.123047, 42771.605469, 187500.015625, 187500.015625, 55366.878906, 40855.007813, 59904.015625, 85295.351563, 0, 1, 1, 0, 1,0.0,0.0,0.0,0.0,0.0, 10:29:49.923
22347.966797, 42709.445313, 187500.015625, 187500.015625, 55576.402344, 40991.667969, 59887.472656, 85239.468750, 0, 1, 1, 0, 1,0.0,0.0,0.0,0.0,0.0, 10:29:49.923
22410.685547, 42799.074219, 187500.015625, 187500.015625, 55369.382813, 40776.128906, 59782.980469, 85188.398438, 0, 1, 1, 0, 1,0.0,0.0,0.0,0.0,0.0, 10:29:49.923
22460.708984, 42865.527344, 187500.015625, 187500.015625, 55140.902344, 40611.687500, 59781.636719, 85235.492188, 0, 1, 1, 0, 1,0.0,0.0,0.0,0.0,0.0, 10:29:49.923
22399.263672, 42781.683594, 187500.015625, 187500.015625, 55314.777344, 40806.796875, 59882.914063, 85286.968750, 0, 1, 1, 0, 1,0.0,0.0,0.0,0.0,0.0, 10:29:49.923
22331.449219, 42695.093750, 187500.015625, 187500.015625, 55565.695313, 40987.195313, 59894.066406, 85236.835938, 0, 1, 1, 0, 1,0.0,0.0,0.0,0.0,0.0, 10:29:49.923
22386.835938, 42772.320313, 187500.015625, 187500.015625, 55414.933594, 40809.320313, 59790.312500, 85175.679688, 0, 1, 1, 0, 1,0.0,0.0,0.0,0.0,0.0, 10:29:49.923
22463.703125, 42869.906250, 187500.015625, 187500.015625, 55132.253906, 40594.207031, 59763.914063, 85213.382813, 0, 1, 1, 0, 1,0.0,0.0,0.0,0.0,0.0, 10:29:49.923
22410.328125, 42798.292969, 187500.015625, 187500.015625, 55251.921875, 40742.132813, 59859.378906, 85266.757813, 0, 1, 1, 0, 1,0.0,0.0,0.0,0.0,0.0, 10:29:49.923
22330.933594, 42698.691406, 187500.015625, 187500.015625, 55542.765625, 40969.093750, 59891.542969, 85234.039063, 0, 1, 1, 0, 1,0.0,0.0,0.0,0.0,0.0, 10:29:49.923
22368.507813, 42754.570313, 187500.015625, 187500.015625, 55469.250000, 40854.875000, 59801.128906, 85175.703125, 0, 1, 1, 0, 1,0.0,0.0,0.0,0.0,0.0, 10:29:49.924
22452.214844, 42862.910156, 187500.015625, 187500.015625, 55162.761719, 40606.078125, 59749.785156, 85201.695313, 0, 1, 1, 0, 1,0.0,0.0,0.0,0.0,0.0, 10:29:49.924
22427.806641, 42821.828125, 187500.015625, 187500.015625, 55197.230469, 40693.941406, 59836.914063, 85269.578125, 0, 1, 1, 0, 1,0.0,0.0,0.0,0.0,0.0, 10:29:49.924
22342.400391, 42709.355469, 187500.015625, 187500.015625, 55499.960938, 40953.578125, 59897.687500, 85253.328125, 0, 1, 1, 0, 1,0.0,0.0,0.0,0.0,0.0, 10:29:49.924
22362.673828, 42740.781250, 187500.015625, 187500.015625, 55499.425781, 40898.816406, 59828.265625, 85189.515625, 0, 1, 1, 0, 1,0.0,0.0,0.0,0.0,0.0, 10:29:49.924
22450.023438, 42853.589844, 187500.015625, 187500.015625, 55200.714844, 40635.066406, 59758.882813, 85193.914063, 0, 1, 1, 0, 1,0.0,0.0,0.0,0.0,0.0, 10:29:49.924
22447.833984, 42849.230469, 187500.015625, 187500.015625, 55163.230469, 40646.824219, 59825.714844, 85262.828125, 0, 1, 1, 0, 1,0.0,0.0,0.0,0.0,0.0, 10:29:49.924
22363.589844, 42738.476563, 187500.015625, 187500.015625, 55453.601563, 40913.503906, 59910.875000, 85278.453125, 0, 1, 1, 0, 1,0.0,0.0,0.0,0.0,0.0, 10:29:49.924
22341.976563, 42720.015625, 187500.015625, 187500.015625, 55545.289063, 40935.074219, 59856.539063, 85205.046875, 0, 1, 1, 0, 1,0.0,0.0,0.0,0.0,0.0, 10:29:49.925
22422.621094, 42829.605469, 187500.015625, 187500.015625, 55266.316406, 40679.121094, 59768.718750, 85185.781250, 0, 1, 1, 0, 1,0.0,0.0,0.0,0.0,0.0, 10:29:49.925
22450.539063, 42857.769531, 187500.015625, 187500.015625, 55142.957031, 40616.246094, 59808.863281, 85249.234375, 0, 1, 1, 0, 1,0.0,0.0,0.0,0.0,0.0, 10:29:49.925
22377.582031, 42757.699219, 187500.015625, 187500.015625, 55400.562500, 40868.128906, 59908.304688, 85285.781250, 0, 1, 1, 0, 1,0.0,0.0,0.0,0.0,0.0, 10:29:49.931
22348.615234, 42721.492188, 187500.015625, 187500.015625, 55554.117188, 40954.339844, 59875.671875, 85221.523438, 0, 1, 1, 0, 1,0.0,0.0,0.0,0.0,0.0, 10:29:49.931
22427.671875, 42822.609375, 187500.015625, 187500.015625, 55315.894531, 40718.125000, 59773.816406, 85183.859375, 0, 1, 1, 0, 1,0.0,0.0,0.0,0.0,0.0, 10:29:49.932
22479.373047, 42881.617188, 187500.015625, 187500.015625, 55118.214844, 40591.324219, 59789.148438, 85248.078125, 0, 1, 1, 0, 1,0.0,0.0,0.0,0.0,0.0, 10:29:49.932
22396.648438, 42769.347656, 187500.015625, 187500.015625, 55343.230469, 40825.437500, 59891.542969, 85290.546875, 0, 1, 1, 0, 1,0.0,0.0,0.0,0.0,0.0, 10:29:49.932
22339.875000, 42705.128906, 187500.015625, 187500.015625, 55568.425781, 40978.300781, 59883.382813, 85232.320313, 0, 1, 1, 0, 1,0.0,0.0,0.0,0.0,0.0, 10:29:49.932
22404.337891, 42796.414063, 187500.015625, 187500.015625, 55379.484375, 40775.906250, 59779.113281, 85178.070313, 0, 1, 1, 0, 1,0.0,0.0,0.0,0.0,0.0, 10:29:49.932
22470.251953, 42879.605469, 187500.015625, 187500.015625, 55127.312500, 40593.449219, 59774.015625, 85223.867188, 0, 1, 1, 0, 1,0.0,0.0,0.0,0.0,0.0, 10:29:49.932
22413.792969, 42806.964844, 187500.015625, 187500.015625, 55280.109375, 40781.515625, 59883.136719, 85292.781250, 0, 1, 1, 0, 1,0.0,0.0,0.0,0.0,0.0, 10:29:49.932
22335.896484, 42711.812500, 187500.015625, 187500.015625, 55551.792969, 40984.804688, 59897.867188, 85246.398438, 0, 1, 1, 0, 1,0.0,0.0,0.0,0.0,0.0, 10:29:49.932
22382.230469, 42781.750000, 187500.015625, 187500.015625, 55432.750000, 40827.226563, 59798.378906, 85183.281250, 0, 1, 1, 0, 1,0.0,0.0,0.0,0.0,0.0, 10:29:49.932
22458.919922, 42876.476563, 187500.015625, 187500.015625, 55154.558594, 40604.066406, 59767.535156, 85214.593750, 0, 1, 1, 0, 1,0.0,0.0,0.0,0.0,0.0, 10:29:49.932
22427.671875, 42826.968750, 187500.015625, 187500.015625, 55238.289063, 40725.792969, 59857.566406, 85278.093750, 0, 1, 1, 0, 1,0.0,0.0,0.0,0.0,0.0, 10:29:49.933
22339.250000, 42716.261719, 187500.015625, 187500.015625, 55528.972656, 40966.945313, 59901.152344, 85257.750000, 0, 1, 1, 0, 1,0.0,0.0,0.0,0.0,0.0, 10:29:49.934
22359.142578, 42751.019531, 187500.015625, 187500.015625, 55493.433594, 40875.953125, 59813.691406, 85185.757813, 0, 1, 1, 0, 1,0.0,0.0,0.0,0.0,0.0, 10:29:49.934
22453.623047, 42868.363281, 187500.015625, 187500.015625, 55192.535156, 40622.796875, 59756.582031, 85200.648438, 0, 1, 1, 0, 1,0.0,0.0,0.0,0.0,0.0, 10:29:49.934
22445.464844, 42845.855469, 187500.015625, 187500.015625, 55194.457031, 40676.820313, 59834.656250, 85266.289063, 0, 1, 1, 0, 1,0.0,0.0,0.0,0.0,0.0, 10:29:49.934
22358.917969, 42734.343750, 187500.015625, 187500.015625, 55496.921875, 40946.875000, 59910.964844, 85274.515625, 0, 1, 1, 0, 1,0.0,0.0,0.0,0.0,0.0, 10:29:49.935
22353.957031, 42738.433594, 187500.015625, 187500.015625, 55539.121094, 40925.417969, 59843.351563, 85204.398438, 0, 1, 1, 0, 1,0.0,0.0,0.0,0.0,0.0, 10:29:49.935
22444.503906, 42858.328125, 187500.015625, 187500.015625, 55237.839844, 40654.132813, 59760.226563, 85178.960938, 0, 1, 1, 0, 1,0.0,0.0,0.0,0.0,0.0, 10:29:49.935
22450.425781, 42860.675781, 187500.015625, 187500.015625, 55167.566406, 40645.730469, 59822.808594, 85255.585938, 0, 1, 1, 0, 1,0.0,0.0,0.0,0.0,0.0, 10:29:49.935
22361.175781, 42746.191406, 187500.015625, 187500.015625, 55450.519531, 40912.988281, 59906.851563, 85274.335938, 0, 1, 1, 0, 1,0.0,0.0,0.0,0.0,0.0, 10:29:49.935
22350.224609, 42737.562500, 187500.015625, 187500.015625, 55550.164063, 40948.820313, 59860.292969, 85209.671875, 0, 1, 1, 0, 1,0.0,0.0,0.0,0.0,0.0, 10:29:49.935
22439.720703, 42856.117188, 187500.015625, 187500.015625, 55269.066406, 40690.992188, 59769.078125, 85192.578125, 0, 1, 1, 0, 1,0.0,0.0,0.0,0.0,0.0, 10:29:49.935
22459.634766, 42879.093750, 187500.015625, 187500.015625, 55130.328125, 40614.707031, 59797.621094, 85245.171875, 0, 1, 1, 0, 1,0.0,0.0,0.0,0.0,0.0, 10:29:49.935
22376.308594, 42769.078125, 187500.015625, 187500.015625, 55385.898438, 40867.859375, 59892.925781, 85278.828125, 0, 1, 1, 0, 1,0.0,0.0,0.0,0.0,0.0, 10:29:49.935
22337.863281, 42724.957031, 187500.015625, 187500.015625, 55565.609375, 40976.132813, 59871.000000, 85220.742188, 0, 1, 1, 0, 1,0.0,0.0,0.0,0.0,0.0, 10:29:49.935
22415.468750, 42827.527344, 187500.015625, 187500.015625, 55341.261719, 40747.675781, 59782.621094, 85183.546875, 0, 1, 1, 0, 1,0.0,0.0,0.0,0.0,0.0, 10:29:49.936
22464.351563, 42886.691406, 187500.015625, 187500.015625, 55144.007813, 40612.222656, 59791.003906, 85242.578125, 0, 1, 1, 0, 1,0.0,0.0,0.0,0.0,0.0, 10:29:49.936
22391.238281, 42789.375000, 187500.015625, 187500.015625, 55353.242188, 40828.699219, 59883.113281, 85283.726563, 0, 1, 1, 0, 1,0.0,0.0,0.0,0.0,0.0, 10:29:49.936
22324.832031, 42713.265625, 187500.015625, 187500.015625, 55580.269531, 40982.750000, 59870.843750, 85219.867188, 0, 1, 1, 0, 1,0.0,0.0,0.0,0.0,0.0, 10:29:49.936
22377.648438, 42792.792969, 187500.015625, 187500.015625, 55404.742188, 40790.523438, 59775.199219, 85169.664063, 0, 1, 1, 0, 1,0.0,0.0,0.0,0.0,0.0, 10:29:49.936
22439.406250, 42875.628906, 187500.015625, 187500.015625, 55144.300781, 40595.707031, 59761.476563, 85213.671875, 0, 1, 1, 0, 1,0.0,0.0,0.0,0.0,0.0, 10:29:49.936
22392.669922, 42808.171875, 187500.015625, 187500.015625, 55277.785156, 40764.125000, 59861.234375, 85280.398438, 0, 1, 1, 0, 1,0.0,0.0,0.0,0.0,0.0, 10:29:49.936
22324.921875, 42718.808594, 187500.015625, 187500.015625, 55542.226563, 40977.027344, 59895.207031, 85249.976563, 0, 1, 1, 0, 1,0.0,0.0,0.0,0.0,0.0, 10:29:49.936
22352.638672, 42763.734375, 187500.015625, 187500.015625, 55445.312500, 40846.714844, 59804.773438, 85186.812500, 0, 1, 1, 0, 1,0.0,0.0,0.0,0.0,0.0, 10:29:49.937
22418.687500, 42853.007813, 187500.015625, 187500.015625, 55153.398438, 40608.917969, 59749.542969, 85200.195313, 0, 1, 1, 0, 1,0.0,0.0,0.0,0.0,0.0, 10:29:49.937
22379.437500, 42795.722656, 187500.015625, 187500.015625, 55218.621094, 40714.417969, 59832.957031, 85257.890625, 0, 1, 1, 0, 1,0.0,0.0,0.0,0.0,0.0, 10:29:49.937
22287.683594, 42681.234375, 187500.015625, 187500.015625, 55519.742188, 40960.218750, 59884.210938, 85238.507813, 0, 1, 1, 0, 1,5.3073675E-4,7.0303463E-4,8.6416694E-4,0.0027186286,0.003452852, 10:29:49.937
22314.953125, 42723.679688, 187500.015625, 187500.015625, 55489.589844, 40885.296875, 59810.605469, 85181.023438, 0, 1, 1, 0, 1,5.3073675E-4,7.0303463E-4,8.6416694E-4,0.0027186286,0.003452852, 10:29:49.937
22405.791016, 42841.632813, 187500.015625, 187500.015625, 55180.261719, 40624.339844, 59747.484375, 85183.320313, 0, 1, 1, 0, 1,5.3073675E-4,7.0303463E-4,8.6416694E-4,0.0027186286,0.003452852, 10:29:49.937
22396.402344, 42822.921875, 187500.015625, 187500.015625, 55164.574219, 40661.308594, 59823.503906, 85254.218750, 0, 1, 1, 0, 1,5.3073675E-4,7.0303463E-4,8.6416694E-4,0.0027186286,0.003452852, 10:29:49.937
22308.203125, 42704.144531, 187500.015625, 187500.015625, 55467.839844, 40929.933594, 59903.679688, 85260.835938, 0, 1, 1, 0, 1,5.3073675E-4,7.0303463E-4,8.6416694E-4,0.0027186286,0.003452852, 10:29:49.937
22311.935547, 42714.875000, 187500.015625, 187500.015625, 55518.445313, 40919.179688, 59842.570313, 85191.460938, 0, 1, 1, 0, 1,5.3073675E-4,7.0303463E-4,8.6416694E-4,0.0027186286,0.003452852, 10:29:49.937
22388.982422, 42819.773438, 187500.015625, 187500.015625, 55230.531250, 40656.972656, 59750.101563, 85169.085938, 0, 1, 1, 0, 1,5.3073675E-4,7.0303463E-4,8.6416694E-4,0.0027186286,0.003452852, 10:29:49.938
22404.917969, 42836.468750, 187500.015625, 187500.015625, 55137.101563, 40625.343750, 59790.644531, 85238.062500, 0, 1, 1, 0, 1,5.3073675E-4,7.0303463E-4,8.6416694E-4,0.0027186286,0.003452852, 10:29:49.938
22327.939453, 42731.414063, 187500.015625, 187500.015625, 55417.281250, 40889.855469, 59882.042969, 85265.015625, 0, 1, 1, 0, 1,5.3073675E-4,7.0303463E-4,8.6416694E-4,0.0027186286,0.003452852, 10:29:49.938
22300.558594, 42701.062500, 187500.015625, 187500.015625, 55550.898438, 40950.539063, 59846.191406, 85200.531250, 0, 1, 1, 0, 1,5.3073675E-4,7.0303463E-4,8.6416694E-4,0.0027186286,0.003452852, 10:29:49.938
22379.593750, 42807.546875, 187500.015625, 187500.015625, 55294.054688, 40704.917969, 59753.699219, 85169.531250, 0, 1, 1, 0, 1,5.3073675E-4,7.0303463E-4,8.6416694E-4,0.0027186286,0.003452852, 10:29:49.938
22412.742188, 42846.816406, 187500.015625, 187500.015625, 55129.839844, 40608.246094, 59776.765625, 85233.164063, 0, 1, 1, 0, 1,5.3073675E-4,7.0303463E-4,8.6416694E-4,0.0027186286,0.003452852, 10:29:49.938
22330.710938, 42741.136719, 187500.015625, 187500.015625, 55371.347656, 40852.574219, 59873.460938, 85276.171875, 0, 1, 1, 0, 1,5.3073675E-4,7.0303463E-4,8.6416694E-4,0.0027186286,0.003452852, 10:29:49.938
22292.824219, 42697.218750, 187500.015625, 187500.015625, 55559.371094, 40973.136719, 59863.289063, 85217.898438, 0, 1, 1, 0, 1,5.3073675E-4,7.0303463E-4,8.6416694E-4,0.0027186286,0.003452852, 10:29:49.938
22356.101563, 42785.281250, 187500.015625, 187500.015625, 55355.769531, 40757.710938, 59765.925781, 85164.656250, 0, 1, 1, 0, 1,5.3073675E-4,7.0303463E-4,8.6416694E-4,0.0027186286,0.003452852, 10:29:49.939
22399.017578, 42839.574219, 187500.015625, 187500.015625, 55138.933594, 40595.101563, 59756.828125, 85199.015625, 0, 1, 1, 0, 1,5.3073675E-4,7.0303463E-4,8.6416694E-4,0.0027186286,0.003452852, 10:29:49.939
22341.037109, 42760.113281, 187500.015625, 187500.015625, 55306.261719, 40784.914063, 59854.347656, 85252.632813, 0, 1, 1, 0, 1,5.3073675E-4,7.0303463E-4,8.6416694E-4,0.0027186286,0.003452852, 10:29:49.939
22278.228516, 42684.921875, 187500.015625, 187500.015625, 55546.230469, 40962.476563, 59865.167969, 85206.273438, 0, 1, 1, 0, 1,5.3073675E-4,7.0303463E-4,8.6416694E-4,0.0027186286,0.003452852, 10:29:49.939
22331.359375, 42762.105469, 187500.015625, 187500.015625, 55402.843750, 40790.097656, 59769.390625, 85147.539063, 0, 1, 1, 0, 1,5.3073675E-4,7.0303463E-4,8.6416694E-4,0.0027186286,0.003452852, 10:29:49.939
22403.755859, 42855.085938, 187500.015625, 187500.015625, 55136.992188, 40584.417969, 59746.187500, 85190.968750, 0, 1, 1, 0, 1,5.3073675E-4,7.0303463E-4,8.6416694E-4,0.0027186286,0.003452852, 10:29:49.939
22350.402344, 42780.925781, 187500.015625, 187500.015625, 55253.152344, 40737.035156, 59838.835938, 85256.773438, 0, 1, 1, 0, 1,5.3073675E-4,7.0303463E-4,8.6416694E-4,0.0027186286,0.003452852, 10:29:49.939
22275.457031, 42684.812500, 187500.015625, 187500.015625, 55536.976563, 40964.800781, 59874.195313, 85225.882813, 0, 1, 1, 0, 1,5.3073675E-4,7.0303463E-4,8.6416694E-4,0.0027186286,0.003452852, 10:29:49.939
22314.371094, 42739.484375, 187500.015625, 187500.015625, 55463.972656, 40846.292969, 59785.683594, 85158.843750, 0, 1, 1, 0, 1,5.3073675E-4,7.0303463E-4,8.6416694E-4,0.0027186286,0.003452852, 10:29:49.939
22392.111328, 42838.750000, 187500.015625, 187500.015625, 55173.871094, 40606.546875, 59735.148438, 85178.648438, 0, 1, 1, 0, 1,5.3073675E-4,7.0303463E-4,8.6416694E-4,0.0027186286,0.003452852, 10:29:49.940
22383.103516, 42821.628906, 187500.015625, 187500.015625, 55198.882813, 40691.015625, 59831.281250, 85268.929688, 0, 1, 1, 0, 1,5.3073675E-4,7.0303463E-4,8.6416694E-4,0.0027186286,0.003452852, 10:29:49.940
22293.583984, 42701.464844, 187500.015625, 187500.015625, 55502.644531, 40949.421875, 59888.859375, 85249.437500, 0, 1, 1, 0, 1,5.3073675E-4,7.0303463E-4,8.6416694E-4,0.0027186286,0.003452852, 10:29:49.940
22300.781250, 42720.597656, 187500.015625, 187500.015625, 55511.539063, 40899.132813, 59809.332031, 85178.117188, 0, 1, 1, 0, 1,5.3073675E-4,7.0303463E-4,8.6416694E-4,0.0027186286,0.003452852, 10:29:49.940
22383.796875, 42832.445313, 187500.015625, 187500.015625, 55217.816406, 40641.214844, 59737.695313, 85179.570313, 0, 1, 1, 0, 1,5.3073675E-4,7.0303463E-4,8.6416694E-4,0.0027186286,0.003452852, 10:29:49.940
22394.123047, 42837.226563, 187500.015625, 187500.015625, 55174.003906, 40653.148438, 59805.265625, 85251.609375, 0, 1, 1, 0, 1,5.3073675E-4,7.0303463E-4,8.6416694E-4,0.0027186286,0.003452852, 10:29:49.940
22309.029297, 42721.089844, 187500.015625, 187500.015625, 55464.578125, 40922.332031, 59882.066406, 85263.453125, 0, 1, 1, 0, 1,5.3073675E-4,7.0303463E-4,8.6416694E-4,0.0027186286,0.003452852, 10:29:49.940
22300.982422, 42718.562500, 187500.015625, 187500.015625, 55539.457031, 40938.492188, 59826.878906, 85203.257813, 0, 1, 1, 0, 1,5.3073675E-4,7.0303463E-4,8.6416694E-4,0.0027186286,0.003452852, 10:29:49.940
22384.914063, 42830.546875, 187500.015625, 187500.015625, 55252.394531, 40677.089844, 59734.117188, 85178.875000, 0, 1, 1, 0, 1,5.3073675E-4,7.0303463E-4,8.6416694E-4,0.0027186286,0.003452852, 10:29:49.941
22402.302734, 42845.675781, 187500.015625, 187500.015625, 55144.703125, 40628.941406, 59773.570313, 85239.132813, 0, 1, 1, 0, 1,0.0,0.0,0.0,0.0,0.0, 10:29:50.400
22309.990234, 42728.308594, 187500.015625, 187500.015625, 55423.027344, 40891.980469, 59869.906250, 85266.226563, 0, 1, 1, 0, 1,0.0,0.0,0.0,0.0,0.0, 10:29:50.401
22276.105469, 42693.328125, 187500.015625, 187500.015625, 55576.156250, 40974.410156, 59840.824219, 85208.398438, 0, 1, 1, 0, 1,0.0,0.0,0.0,0.0,0.0, 10:29:50.401
22342.625000, 42789.375000, 187500.015625, 187500.015625, 55337.062500, 40734.890625, 59744.468750, 85173.976563, 0, 1, 1, 0, 1,0.0,0.0,0.0,0.0,0.0, 10:29:50.401
22396.804688, 42852.316406, 187500.015625, 187500.015625, 55148.546875, 40606.972656, 59760.785156, 85226.015625, 0, 1, 1, 0, 1,0.0,0.0,0.0,0.0,0.0, 10:29:50.401
22334.062500, 42761.410156, 187500.015625, 187500.015625, 55359.859375, 40830.332031, 59866.308594, 85271.546875, 0, 1, 1, 0, 1,0.0,0.0,0.0,0.0,0.0, 10:29:50.401
22272.304688, 42686.621094, 187500.015625, 187500.015625, 55587.468750, 40982.125000, 59857.656250, 85216.406250, 0, 1, 1, 0, 1,0.0,0.0,0.0,0.0,0.0, 10:29:50.401
22336.746094, 42777.953125, 187500.015625, 187500.015625, 55396.425781, 40772.398438, 59757.386719, 85166.132813, 0, 1, 1, 0, 1,0.0,0.0,0.0,0.0,0.0, 10:29:50.402
22394.435547, 42849.613281, 187500.015625, 187500.015625, 55149.148438, 40591.617188, 59750.187500, 85215.085938, 0, 1, 1, 0, 1,0.0,0.0,0.0,0.0,0.0, 10:29:50.402
22339.607422, 42769.523438, 187500.015625, 187500.015625, 55313.726563, 40780.843750, 59851.152344, 85273.156250, 0, 1, 1, 0, 1,0.0,0.0,0.0,0.0,0.0, 10:29:50.402
22272.685547, 42686.734375, 187500.015625, 187500.015625, 55576.761719, 40978.613281, 59871.468750, 85231.710938, 0, 1, 1, 0, 1,0.0,0.0,0.0,0.0,0.0, 10:29:50.402
22325.570313, 42761.589844, 187500.015625, 187500.015625, 55436.726563, 40813.859375, 59776.140625, 85174.718750, 0, 1, 1, 0, 1,0.0,0.0,0.0,0.0,0.0, 10:29:50.402
22393.697266, 42853.589844, 187500.015625, 187500.015625, 55158.917969, 40593.203125, 59739.101563, 85197.898438, 0, 1, 1, 0, 1,0.0,0.0,0.0,0.0,0.0, 10:29:50.402
22357.623047, 42799.207031, 187500.015625, 187500.015625, 55251.746094, 40724.472656, 59830.855469, 85266.781250, 0, 1, 1, 0, 1,0.0,0.0,0.0,0.0,0.0, 10:29:50.402
22278.138672, 42695.519531, 187500.015625, 187500.015625, 55548.242188, 40969.203125, 59877.886719, 85246.625000, 0, 1, 1, 0, 1,0.0,0.0,0.0,0.0,0.0, 10:29:50.403
22297.517578, 42730.542969, 187500.015625, 187500.015625, 55500.542969, 40869.000000, 59789.328125, 85175.718750, 0, 1, 1, 0, 1,0.0,0.0,0.0,0.0,0.0, 10:29:50.403
22379.080078, 42838.101563, 187500.015625, 187500.015625, 55198.906250, 40616.695313, 59729.199219, 85190.898438, 0, 1, 1, 0, 1,0.0,0.0,0.0,0.0,0.0, 10:29:50.403
22370.742188, 42821.960938, 187500.015625, 187500.015625, 55202.906250, 40678.921875, 59807.074219, 85257.578125, 0, 1, 1, 0, 1,0.0,0.0,0.0,0.0,0.0, 10:29:50.403
22283.056641, 42708.460938, 187500.015625, 187500.015625, 55497.792969, 40941.843750, 59879.113281, 85256.210938, 0, 1, 1, 0, 1,0.0,0.0,0.0,0.0,0.0, 10:29:50.403
22281.089844, 42713.355469, 187500.015625, 187500.015625, 55538.851563, 40914.441406, 59809.691406, 85183.945313, 0, 1, 1, 0, 1,0.0,0.0,0.0,0.0,0.0, 10:29:50.403
22378.296875, 42837.386719, 187500.015625, 187500.015625, 55235.160156, 40642.488281, 59729.468750, 85172.976563, 0, 1, 1, 0, 1,0.0,0.0,0.0,0.0,0.0, 10:29:50.403
22394.054688, 42849.320313, 187500.015625, 187500.015625, 55161.531250, 40631.960938, 59792.210938, 85246.218750, 0, 1, 1, 0, 1,0.0,0.0,0.0,0.0,0.0, 10:29:50.404
22299.150391, 42723.011719, 187500.015625, 187500.015625, 55452.867188, 40900.203125, 59876.609375, 85258.695313, 0, 1, 1, 0, 1,0.0,0.0,0.0,0.0,0.0, 10:29:50.404
22288.533203, 42710.785156, 187500.015625, 187500.015625, 55556.644531, 40931.562500, 59825.402344, 85190.406250, 0, 1, 1, 0, 1,0.0,0.0,0.0,0.0,0.0, 10:29:50.404
22368.529297, 42821.179688, 187500.015625, 187500.015625, 55282.433594, 40676.687500, 59733.984375, 85167.679688, 0, 1, 1, 0, 1,0.0,0.0,0.0,0.0,0.0, 10:29:50.404
22396.916016, 42850.125000, 187500.015625, 187500.015625, 55149.148438, 40605.136719, 59776.093750, 85232.718750, 0, 1, 1, 0, 1,0.0,0.0,0.0,0.0,0.0, 10:29:50.404
22311.197266, 42731.906250, 187500.015625, 187500.015625, 55417.460938, 40860.128906, 59872.253906, 85262.890625, 0, 1, 1, 0, 1,0.0,0.0,0.0,0.0,0.0, 10:29:50.404
22277.021484, 42698.601563, 187500.015625, 187500.015625, 55578.972656, 40953.757813, 59843.082031, 85201.312500, 0, 1, 1, 0, 1,0.0,0.0,0.0,0.0,0.0, 10:29:50.404
22352.011719, 42803.210938, 187500.015625, 187500.015625, 55342.960938, 40723.535156, 59752.847656, 85170.132813, 0, 1, 1, 0, 1,0.0,0.0,0.0,0.0,0.0, 10:29:50.404
22398.996094, 42862.261719, 187500.015625, 187500.015625, 55136.921875, 40584.062500, 59768.496094, 85231.914063, 0, 1, 1, 0, 1,0.0,0.0,0.0,0.0,0.0, 10:29:50.404
22320.406250, 42758.574219, 187500.015625, 187500.015625, 55353.132813, 40802.148438, 59866.796875, 85266.265625, 0, 1, 1, 0, 1,0.0,0.0,0.0,0.0,0.0, 10:29:50.404
22269.175781, 42699.027344, 187500.015625, 187500.015625, 55579.554688, 40962.343750, 59866.351563, 85219.976563, 0, 1, 1, 0, 1,0.0,0.0,0.0,0.0,0.0, 10:29:50.405
22317.166016, 42771.714844, 187500.015625, 187500.015625, 55422.398438, 40778.945313, 59763.019531, 85156.656250, 0, 1, 1, 0, 1,0.0,0.0,0.0,0.0,0.0, 10:29:50.405
22394.658203, 42866.285156, 187500.015625, 187500.015625, 55152.906250, 40579.277344, 59746.457031, 85204.195313, 0, 1, 1, 0, 1,0.0,0.0,0.0,0.0,0.0, 10:29:50.405
22354.828125, 42803.855469, 187500.015625, 187500.015625, 55282.097656, 40746.582031, 59849.542969, 85270.312500, 0, 1, 1, 0, 1,0.0,0.0,0.0,0.0,0.0, 10:29:50.405
22270.271484, 42698.625000, 187500.015625, 187500.015625, 55560.175781, 40966.296875, 59875.558594, 85228.632813, 0, 1, 1, 0, 1,0.0,0.0,0.0,0.0,0.0, 10:29:50.405
22297.003906, 42742.144531, 187500.015625, 187500.015625, 55475.710938, 40835.406250, 59773.054688, 85158.578125, 0, 1, 1, 0, 1,0.0,0.0,0.0,0.0,0.0, 10:29:50.405
22386.523438, 42856.695313, 187500.015625, 187500.015625, 55173.023438, 40593.000000, 59724.933594, 85184.640625, 0, 1, 1, 0, 1,0.0,0.0,0.0,0.0,0.0, 10:29:50.405
22360.638672, 42814.628906, 187500.015625, 187500.015625, 55235.160156, 40702.949219, 59822.808594, 85263.429688, 0, 1, 1, 0, 1,0.0,0.0,0.0,0.0,0.0, 10:29:50.405
22275.234375, 42707.343750, 187500.015625, 187500.015625, 55533.957031, 40952.238281, 59878.175781, 85245.820313, 0, 1, 1, 0, 1,0.0,0.0,0.0,0.0,0.0, 10:29:50.405
22290.722656, 42732.867188, 187500.015625, 187500.015625, 55522.066406, 40878.457031, 59794.937500, 85172.234375, 0, 1, 1, 0, 1,0.0,0.0,0.0,0.0,0.0, 10:29:50.406
22385.941406, 42852.671875, 187500.015625, 187500.015625, 55218.820313, 40615.285156, 59729.648438, 85177.398438, 0, 1, 1, 0, 1,0.0,0.0,0.0,0.0,0.0, 10:29:50.406
22379.996094, 42837.765625, 187500.015625, 187500.015625, 55198.769531, 40652.679688, 59809.152344, 85259.093750, 0, 1, 1, 0, 1,0.0,0.0,0.0,0.0,0.0, 10:29:50.406
22297.742188, 42725.671875, 187500.015625, 187500.015625, 55505.660156, 40924.722656, 59885.507813, 85270.132813, 0, 1, 1, 0, 1,0.0,0.0,0.0,0.0,0.0, 10:29:50.406
22305.699219, 42738.546875, 187500.015625, 187500.015625, 55553.515625, 40918.085938, 59828.175781, 85210.882813, 0, 1, 1, 0, 1,0.0,0.0,0.0,0.0,0.0, 10:29:50.406
22386.009766, 42844.425781, 187500.015625, 187500.015625, 55267.347656, 40663.207031, 59749.875000, 85198.164063, 0, 1, 1, 0, 1,0.0,0.0,0.0,0.0,0.0, 10:29:50.406
22391.619141, 42850.460938, 187500.015625, 187500.015625, 55185.160156, 40637.234375, 59801.753906, 85262.781250, 0, 1, 1, 0, 1,0.0,0.0,0.0,0.0,0.0, 10:29:50.406
22296.378906, 42731.707031, 187500.015625, 187500.015625, 55462.410156, 40896.226563, 59880.074219, 85275.367188, 0, 1, 1, 0, 1,0.0,0.0,0.0,0.0,0.0, 10:29:50.406
22266.740234, 42702.984375, 187500.015625, 187500.015625, 55586.640625, 40947.859375, 59831.281250, 85197.093750, 0, 1, 1, 0, 1,0.0,0.0,0.0,0.0,0.0, 10:29:50.406
22338.199219, 42802.648438, 187500.015625, 187500.015625, 55331.652344, 40697.027344, 59733.425781, 85159.718750, 0, 1, 1, 0, 1,0.0,0.0,0.0,0.0,0.0, 10:29:50.407
22372.105469, 42848.179688, 187500.015625, 187500.015625, 55158.136719, 40590.230469, 59755.417969, 85219.625000, 0, 1, 1, 0, 1,0.0,0.0,0.0,0.0,0.0, 10:29:50.407
22300.691406, 42754.058594, 187500.015625, 187500.015625, 55385.699219, 40826.621094, 59859.937500, 85261.328125, 0, 1, 1, 0, 1,0.0,0.0,0.0,0.0,0.0, 10:29:50.407
22249.103516, 42692.859375, 187500.015625, 187500.015625, 55586.796875, 40955.859375, 59846.882813, 85198.406250, 0, 1, 1, 0, 1,0.0,0.0,0.0,0.0,0.0, 10:29:50.407
22316.808594, 42785.417969, 187500.015625, 187500.015625, 55377.832031, 40743.695313, 59745.250000, 85158.867188, 0, 1, 1, 0, 1,0.0,0.0,0.0,0.0,0.0, 10:29:50.408
22371.591797, 42849.945313, 187500.015625, 187500.015625, 55151.742188, 40586.542969, 59748.714844, 85207.062500, 0, 1, 1, 0, 1,0.0,0.0,0.0,0.0,0.0, 10:29:50.408
22309.968750, 42764.406250, 187500.015625, 187500.015625, 55332.324219, 40787.460938, 59851.109375, 85257.195313, 0, 1, 1, 0, 1,0.0,0.0,0.0,0.0,0.0, 10:29:50.408
22252.970703, 42692.746094, 187500.015625, 187500.015625, 55573.273438, 40969.203125, 59858.105469, 85220.718750, 0, 1, 1, 0, 1,0.0,0.0,0.0,0.0,0.0, 10:29:50.408
22307.017578, 42770.574219, 187500.015625, 187500.015625, 55419.582031, 40796.203125, 59755.085938, 85164.632813, 0, 1, 1, 0, 1,0.0,0.0,0.0,0.0,0.0, 10:29:50.408
22375.636719, 42856.160156, 187500.015625, 187500.015625, 55157.062500, 40591.191406, 59730.250000, 85198.007813, 0, 1, 1, 0, 1,0.0,0.0,0.0,0.0,0.0, 10:29:50.408
22339.048828, 42797.152344, 187500.015625, 187500.015625, 55274.097656, 40740.656250, 59829.292969, 85267.007813, 0, 1, 1, 0, 1,0.0,0.0,0.0,0.0,0.0, 10:29:50.409
22261.576172, 42696.300781, 187500.015625, 187500.015625, 55560.890625, 40967.640625, 59870.531250, 85241.820313, 0, 1, 1, 0, 1,0.0,0.0,0.0,0.0,0.0, 10:29:50.409
22287.906250, 42743.394531, 187500.015625, 187500.015625, 55478.457031, 40841.441406, 59773.523438, 85170.851563, 0, 1, 1, 0, 1,0.0,0.0,0.0,0.0,0.0, 10:29:50.409
22365.466797, 42845.945313, 187500.015625, 187500.015625, 55180.351563, 40596.800781, 59725.738281, 85186.476563, 0, 1, 1, 0, 1,0.0,0.0,0.0,0.0,0.0, 10:29:50.409
22344.994141, 42810.988281, 187500.015625, 187500.015625, 55224.050781, 40689.382813, 59819.121094, 85261.531250, 0, 1, 1, 0, 1,0.0,0.0,0.0,0.0,0.0, 10:29:50.409
22258.447266, 42697.550781, 187500.015625, 187500.015625, 55522.378906, 40950.359375, 59883.250000, 85262.156250, 0, 1, 1, 0, 1,0.0,0.0,0.0,0.0,0.0, 10:29:50.409
22270.763672, 42723.816406, 187500.015625, 187500.015625, 55518.871094, 40893.074219, 59810.851563, 85194.898438, 0, 1, 1, 0, 1,0.0,0.0,0.0,0.0,0.0, 10:29:50.409
22348.859375, 42826.656250, 187500.015625, 187500.015625, 55221.925781, 40632.363281, 59741.785156, 85193.046875, 0, 1, 1, 0, 1,0.0,0.0,0.0,0.0,0.0, 10:29:50.409
22352.191406, 42822.632813, 187500.015625, 187500.015625, 55185.605469, 40656.281250, 59812.238281, 85268.257813, 0, 1, 1, 0, 1,0.0,0.0,0.0,0.0,0.0, 10:29:50.410
22271.746094, 42712.617188, 187500.015625, 187500.015625, 55484.046875, 40928.570313, 59897.734375, 85283.148438, 0, 1, 1, 0, 1,0.0,0.0,0.0,0.0,0.0, 10:29:50.410
22248.634766, 42693.039063, 187500.015625, 187500.015625, 55571.152344, 40942.089844, 59835.796875, 85202.968750, 0, 1, 1, 0, 1,0.0,0.0,0.0,0.0,0.0, 10:29:50.410
22332.119141, 42808.351563, 187500.015625, 187500.015625, 55282.703125, 40674.652344, 59740.867188, 85178.406250, 0, 1, 1, 0, 1,0.0,0.0,0.0,0.0,0.0, 10:29:50.410
22359.275391, 42840.000000, 187500.015625, 187500.015625, 55160.101563, 40626.484375, 59793.441406, 85254.265625, 0, 1, 1, 0, 1,0.0,0.0,0.0,0.0,0.0, 10:29:50.410
22272.037109, 42726.363281, 187500.015625, 187500.015625, 55423.203125, 40884.511719, 59884.835938, 85276.976563, 0, 1, 1, 0, 1,0.0,0.0,0.0,0.0,0.0, 10:29:50.410
22231.378906, 42678.015625, 187500.015625, 187500.015625, 55583.019531, 40962.273438, 59843.687500, 85201.359375, 0, 1, 1, 0, 1,0.0,0.0,0.0,0.0,0.0, 10:29:50.410
22316.205078, 42789.105469, 187500.015625, 187500.015625, 55331.605469, 40717.812500, 59750.390625, 85174.132813, 0, 1, 1, 0, 1,0.0,0.0,0.0,0.0,0.0, 10:29:50.411
22361.890625, 42840.492188, 187500.015625, 187500.015625, 55150.246094, 40601.472656, 59770.214844, 85235.156250, 0, 1, 1, 0, 1,0.0,0.0,0.0,0.0,0.0, 10:29:50.411
22296.378906, 42746.792969, 187500.015625, 187500.015625, 55367.078125, 40834.085938, 59870.574219, 85289.046875, 0, 1, 1, 0, 1,0.0,0.0,0.0,0.0,0.0, 10:29:50.411
22247.205078, 42685.593750, 187500.015625, 187500.015625, 55577.746094, 40976.312500, 59861.234375, 85236.187500, 0, 1, 1, 0, 1,0.0,0.0,0.0,0.0,0.0, 10:29:50.411
22301.765625, 42763.289063, 187500.015625, 187500.015625, 55401.679688, 40773.312500, 59756.671875, 85162.804688, 0, 1, 1, 0, 1,0.0,0.0,0.0,0.0,0.0, 10:29:50.411
22377.626953, 42854.082031, 187500.015625, 187500.015625, 55152.859375, 40593.804688, 59751.441406, 85214.992188, 0, 1, 1, 0, 1,0.0,0.0,0.0,0.0,0.0, 10:29:50.411
22323.000000, 42772.722656, 187500.015625, 187500.015625, 55323.000000, 40787.664063, 59855.355469, 85278.875000, 0, 1, 1, 0, 1,0.0,0.0,0.0,0.0,0.0, 10:29:50.411
22253.888672, 42684.992188, 187500.015625, 187500.015625, 55584.964844, 40980.289063, 59869.523438, 85238.351563, 0, 1, 1, 0, 1,0.0,0.0,0.0,0.0,0.0, 10:29:50.411
22296.757813, 42749.855469, 187500.015625, 187500.015625, 55456.574219, 40819.468750, 59767.042969, 85174.132813, 0, 1, 1, 0, 1,0.0,0.0,0.0,0.0,0.0, 10:29:50.412
22380.488281, 42855.199219, 187500.015625, 187500.015625, 55173.984375, 40600.355469, 59738.050781, 85210.523438, 0, 1, 1, 0, 1,0.0,0.0,0.0,0.0,0.0, 10:29:50.412
22339.785156, 42799.566406, 187500.015625, 187500.015625, 55268.082031, 40735.984375, 59833.382813, 85276.125000, 0, 1, 1, 0, 1,0.0,0.0,0.0,0.0,0.0, 10:29:50.412
22259.251953, 42701.800781, 187500.015625, 187500.015625, 55552.195313, 40970.523438, 59881.082031, 85257.171875, 0, 1, 1, 0, 1,0.0,0.0,0.0,0.0,0.0, 10:29:50.412
22292.310547, 42746.367188, 187500.015625, 187500.015625, 55507.179688, 40872.890625, 59801.464844, 85192.195313, 0, 1, 1, 0, 1,0.0,0.0,0.0,0.0,0.0, 10:29:50.412
22381.025391, 42860.406250, 187500.015625, 187500.015625, 55211.691406, 40622.171875, 59744.914063, 85204.781250, 0, 1, 1, 0, 1,0.0,0.0,0.0,0.0,0.0, 10:29:50.412
22369.201172, 42838.191406, 187500.015625, 187500.015625, 55219.511719, 40683.617188, 59830.925781, 85275.750000, 0, 1, 1, 0, 1,0.0,0.0,0.0,0.0,0.0, 10:29:50.412
22268.439453, 42712.304688, 187500.015625, 187500.015625, 55530.984375, 40949.265625, 59896.058594, 85265.304688, 0, 1, 1, 0, 1,0.0,0.0,0.0,0.0,0.0, 10:29:50.412
22278.339844, 42738.144531, 187500.015625, 187500.015625, 55550.164063, 40907.246094, 59822.789063, 85197.875000, 0, 1, 1, 0, 1,0.0,0.0,0.0,0.0,0.0, 10:29:50.412
22361.109375, 42847.867188, 187500.015625, 187500.015625, 55250.246094, 40643.292969, 59743.328125, 85188.906250, 0, 1, 1, 0, 1,0.0,0.0,0.0,0.0,0.0, 10:29:50.412
22372.955078, 42853.476563, 187500.015625, 187500.015625, 55180.062500, 40634.464844, 59800.882813, 85256.632813, 0, 1, 1, 0, 1,0.0,0.0,0.0,0.0,0.0, 10:29:50.413
22279.972656, 42729.335938, 187500.015625, 187500.015625, 55473.382813, 40905.167969, 59883.250000, 85271.234375, 0, 1, 1, 0, 1,0.0,0.0,0.0,0.0,0.0, 10:29:50.413
22265.554688, 42715.636719, 187500.015625, 187500.015625, 55580.671875, 40942.718750, 59834.277344, 85203.437500, 0, 1, 1, 0, 1,0.0,0.0,0.0,0.0,0.0, 10:29:50.413
22351.117188, 42827.750000, 187500.015625, 187500.015625, 55297.746094, 40685.785156, 59744.890625, 85184.328125, 0, 1, 1, 0, 1,0.0,0.0,0.0,0.0,0.0, 10:29:50.413
22373.246094, 42851.914063, 187500.015625, 187500.015625, 55161.847656, 40617.410156, 59781.167969, 85244.585938, 0, 1, 1, 0, 1,0.0,0.0,0.0,0.0,0.0, 10:29:50.413
22293.652344, 42745.429688, 187500.015625, 187500.015625, 55412.566406, 40865.113281, 59877.238281, 85275.273438, 0, 1, 1, 0, 1,0.0,0.0,0.0,0.0,0.0, 10:29:50.413
22257.576172, 42698.468750, 187500.015625, 187500.015625, 55589.589844, 40972.109375, 59855.621094, 85215.281250, 0, 1, 1, 0, 1,0.0,0.0,0.0,0.0,0.0, 10:29:50.413
22330.822266, 42799.589844, 187500.015625, 187500.015625, 55364.910156, 40746.492188, 59755.820313, 85175.968750, 0, 1, 1, 0, 1,0.0,0.0,0.0,0.0,0.0, 10:29:50.413
22377.962891, 42857.726563, 187500.015625, 187500.015625, 55162.894531, 40613.363281, 59765.613281, 85227.507813, 0, 1, 1, 0, 1,0.0,0.0,0.0,0.0,0.0, 10:29:50.413
22315.466797, 42772.675781, 187500.015625, 187500.015625, 55360.394531, 40831.585938, 59866.148438, 85279.523438, 0, 1, 1, 0, 1,0.0,0.0,0.0,0.0,0.0, 10:29:50.413
22268.505859, 42711.812500, 187500.015625, 187500.015625, 55587.312500, 40993.031250, 59874.980469, 85239.984375, 0, 1, 1, 0, 1,0.0,0.0,0.0,0.0,0.0, 10:29:50.414
22331.046875, 42799.902344, 187500.015625, 187500.015625, 55415.558594, 40794.882813, 59776.027344, 85177.289063, 0, 1, 1, 0, 1,0.0,0.0,0.0,0.0,0.0, 10:29:50.414
22378.119141, 42866.261719, 187500.015625, 187500.015625, 55165.488281, 40601.472656, 59750.257813, 85204.601563, 0, 1, 1, 0, 1,0.0,0.0,0.0,0.0,0.0, 10:29:50.414
22325.099609, 42794.894531, 187500.015625, 187500.015625, 55316.406250, 40778.074219, 59849.968750, 85270.156250, 0, 1, 1, 0, 1,0.0,0.0,0.0,0.0,0.0, 10:29:50.414
22261.912109, 42717.960938, 187500.015625, 187500.015625, 55586.304688, 40987.421875, 59879.785156, 85238.218750, 0, 1, 1, 0, 1,0.0,0.0,0.0,0.0,0.0, 10:29:50.414
22307.845703, 42781.484375, 187500.015625, 187500.015625, 55479.039063, 40845.867188, 59788.812500, 85177.375000, 0, 1, 1, 0, 1,0.0,0.0,0.0,0.0,0.0, 10:29:50.414
22395.978516, 42891.765625, 187500.015625, 187500.015625, 55183.816406, 40610.683594, 59750.031250, 85204.687500, 0, 1, 1, 0, 1,0.0,0.0,0.0,0.0,0.0, 10:29:50.414
22358.671875, 42838.480469, 187500.015625, 187500.015625, 55253.265625, 40724.273438, 59837.832031, 85273.960938, 0, 1, 1, 0, 1,0.0,0.0,0.0,0.0,0.0, 10:29:50.414
22266.896484, 42720.039063, 187500.015625, 187500.015625, 55558.925781, 40974.679688, 59881.640625, 85249.687500, 0, 1, 1, 0, 1,0.0,0.0,0.0,0.0,0.0, 10:29:50.415
22294.322266, 42753.500000, 187500.015625, 187500.015625, 55534.605469, 40898.484375, 59805.039063, 85183.812500, 0, 1, 1, 0, 1,0.0,0.0,0.0,0.0,0.0, 10:29:50.415
22380.800781, 42867.000000, 187500.015625, 187500.015625, 55239.292969, 40643.382813, 59738.187500, 85184.351563, 0, 1, 1, 0, 1,0.0,0.0,0.0,0.0,0.0, 10:29:50.415
22375.146484, 42853.968750, 187500.015625, 187500.015625, 55219.871094, 40685.648438, 59811.992188, 85261.796875, 0, 1, 1, 0, 1,0.0,0.0,0.0,0.0,0.0, 10:29:50.415
22288.578125, 42740.355469, 187500.015625, 187500.015625, 55521.867188, 40959.101563, 59891.585938, 85269.312500, 0, 1, 1, 0, 1,0.0,0.0,0.0,0.0,0.0, 10:29:50.415
22286.296875, 42741.832031, 187500.015625, 187500.015625, 55572.402344, 40944.281250, 59823.347656, 85190.851563, 0, 1, 1, 0, 1,0.0,0.0,0.0,0.0,0.0, 10:29:50.415
22372.955078, 42859.019531, 187500.015625, 187500.015625, 55273.425781, 40678.140625, 59738.925781, 85178.250000, 0, 1, 1, 0, 1,0.0,0.0,0.0,0.0,0.0, 10:29:50.415
22383.259766, 42866.890625, 187500.015625, 187500.015625, 55183.101563, 40654.179688, 59789.484375, 85243.781250, 0, 1, 1, 0, 1,0.0,0.0,0.0,0.0,0.0, 10:29:50.415
22293.986328, 42749.296875, 187500.015625, 187500.015625, 55474.390625, 40920.320313, 59878.847656, 85261.757813, 0, 1, 1, 0, 1,0.0,0.0,0.0,0.0,0.0, 10:29:50.416
22269.244141, 42727.281250, 187500.015625, 187500.015625, 55605.035156, 40974.410156, 59838.523438, 85197.851563, 0, 1, 1, 0, 1,0.0,0.0,0.0,0.0,0.0, 10:29:50.416
22346.960938, 42834.656250, 187500.015625, 187500.015625, 55329.773438, 40716.339844, 59744.890625, 85170.109375, 0, 1, 1, 0, 1,0.0,0.0,0.0,0.0,0.0, 10:29:50.880
22374.318359, 42861.523438, 187500.015625, 187500.015625, 55168.394531, 40622.238281, 59774.171875, 85228.226563, 0, 1, 1, 0, 1,0.0,0.0,0.0,0.0,0.0, 10:29:50.880
22315.623047, 42773.101563, 187500.015625, 187500.015625, 55404.027344, 40864.867188, 59878.847656, 85274.382813, 0, 1, 1, 0, 1,0.0,0.0,0.0,0.0,0.0, 10:29:50.880
22274.898438, 42720.507813, 187500.015625, 187500.015625, 55604.410156, 40990.617188, 59857.121094, 85218.726563, 0, 1, 1, 0, 1,0.0,0.0,0.0,0.0,0.0, 10:29:50.886
22359.253906, 42830.164063, 187500.015625, 187500.015625, 55382.503906, 40767.210938, 59752.402344, 85177.000000, 0, 1, 1, 0, 1,0.0,0.0,0.0,0.0,0.0, 10:29:50.886
22411.421875, 42891.097656, 187500.015625, 187500.015625, 55163.945313, 40616.558594, 59758.929688, 85233.031250, 0, 1, 1, 0, 1,0.0,0.0,0.0,0.0,0.0, 10:29:50.886
22344.568359, 42795.675781, 187500.015625, 187500.015625, 55354.585938, 40820.339844, 59856.046875, 85275.117188, 0, 1, 1, 0, 1,0.0,0.0,0.0,0.0,0.0, 10:29:50.887
22297.943359, 42731.414063, 187500.015625, 187500.015625, 55600.097656, 40995.199219, 59868.699219, 85227.914063, 0, 1, 1, 0, 1,0.0,0.0,0.0,0.0,0.0, 10:29:50.887
22346.222656, 42800.414063, 187500.015625, 187500.015625, 55451.679688, 40812.429688, 59768.808594, 85161.242188, 0, 1, 1, 0, 1,0.0,0.0,0.0,0.0,0.0, 10:29:50.887
22420.832031, 42896.035156, 187500.015625, 187500.015625, 55181.000000, 40601.832031, 59741.070313, 85198.390625, 0, 1, 1, 0, 1,0.0,0.0,0.0,0.0,0.0, 10:29:50.887
22383.818359, 42846.078125, 187500.015625, 187500.015625, 55289.875000, 40758.160156, 59848.156250, 85279.210938, 0, 1, 1, 0, 1,0.0,0.0,0.0,0.0,0.0, 10:29:50.887
22294.500000, 42733.671875, 187500.015625, 187500.015625, 55592.855469, 40999.109375, 59885.371094, 85250.265625, 0, 1, 1, 0, 1,0.0,0.0,0.0,0.0,0.0, 10:29:50.887
22328.318359, 42788.769531, 187500.015625, 187500.015625, 55512.054688, 40873.492188, 59793.082031, 85182.632813, 0, 1, 1, 0, 1,0.0,0.0,0.0,0.0,0.0, 10:29:50.887
22398.593750, 42884.078125, 187500.015625, 187500.015625, 55220.519531, 40631.425781, 59737.246094, 85192.085938, 0, 1, 1, 0, 1,0.0,0.0,0.0,0.0,0.0, 10:29:50.887
22377.738281, 42850.058594, 187500.015625, 187500.015625, 55262.765625, 40721.546875, 59824.820313, 85270.671875, 0, 1, 1, 0, 1,0.0,0.0,0.0,0.0,0.0, 10:29:50.887
22290.992188, 42737.851563, 187500.015625, 187500.015625, 55569.585938, 40979.148438, 59888.523438, 85263.898438, 0, 1, 1, 0, 1,0.0,0.0,0.0,0.0,0.0, 10:29:50.888
22305.273438, 42763.871094, 187500.015625, 187500.015625, 55562.144531, 40913.726563, 59808.953125, 85184.929688, 0, 1, 1, 0, 1,0.0,0.0,0.0,0.0,0.0, 10:29:50.888
22397.363281, 42886.937500, 187500.015625, 187500.015625, 55240.144531, 40643.964844, 59741.785156, 85195.437500, 0, 1, 1, 0, 1,0.0,0.0,0.0,0.0,0.0, 10:29:50.888
22393.207031, 42872.433594, 187500.015625, 187500.015625, 55217.457031, 40671.812500, 59817.289063, 85268.390625, 0, 1, 1, 0, 1,0.0,0.0,0.0,0.0,0.0, 10:29:50.888
22296.132813, 42740.421875, 187500.015625, 187500.015625, 55529.152344, 40941.464844, 59888.859375, 85264.101563, 0, 1, 1, 0, 1,0.0,0.0,0.0,0.0,0.0, 10:29:50.888
22299.015625, 42750.101563, 187500.015625, 187500.015625, 55596.410156, 40946.917969, 59837.449219, 85200.937500, 0, 1, 1, 0, 1,0.0,0.0,0.0,0.0,0.0, 10:29:50.888
22387.058594, 42866.039063, 187500.015625, 187500.015625, 55299.464844, 40686.296875, 59752.246094, 85192.445313, 0, 1, 1, 0, 1,0.0,0.0,0.0,0.0,0.0, 10:29:50.888
22406.259766, 42880.300781, 187500.015625, 187500.015625, 55193.160156, 40645.371094, 59799.562500, 85260.257813, 0, 1, 1, 0, 1,0.0,0.0,0.0,0.0,0.0, 10:29:50.888
22309.833984, 42757.367188, 187500.015625, 187500.015625, 55481.855469, 40910.152344, 59892.144531, 85283.679688, 0, 1, 1, 0, 1,0.0,0.0,0.0,0.0,0.0, 10:29:50.888
22286.699219, 42738.253906, 187500.015625, 187500.015625, 55621.351563, 40983.261719, 59862.863281, 85231.265625, 0, 1, 1, 0, 1,0.0,0.0,0.0,0.0,0.0, 10:29:50.889
22362.494141, 42839.039063, 187500.015625, 187500.015625, 55374.968750, 40747.945313, 59765.187500, 85195.281250, 0, 1, 1, 0, 1,0.0,0.0,0.0,0.0,0.0, 10:29:50.889
22409.791016, 42895.164063, 187500.015625, 187500.015625, 55179.617188, 40621.320313, 59776.093750, 85242.687500, 0, 1, 1, 0, 1,0.0,0.0,0.0,0.0,0.0, 10:29:50.889
22338.757813, 42796.929688, 187500.015625, 187500.015625, 55409.792969, 40860.687500, 59883.761719, 85289.429688, 0, 1, 1, 0, 1,0.0,0.0,0.0,0.0,0.0, 10:29:50.889
22280.978516, 42730.230469, 187500.015625, 187500.015625, 55630.183594, 41003.113281, 59870.105469, 85235.515625, 0, 1, 1, 0, 1,0.0,0.0,0.0,0.0,0.0, 10:29:50.889
22347.519531, 42827.660156, 187500.015625, 187500.015625, 55427.519531, 40789.652344, 59767.085938, 85187.523438, 0, 1, 1, 0, 1,0.0,0.0,0.0,0.0,0.0, 10:29:50.889
22404.695313, 42901.355469, 187500.015625, 187500.015625, 55187.437500, 40611.574219, 59760.605469, 85225.992188, 0, 1, 1, 0, 1,0.0,0.0,0.0,0.0,0.0, 10:29:50.889
22351.720703, 42823.773438, 187500.015625, 187500.015625, 55350.562500, 40798.527344, 59864.339844, 85290.250000, 0, 1, 1, 0, 1,0.0,0.0,0.0,0.0,0.0, 10:29:50.889
22279.681641, 42730.386719, 187500.015625, 187500.015625, 55624.527344, 41001.949219, 59882.667969, 85249.218750, 0, 1, 1, 0, 1,0.0,0.0,0.0,0.0,0.0, 10:29:50.889
22322.685547, 42791.945313, 187500.015625, 187500.015625, 55507.804688, 40846.246094, 59777.257813, 85183.523438, 0, 1, 1, 0, 1,0.0,0.0,0.0,0.0,0.0, 10:29:50.889
22408.070313, 42900.683594, 187500.015625, 187500.015625, 55204.203125, 40618.863281, 59740.265625, 85222.570313, 0, 1, 1, 0, 1,0.0,0.0,0.0,0.0,0.0, 10:29:50.890
22372.351563, 42845.632813, 187500.015625, 187500.015625, 55296.402344, 40755.878906, 59840.691406, 85296.601563, 0, 1, 1, 0, 1,0.0,0.0,0.0,0.0,0.0, 10:29:50.890
22285.806641, 42735.035156, 187500.015625, 187500.015625, 55592.160156, 40992.046875, 59878.445313, 85266.382813, 0, 1, 1, 0, 1,0.0,0.0,0.0,0.0,0.0, 10:29:50.890
22314.505859, 42776.812500, 187500.015625, 187500.015625, 55538.652344, 40889.855469, 59789.082031, 85192.148438, 0, 1, 1, 0, 1,0.0,0.0,0.0,0.0,0.0, 10:29:50.890
22402.013672, 42890.468750, 187500.015625, 187500.015625, 55229.347656, 40631.757813, 59732.218750, 85201.695313, 0, 1, 1, 0, 1,0.0,0.0,0.0,0.0,0.0, 10:29:50.890
22382.791016, 42858.082031, 187500.015625, 187500.015625, 55250.605469, 40704.851563, 59812.750000, 85277.179688, 0, 1, 1, 0, 1,0.0,0.0,0.0,0.0,0.0, 10:29:50.890
22287.572266, 42738.031250, 187500.015625, 187500.015625, 55568.535156, 40973.406250, 59876.699219, 85264.343750, 0, 1, 1, 0, 1,0.0,0.0,0.0,0.0,0.0, 10:29:50.890
22290.232422, 42753.566406, 187500.015625, 187500.015625, 55581.566406, 40925.304688, 59799.207031, 85184.593750, 0, 1, 1, 0, 1,0.0,0.0,0.0,0.0,0.0, 10:29:50.890
22367.501953, 42858.687500, 187500.015625, 187500.015625, 55286.703125, 40661.308594, 59719.632813, 85172.414063, 0, 1, 1, 0, 1,0.0,0.0,0.0,0.0,0.0, 10:29:50.890
22377.246094, 42860.898438, 187500.015625, 187500.015625, 55225.167969, 40660.304688, 59781.750000, 85243.093750, 0, 1, 1, 0, 1,0.0,0.0,0.0,0.0,0.0, 10:29:50.891
22296.132813, 42748.738281, 187500.015625, 187500.015625, 55517.082031, 40923.113281, 59869.414063, 85255.945313, 0, 1, 1, 0, 1,0.0,0.0,0.0,0.0,0.0, 10:29:50.891
22285.738281, 42740.804688, 187500.015625, 187500.015625, 55611.160156, 40949.601563, 59817.089844, 85188.304688, 0, 1, 1, 0, 1,0.0,0.0,0.0,0.0,0.0, 10:29:50.891
22380.666016, 42868.722656, 187500.015625, 187500.015625, 55318.308594, 40688.531250, 59729.984375, 85171.742188, 0, 1, 1, 0, 1,0.0,0.0,0.0,0.0,0.0, 10:29:50.891
22404.986328, 42894.425781, 187500.015625, 187500.015625, 55186.476563, 40626.886719, 59773.750000, 85239.625000, 0, 1, 1, 0, 1,0.0,0.0,0.0,0.0,0.0, 10:29:50.891
22324.585938, 42784.902344, 187500.015625, 187500.015625, 55453.089844, 40887.015625, 59872.878906, 85275.945313, 0, 1, 1, 0, 1,0.0,0.0,0.0,0.0,0.0, 10:29:50.891
22288.353516, 42744.804688, 187500.015625, 187500.015625, 55630.964844, 40989.296875, 59852.269531, 85215.773438, 0, 1, 1, 0, 1,0.0,0.0,0.0,0.0,0.0, 10:29:50.891
22364.082031, 42850.125000, 187500.015625, 187500.015625, 55394.035156, 40755.320313, 59756.515625, 85178.851563, 0, 1, 1, 0, 1,0.0,0.0,0.0,0.0,0.0, 10:29:50.891
22407.287109, 42901.847656, 187500.015625, 187500.015625, 55193.292969, 40619.933594, 59768.988281, 85236.007813, 0, 1, 1, 0, 1,0.0,0.0,0.0,0.0,0.0, 10:29:50.891
22337.148438, 42806.832031, 187500.015625, 187500.015625, 55404.250000, 40842.960938, 59871.359375, 85285.492188, 0, 1, 1, 0, 1,0.0,0.0,0.0,0.0,0.0, 10:29:50.891
22286.007813, 42742.703125, 187500.015625, 187500.015625, 55632.281250, 40999.175781, 59873.816406, 85236.671875, 0, 1, 1, 0, 1,0.0,0.0,0.0,0.0,0.0, 10:29:50.892
22346.646484, 42827.304688, 187500.015625, 187500.015625, 55453.937500, 40803.039063, 59772.453125, 85184.929688, 0, 1, 1, 0, 1,0.0,0.0,0.0,0.0,0.0, 10:29:50.892
22398.324219, 42897.218750, 187500.015625, 187500.015625, 55211.132813, 40620.335938, 59752.066406, 85219.171875, 0, 1, 1, 0, 1,0.0,0.0,0.0,0.0,0.0, 10:29:50.892
22338.556641, 42816.039063, 187500.015625, 187500.015625, 55364.398438, 40792.222656, 59846.660156, 85272.507813, 0, 1, 1, 0, 1,0.0,0.0,0.0,0.0,0.0, 10:29:50.892
22276.126953, 42734.343750, 187500.015625, 187500.015625, 55624.257813, 40992.160156, 59877.035156, 85241.640625, 0, 1, 1, 0, 1,0.0,0.0,0.0,0.0,0.0, 10:29:50.892
22313.164063, 42789.375000, 187500.015625, 187500.015625, 55517.238281, 40848.953125, 59781.953125, 85176.234375, 0, 1, 1, 0, 1,0.0,0.0,0.0,0.0,0.0, 10:29:50.892
22395.441406, 42897.085938, 187500.015625, 187500.015625, 55227.738281, 40619.914063, 59746.703125, 85205.226563, 0, 1, 1, 0, 1,0.0,0.0,0.0,0.0,0.0, 10:29:50.892
22367.033203, 42855.242188, 187500.015625, 187500.015625, 55299.039063, 40739.964844, 59840.960938, 85280.531250, 0, 1, 1, 0, 1,0.0,0.0,0.0,0.0,0.0, 10:29:50.892
22284.509766, 42751.421875, 187500.015625, 187500.015625, 55597.617188, 40988.472656, 59887.136719, 85265.781250, 0, 1, 1, 0, 1,0.0,0.0,0.0,0.0,0.0, 10:29:50.892
22312.962891, 42795.878906, 187500.015625, 187500.015625, 55558.230469, 40904.449219, 59814.519531, 85204.445313, 0, 1, 1, 0, 1,0.0,0.0,0.0,0.0,0.0, 10:29:50.892
22388.826172, 42895.386719, 187500.015625, 187500.015625, 55268.574219, 40654.828125, 59747.863281, 85201.648438, 0, 1, 1, 0, 1,0.0,0.0,0.0,0.0,0.0, 10:29:50.893
22374.117188, 42872.968750, 187500.015625, 187500.015625, 55262.851563, 40700.445313, 59816.820313, 85264.992188, 0, 1, 1, 0, 1,0.0,0.0,0.0,0.0,0.0, 10:29:50.893
22288.623047, 42760.695313, 187500.015625, 187500.015625, 55565.472656, 40966.968750, 59888.570313, 85265.781250, 0, 1, 1, 0, 1,0.0,0.0,0.0,0.0,0.0, 10:29:50.893
22284.978516, 42761.054688, 187500.015625, 187500.015625, 55622.382813, 40953.578125, 59821.023438, 85188.734375, 0, 1, 1, 0, 1,0.0,0.0,0.0,0.0,0.0, 10:29:50.893
22361.265625, 42868.296875, 187500.015625, 187500.015625, 55333.886719, 40690.835938, 59730.585938, 85172.976563, 0, 1, 1, 0, 1,0.0,0.0,0.0,0.0,0.0, 10:29:50.893
22393.048828, 42901.355469, 187500.015625, 187500.015625, 55227.785156, 40656.523438, 59787.828125, 85259.476563, 0, 1, 1, 0, 1,0.0,0.0,0.0,0.0,0.0, 10:29:50.893
22322.664063, 42802.449219, 187500.015625, 187500.015625, 55495.289063, 40920.566406, 59891.964844, 85295.125000, 0, 1, 1, 0, 1,0.0,0.0,0.0,0.0,0.0, 10:29:50.893
22287.863281, 42763.847656, 187500.015625, 187500.015625, 55637.402344, 40981.722656, 59850.437500, 85221.070313, 0, 1, 1, 0, 1,0.0,0.0,0.0,0.0,0.0, 10:29:50.893
22360.527344, 42866.644531, 187500.015625, 187500.015625, 55376.378906, 40734.398438, 59749.339844, 85185.179688, 0, 1, 1, 0, 1,0.0,0.0,0.0,0.0,0.0, 10:29:50.893
22396.468750, 42909.132813, 187500.015625, 187500.015625, 55217.656250, 40644.566406, 59780.117188, 85250.179688, 0, 1, 1, 0, 1,0.0,0.0,0.0,0.0,0.0, 10:29:50.894
22320.697266, 42805.355469, 187500.015625, 187500.015625, 55464.488281, 40889.609375, 59881.214844, 85296.312500, 0, 1, 1, 0, 1,0.0,0.0,0.0,0.0,0.0, 10:29:50.894
22280.576172, 42758.304688, 187500.015625, 187500.015625, 55657.070313, 41004.585938, 59863.871094, 85229.679688, 0, 1, 1, 0, 1,0.0,0.0,0.0,0.0,0.0, 10:29:50.894
22354.806641, 42855.937500, 187500.015625, 187500.015625, 55451.503906, 40786.878906, 59773.390625, 85192.687500, 0, 1, 1, 0, 1,0.0,0.0,0.0,0.0,0.0, 10:29:50.894
22428.992188, 42943.199219, 187500.015625, 187500.015625, 55214.105469, 40625.546875, 59780.609375, 85256.078125, 0, 1, 1, 0, 1,0.0,0.0,0.0,0.0,0.0, 10:29:50.894
22351.140625, 42842.390625, 187500.015625, 187500.015625, 55405.414063, 40830.222656, 59877.660156, 85294.882813, 0, 1, 1, 0, 1,0.0,0.0,0.0,0.0,0.0, 10:29:50.894
22281.738281, 42758.550781, 187500.015625, 187500.015625, 55659.218750, 41005.750000, 59877.906250, 85241.304688, 0, 1, 1, 0, 1,0.0,0.0,0.0,0.0,0.0, 10:29:50.894
22334.353516, 42832.937500, 187500.015625, 187500.015625, 55505.882813, 40826.578125, 59775.761719, 85190.695313, 0, 1, 1, 0, 1,0.0,0.0,0.0,0.0,0.0, 10:29:50.894
22404.851563, 42923.550781, 187500.015625, 187500.015625, 55231.828125, 40619.667969, 59753.183594, 85225.453125, 0, 1, 1, 0, 1,0.0,0.0,0.0,0.0,0.0, 10:29:50.894
22356.281250, 42855.242188, 187500.015625, 187500.015625, 55359.589844, 40776.308594, 59850.707031, 85287.367188, 0, 1, 1, 0, 1,0.0,0.0,0.0,0.0,0.0, 10:29:50.895
22286.341797, 42766.621094, 187500.015625, 187500.015625, 55632.058594, 40996.832031, 59879.003906, 85259.695313, 0, 1, 1, 0, 1,0.0,0.0,0.0,0.0,0.0, 10:29:50.895
22317.634766, 42811.726563, 187500.015625, 187500.015625, 55554.855469, 40876.890625, 59787.269531, 85191.679688, 0, 1, 1, 0, 1,0.0,0.0,0.0,0.0,0.0, 10:29:50.895
22402.125000, 42913.984375, 187500.015625, 187500.015625, 55258.136719, 40633.437500, 59740.085938, 85208.960938, 0, 1, 1, 0, 1,0.0,0.0,0.0,0.0,0.0, 10:29:50.895
22386.412109, 42883.226563, 187500.015625, 187500.015625, 55293.878906, 40723.042969, 59832.957031, 85286.945313, 0, 1, 1, 0, 1,0.0,0.0,0.0,0.0,0.0, 10:29:50.895
22291.416016, 42764.429688, 187500.015625, 187500.015625, 55603.515625, 40983.687500, 59891.632813, 85272.484375, 0, 1, 1, 0, 1,0.0,0.0,0.0,0.0,0.0, 10:29:50.895
22317.634766, 42804.574219, 187500.015625, 187500.015625, 55585.925781, 40916.902344, 59817.601563, 85207.953125, 0, 1, 1, 0, 1,0.0,0.0,0.0,0.0,0.0, 10:29:50.895
22392.625000, 42904.394531, 187500.015625, 187500.015625, 55291.105469, 40663.117188, 59746.679688, 85206.343750, 0, 1, 1, 0, 1,0.0,0.0,0.0,0.0,0.0, 10:29:50.895
22374.921875, 42877.839844, 187500.015625, 187500.015625, 55277.808594, 40692.914063, 59805.511719, 85265.015625, 0, 1, 1, 0, 1,0.0,0.0,0.0,0.0,0.0, 10:29:50.895
22294.835938, 42768.898438, 187500.015625, 187500.015625, 55576.605469, 40955.792969, 59880.613281, 85270.335938, 0, 1, 1, 0, 1,0.0,0.0,0.0,0.0,0.0, 10:29:50.896
22288.466797, 42768.921875, 187500.015625, 187500.015625, 55638.609375, 40950.742188, 59821.917969, 85197.109375, 0, 1, 1, 0, 1,0.0,0.0,0.0,0.0,0.0, 10:29:50.896
22380.554688, 42895.835938, 187500.015625, 187500.015625, 55328.925781, 40682.027344, 59730.742188, 85181.687500, 0, 1, 1, 0, 1,0.0,0.0,0.0,0.0,0.0, 10:29:50.896
22415.580078, 42929.250000, 187500.015625, 187500.015625, 55210.191406, 40642.152344, 59776.339844, 85256.789063, 0, 1, 1, 0, 1,0.0,0.0,0.0,0.0,0.0, 10:29:50.896
22342.154297, 42825.136719, 187500.015625, 187500.015625, 55485.097656, 40907.312500, 59873.863281, 85290.343750, 0, 1, 1, 0, 1,0.0,0.0,0.0,0.0,0.0, 10:29:50.896
22308.001953, 42784.457031, 187500.015625, 187500.015625, 55647.281250, 40988.695313, 59841.339844, 85223.171875, 0, 1, 1, 0, 1,0.0,0.0,0.0,0.0,0.0, 10:29:50.896
22393.027344, 42895.769531, 187500.015625, 187500.015625, 55398.328125, 40747.765625, 59740.667969, 85189.109375, 0, 1, 1, 0, 1,0.0,0.0,0.0,0.0,0.0, 10:29:50.896
22441.798828, 42951.378906, 187500.015625, 187500.015625, 55211.757813, 40634.910156, 59764.339844, 85250.843750, 0, 1, 1, 0, 1,0.0,0.0,0.0,0.0,0.0, 10:29:50.896
22365.646484, 42849.476563, 187500.015625, 187500.015625, 55445.781250, 40872.554688, 59862.863281, 85290.812500, 0, 1, 1, 0, 1,0.0,0.0,0.0,0.0,0.0, 10:29:50.896
22323.066406, 42795.742188, 187500.015625, 187500.015625, 55658.234375, 41009.617188, 59852.316406, 85238.125000, 0, 1, 1, 0, 1,0.0,0.0,0.0,0.0,0.0, 10:29:50.897
22395.597656, 42896.484375, 187500.015625, 187500.015625, 55450.539063, 40798.683594, 59756.605469, 85198.406250, 0, 1, 1, 0, 1,0.0,0.0,0.0,0.0,0.0, 10:29:50.897
22442.916016, 42955.492188, 187500.015625, 187500.015625, 55216.988281, 40635.000000, 59750.523438, 85242.304688, 0, 1, 1, 0, 1,0.0,0.0,0.0,0.0,0.0, 10:29:50.897
22385.115234, 42874.914063, 187500.015625, 187500.015625, 55391.195313, 40830.355469, 59858.394531, 85299.195313, 0, 1, 1, 0, 1,0.0,0.0,0.0,0.0,0.0, 10:29:50.897
22312.671875, 42785.015625, 187500.015625, 187500.015625, 55654.859375, 41026.425781, 59874.152344, 85254.671875, 0, 1, 1, 0, 1,0.0,0.0,0.0,0.0,0.0, 10:29:50.897
22366.787109, 42861.906250, 187500.015625, 187500.015625, 55511.292969, 40857.578125, 59772.675781, 85192.328125, 0, 1, 1, 0, 1,0.0,0.0,0.0,0.0,0.0, 10:29:50.897
22447.566406, 42963.539063, 187500.015625, 187500.015625, 55221.750000, 40636.183594, 59744.421875, 85227.468750, 0, 1, 1, 0, 1,0.0,0.0,0.0,0.0,0.0, 10:29:50.897
22401.410156, 42895.320313, 187500.015625, 187500.015625, 55330.800781, 40784.042969, 59842.300781, 85291.953125, 0, 1, 1, 0, 1,0.0,0.0,0.0,0.0,0.0, 10:29:50.897
22321.613281, 42790.960938, 187500.015625, 187500.015625, 55630.917969, 41021.328125, 59886.019531, 85262.203125, 0, 1, 1, 0, 1,0.0,0.0,0.0,0.0,0.0, 10:29:50.897
22354.849609, 42839.285156, 187500.015625, 187500.015625, 55570.949219, 40911.425781, 59799.988281, 85196.664063, 0, 1, 1, 0, 1,0.0,0.0,0.0,0.0,0.0, 10:29:50.900
22436.835938, 42944.875000, 187500.015625, 187500.015625, 55272.910156, 40664.324219, 59734.500000, 85207.726563, 0, 1, 1, 0, 1,0.0,0.0,0.0,0.0,0.0, 10:29:50.900
22428.968750, 42923.191406, 187500.015625, 187500.015625, 55283.507813, 40735.628906, 59820.238281, 85284.351563, 0, 1, 1, 0, 1,0.0,0.0,0.0,0.0,0.0, 10:29:50.900
22339.271484, 42807.187500, 187500.015625, 187500.015625, 55586.441406, 40995.601563, 59890.355469, 85280.062500, 0, 1, 1, 0, 1,0.0,0.0,0.0,0.0,0.0, 10:29:50.900
22350.066406, 42829.203125, 187500.015625, 187500.015625, 55605.347656, 40952.128906, 59823.234375, 85213.765625, 0, 1, 1, 0, 1,0.0,0.0,0.0,0.0,0.0, 10:29:50.900
22434.333984, 42938.972656, 187500.015625, 187500.015625, 55307.625000, 40690.542969, 59747.304688, 85210.882813, 0, 1, 1, 0, 1,0.0,0.0,0.0,0.0,0.0, 10:29:50.900
22437.439453, 42936.046875, 187500.015625, 187500.015625, 55253.375000, 40697.160156, 59812.171875, 85287.343750, 0, 1, 1, 0, 1,0.0,0.0,0.0,0.0,0.0, 10:29:50.900
22348.748047, 42819.125000, 187500.015625, 187500.015625, 55548.417969, 40968.445313, 59898.226563, 85301.117188, 0, 1, 1, 0, 1,0.0,0.0,0.0,0.0,0.0, 10:29:50.901
22347.652344, 42820.242188, 187500.015625, 187500.015625, 55633.937500, 40991.847656, 59854.750000, 85238.195313, 0, 1, 1, 0, 1,0.0,0.0,0.0,0.0,0.0, 10:29:50.901
22429.617188, 42930.078125, 187500.015625, 187500.015625, 55353.914063, 40729.324219, 59764.472656, 85211.039063, 0, 1, 1, 0, 1,0.0,0.0,0.0,0.0,0.0, 10:29:50.901
22457.400391, 42959.203125, 187500.015625, 187500.015625, 55225.437500, 40665.531250, 59810.226563, 85282.453125, 0, 1, 1, 0, 1,0.0,0.0,0.0,0.0,0.0, 10:29:50.901
22368.439453, 42838.433594, 187500.015625, 187500.015625, 55503.292969, 40931.453125, 59902.875000, 85309.382813, 0, 1, 1, 0, 1,0.0,0.0,0.0,0.0,0.0, 10:29:50.901
22337.953125, 42806.359375, 187500.015625, 187500.015625, 55660.535156, 41021.527344, 59868.296875, 85246.218750, 0, 1, 1, 0, 1,0.0,0.0,0.0,0.0,89.67555, 10:29:51.359
22412.451172, 42907.347656, 187500.015625, 187500.015625, 55422.085938, 40788.445313, 59773.750000, 85211.375000, 0, 1, 1, 0, 1,0.0,0.0,0.0,0.0,89.67555, 10:29:51.359
22454.046875, 42957.503906, 187500.015625, 187500.015625, 55228.273438, 40659.585938, 59779.312500, 85265.289063, 0, 1, 1, 0, 1,0.0,0.0,0.0,0.0,89.67555, 10:29:51.360
22392.468750, 42869.796875, 187500.015625, 187500.015625, 55439.230469, 40886.523438, 59888.480469, 85320.765625, 0, 1, 1, 0, 1,0.0,0.0,0.0,0.0,89.67555, 10:29:51.360
22339.695313, 42804.035156, 187500.015625, 187500.015625, 55669.363281, 41048.910156, 59878.914063, 85269.867188, 0, 1, 1, 0, 1,0.0,0.0,0.0,0.0,89.67555, 10:29:51.360
22396.156250, 42887.988281, 187500.015625, 187500.015625, 55487.914063, 40851.410156, 59770.707031, 85214.929688, 0, 1, 1, 0, 1,0.0,0.0,0.0,0.0,89.67555, 10:29:51.360
22465.894531, 42975.855469, 187500.015625, 187500.015625, 55224.832031, 40661.667969, 59757.183594, 85260.054688, 0, 1, 1, 0, 1,0.0,0.0,0.0,0.0,89.67555, 10:29:51.360
22411.712891, 42894.964844, 187500.015625, 187500.015625, 55380.355469, 40839.296875, 59857.613281, 85319.085938, 0, 1, 1, 0, 1,0.0,0.0,0.0,0.0,89.67555, 10:29:51.360
22348.457031, 42810.183594, 187500.015625, 187500.015625, 55652.042969, 41045.089844, 59889.796875, 85283.570313, 0, 1, 1, 0, 1,0.0,0.0,0.0,0.0,89.67555, 10:29:51.360
22388.021484, 42864.968750, 187500.015625, 187500.015625, 55553.449219, 40899.488281, 59795.785156, 85209.007813, 0, 1, 1, 0, 1,0.0,0.0,0.0,0.0,89.67555, 10:29:51.360
22466.027344, 42963.070313, 187500.015625, 187500.015625, 55266.183594, 40667.656250, 59756.000000, 85233.031250, 0, 1, 1, 0, 1,0.0,0.0,0.0,0.0,89.67555, 10:29:51.360
22430.130859, 42909.312500, 187500.015625, 187500.015625, 55344.929688, 40781.738281, 59843.082031, 85293.156250, 0, 1, 1, 0, 1,0.0,0.0,0.0,0.0,89.67555, 10:29:51.361
22346.312500, 42799.992188, 187500.015625, 187500.015625, 55634.808594, 41014.757813, 59882.644531, 85264.343750, 0, 1, 1, 0, 1,0.0,0.0,0.0,0.0,89.67555, 10:29:51.361
22378.341797, 42848.648438, 187500.015625, 187500.015625, 55584.652344, 40918.332031, 59800.054688, 85197.804688, 0, 1, 1, 0, 1,0.0,0.0,0.0,0.0,89.67555, 10:29:51.361
22470.699219, 42967.695313, 187500.015625, 187500.015625, 55272.152344, 40659.410156, 59743.773438, 85213.898438, 0, 1, 1, 0, 1,0.0,0.0,0.0,0.0,89.67555, 10:29:51.361
22452.638672, 42936.312500, 187500.015625, 187500.015625, 55273.449219, 40713.277344, 59821.515625, 85279.343750, 0, 1, 1, 0, 1,0.0,0.0,0.0,0.0,89.67555, 10:29:51.361
22359.298828, 42815.257813, 187500.015625, 187500.015625, 55582.906250, 40981.074219, 59890.960938, 85272.617188, 0, 1, 1, 0, 1,0.0,0.0,0.0,0.0,89.67555, 10:29:51.361
22365.580078, 42830.144531, 187500.015625, 187500.015625, 55625.039063, 40958.742188, 59825.761719, 85203.570313, 0, 1, 1, 0, 1,0.0,0.0,0.0,0.0,89.67555, 10:29:51.361
22450.470703, 42940.718750, 187500.015625, 187500.015625, 55327.828125, 40697.363281, 59746.144531, 85198.859375, 0, 1, 1, 0, 1,0.0,0.0,0.0,0.0,89.67555, 10:29:51.361
22460.730469, 42950.417969, 187500.015625, 187500.015625, 55232.230469, 40676.082031, 59788.992188, 85270.132813, 0, 1, 1, 0, 1,0.0,0.0,0.0,0.0,89.67555, 10:29:51.361
22373.783203, 42834.882813, 187500.015625, 187500.015625, 55518.421875, 40948.371094, 59883.539063, 85291.820313, 0, 1, 1, 0, 1,0.0,0.0,0.0,0.0,89.67555, 10:29:51.362
22352.503906, 42811.703125, 187500.015625, 187500.015625, 55643.859375, 40995.601563, 59841.855469, 85221.429688, 0, 1, 1, 0, 1,0.0,0.0,0.0,0.0,89.67555, 10:29:51.362
22434.958984, 42924.421875, 187500.015625, 187500.015625, 55374.320313, 40738.152344, 59749.316406, 85194.500000, 0, 1, 1, 0, 1,0.0,0.0,0.0,0.0,89.67555, 10:29:51.362
22466.787109, 42961.750000, 187500.015625, 187500.015625, 55221.679688, 40649.058594, 59779.312500, 85257.171875, 0, 1, 1, 0, 1,0.0,0.0,0.0,0.0,89.67555, 10:29:51.362
22386.724609, 42852.425781, 187500.015625, 187500.015625, 55470.882813, 40896.785156, 59876.476563, 85295.726563, 0, 1, 1, 0, 1,0.0,0.0,0.0,0.0,89.67555, 10:29:51.362
22340.076172, 42796.347656, 187500.015625, 187500.015625, 55664.269531, 41015.359375, 59853.523438, 85232.695313, 0, 1, 1, 0, 1,0.0,0.0,0.0,0.0,89.67555, 10:29:51.362
22424.498047, 42907.324219, 187500.015625, 187500.015625, 55436.214844, 40785.429688, 59760.179688, 85195.257813, 0, 1, 1, 0, 1,0.0,0.0,0.0,0.0,89.67555, 10:29:51.362
22483.351563, 42980.839844, 187500.015625, 187500.015625, 55213.054688, 40631.871094, 59766.460938, 85251.156250, 0, 1, 1, 0, 1,0.0,0.0,0.0,0.0,89.67555, 10:29:51.362
22414.328125, 42885.218750, 187500.015625, 187500.015625, 55414.218750, 40845.332031, 59872.320313, 85301.429688, 0, 1, 1, 0, 1,0.0,0.0,0.0,0.0,89.67555, 10:29:51.362
22350.335938, 42806.269531, 187500.015625, 187500.015625, 55661.562500, 41019.652344, 59874.957031, 85248.343750, 0, 1, 1, 0, 1,0.0,0.0,0.0,0.0,89.67555, 10:29:51.362
22406.035156, 42885.375000, 187500.015625, 187500.015625, 55503.535156, 40838.914063, 59774.796875, 85193.539063, 0, 1, 1, 0, 1,0.0,0.0,0.0,0.0,89.67555, 10:29:51.363
22479.841797, 42979.406250, 187500.015625, 187500.015625, 55231.628906, 40633.167969, 59753.074219, 85237.148438, 0, 1, 1, 0, 1,0.0,0.0,0.0,0.0,89.67555, 10:29:51.363
22431.896484, 42911.078125, 187500.015625, 187500.015625, 55361.312500, 40803.375000, 59858.484375, 85310.210938, 0, 1, 1, 0, 1,0.0,0.0,0.0,0.0,89.67555, 10:29:51.363
22353.710938, 42812.621094, 187500.015625, 187500.015625, 55657.406250, 41031.968750, 59895.453125, 85275.750000, 0, 1, 1, 0, 1,0.0,0.0,0.0,0.0,89.67555, 10:29:51.363
22395.419922, 42876.097656, 187500.015625, 187500.015625, 55564.468750, 40897.609375, 59802.917969, 85209.359375, 0, 1, 1, 0, 1,95.729836,0.0,88.725746,92.648705,54.34616, 10:29:51.363
22477.292969, 42982.671875, 187500.015625, 187500.015625, 55266.675781, 40655.406250, 59754.281250, 85228.585938, 0, 1, 1, 0, 1,95.729836,0.0,88.725746,92.648705,54.34616, 10:29:51.363
22457.220703, 42947.066406, 187500.015625, 187500.015625, 55319.468750, 40756.953125, 59842.144531, 85303.578125, 0, 1, 1, 0, 1,95.729836,0.0,88.725746,92.648705,54.34616, 10:29:51.363
22356.035156, 42819.214844, 187500.015625, 187500.015625, 55624.929688, 41013.328125, 59892.078125, 85282.992188, 0, 1, 1, 0, 1,95.729836,0.0,88.725746,92.648705,54.34616, 10:29:51.363
22376.867188, 42853.410156, 187500.015625, 187500.015625, 55608.164063, 40940.324219, 59813.847656, 85217.187500, 0, 1, 1, 0, 1,95.729836,0.0,88.725746,92.648705,54.34616, 10:29:51.364
22467.994141, 42968.546875, 187500.015625, 187500.015625, 55307.019531, 40681.359375, 59747.484375, 85218.679688, 0, 1, 1, 0, 1,95.729836,0.0,88.725746,92.648705,54.34616, 10:29:51.364
22472.242188, 42962.355469, 187500.015625, 187500.015625, 55272.933594, 40706.546875, 59815.746094, 85287.015625, 0, 1, 1, 0, 1,95.729836,0.0,88.725746,92.648705,54.34616, 10:29:51.364
22374.519531, 42832.445313, 187500.015625, 187500.015625, 55584.562500, 40982.281250, 59892.324219, 85287.929688, 0, 1, 1, 0, 1,95.729836,0.0,88.725746,92.648705,54.34616, 10:29:51.364
22373.871094, 42834.792969, 187500.015625, 187500.015625, 55648.867188, 40980.312500, 59826.765625, 85216.890625, 0, 1, 1, 0, 1,95.729836,0.0,88.725746,92.648705,54.34616, 10:29:51.364
22465.826172, 42955.132813, 187500.015625, 187500.015625, 55349.734375, 40714.035156, 59743.996094, 85207.796875, 0, 1, 1, 0, 1,95.729836,0.0,88.725746,92.648705,54.34616, 10:29:51.364
22480.535156, 42969.394531, 187500.015625, 187500.015625, 55244.996094, 40676.464844, 59796.589844, 85276.351563, 0, 1, 1, 0, 1,95.729836,0.0,88.725746,92.648705,54.34616, 10:29:51.365
22399.263672, 42861.679688, 187500.015625, 187500.015625, 55519.183594, 40940.324219, 59887.988281, 85302.296875, 0, 1, 1, 0, 1,95.729836,0.0,88.725746,92.648705,54.34616, 10:29:51.365
22367.546875, 42828.222656, 187500.015625, 187500.015625, 55664.625000, 41010.242188, 59848.582031, 85232.250000, 0, 1, 1, 0, 1,95.729836,0.0,88.725746,92.648705,54.34616, 10:29:51.365
22447.386719, 42937.722656, 187500.015625, 187500.015625, 55406.148438, 40759.769531, 59749.093750, 85197.539063, 0, 1, 1, 0, 1,95.729836,0.0,88.725746,92.648705,54.34616, 10:29:51.365
22479.886719, 42977.796875, 187500.015625, 187500.015625, 55231.851563, 40650.042969, 59771.824219, 85251.609375, 0, 1, 1, 0, 1,95.729836,0.0,88.725746,92.648705,54.34616, 10:29:51.365
22409.679688, 42883.070313, 187500.015625, 187500.015625, 55453.648438, 40883.238281, 59867.828125, 85295.531250, 0, 1, 1, 0, 1,95.729836,0.0,88.725746,92.648705,54.34616, 10:29:51.365
22358.917969, 42819.457031, 187500.015625, 187500.015625, 55658.679688, 41016.703125, 59855.062500, 85236.320313, 0, 1, 1, 0, 1,95.729836,0.0,88.725746,92.648705,54.34616, 10:29:51.366
22424.945313, 42908.441406, 187500.015625, 187500.015625, 55457.871094, 40805.746094, 59754.906250, 85187.367188, 0, 1, 1, 0, 1,95.729836,0.0,88.725746,92.648705,54.34616, 10:29:51.366
22494.056641, 42991.031250, 187500.015625, 187500.015625, 55219.558594, 40641.707031, 59758.996094, 85245.210938, 0, 1, 1, 0, 1,95.729836,0.0,88.725746,92.648705,54.34616, 10:29:51.366
22438.445313, 42908.441406, 187500.015625, 187500.015625, 55394.304688, 40843.968750, 59865.992188, 85307.242188, 0, 1, 1, 0, 1,95.729836,0.0,88.725746,92.648705,54.34616, 10:29:51.366
22375.503906, 42826.789063, 187500.015625, 187500.015625, 55649.718750, 41033.644531, 59881.593750, 85265.109375, 0, 1, 1, 0, 1,95.729836,0.0,88.725746,92.648705,54.34616, 10:29:51.366
22428.611328, 42906.542969, 187500.015625, 187500.015625, 55515.136719, 40871.167969, 59788.121094, 85211.820313, 0, 1, 1, 0, 1,95.729836,0.0,88.725746,92.648705,54.34616, 10:29:51.366
22498.908203, 43003.300781, 187500.015625, 187500.015625, 55233.371094, 40655.808594, 59758.929688, 85243.023438, 0, 1, 1, 0, 1,95.729836,0.0,88.725746,92.648705,54.34616, 10:29:51.367
22457.177734, 42944.941406, 187500.015625, 187500.015625, 55335.070313, 40797.632813, 59856.671875, 85308.914063, 0, 1, 1, 0, 1,95.729836,0.0,88.725746,92.648705,54.34616, 10:29:51.367
22370.273438, 42831.507813, 187500.015625, 187500.015625, 55642.207031, 41039.679688, 59897.578125, 85279.140625, 0, 1, 1, 0, 1,95.729836,0.0,88.725746,92.648705,54.34616, 10:29:51.367
22400.738281, 42879.628906, 187500.015625, 187500.015625, 55572.492188, 40924.164063, 59797.441406, 85205.632813, 0, 1, 1, 0, 1,95.729836,0.0,88.725746,92.648705,54.34616, 10:29:51.367
22490.615234, 42995.410156, 187500.015625, 187500.015625, 55256.617188, 40668.574219, 59743.238281, 85222.976563, 0, 1, 1, 0, 1,95.729836,0.0,88.725746,92.648705,54.34616, 10:29:51.367
22475.707031, 42966.355469, 187500.015625, 187500.015625, 55282.054688, 40745.730469, 59828.843750, 85296.804688, 0, 1, 1, 0, 1,95.729836,0.0,88.725746,92.648705,54.34616, 10:29:51.367
22388.646484, 42849.230469, 187500.015625, 187500.015625, 55592.964844, 41011.136719, 59895.410156, 85290.679688, 0, 1, 1, 0, 1,95.729836,0.0,88.725746,92.648705,54.34616, 10:29:51.367
22404.068359, 42874.578125, 187500.015625, 187500.015625, 55600.566406, 40962.183594, 59828.531250, 85227.601563, 0, 1, 1, 0, 1,95.729836,0.0,88.725746,92.648705,54.34616, 10:29:51.368
22484.312500, 42984.660156, 187500.015625, 187500.015625, 55298.683594, 40699.417969, 59750.925781, 85223.734375, 0, 1, 1, 0, 1,95.729836,0.0,88.725746,92.648705,54.34616, 10:29:51.368
22490.906250, 42985.957031, 187500.015625, 187500.015625, 55240.949219, 40705.453125, 59809.398438, 85301.164063, 0, 1, 1, 0, 1,95.729836,0.0,88.725746,92.648705,54.34616, 10:29:51.368
22418.777344, 42886.378906, 187500.015625, 187500.015625, 55524.906250, 40975.617188, 59901.980469, 85329.812500, 0, 1, 1, 0, 1,95.729836,0.0,88.725746,92.648705,54.34616, 10:29:51.368
22411.400391, 42881.394531, 187500.015625, 187500.015625, 55623.789063, 41005.593750, 59855.128906, 85257.460938, 0, 1, 1, 0, 1,95.729836,0.0,88.725746,92.648705,54.34616, 10:29:51.368
22492.068359, 42991.613281, 187500.015625, 187500.015625, 55341.910156, 40747.945313, 59767.847656, 85237.523438, 0, 1, 1, 0, 1,95.729836,0.0,88.725746,92.648705,54.34616, 10:29:51.368
22511.625000, 43019.460938, 187500.015625, 187500.015625, 55205.609375, 40679.347656, 59807.992188, 85305.875000, 0, 1, 1, 0, 1,95.729836,0.0,88.725746,92.648705,54.34616, 10:29:51.368
22416.408203, 42896.773438, 187500.015625, 187500.015625, 55480.425781, 40938.023438, 59895.699219, 85323.804688, 0, 1, 1, 0, 1,95.729836,0.0,88.725746,92.648705,54.34616, 10:29:51.368
22371.123047, 42840.625000, 187500.015625, 187500.015625, 55653.113281, 41031.296875, 59863.492188, 85254.890625, 0, 1, 1, 0, 1,95.729836,0.0,88.725746,92.648705,54.34616, 10:29:51.368
22439.250000, 42935.464844, 187500.015625, 187500.015625, 55409.527344, 40786.769531, 59754.792969, 85208.359375, 0, 1, 1, 0, 1,95.729836,0.0,88.725746,92.648705,54.34616, 10:29:51.369
22479.103516, 42981.957031, 187500.015625, 187500.015625, 55200.113281, 40645.773438, 59759.398438, 85247.921875, 0, 1, 1, 0, 1,95.729836,0.0,88.725746,92.648705,54.34616, 10:29:51.369
22402.974609, 42879.292969, 187500.015625, 187500.015625, 55417.035156, 40875.371094, 59856.898438, 85297.296875, 0, 1, 1, 0, 1,95.729836,0.0,88.725746,92.648705,54.34616, 10:29:51.369
22339.986328, 42807.656250, 187500.015625, 187500.015625, 55638.273438, 41028.167969, 59854.816406, 85250.421875, 0, 1, 1, 0, 1,95.729836,0.0,88.725746,92.648705,54.34616, 10:29:51.369
22399.107422, 42898.070313, 187500.015625, 187500.015625, 55435.296875, 40821.726563, 59758.304688, 85204.531250, 0, 1, 1, 0, 1,95.729836,0.0,88.725746,92.648705,54.34616, 10:29:51.369
22440.859375, 42952.003906, 187500.015625, 187500.015625, 55179.101563, 40635.960938, 59742.433594, 85243.898438, 0, 1, 1, 0, 1,95.729836,0.0,88.725746,92.648705,54.34616, 10:29:51.369
22367.322266, 42853.007813, 187500.015625, 187500.015625, 55343.386719, 40819.894531, 59835.148438, 85294.031250, 0, 1, 1, 0, 1,95.729836,0.0,88.725746,92.648705,54.34616, 10:29:51.369
22293.830078, 42758.238281, 187500.015625, 187500.015625, 55615.183594, 41021.753906, 59861.187500, 85257.085938, 0, 1, 1, 0, 1,95.729836,0.0,88.725746,92.648705,54.34616, 10:29:51.369
22335.917969, 42816.910156, 187500.015625, 187500.015625, 55499.894531, 40868.507813, 59772.832031, 85200.085938, 0, 1, 1, 0, 1,95.729836,0.0,88.725746,92.648705,54.34616, 10:29:51.369
22403.980469, 42912.105469, 187500.015625, 187500.015625, 55202.078125, 40637.078125, 59734.230469, 85235.179688, 0, 1, 1, 0, 1,95.729836,0.0,88.725746,92.648705,54.34616, 10:29:51.369
22347.451172, 42837.429688, 187500.015625, 187500.015625, 55293.789063, 40765.734375, 59822.339844, 85301.203125, 0, 1, 1, 0, 1,95.729836,0.0,88.725746,92.648705,54.34616, 10:29:51.370
22258.582031, 42724.820313, 187500.015625, 187500.015625, 55594.195313, 41007.269531, 59867.445313, 85272.882813, 0, 1, 1, 0, 1,95.729836,0.0,88.725746,92.648705,54.34616, 10:29:51.370
22277.468750, 42756.023438, 187500.015625, 187500.015625, 55559.593750, 40914.843750, 59783.402344, 85201.093750, 0, 1, 1, 0, 1,95.729836,0.0,88.725746,92.648705,54.34616, 10:29:51.370
22366.048828, 42875.382813, 187500.015625, 187500.015625, 55235.226563, 40653.753906, 59728.152344, 85227.578125, 0, 1, 1, 0, 1,95.729836,0.0,88.725746,92.648705,54.34616, 10:29:51.370
22347.384766, 42841.789063, 187500.015625, 187500.015625, 55234.042969, 40715.980469, 59815.859375, 85309.429688, 0, 1, 1, 0, 1,95.729836,0.0,88.725746,92.648705,54.34616, 10:29:51.370
22251.093750, 42717.625000, 187500.015625, 187500.015625, 55551.078125, 40985.632813, 59891.808594, 85303.171875, 0, 1, 1, 0, 1,95.729836,0.0,88.725746,92.648705,54.34616, 10:29:51.370
22248.634766, 42724.664063, 187500.015625, 187500.015625, 55584.316406, 40952.105469, 59814.808594, 85221.187500, 0, 1, 1, 0, 1,95.729836,0.0,88.725746,92.648705,54.34616, 10:29:51.370
22327.582031, 42828.710938, 187500.015625, 187500.015625, 55285.964844, 40684.285156, 59730.164063, 85202.765625, 0, 1, 1, 0, 1,95.729836,0.0,88.725746,92.648705,54.34616, 10:29:51.370
22336.835938, 42833.562500, 187500.015625, 187500.015625, 55201.812500, 40664.683594, 59783.316406, 85268.484375, 0, 1, 1, 0, 1,95.729836,0.0,88.725746,92.648705,54.34616, 10:29:51.370
22237.615234, 42704.078125, 187500.015625, 187500.015625, 55501.035156, 40937.261719, 59864.093750, 85282.320313, 0, 1, 1, 0, 1,95.729836,0.0,88.725746,92.648705,54.34616, 10:29:51.371
22211.867188, 42675.535156, 187500.015625, 187500.015625, 55620.214844, 40978.433594, 59811.632813, 85211.906250, 0, 1, 1, 0, 1,95.729836,0.0,88.725746,92.648705,54.34616, 10:29:51.371
22299.664063, 42792.054688, 187500.015625, 187500.015625, 55328.097656, 40713.589844, 59720.214844, 85188.281250, 0, 1, 1, 0, 1,95.729836,0.0,88.725746,92.648705,54.34616, 10:29:51.371
22328.654297, 42822.164063, 187500.015625, 187500.015625, 55178.609375, 40636.117188, 59762.035156, 85257.906250, 0, 1, 1, 0, 1,95.729836,0.0,88.725746,92.648705,54.34616, 10:29:51.371
22246.734375, 42711.097656, 187500.015625, 187500.015625, 55448.753906, 40894.437500, 59860.093750, 85293.742188, 0, 1, 1, 0, 1,95.729836,0.0,88.725746,92.648705,54.34616, 10:29:51.371
22212.671875, 42672.339844, 187500.015625, 187500.015625, 55631.679688, 41002.910156, 59836.667969, 85233.617188, 0, 1, 1, 0, 1,95.729836,0.0,88.725746,92.648705,54.34616, 10:29:51.371
22278.474609, 42763.000000, 187500.015625, 187500.015625, 55406.531250, 40776.554688, 59739.550781, 85193.179688, 0, 1, 1, 0, 1,95.729836,0.0,88.725746,92.648705,54.34616, 10:29:51.372
22323.246094, 42820.531250, 187500.015625, 187500.015625, 55183.972656, 40624.250000, 59739.484375, 85245.351563, 0, 1, 1, 0, 1,95.729836,0.0,88.725746,92.648705,54.34616, 10:29:51.372
22257.955078, 42730.433594, 187500.015625, 187500.015625, 55381.519531, 40842.042969, 59845.722656, 85299.710938, 0, 1, 1, 0, 1,95.729836,0.0,88.725746,92.648705,54.34616, 10:29:51.372
22192.732422, 42650.324219, 187500.015625, 187500.015625, 55633.691406, 41014.019531, 59851.980469, 85240.031250, 0, 1, 1, 0, 1,95.729836,0.0,88.725746,92.648705,54.34616, 10:29:51.372
22243.091797, 42723.925781, 187500.015625, 187500.015625, 55473.453125, 40822.351563, 59750.480469, 85176.640625, 0, 1, 1, 0, 1,95.729836,0.0,88.725746,92.648705,54.34616, 10:29:51.372
22320.093750, 42821.894531, 187500.015625, 187500.015625, 55199.687500, 40615.800781, 59733.960938, 85220.960938, 0, 1, 1, 0, 1,95.729836,0.0,88.725746,92.648705,54.34616, 10:29:51.372
22273.937500, 42751.488281, 187500.015625, 187500.015625, 55342.671875, 40787.058594, 59841.941406, 85287.976563, 0, 1, 1, 0, 1,95.729836,0.0,88.725746,92.648705,54.34616, 10:29:51.372
22191.615234, 42645.406250, 187500.015625, 187500.015625, 55643.929688, 41015.136719, 59870.687500, 85255.296875, 0, 1, 1, 0, 1,95.729836,0.0,88.725746,92.648705,54.34616, 10:29:51.373
22237.548828, 42712.664063, 187500.015625, 187500.015625, 55541.085938, 40874.566406, 59771.960938, 85193.156250, 0, 1, 1, 0, 1,95.729836,0.0,88.725746,92.648705,54.34616, 10:29:51.373
22332.052734, 42835.082031, 187500.015625, 187500.015625, 55218.910156, 40631.000000, 59734.675781, 85232.812500, 0, 1, 1, 0, 1,95.729836,0.0,88.725746,92.648705,54.34616, 10:29:51.373
22299.261719, 42787.070313, 187500.015625, 187500.015625, 55283.437500, 40747.652344, 59834.566406, 85313.679688, 0, 1, 1, 0, 1,95.729836,0.0,88.725746,92.648705,54.34616, 10:29:51.373
22208.580078, 42671.492188, 187500.015625, 187500.015625, 55599.246094, 41008.656250, 59887.921875, 85294.835938, 0, 1, 1, 0, 1,95.729836,0.0,88.725746,92.648705,54.34616, 10:29:51.373
22226.796875, 42703.093750, 187500.015625, 187500.015625, 55582.550781, 40935.921875, 59805.441406, 85221.921875, 0, 1, 1, 0, 1,95.729836,0.0,88.725746,92.648705,54.34616, 10:29:51.373
22309.542969, 42813.109375, 187500.015625, 187500.015625, 55276.687500, 40674.273438, 59738.164063, 85224.453125, 0, 1, 1, 0, 1,95.729836,0.0,88.725746,92.648705,54.34616, 10:29:51.373
22305.945313, 42805.800781, 187500.015625, 187500.015625, 55246.042969, 40709.097656, 59813.222656, 85299.078125, 0, 1, 1, 0, 1,95.729836,0.0,88.725746,92.648705,54.34616, 10:29:51.374
22208.714844, 42680.410156, 187500.015625, 187500.015625, 55564.937500, 40988.156250, 59887.941406, 85297.515625, 0, 1, 1, 0, 1,95.729836,0.0,88.725746,92.648705,54.34616, 10:29:51.374
22197.226563, 42675.089844, 187500.015625, 187500.015625, 55641.738281, 40985.722656, 59821.582031, 85218.171875, 0, 1, 1, 0, 1,95.729836,0.0,88.725746,92.648705,54.34616, 10:29:51.374
22287.683594, 42796.257813, 187500.015625, 187500.015625, 55334.980469, 40715.625000, 59738.746094, 85207.664063, 0, 1, 1, 0, 1,95.729836,0.0,88.725746,92.648705,54.34616, 10:29:51.374
22294.925781, 42799.343750, 187500.015625, 187500.015625, 55243.429688, 40682.027344, 59788.007813, 85269.398438, 0, 1, 1, 0, 1,95.729836,0.0,88.725746,92.648705,54.34616, 10:29:51.374
22215.777344, 42689.664063, 187500.015625, 187500.015625, 55537.398438, 40955.078125, 59886.894531, 85298.765625, 0, 1, 1, 0, 1,95.729836,0.0,88.725746,92.648705,54.34616, 10:29:51.374
22199.460938, 42671.492188, 187500.015625, 187500.015625, 55673.542969, 41019.406250, 59856.605469, 85240.476563, 0, 1, 1, 0, 1,95.729836,0.0,88.725746,92.648705,54.34616, 10:29:51.374
22272.060547, 42775.558594, 187500.015625, 187500.015625, 55412.945313, 40766.988281, 59752.359375, 85194.070313, 0, 1, 1, 0, 1,95.729836,0.0,88.725746,92.648705,54.34616, 10:29:51.374
22313.119141, 42824.867188, 187500.015625, 187500.015625, 55222.285156, 40654.222656, 59774.328125, 85256.164063, 0, 1, 1, 0, 1,95.729836,0.0,88.725746,92.648705,54.34616, 10:29:51.374
22234.753906, 42718.363281, 187500.015625, 187500.015625, 55457.269531, 40904.496094, 59885.773438, 85315.601563, 0, 1, 1, 0, 1,1.3017493,5.0706854,4.3333416,5.1745744,3.641588, 10:29:51.840
22184.753906, 42656.648438, 187500.015625, 187500.015625, 55676.382813, 41051.839844, 59880.812500, 85274.828125, 0, 1, 1, 0, 1,1.3017493,5.0706854,4.3333416,5.1745744,3.641588, 10:29:51.840
22251.294922, 42748.625000, 187500.015625, 187500.015625, 55467.281250, 40827.785156, 59772.406250, 85213.835938, 0, 1, 1, 0, 1,1.3017493,5.0706854,4.3333416,5.1745744,3.641588, 10:29:51.840
22303.822266, 42814.339844, 187500.015625, 187500.015625, 55230.175781, 40652.703125, 59758.257813, 85246.015625, 0, 1, 1, 0, 1,1.3017493,5.0706854,4.3333416,5.1745744,3.641588, 10:29:51.841
22247.673828, 42733.917969, 187500.015625, 187500.015625, 55406.640625, 40848.726563, 59859.042969, 85306.031250, 0, 1, 1, 0, 1,1.3017493,5.0706854,4.3333416,5.1745744,3.641588, 10:29:51.841
22193.091797, 42666.281250, 187500.015625, 187500.015625, 55662.972656, 41032.996094, 59876.277344, 85271.414063, 0, 1, 1, 0, 1,1.3017493,5.0706854,4.3333416,5.1745744,3.641588, 10:29:51.841
22247.160156, 42744.066406, 187500.015625, 187500.015625, 55519.496094, 40864.152344, 59779.804688, 85216.492188, 0, 1, 1, 0, 1,1.3017493,5.0706854,4.3333416,5.1745744,3.641588, 10:29:51.841
22324.787109, 42844.539063, 187500.015625, 187500.015625, 55233.394531, 40648.636719, 59755.398438, 85252.031250, 0, 1, 1, 0, 1,1.3017493,5.0706854,4.3333416,5.1745744,3.641588, 10:29:51.841
22287.302734, 42783.671875, 187500.015625, 187500.015625, 55351.746094, 40801.902344, 59857.054688, 85317.898438, 0, 1, 1, 0, 1,1.3017493,5.0706854,4.3333416,5.1745744,3.641588, 10:29:51.841
22211.107422, 42679.894531, 187500.015625, 187500.015625, 55660.468750, 41041.511719, 59896.996094, 85287.125000, 0, 1, 1, 0, 1,1.3017493,5.0706854,4.3333416,5.1745744,3.641588, 10:29:51.841
22247.382813, 42731.726563, 187500.015625, 187500.015625, 55592.496094, 40923.339844, 59805.019531, 85217.812500, 0, 1, 1, 0, 1,1.3017493,5.0706854,4.3333416,5.1745744,3.641588, 10:29:51.842
22328.029297, 42832.914063, 187500.015625, 187500.015625, 55287.507813, 40668.035156, 59745.851563, 85226.546875, 0, 1, 1, 0, 1,1.3017493,5.0706854,4.3333416,5.1745744,3.641588, 10:29:51.842
22322.910156, 42797.753906, 187500.015625, 187500.015625, 55315.132813, 40745.597656, 59834.746094, 85304.179688, 0, 1, 1, 0, 1,1.3017493,5.0706854,4.3333416,5.1745744,3.641588, 10:29:51.842
22248.523438, 42682.019531, 187500.015625, 187500.015625, 55632.261719, 41011.960938, 59905.691406, 85301.812500, 0, 1, 1, 0, 1,1.3017493,5.0706854,4.3333416,5.1745744,3.641588, 10:29:51.843
22257.330078, 42701.820313, 187500.015625, 187500.015625, 55652.265625, 40964.355469, 59837.316406, 85235.601563, 0, 1, 1, 0, 1,1.3017493,5.0706854,4.3333416,5.1745744,3.641588, 10:29:51.843
22338.712891, 42816.910156, 187500.015625, 187500.015625, 55343.765625, 40698.433594, 59760.984375, 85229.546875, 0, 1, 1, 0, 1,1.3017493,5.0706854,4.3333416,5.1745744,3.641588, 10:29:51.843
22342.466797, 42818.164063, 187500.015625, 187500.015625, 55287.058594, 40711.644531, 59832.421875, 85308.875000, 0, 1, 1, 0, 1,1.3017493,5.0706854,4.3333416,5.1745744,3.641588, 10:29:51.843
22248.388672, 42697.328125, 187500.015625, 187500.015625, 55595.714844, 40993.632813, 59923.437500, 85328.585938, 0, 1, 1, 0, 1,1.3017493,5.0706854,4.3333416,5.1745744,3.641588, 10:29:51.843
22221.478516, 42673.925781, 187500.015625, 187500.015625, 55709.753906, 41024.101563, 59864.855469, 85254.132813, 0, 1, 1, 0, 1,1.3017493,5.0706854,4.3333416,5.1745744,3.641588, 10:29:51.843
22305.519531, 42794.648438, 187500.015625, 187500.015625, 55416.476563, 40755.476563, 59773.523438, 85235.398438, 0, 1, 1, 0, 1,1.3017493,5.0706854,4.3333416,5.1745744,3.641588, 10:29:51.844
22331.113281, 42825.113281, 187500.015625, 187500.015625, 55282.523438, 40693.718750, 59823.191406, 85311.171875, 0, 1, 1, 0, 1,1.3017493,5.0706854,4.3333416,5.1745744,3.641588, 10:29:51.844
22249.082031, 42714.429688, 187500.015625, 187500.015625, 55559.082031, 40956.128906, 59925.316406, 85340.679688, 0, 1, 1, 0, 1,1.3017493,5.0706854,4.3333416,5.1745744,3.641588, 10:29:51.844
22213.207031, 42676.855469, 187500.015625, 187500.015625, 55726.562500, 41039.679688, 59895.519531, 85272.039063, 0, 1, 1, 0, 1,1.3017493,5.0706854,4.3333416,5.1745744,3.641588, 10:29:51.844
22283.816406, 42777.929688, 187500.015625, 187500.015625, 55482.683594, 40797.386719, 59796.523438, 85234.148438, 0, 1, 1, 0, 1,1.3017493,5.0706854,4.3333416,5.1745744,3.641588, 10:29:51.844
22332.923828, 42839.554688, 187500.015625, 187500.015625, 55272.261719, 40666.917969, 59816.707031, 85298.992188, 0, 1, 1, 0, 1,1.3017493,5.0706854,4.3333416,5.1745744,3.641588, 10:29:51.844
22255.162109, 42730.253906, 187500.015625, 187500.015625, 55512.566406, 40909.660156, 59925.964844, 85345.710938, 0, 1, 1, 0, 1,1.3017493,5.0706854,4.3333416,5.1745744,3.641588, 10:29:51.844
22200.712891, 42662.929688, 187500.015625, 187500.015625, 55756.132813, 41065.628906, 59923.371094, 85287.437500, 0, 1, 1, 0, 1,1.3017493,5.0706854,4.3333416,5.1745744,3.641588, 10:29:51.844
22262.470703, 42751.664063, 187500.015625, 187500.015625, 55567.707031, 40856.238281, 59823.210938, 85231.445313, 0, 1, 1, 0, 1,1.3017493,5.0706854,4.3333416,5.1745744,3.641588, 10:29:51.844
22333.035156, 42842.281250, 187500.015625, 187500.015625, 55295.152344, 40663.453125, 59812.347656, 85277.531250, 0, 1, 1, 0, 1,1.3017493,5.0706854,4.3333416,5.1745744,3.641588, 10:29:51.845
22282.587891, 42768.496094, 187500.015625, 187500.015625, 55444.058594, 40850.605469, 59923.257813, 85344.234375, 0, 1, 1, 0, 1,1.3017493,5.0706854,4.3333416,5.1745744,3.641588, 10:29:51.845
22215.599609, 42680.675781, 187500.015625, 187500.015625, 55725.222656, 41062.878906, 59952.183594, 85307.757813, 0, 1, 1, 0, 1,1.3017493,5.0706854,4.3333416,5.1745744,3.641588, 10:29:51.845
22262.314453, 42750.792969, 187500.015625, 187500.015625, 55607.515625, 40908.406250, 59861.746094, 85250.156250, 0, 1, 1, 0, 1,1.3017493,5.0706854,4.3333416,5.1745744,3.641588, 10:29:51.845
22327.023438, 42838.433594, 187500.015625, 187500.015625, 55321.125000, 40679.101563, 59819.300781, 85274.250000, 0, 1, 1, 0, 1,1.3017493,5.0706854,4.3333416,5.1745744,3.641588, 10:29:51.845
22276.039063, 42771.046875, 187500.015625, 187500.015625, 55415.894531, 40806.953125, 59902.582031, 85329.320313, 0, 1, 1, 0, 1,1.3017493,5.0706854,4.3333416,5.1745744,3.641588, 10:29:51.845
22199.125000, 42673.078125, 187500.015625, 187500.015625, 55722.160156, 41054.050781, 59954.683594, 85311.109375, 0, 1, 1, 0, 1,1.3017493,5.0706854,4.3333416,5.1745744,3.641588, 10:29:51.845
22239.962891, 42731.371094, 187500.015625, 187500.015625, 55670.683594, 40954.117188, 59875.203125, 85247.023438, 0, 1, 1, 0, 1,1.3017493,5.0706854,4.3333416,5.1745744,3.641588, 10:29:51.845
22319.982422, 42833.250000, 187500.015625, 187500.015625, 55359.589844, 40700.132813, 59820.730469, 85255.429688, 0, 1, 1, 0, 1,1.3017493,5.0706854,4.3333416,5.1745744,3.641588, 10:29:51.845
22300.871094, 42802.203125, 187500.015625, 187500.015625, 55366.117188, 40762.988281, 59894.089844, 85323.359375, 0, 1, 1, 0, 1,1.3017493,5.0706854,4.3333416,5.1745744,3.641588, 10:29:51.845
22213.005859, 42688.789063, 187500.015625, 187500.015625, 55676.605469, 41037.890625, 59968.746094, 85328.695313, 0, 1, 1, 0, 1,1.3017493,5.0706854,4.3333416,5.1745744,3.641588, 10:29:51.846
22218.996094, 42706.292969, 187500.015625, 187500.015625, 55713.332031, 41012.230469, 59902.605469, 85256.453125, 0, 1, 1, 0, 1,1.3017493,5.0706854,4.3333416,5.1745744,3.641588, 10:29:51.846
22307.107422, 42817.714844, 187500.015625, 187500.015625, 55409.210938, 40746.738281, 59821.515625, 85248.632813, 0, 1, 1, 0, 1,1.3017493,5.0706854,4.3333416,5.1745744,3.641588, 10:29:51.846
22325.681641, 42829.160156, 187500.015625, 187500.015625, 55314.328125, 40729.234375, 59880.343750, 85321.609375, 0, 1, 1, 0, 1,1.3017493,5.0706854,4.3333416,5.1745744,3.641588, 10:29:51.846
22242.509766, 42710.449219, 187500.015625, 187500.015625, 55618.671875, 41012.277344, 59984.792969, 85357.109375, 0, 1, 1, 0, 1,1.3017493,5.0706854,4.3333416,5.1745744,3.641588, 10:29:51.846
22226.595703, 42690.222656, 187500.015625, 187500.015625, 55743.328125, 41049.781250, 59931.707031, 85269.554688, 0, 1, 1, 0, 1,1.3017493,5.0706854,4.3333416,5.1745744,3.641588, 10:29:51.846
22311.308594, 42803.433594, 187500.015625, 187500.015625, 55459.347656, 40783.035156, 59830.050781, 85232.851563, 0, 1, 1, 0, 1,1.3017493,5.0706854,4.3333416,5.1745744,3.641588, 10:29:51.846
22329.927734, 42825.515625, 187500.015625, 187500.015625, 55306.371094, 40696.468750, 59863.757813, 85292.375000, 0, 1, 1, 0, 1,1.3017493,5.0706854,4.3333416,5.1745744,3.641588, 10:29:51.846
22253.351563, 42724.375000, 187500.015625, 187500.015625, 55560.734375, 40942.875000, 59966.933594, 85329.148438, 0, 1, 1, 0, 1,1.3017493,5.0706854,4.3333416,5.1745744,3.641588, 10:29:51.846
22211.576172, 42675.042969, 187500.015625, 187500.015625, 55747.261719, 41047.726563, 59951.554688, 85268.859375, 0, 1, 1, 0, 1,1.3017493,5.0706854,4.3333416,5.1745744,3.641588, 10:29:51.847
22272.529297, 42758.820313, 187500.015625, 187500.015625, 55523.093750, 40814.105469, 59843.687500, 85215.890625, 0, 1, 1, 0, 1,1.3017493,5.0706854,4.3333416,5.1745744,3.641588, 10:29:51.847
22325.501953, 42824.644531, 187500.015625, 187500.015625, 55298.636719, 40664.484375, 59852.828125, 85268.929688, 0, 1, 1, 0, 1,1.3017493,5.0706854,4.3333416,5.1745744,3.641588, 10:29:51.847
22256.300781, 42729.246094, 187500.015625, 187500.015625, 55507.269531, 40888.515625, 59964.789063, 85329.320313, 0, 1, 1, 0, 1,1.3017493,5.0706854,4.3333416,5.1745744,3.641588, 10:29:51.847
22194.431641, 42650.546875, 187500.015625, 187500.015625, 55759.574219, 41062.613281, 59976.546875, 85287.976563, 0, 1, 1, 0, 1,1.3017493,5.0706854,4.3333416,5.1745744,3.641588, 10:29:51.847
22251.808594, 42738.187500, 187500.015625, 187500.015625, 55579.757813, 40864.886719, 59875.472656, 85237.523438, 0, 1, 1, 0, 1,1.3017493,5.0706854,4.3333416,5.1745744,3.641588, 10:29:51.847
22311.578125, 42817.203125, 187500.015625, 187500.015625, 55295.664063, 40661.554688, 59846.191406, 85282.359375, 0, 1, 1, 0, 1,1.3017493,5.0706854,4.3333416,5.1745744,3.641588, 10:29:51.847
22264.974609, 42744.871094, 187500.015625, 187500.015625, 55436.257813, 40842.984375, 59957.703125, 85362.539063, 0, 1, 1, 0, 1,1.3017493,5.0706854,4.3333416,5.1745744,3.641588, 10:29:51.847
22186.498047, 42646.925781, 187500.015625, 187500.015625, 55736.175781, 41069.699219, 59994.359375, 85325.453125, 0, 1, 1, 0, 1,1.3017493,5.0706854,4.3333416,5.1745744,3.641588, 10:29:51.848
22214.146484, 42693.527344, 187500.015625, 187500.015625, 55654.769531, 40931.875000, 59892.523438, 85246.171875, 0, 1, 1, 0, 1,1.3017493,5.0706854,4.3333416,5.1745744,3.641588, 10:29:51.848
22300.267578, 42803.679688, 187500.015625, 187500.015625, 55341.957031, 40685.449219, 59842.187500, 85267.679688, 0, 1, 1, 0, 1,1.3017493,5.0706854,4.3333416,5.1745744,3.641588, 10:29:51.848
22277.289063, 42767.648438, 187500.015625, 187500.015625, 55383.597656, 40787.640625, 59943.062500, 85346.531250, 0, 1, 1, 0, 1,1.3017493,5.0706854,4.3333416,5.1745744,3.641588, 10:29:51.848
22186.921875, 42650.343750, 187500.015625, 187500.015625, 55698.355469, 41048.062500, 60010.320313, 85336.585938, 0, 1, 1, 0, 1,1.3017493,5.0706854,4.3333416,5.1745744,3.641588, 10:29:51.848
22210.615234, 42684.992188, 187500.015625, 187500.015625, 55680.964844, 40971.460938, 59933.742188, 85266.695313, 0, 1, 1, 0, 1,1.3017493,5.0706854,4.3333416,5.1745744,3.641588, 10:29:51.848
22282.990234, 42780.210938, 187500.015625, 187500.015625, 55373.093750, 40706.414063, 59855.445313, 85263.250000, 0, 1, 1, 0, 1,1.3017493,5.0706854,4.3333416,5.1745744,3.641588, 10:29:51.848
22280.083984, 42767.625000, 187500.015625, 187500.015625, 55345.777344, 40742.132813, 59930.722656, 85332.562500, 0, 1, 1, 0, 1,1.3017493,5.0706854,4.3333416,5.1745744,3.641588, 10:29:51.848
22194.298828, 42653.363281, 187500.015625, 187500.015625, 55656.332031, 41021.015625, 60018.722656, 85342.843750, 0, 1, 1, 0, 1,1.3017493,5.0706854,4.3333416,5.1745744,3.641588, 10:29:51.848
22190.431641, 42656.402344, 187500.015625, 187500.015625, 55729.914063, 41025.484375, 59957.234375, 85277.984375, 0, 1, 1, 0, 1,1.3017493,5.0706854,4.3333416,5.1745744,3.641588, 10:29:51.849
22278.072266, 42770.976563, 187500.015625, 187500.015625, 55428.613281, 40755.253906, 59868.898438, 85262.984375, 0, 1, 1, 0, 1,1.3017493,5.0706854,4.3333416,5.1745744,3.641588, 10:29:51.849
22292.310547, 42784.253906, 187500.015625, 187500.015625, 55323.335938, 40720.765625, 59921.269531, 85329.835938, 0, 1, 1, 0, 1,1.3017493,5.0706854,4.3333416,5.1745744,3.641588, 10:29:51.849
22204.199219, 42668.339844, 187500.015625, 187500.015625, 55616.144531, 40998.214844, 60019.281250, 85362.226563, 0, 1, 1, 0, 1,1.3017493,5.0706854,4.3333416,5.1745744,3.641588, 10:29:51.849
22184.417969, 42648.289063, 187500.015625, 187500.015625, 55757.945313, 41062.523438, 59983.183594, 85301.320313, 0, 1, 1, 0, 1,1.3017493,5.0706854,4.3333416,5.1745744,3.641588, 10:29:51.849
22269.757813, 42759.175781, 187500.015625, 187500.015625, 55486.570313, 40809.835938, 59886.960938, 85272.171875, 0, 1, 1, 0, 1,1.3017493,5.0706854,4.3333416,5.1745744,3.641588, 10:29:51.849
22305.833984, 42800.035156, 187500.015625, 187500.015625, 55311.421875, 40706.414063, 59910.027344, 85329.726563, 0, 1, 1, 0, 1,1.3017493,5.0706854,4.3333416,5.1745744,3.641588, 10:29:51.849
22231.468750, 42699.699219, 187500.015625, 187500.015625, 55563.394531, 40956.308594, 60021.496094, 85377.601563, 0, 1, 1, 0, 1,1.3017493,5.0706854,4.3333416,5.1745744,3.641588, 10:29:51.849
22185.804688, 42648.000000, 187500.015625, 187500.015625, 55785.972656, 41086.640625, 60014.632813, 85318.039063, 0, 1, 1, 0, 1,1.3017493,5.0706854,4.3333416,5.1745744,3.641588, 10:29:51.849
22254.312500, 42741.562500, 187500.015625, 187500.015625, 55571.574219, 40859.367188, 59906.113281, 85260.546875, 0, 1, 1, 0, 1,1.3017493,5.0706854,4.3333416,5.1745744,3.641588, 10:29:51.850
22316.205078, 42818.074219, 187500.015625, 187500.015625, 55328.054688, 40687.796875, 59909.355469, 85314.726563, 0, 1, 1, 0, 1,1.3017493,5.0706854,4.3333416,5.1745744,3.641588, 10:29:51.850
22245.394531, 42719.613281, 187500.015625, 187500.015625, 55536.238281, 40904.292969, 60020.289063, 85377.828125, 0, 1, 1, 0, 1,1.3017493,5.0706854,4.3333416,5.1745744,3.641588, 10:29:51.850
22183.099609, 42645.226563, 187500.015625, 187500.015625, 55806.871094, 41097.367188, 60038.972656, 85340.273438, 0, 1, 1, 0, 1,1.3017493,5.0706854,4.3333416,5.1745744,3.641588, 10:29:51.850
22237.794922, 42722.207031, 187500.015625, 187500.015625, 55647.953125, 40914.242188, 59934.167969, 85284.015625, 0, 1, 1, 0, 1,1.3017493,5.0706854,4.3333416,5.1745744,3.641588, 10:29:51.850
22310.974609, 42813.378906, 187500.015625, 187500.015625, 55359.570313, 40693.562500, 59906.964844, 85321.906250, 0, 1, 1, 0, 1,1.3017493,5.0706854,4.3333416,5.1745744,3.641588, 10:29:51.850
22267.746094, 42752.269531, 187500.015625, 187500.015625, 55482.437500, 40854.113281, 60015.996094, 85402.414063, 0, 1, 1, 0, 1,1.3017493,5.0706854,4.3333416,5.1745744,3.641588, 10:29:51.850
22184.015625, 42649.519531, 187500.015625, 187500.015625, 55799.472656, 41104.500000, 60066.019531, 85387.015625, 0, 1, 1, 0, 1,1.3017493,5.0706854,4.3333416,5.1745744,3.641588, 10:29:51.850
22218.996094, 42707.386719, 187500.015625, 187500.015625, 55711.542969, 40972.578125, 59966.777344, 85309.046875, 0, 1, 1, 0, 1,1.3017493,5.0706854,4.3333416,5.1745744,3.641588, 10:29:51.850
22297.808594, 42815.257813, 187500.015625, 187500.015625, 55378.253906, 40709.589844, 59909.312500, 85327.578125, 0, 1, 1, 0, 1,1.3017493,5.0706854,4.3333416,5.1745744,3.641588, 10:29:51.850
22255.093750, 42762.394531, 187500.015625, 187500.015625, 55420.121094, 40801.031250, 59992.839844, 85397.273438, 0, 1, 1, 0, 1,1.3017493,5.0706854,4.3333416,5.1745744,3.641588, 10:29:51.851
22173.734375, 42653.878906, 187500.015625, 187500.015625, 55742.320313, 41074.503906, 60062.933594, 85396.601563, 0, 1, 1, 0, 1,1.3017493,5.0706854,4.3333416,5.1745744,3.641588, 10:29:51.851
22195.794922, 42685.683594, 187500.015625, 187500.015625, 55742.097656, 41017.886719, 59987.074219, 85329.773438, 0, 1, 1, 0, 1,1.3017493,5.0706854,4.3333416,5.1745744,3.641588, 10:29:51.851
22294.076172, 42810.675781, 187500.015625, 187500.015625, 55411.312500, 40739.003906, 59912.910156, 85335.914063, 0, 1, 1, 0, 1,1.3017493,5.0706854,4.3333416,5.1745744,3.641588, 10:29:51.851
22284.978516, 42789.664063, 187500.015625, 187500.015625, 55375.664063, 40759.746094, 59979.609375, 85409.812500, 0, 1, 1, 0, 1,1.3017493,5.0706854,4.3333416,5.1745744,3.641588, 10:29:51.851
22193.359375, 42669.925781, 187500.015625, 187500.015625, 55701.597656, 41046.050781, 60069.507813, 85427.578125, 0, 1, 1, 0, 1,1.3017493,5.0706854,4.3333416,5.1745744,3.641588, 10:29:51.851
22192.263672, 42672.539063, 187500.015625, 187500.015625, 55794.578125, 41063.683594, 60018.031250, 85355.500000, 0, 1, 1, 0, 1,1.3017493,5.0706854,4.3333416,5.1745744,3.641588, 10:29:51.851
22292.310547, 42802.316406, 187500.015625, 187500.015625, 55483.910156, 40784.132813, 59926.789063, 85333.835938, 0, 1, 1, 0, 1,1.3017493,5.0706854,4.3333416,5.1745744,3.641588, 10:29:51.851
22323.246094, 42832.242188, 187500.015625, 187500.015625, 55348.101563, 40725.816406, 59981.304688, 85414.640625, 0, 1, 1, 0, 1,1.3017493,5.0706854,4.3333416,5.1745744,3.641588, 10:29:51.851
22225.947266, 42704.347656, 187500.015625, 187500.015625, 55651.101563, 41006.085938, 60089.644531, 85445.398438, 0, 1, 1, 0, 1,1.3017493,5.0706854,4.3333416,5.1745744,3.641588, 10:29:51.851
22197.115234, 42673.636719, 187500.015625, 187500.015625, 55825.601563, 41094.621094, 60050.550781, 85367.453125, 0, 1, 1, 0, 1,1.3017493,5.0706854,4.3333416,5.1745744,3.641588, 10:29:51.852
22292.199219, 42798.828125, 187500.015625, 187500.015625, 55561.652344, 40846.894531, 59953.878906, 85344.632813, 0, 1, 1, 0, 1,1.3017493,5.0706854,4.3333416,5.1745744,3.641588, 10:29:51.852
22340.322266, 42854.281250, 187500.015625, 187500.015625, 55345.980469, 40714.796875, 59973.171875, 85408.203125, 0, 1, 1, 0, 1,1.3017493,5.0706854,4.3333416,5.1745744,3.641588, 10:29:51.852
22249.349609, 42732.531250, 187500.015625, 187500.015625, 55593.347656, 40963.503906, 60083.746094, 85461.914063, 0, 1, 1, 0, 1,1.3017493,5.0706854,4.3333416,5.1745744,3.641588, 10:29:51.852
22193.380859, 42670.929688, 187500.015625, 187500.015625, 55825.378906, 41117.640625, 60080.839844, 85415.554688, 0, 1, 1, 0, 1,1.3017493,5.0706854,4.3333416,5.1745744,3.641588, 10:29:51.852
22259.990234, 42763.824219, 187500.015625, 187500.015625, 55610.109375, 40897.968750, 59974.847656, 85373.132813, 0, 1, 1, 0, 1,1.3017493,5.0706854,4.3333416,5.1745744,3.641588, 10:29:51.852
22327.089844, 42844.582031, 187500.015625, 187500.015625, 55343.117188, 40713.859375, 59964.656250, 85429.750000, 0, 1, 1, 0, 1,1.3017493,5.0706854,4.3333416,5.1745744,3.641588, 10:29:51.852
22266.181641, 42761.546875, 187500.015625, 187500.015625, 55514.222656, 40917.816406, 60077.710938, 85504.226563, 0, 1, 1, 0, 1,1.3017493,5.0706854,4.3333416,5.1745744,3.641588, 10:29:51.852
22184.039063, 42662.707031, 187500.015625, 187500.015625, 55820.214844, 41146.230469, 60109.000000, 85473.960938, 0, 1, 1, 0, 1,1.3017493,5.0706854,4.3333416,5.1745744,3.641588, 10:29:51.852
22235.134766, 42732.980469, 187500.015625, 187500.015625, 55695.160156, 40977.207031, 60005.468750, 85408.781250, 0, 1, 1, 0, 1,1.3017493,5.0706854,4.3333416,5.1745744,3.641588, 10:29:51.853
22317.970703, 42836.156250, 187500.015625, 187500.015625, 55384.960938, 40732.855469, 59971.136719, 85440.968750, 0, 1, 1, 0, 1,1.3017493,5.0706854,4.3333416,5.1745744,3.641588, 10:29:51.853
22288.912109, 42789.863281, 187500.015625, 187500.015625, 55472.757813, 40863.503906, 60081.687500, 85522.171875, 0, 1, 1, 0, 1,1.3017493,5.0706854,4.3333416,5.1745744,3.641588, 10:29:51.853
22205.138672, 42680.050781, 187500.015625, 187500.015625, 55796.164063, 41118.000000, 60143.000000, 85504.609375, 0, 1, 1, 0, 1,1.3017493,5.0706854,4.3333416,5.1745744,3.641588, 10:29:51.853
22233.591797, 42721.109375, 187500.015625, 187500.015625, 55753.785156, 41014.914063, 60064.074219, 85441.062500, 0, 1, 1, 0, 1,1.3017493,5.0706854,4.3333416,5.1745744,3.641588, 10:29:51.853
22306.816406, 42823.750000, 187500.015625, 187500.015625, 55439.453125, 40744.703125, 59998.382813, 85448.992188, 0, 1, 1, 0, 1,1.3017493,5.0706854,4.3333416,5.1745744,3.641588, 10:29:51.853
22278.630859, 42786.468750, 187500.015625, 187500.015625, 55457.558594, 40805.476563, 60074.378906, 85512.476563, 0, 1, 1, 0, 1,1.3017493,5.0706854,4.3333416,5.1745744,3.641588, 10:29:51.853
22180.775391, 42664.335938, 187500.015625, 187500.015625, 55793.437500, 41086.281250, 60153.414063, 85516.609375, 0, 1, 1, 0, 1,1.3017493,5.0706854,4.3333416,5.1745744,3.641588, 10:29:51.853
22192.375000, 42690.445313, 187500.015625, 187500.015625, 55823.589844, 41044.976563, 60090.515625, 85454.289063, 0, 1, 1, 0, 1,1.3017493,5.0706854,4.3333416,5.1745744,3.641588, 10:29:51.853
22276.507813, 42804.082031, 187500.015625, 187500.015625, 55503.937500, 40759.722656, 60004.285156, 85446.109375, 0, 1, 1, 0, 1,1.3017493,5.0706854,4.3333416,5.1745744,3.641588, 10:29:51.854
22273.490234, 42800.503906, 187500.015625, 187500.015625, 55433.574219, 40749.152344, 60059.066406, 85518.976563, 0, 1, 1, 0, 1,1.3017493,5.0706854,4.3333416,5.1745744,3.641588, 10:29:51.854
22174.472656, 42679.023438, 187500.015625, 187500.015625, 55748.714844, 41034.335938, 60153.437500, 85546.250000, 0, 1, 1, 0, 1,1.3017493,5.0706854,4.3333416,5.1745744,3.641588, 10:29:51.854
22149.416016, 42660.292969, 187500.015625, 187500.015625, 55868.562500, 41079.687500, 60111.683594, 85487.953125, 0, 1, 1, 0, 1,1.3017493,5.0706854,4.3333416,5.1745744,3.641588, 10:29:51.854
22229.345703, 42773.234375, 187500.015625, 187500.015625, 55580.695313, 40814.707031, 60013.023438, 85458.453125, 0, 1, 1, 0, 1,1.3017493,5.0706854,4.3333416,5.1745744,3.641588, 10:29:51.854
22254.648438, 42806.472656, 187500.015625, 187500.015625, 55420.433594, 40730.285156, 60048.316406, 85533.015625, 0, 1, 1, 0, 1,1.3017493,5.0706854,4.3333416,5.1745744,3.641588, 10:29:51.854
22163.183594, 42692.144531, 187500.015625, 187500.015625, 55699.605469, 40998.953125, 60151.984375, 85583.734375, 0, 1, 1, 0, 1,1.3017493,5.0706854,4.3333416,5.1745744,3.641588, 10:29:51.854
22128.404297, 42656.671875, 187500.015625, 187500.015625, 55884.253906, 41108.367188, 60127.441406, 85534.023438, 0, 1, 1, 0, 1,1.3017493,5.0706854,4.3333416,5.1745744,3.641588, 10:29:51.854
22210.056641, 42768.988281, 187500.015625, 187500.015625, 55627.542969, 40859.367188, 60027.328125, 85498.906250, 0, 1, 1, 0, 1,1.3017493,5.0706854,4.3333416,5.1745744,3.641588, 10:29:51.854
22257.263672, 42831.394531, 187500.015625, 187500.015625, 55393.476563, 40706.480469, 60040.226563, 85565.781250, 0, 1, 1, 0, 1,1.3017493,5.0706854,4.3333416,5.1745744,3.641588, 10:29:51.855
22173.085938, 42725.289063, 187500.015625, 187500.015625, 55615.160156, 40946.023438, 60156.476563, 85629.125000, 0, 1, 1, 0, 1,2.552459,4.3315687,2.3292665,2.7309687,1.2843384, 10:29:52.320
22102.767578, 42645.941406, 187500.015625, 187500.015625, 55879.515625, 41124.390625, 60160.500000, 85572.039063, 0, 1, 1, 0, 1,2.552459,4.3315687,2.3292665,2.7309687,1.2843384, 10:29:52.320
22171.722656, 42737.027344, 187500.015625, 187500.015625, 55700.992188, 40922.332031, 60068.835938, 85515.937500, 0, 1, 1, 0, 1,2.552459,4.3315687,2.3292665,2.7309687,1.2843384, 10:29:52.320
22240.632813, 42823.234375, 187500.015625, 187500.015625, 55417.328125, 40716.875000, 60048.449219, 85566.789063, 0, 1, 1, 0, 1,2.552459,4.3315687,2.3292665,2.7309687,1.2843384, 10:29:52.320
22174.203125, 42738.097656, 187500.015625, 187500.015625, 55573.968750, 40902.191406, 60154.195313, 85639.500000, 0, 1, 1, 0, 1,2.552459,4.3315687,2.3292665,2.7309687,1.2843384, 10:29:52.320
22105.046875, 42654.949219, 187500.015625, 187500.015625, 55865.968750, 41128.058594, 60196.890625, 85620.703125, 0, 1, 1, 0, 1,2.552459,4.3315687,2.3292665,2.7309687,1.2843384, 10:29:52.320
22141.837891, 42710.851563, 187500.015625, 187500.015625, 55773.859375, 40984.000000, 60106.320313, 85558.250000, 0, 1, 1, 0, 1,2.552459,4.3315687,2.3292665,2.7309687,1.2843384, 10:29:52.320
22223.646484, 42812.105469, 187500.015625, 187500.015625, 55470.636719, 40730.933594, 60067.941406, 85578.656250, 0, 1, 1, 0, 1,2.552459,4.3315687,2.3292665,2.7309687,1.2843384, 10:29:52.321
22185.044922, 42754.550781, 187500.015625, 187500.015625, 55545.000000, 40845.062500, 60168.144531, 85654.718750, 0, 1, 1, 0, 1,2.552459,4.3315687,2.3292665,2.7309687,1.2843384, 10:29:52.321
22101.046875, 42650.613281, 187500.015625, 187500.015625, 55860.003906, 41112.878906, 60228.113281, 85649.554688, 0, 1, 1, 0, 1,2.552459,4.3315687,2.3292665,2.7309687,1.2843384, 10:29:52.321
22124.113281, 42687.226563, 187500.015625, 187500.015625, 55840.265625, 41042.183594, 60149.191406, 85587.304688, 0, 1, 1, 0, 1,2.552459,4.3315687,2.3292665,2.7309687,1.2843384, 10:29:52.321
22226.820313, 42816.351563, 187500.015625, 187500.015625, 55506.644531, 40767.253906, 60090.003906, 85595.757813, 0, 1, 1, 0, 1,2.552459,4.3315687,2.3292665,2.7309687,1.2843384, 10:29:52.321
22205.316406, 42782.042969, 187500.015625, 187500.015625, 55501.257813, 40820.812500, 60168.703125, 85669.515625, 0, 1, 1, 0, 1,2.552459,4.3315687,2.3292665,2.7309687,1.2843384, 10:29:52.321
22102.386719, 42655.441406, 187500.015625, 187500.015625, 55834.277344, 41111.515625, 60244.027344, 85670.812500, 0, 1, 1, 0, 1,2.552459,4.3315687,2.3292665,2.7309687,1.2843384, 10:29:52.321
22112.960938, 42677.121094, 187500.015625, 187500.015625, 55880.921875, 41092.160156, 60187.277344, 85601.570313, 0, 1, 1, 0, 1,2.552459,4.3315687,2.3292665,2.7309687,1.2843384, 10:29:52.323
22210.101563, 42800.011719, 187500.015625, 187500.015625, 55566.367188, 40810.683594, 60105.222656, 85593.476563, 0, 1, 1, 0, 1,2.552459,4.3315687,2.3292665,2.7309687,1.2843384, 10:29:52.323
22219.667969, 42800.167969, 187500.015625, 187500.015625, 55477.742188, 40783.906250, 60162.781250, 85664.375000, 0, 1, 1, 0, 1,2.552459,4.3315687,2.3292665,2.7309687,1.2843384, 10:29:52.323
22123.689453, 42680.585938, 187500.015625, 187500.015625, 55784.609375, 41067.796875, 60271.835938, 85695.109375, 0, 1, 1, 0, 1,2.552459,4.3315687,2.3292665,2.7309687,1.2843384, 10:29:52.323
22108.511719, 42668.160156, 187500.015625, 187500.015625, 55931.082031, 41135.949219, 60242.644531, 85634.515625, 0, 1, 1, 0, 1,2.552459,4.3315687,2.3292665,2.7309687,1.2843384, 10:29:52.324
22203.751953, 42787.316406, 187500.015625, 187500.015625, 55661.296875, 40874.878906, 60151.917969, 85608.609375, 0, 1, 1, 0, 1,2.552459,4.3315687,2.3292665,2.7309687,1.2843384, 10:29:52.324
22239.404297, 42824.441406, 187500.015625, 187500.015625, 55473.093750, 40763.476563, 60180.640625, 85671.554688, 0, 1, 1, 0, 1,2.552459,4.3315687,2.3292665,2.7309687,1.2843384, 10:29:52.324
22149.818359, 42706.894531, 187500.015625, 187500.015625, 55736.332031, 41028.882813, 60292.597656, 85714.000000, 0, 1, 1, 0, 1,2.552459,4.3315687,2.3292665,2.7309687,1.2843384, 10:29:52.324
22104.265625, 42656.312500, 187500.015625, 187500.015625, 55956.160156, 41165.789063, 60287.503906, 85654.382813, 0, 1, 1, 0, 1,2.552459,4.3315687,2.3292665,2.7309687,1.2843384, 10:29:52.324
22175.253906, 42752.871094, 187500.015625, 187500.015625, 55737.804688, 40934.468750, 60186.292969, 85600.960938, 0, 1, 1, 0, 1,2.552459,4.3315687,2.3292665,2.7309687,1.2843384, 10:29:52.324
22233.212891, 42821.785156, 187500.015625, 187500.015625, 55494.597656, 40765.019531, 60183.589844, 85650.742188, 0, 1, 1, 0, 1,2.552459,4.3315687,2.3292665,2.7309687,1.2843384, 10:29:52.324
22163.050781, 42731.125000, 187500.015625, 187500.015625, 55685.324219, 40986.371094, 60301.761719, 85715.382813, 0, 1, 1, 0, 1,2.552459,4.3315687,2.3292665,2.7309687,1.2843384, 10:29:52.324
22097.962891, 42652.222656, 187500.015625, 187500.015625, 55952.652344, 41185.234375, 60325.589844, 85675.039063, 0, 1, 1, 0, 1,2.552459,4.3315687,2.3292665,2.7309687,1.2843384, 10:29:52.324
22163.027344, 42738.253906, 187500.015625, 187500.015625, 55795.472656, 41001.972656, 60228.718750, 85620.164063, 0, 1, 1, 0, 1,2.552459,4.3315687,2.3292665,2.7309687,1.2843384, 10:29:52.325
22232.095703, 42823.191406, 187500.015625, 187500.015625, 55502.800781, 40776.710938, 60202.523438, 85647.390625, 0, 1, 1, 0, 1,2.552459,4.3315687,2.3292665,2.7309687,1.2843384, 10:29:52.325
22183.994141, 42757.121094, 187500.015625, 187500.015625, 55625.710938, 40946.628906, 60311.507813, 85725.015625, 0, 1, 1, 0, 1,2.552459,4.3315687,2.3292665,2.7309687,1.2843384, 10:29:52.325
22106.611328, 42657.500000, 187500.015625, 187500.015625, 55940.714844, 41205.796875, 60358.113281, 85703.046875, 0, 1, 1, 0, 1,2.552459,4.3315687,2.3292665,2.7309687,1.2843384, 10:29:52.325
22152.679688, 42719.703125, 187500.015625, 187500.015625, 55858.460938, 41079.062500, 60266.714844, 85638.781250, 0, 1, 1, 0, 1,2.552459,4.3315687,2.3292665,2.7309687,1.2843384, 10:29:52.325
22235.111328, 42823.371094, 187500.015625, 187500.015625, 55550.656250, 40823.089844, 60218.324219, 85657.671875, 0, 1, 1, 0, 1,2.552459,4.3315687,2.3292665,2.7309687,1.2843384, 10:29:52.325
22210.302734, 42788.078125, 187500.015625, 187500.015625, 55588.765625, 40916.410156, 60311.441406, 85734.203125, 0, 1, 1, 0, 1,2.552459,4.3315687,2.3292665,2.7309687,1.2843384, 10:29:52.325
22121.789063, 42675.601563, 187500.015625, 187500.015625, 55907.992188, 41194.398438, 60384.285156, 85731.406250, 0, 1, 1, 0, 1,2.552459,4.3315687,2.3292665,2.7309687,1.2843384, 10:29:52.325
22136.318359, 42702.468750, 187500.015625, 187500.015625, 55933.160156, 41147.101563, 60320.179688, 85664.156250, 0, 1, 1, 0, 1,2.552459,4.3315687,2.3292665,2.7309687,1.2843384, 10:29:52.325
22233.167969, 42822.722656, 187500.015625, 187500.015625, 55620.546875, 40861.421875, 60242.664063, 85642.984375, 0, 1, 1, 0, 1,2.552459,4.3315687,2.3292665,2.7309687,1.2843384, 10:29:52.326
22244.365234, 42825.070313, 187500.015625, 187500.015625, 55565.855469, 40875.035156, 60314.703125, 85720.500000, 0, 1, 1, 0, 1,2.552459,4.3315687,2.3292665,2.7309687,1.2843384, 10:29:52.326
22135.958984, 42687.093750, 187500.015625, 187500.015625, 55899.789063, 41169.453125, 60398.300781, 85719.632813, 0, 1, 1, 0, 1,2.552459,4.3315687,2.3292665,2.7309687,1.2843384, 10:29:52.326
22131.623047, 42690.800781, 187500.015625, 187500.015625, 55990.960938, 41179.332031, 60340.789063, 85638.179688, 0, 1, 1, 0, 1,2.552459,4.3315687,2.3292665,2.7309687,1.2843384, 10:29:52.326
22230.261719, 42819.214844, 187500.015625, 187500.015625, 55678.082031, 40891.261719, 60243.804688, 85610.734375, 0, 1, 1, 0, 1,2.552459,4.3315687,2.3292665,2.7309687,1.2843384, 10:29:52.326
22266.806641, 42854.910156, 187500.015625, 187500.015625, 55533.218750, 40835.675781, 60301.539063, 85696.406250, 0, 1, 1, 0, 1,2.552459,4.3315687,2.3292665,2.7309687,1.2843384, 10:29:52.326
22168.503906, 42726.074219, 187500.015625, 187500.015625, 55835.167969, 41132.796875, 60408.761719, 85731.789063, 0, 1, 1, 0, 1,2.552459,4.3315687,2.3292665,2.7309687,1.2843384, 10:29:52.326
22134.841797, 42688.613281, 187500.015625, 187500.015625, 56010.316406, 41227.121094, 60375.703125, 85660.640625, 0, 1, 1, 0, 1,2.552459,4.3315687,2.3292665,2.7309687,1.2843384, 10:29:52.326
22216.939453, 42798.136719, 187500.015625, 187500.015625, 55761.140625, 40976.378906, 60276.820313, 85623.406250, 0, 1, 1, 0, 1,2.552459,4.3315687,2.3292665,2.7309687,1.2843384, 10:29:52.327
22252.144531, 42840.402344, 187500.015625, 187500.015625, 55562.992188, 40847.207031, 60293.269531, 85679.351563, 0, 1, 1, 0, 1,2.552459,4.3315687,2.3292665,2.7309687,1.2843384, 10:29:52.327
22171.968750, 42737.359375, 187500.015625, 187500.015625, 55788.164063, 41094.171875, 60402.949219, 85735.523438, 0, 1, 1, 0, 1,2.552459,4.3315687,2.3292665,2.7309687,1.2843384, 10:29:52.327
22106.232422, 42662.347656, 187500.015625, 187500.015625, 56029.496094, 41254.234375, 60397.339844, 85674.773438, 0, 1, 1, 0, 1,2.552459,4.3315687,2.3292665,2.7309687,1.2843384, 10:29:52.327
22182.697266, 42765.523438, 187500.015625, 187500.015625, 55827.769531, 41029.621094, 60288.621094, 85610.843750, 0, 1, 1, 0, 1,2.552459,4.3315687,2.3292665,2.7309687,1.2843384, 10:29:52.327
22247.205078, 42842.414063, 187500.015625, 187500.015625, 55571.554688, 40844.972656, 60280.574219, 85658.851563, 0, 1, 1, 0, 1,2.552459,4.3315687,2.3292665,2.7309687,1.2843384, 10:29:52.327
22183.054688, 42752.246094, 187500.015625, 187500.015625, 55745.671875, 41049.960938, 60386.343750, 85723.500000, 0, 1, 1, 0, 1,2.552459,4.3315687,2.3292665,2.7309687,1.2843384, 10:29:52.327
22109.718750, 42662.238281, 187500.015625, 187500.015625, 56033.003906, 41262.882813, 60406.929688, 85676.539063, 0, 1, 1, 0, 1,2.552459,4.3315687,2.3292665,2.7309687,1.2843384, 10:29:52.327
22166.425781, 42739.910156, 187500.015625, 187500.015625, 55904.707031, 41092.363281, 60301.605469, 85607.601563, 0, 1, 1, 0, 1,2.552459,4.3315687,2.3292665,2.7309687,1.2843384, 10:29:52.327
22242.220703, 42834.902344, 187500.015625, 187500.015625, 55608.523438, 40857.558594, 60268.144531, 85635.765625, 0, 1, 1, 0, 1,2.552459,4.3315687,2.3292665,2.7309687,1.2843384, 10:29:52.328
22193.582031, 42771.851563, 187500.015625, 187500.015625, 55697.371094, 40994.460938, 60367.632813, 85707.382813, 0, 1, 1, 0, 1,2.552459,4.3315687,2.3292665,2.7309687,1.2843384, 10:29:52.328
22115.843750, 42672.941406, 187500.015625, 187500.015625, 55997.265625, 41245.046875, 60419.734375, 85686.148438, 0, 1, 1, 0, 1,2.552459,4.3315687,2.3292665,2.7309687,1.2843384, 10:29:52.328
22160.994141, 42732.019531, 187500.015625, 187500.015625, 55939.039063, 41141.738281, 60336.296875, 85620.390625, 0, 1, 1, 0, 1,2.552459,4.3315687,2.3292665,2.7309687,1.2843384, 10:29:52.328
22246.220703, 42837.050781, 187500.015625, 187500.015625, 55628.773438, 40883.238281, 60279.812500, 85629.953125, 0, 1, 1, 0, 1,2.552459,4.3315687,2.3292665,2.7309687,1.2843384, 10:29:52.328
22220.941406, 42798.425781, 187500.015625, 187500.015625, 55649.179688, 40958.050781, 60359.410156, 85704.789063, 0, 1, 1, 0, 1,2.552459,4.3315687,2.3292665,2.7309687,1.2843384, 10:29:52.328
22130.058594, 42682.687500, 187500.015625, 187500.015625, 55969.390625, 41238.093750, 60439.339844, 85716.679688, 0, 1, 1, 0, 1,2.552459,4.3315687,2.3292665,2.7309687,1.2843384, 10:29:52.328
22141.033203, 42702.179688, 187500.015625, 187500.015625, 55995.902344, 41196.656250, 60371.703125, 85652.578125, 0, 1, 1, 0, 1,2.552459,4.3315687,2.3292665,2.7309687,1.2843384, 10:29:52.328
22229.210938, 42815.414063, 187500.015625, 187500.015625, 55688.230469, 40918.531250, 60292.019531, 85640.015625, 0, 1, 1, 0, 1,2.552459,4.3315687,2.3292665,2.7309687,1.2843384, 10:29:52.328
22231.603516, 42815.523438, 187500.015625, 187500.015625, 55611.117188, 40912.675781, 60348.343750, 85712.140625, 0, 1, 1, 0, 1,2.552459,4.3315687,2.3292665,2.7309687,1.2843384, 10:29:52.328
22134.306641, 42693.707031, 187500.015625, 187500.015625, 55912.773438, 41201.281250, 60444.457031, 85740.929688, 0, 1, 1, 0, 1,2.552459,4.3315687,2.3292665,2.7309687,1.2843384, 10:29:52.329
22115.976563, 42677.769531, 187500.015625, 187500.015625, 56026.925781, 41240.621094, 60399.238281, 85674.257813, 0, 1, 1, 0, 1,2.552459,4.3315687,2.3292665,2.7309687,1.2843384, 10:29:52.329
22211.017578, 42798.804688, 187500.015625, 187500.015625, 55740.687500, 40969.359375, 60303.460938, 85650.562500, 0, 1, 1, 0, 1,2.552459,4.3315687,2.3292665,2.7309687,1.2843384, 10:29:52.329
22238.242188, 42827.304688, 187500.015625, 187500.015625, 55592.765625, 40896.023438, 60341.148438, 85725.507813, 0, 1, 1, 0, 1,2.552459,4.3315687,2.3292665,2.7309687,1.2843384, 10:29:52.329
22144.251953, 42707.789063, 187500.015625, 187500.015625, 55863.312500, 41166.480469, 60439.875000, 85761.945313, 0, 1, 1, 0, 1,2.552459,4.3315687,2.3292665,2.7309687,1.2843384, 10:29:52.329
22104.958984, 42666.148438, 187500.015625, 187500.015625, 56049.433594, 41271.242188, 60408.941406, 85690.820313, 0, 1, 1, 0, 1,2.552459,4.3315687,2.3292665,2.7309687,1.2843384, 10:29:52.329
22196.220703, 42786.667969, 187500.015625, 187500.015625, 55802.625000, 41017.214844, 60307.394531, 85641.757813, 0, 1, 1, 0, 1,2.552459,4.3315687,2.3292665,2.7309687,1.2843384, 10:29:52.329
22254.714844, 42853.457031, 187500.015625, 187500.015625, 55571.375000, 40865.335938, 60321.367188, 85695.265625, 0, 1, 1, 0, 1,2.552459,4.3315687,2.3292665,2.7309687,1.2843384, 10:29:52.329
22171.007813, 42741.585938, 187500.015625, 187500.015625, 55793.484375, 41106.285156, 60430.777344, 85745.109375, 0, 1, 1, 0, 1,2.552459,4.3315687,2.3292665,2.7309687,1.2843384, 10:29:52.329
22117.876953, 42677.121094, 187500.015625, 187500.015625, 56036.804688, 41274.328125, 60435.113281, 85694.507813, 0, 1, 1, 0, 1,2.552459,4.3315687,2.3292665,2.7309687,1.2843384, 10:29:52.329
22187.726563, 42768.070313, 187500.015625, 187500.015625, 55862.460938, 41069.250000, 60334.308594, 85634.648438, 0, 1, 1, 0, 1,2.552459,4.3315687,2.3292665,2.7309687,1.2843384, 10:29:52.330
22260.996094, 42857.679688, 187500.015625, 187500.015625, 55581.656250, 40859.972656, 60312.132813, 85668.531250, 0, 1, 1, 0, 1,2.552459,4.3315687,2.3292665,2.7309687,1.2843384, 10:29:52.330
22194.744141, 42765.570313, 187500.015625, 187500.015625, 55736.687500, 41052.441406, 60415.625000, 85730.648438, 0, 1, 1, 0, 1,2.552459,4.3315687,2.3292665,2.7309687,1.2843384, 10:29:52.330
22112.625000, 42662.640625, 187500.015625, 187500.015625, 56034.949219, 41281.906250, 60447.718750, 85698.421875, 0, 1, 1, 0, 1,2.552459,4.3315687,2.3292665,2.7309687,1.2843384, 10:29:52.330
22168.839844, 42739.460938, 187500.015625, 187500.015625, 55923.703125, 41124.035156, 60361.753906, 85632.125000, 0, 1, 1, 0, 1,2.552459,4.3315687,2.3292665,2.7309687,1.2843384, 10:29:52.330
22262.470703, 42854.683594, 187500.015625, 187500.015625, 55616.324219, 40875.125000, 60320.203125, 85649.914063, 0, 1, 1, 0, 1,2.552459,4.3315687,2.3292665,2.7309687,1.2843384, 10:29:52.330
