%OpenBCI Raw EEG Data
%
%Sample Rate = 250.0 Hz
%First Column = SampleIndex
%5 Columns before Timestamp are Frequency Power factors DELTA THETA ALPHA BETA GAMMA
%Last Column = Timestamp 
%Other Columns = EEG data in microvolts followed by Accel Data (in G) interleaved with Aux Data
0.000000, 0.000000, 0.000000, 0.000000, 0.000000, 0.000000, 0.000000, 0.000000, 1, 256, 1,0.0,0.0,0.0,0.0,0.0, 13:57:53.909
78328.445313, 122401.882813, 141459.296875, 145649.484375, 93524.945313, 95502.007813, 130097.343750, 136296.734375, 1, 256, 1,0.0,0.0,0.0,0.0,0.0, 13:57:54.403
78321.718750, 122405.835938, 141441.203125, 145629.125000, 93510.554688, 95483.765625, 130094.078125, 136285.062500, 1, 256, 1,0.0,0.0,0.0,0.0,0.0, 13:57:54.404
78363.179688, 122447.414063, 141403.437500, 145465.343750, 93495.937500, 95388.656250, 130038.062500, 136317.671875, 1, 256, 1,0.0,0.0,0.0,0.0,0.0, 13:57:54.405
78389.484375, 122471.039063, 141435.515625, 145480.734375, 93518.445313, 95405.984375, 130045.843750, 136343.796875, 1, 256, 1,0.0,0.0,0.0,0.0,0.0, 13:57:54.407
78337.429688, 122402.890625, 141466.171875, 145634.906250, 93525.218750, 95498.046875, 130092.179688, 136305.453125, 1, 256, 1,0.0,0.0,0.0,0.0,0.0, 13:57:54.408
78311.726563, 122385.679688, 141448.218750, 145641.531250, 93508.273438, 95493.554688, 130095.796875, 136274.937500, 1, 256, 1,0.0,0.0,0.0,0.0,0.0, 13:57:54.410
78363.468750, 122448.617188, 141420.562500, 145491.390625, 93503.734375, 95407.523438, 130053.601563, 136314.390625, 1, 256, 1,0.0,0.0,0.0,0.0,0.0, 13:57:54.412
78409.625000, 122493.632813, 141440.265625, 145460.671875, 93525.906250, 95410.046875, 130051.359375, 136365.937500, 1, 256, 1,0.0,0.0,0.0,0.0,0.0, 13:57:54.414
78360.945313, 122432.304688, 141475.828125, 145605.156250, 93535.945313, 95497.242188, 130093.070313, 136325.000000, 1, 256, 1,0.0,0.0,0.0,0.0,0.0, 13:57:54.414
78313.398438, 122382.437500, 141467.968750, 145661.421875, 93516.164063, 95508.734375, 130102.031250, 136271.890625, 1, 256, 1,0.0,0.0,0.0,0.0,0.0, 13:57:54.415
78360.500000, 122441.890625, 141433.109375, 145526.234375, 93506.460938, 95430.343750, 130066.789063, 136307.609375, 1, 256, 1,0.0,0.0,0.0,0.0,0.0, 13:57:54.415
78397.914063, 122483.015625, 141436.562500, 145447.828125, 93519.179688, 95395.632813, 130041.078125, 136345.187500, 1, 256, 1,0.0,0.0,0.0,0.0,0.0, 13:57:54.416
78364.835938, 122434.960938, 141464.390625, 145570.921875, 93533.039063, 95474.335938, 130078.343750, 136321.312500, 1, 256, 1,0.0,0.0,0.0,0.0,0.0, 13:57:54.416
78324.218750, 122388.312500, 141470.593750, 145666.218750, 93526.046875, 95517.492188, 130105.898438, 136278.109375, 1, 256, 1,0.0,0.0,0.0,0.0,0.0, 13:57:54.417
78348.539063, 122425.101563, 141433.984375, 145547.718750, 93510.171875, 95444.203125, 130070.359375, 136293.687500, 1, 256, 1,0.0,0.0,0.0,0.0,0.0, 13:57:54.417
78405.914063, 122487.757813, 141420.875000, 145434.125000, 93520.453125, 95392.210938, 130041.726563, 136347.687500, 1, 256, 1,0.0,0.0,0.0,0.0,0.0, 13:57:54.418
78383.992188, 122459.796875, 141456.859375, 145542.687500, 93542.492188, 95462.734375, 130078.210938, 136333.796875, 1, 256, 1,0.0,0.0,0.0,0.0,0.0, 13:57:54.420
78324.062500, 122398.617188, 141470.796875, 145668.281250, 93534.578125, 95522.703125, 130109.187500, 136280.703125, 1, 256, 1,0.0,0.0,0.0,0.0,0.0, 13:57:54.421
78337.140625, 122411.539063, 141428.828125, 145570.953125, 93511.070313, 95459.578125, 130075.835938, 136284.578125, 1, 256, 1,0.0,0.0,0.0,0.0,0.0, 13:57:54.422
78386.875000, 122469.875000, 141409.406250, 145433.875000, 93510.687500, 95383.296875, 130032.789063, 136325.781250, 1, 256, 1,0.0,0.0,0.0,0.0,0.0, 13:57:54.423
78393.109375, 122472.265625, 141441.140625, 145506.765625, 93530.671875, 95442.523438, 130061.484375, 136337.906250, 1, 256, 1,0.0,0.0,0.0,0.0,0.0, 13:57:54.423
78355.984375, 122431.875000, 141482.781250, 145668.765625, 93547.992188, 95535.132813, 130121.617188, 136307.843750, 1, 256, 1,0.0,0.0,0.0,0.0,0.0, 13:57:54.424
78347.062500, 122426.265625, 141454.937500, 145616.375000, 93524.632813, 95495.835938, 130100.250000, 136296.218750, 1, 256, 1,0.0,0.0,0.0,0.0,0.0, 13:57:54.424
78383.320313, 122464.843750, 141420.593750, 145450.328125, 93509.125000, 95401.820313, 130040.007813, 136323.390625, 1, 256, 1,0.0,0.0,0.0,0.0,0.0, 13:57:54.425
78385.242188, 122466.585938, 141445.171875, 145487.078125, 93522.515625, 95427.976563, 130043.562500, 136328.046875, 1, 256, 1,0.0,0.0,0.0,0.0,0.0, 13:57:54.426
78340.093750, 122413.500000, 141472.968750, 145642.859375, 93532.078125, 95517.585938, 130094.187500, 136290.609375, 1, 256, 1,0.0,0.0,0.0,0.0,0.0, 13:57:54.426
78326.296875, 122407.156250, 141454.328125, 145634.375000, 93517.664063, 95502.609375, 130089.828125, 136275.140625, 1, 256, 1,0.0,0.0,0.0,0.0,0.0, 13:57:54.427
78383.250000, 122473.921875, 141422.718750, 145477.984375, 93512.296875, 95418.343750, 130046.179688, 136324.531250, 1, 256, 1,0.0,0.0,0.0,0.0,0.0, 13:57:54.428
78405.023438, 122491.648438, 141437.296875, 145468.859375, 93528.968750, 95429.562500, 130047.742188, 136357.187500, 1, 256, 1,0.0,0.0,0.0,0.0,0.0, 13:57:54.428
78358.460938, 122434.601563, 141475.093750, 145624.203125, 93544.906250, 95524.335938, 130098.460938, 136320.203125, 1, 256, 1,0.0,0.0,0.0,0.0,0.0, 13:57:54.429
78332.914063, 122416.945313, 141469.343750, 145655.765625, 93534.335938, 95529.765625, 130107.062500, 136291.203125, 1, 256, 1,0.0,0.0,0.0,0.0,0.0, 13:57:54.429
78391.210938, 122490.687500, 141439.421875, 145511.906250, 93525.375000, 95440.312500, 130065.132813, 136325.609375, 1, 256, 1,0.0,0.0,0.0,0.0,0.0, 13:57:54.430
78396.078125, 122482.570313, 141425.031250, 145438.484375, 93523.984375, 95410.695313, 130035.539063, 136354.000000, 1, 256, 1,0.0,0.0,0.0,0.0,0.0, 13:57:54.430
78350.843750, 122431.250000, 141454.343750, 145579.828125, 93538.382813, 95499.546875, 130078.500000, 136323.218750, 1, 256, 1,0.0,0.0,0.0,0.0,0.0, 13:57:54.430
78311.726563, 122392.429688, 141460.359375, 145660.250000, 93528.906250, 95527.710938, 130099.710938, 136278.625000, 1, 256, 1,0.0,0.0,0.0,0.0,0.0, 13:57:54.430
78349.585938, 122450.140625, 141431.937500, 145528.140625, 93518.015625, 95448.140625, 130063.054688, 136305.296875, 1, 256, 1,0.0,0.0,0.0,0.0,0.0, 13:57:54.431
78392.460938, 122496.921875, 141423.343750, 145437.437500, 93522.468750, 95408.171875, 130033.210938, 136353.609375, 1, 256, 1,0.0,0.0,0.0,0.0,0.0, 13:57:54.431
78365.257813, 122460.265625, 141455.937500, 145559.968750, 93539.562500, 95491.585938, 130073.671875, 136337.078125, 1, 256, 1,0.0,0.0,0.0,0.0,0.0, 13:57:54.431
78317.804688, 122393.273438, 141461.609375, 145661.375000, 93531.539063, 95539.492188, 130102.726563, 136294.140625, 1, 256, 1,0.0,0.0,0.0,0.0,0.0, 13:57:54.432
78347.085938, 122444.062500, 141434.765625, 145556.093750, 93520.273438, 95464.320313, 130073.289063, 136296.906250, 1, 256, 1,0.0,0.0,0.0,0.0,0.0, 13:57:54.432
78409.359375, 122518.531250, 141423.171875, 145434.328125, 93526.914063, 95399.570313, 130040.453125, 136349.656250, 1, 256, 1,0.0,0.0,0.0,0.0,0.0, 13:57:54.433
78397.335938, 122497.726563, 141464.312500, 145546.328125, 93549.531250, 95478.179688, 130079.257813, 136351.968750, 1, 256, 1,0.0,0.0,0.0,0.0,0.0, 13:57:54.433
78326.921875, 122413.835938, 141473.328125, 145664.546875, 93539.835938, 95539.421875, 130111.648438, 136294.656250, 1, 256, 1,0.0,0.0,0.0,0.0,0.0, 13:57:54.433
78328.828125, 122427.070313, 141437.000000, 145572.125000, 93512.765625, 95478.710938, 130079.484375, 136290.812500, 1, 256, 1,0.0,0.0,0.0,0.0,0.0, 13:57:54.434
78387.367188, 122497.968750, 141424.203125, 145427.187500, 93516.031250, 95397.468750, 130039.562500, 136331.593750, 1, 256, 1,0.0,0.0,0.0,0.0,0.0, 13:57:54.435
78386.132813, 122482.773438, 141456.187500, 145497.625000, 93539.007813, 95443.328125, 130064.460938, 136335.359375, 1, 256, 1,0.0,0.0,0.0,0.0,0.0, 13:57:54.436
78347.804688, 122455.281250, 141485.671875, 145663.921875, 93551.281250, 95536.429688, 130119.335938, 136309.828125, 1, 256, 1,0.0,0.0,0.0,0.0,0.0, 13:57:54.436
78322.945313, 122417.750000, 141449.046875, 145607.265625, 93525.484375, 95505.695313, 130101.031250, 136298.234375, 1, 256, 1,0.0,0.0,0.0,0.0,0.0, 13:57:54.436
78379.585938, 122484.250000, 141429.234375, 145457.906250, 93524.570313, 95428.960938, 130059.500000, 136342.812500, 1, 256, 1,0.0,0.0,0.0,0.0,0.0, 13:57:54.436
78402.046875, 122504.742188, 141460.140625, 145490.000000, 93547.679688, 95458.976563, 130070.476563, 136360.515625, 1, 256, 1,0.0,0.0,0.0,0.0,0.0, 13:57:54.437
78351.289063, 122443.882813, 141491.718750, 145648.906250, 93552.531250, 95536.046875, 130113.390625, 136314.656250, 1, 256, 1,0.0,0.0,0.0,0.0,0.0, 13:57:54.444
78313.710938, 122401.632813, 141467.140625, 145629.015625, 93522.351563, 95524.335938, 130103.460938, 136285.796875, 1, 256, 1,0.0,0.0,0.0,0.0,0.0, 13:57:54.444
78376.437500, 122475.617188, 141437.406250, 145467.671875, 93510.953125, 95425.945313, 130055.898438, 136317.187500, 1, 256, 1,0.0,0.0,0.0,0.0,0.0, 13:57:54.445
78419.328125, 122520.164063, 141461.859375, 145466.734375, 93539.117188, 95442.523438, 130062.335938, 136365.281250, 1, 256, 1,0.0,0.0,0.0,0.0,0.0, 13:57:54.446
78351.335938, 122445.781250, 141487.359375, 145620.421875, 93548.796875, 95520.375000, 130102.500000, 136314.328125, 1, 256, 1,0.0,0.0,0.0,0.0,0.0, 13:57:54.447
78328.648438, 122428.750000, 141480.968750, 145674.406250, 93536.078125, 95543.179688, 130121.148438, 136299.343750, 1, 256, 1,0.0,0.0,0.0,0.0,0.0, 13:57:54.447
78358.039063, 122459.015625, 141433.296875, 145500.156250, 93514.531250, 95445.742188, 130069.492188, 136319.390625, 1, 256, 1,0.0,0.0,0.0,0.0,0.0, 13:57:54.448
78389.265625, 122493.679688, 141429.453125, 145426.843750, 93519.179688, 95415.726563, 130043.984375, 136349.921875, 1, 256, 1,0.0,0.0,0.0,0.0,0.0, 13:57:54.449
78349.882813, 122432.031250, 141460.437500, 145566.406250, 93536.257813, 95492.703125, 130084.507813, 136317.000000, 1, 256, 1,0.0,0.0,0.0,0.0,0.0, 13:57:54.450
78322.859375, 122401.750000, 141472.828125, 145652.812500, 93534.539063, 95530.031250, 130116.320313, 136279.203125, 1, 256, 1,0.0,0.0,0.0,0.0,0.0, 13:57:54.451
78351.265625, 122448.843750, 141432.578125, 145528.406250, 93516.609375, 95450.929688, 130076.640625, 136299.218750, 1, 256, 1,0.0,0.0,0.0,0.0,0.0, 13:57:54.451
78391.835938, 122477.945313, 141420.234375, 145429.609375, 93523.046875, 95402.742188, 130043.476563, 136344.656250, 1, 256, 1,0.0,0.0,0.0,0.0,0.0, 13:57:54.452
78371.406250, 122438.695313, 141453.609375, 145541.171875, 93541.507813, 95482.804688, 130078.992188, 136325.906250, 1, 256, 1,0.0,0.0,0.0,0.0,0.0, 13:57:54.453
78327.460938, 122388.132813, 141454.281250, 145640.312500, 93533.398438, 95532.601563, 130108.828125, 136281.906250, 1, 256, 1,0.0,0.0,0.0,0.0,0.0, 13:57:54.453
78355.578125, 122432.929688, 141430.140625, 145547.453125, 93516.476563, 95465.304688, 130078.679688, 136289.265625, 1, 256, 1,0.0,0.0,0.0,0.0,0.0, 13:57:54.454
78403.750000, 122481.320313, 141419.500000, 145423.234375, 93512.859375, 95396.281250, 130034.171875, 136332.578125, 1, 256, 1,0.0,0.0,0.0,0.0,0.0, 13:57:54.455
78391.632813, 122458.875000, 141449.140625, 145508.515625, 93531.070313, 95459.312500, 130063.835938, 136335.843750, 1, 256, 1,0.0,0.0,0.0,0.0,0.0, 13:57:54.456
78330.921875, 122404.203125, 141462.265625, 145640.937500, 93532.320313, 95531.398438, 130106.726563, 136289.796875, 1, 256, 1,0.0,0.0,0.0,0.0,0.0, 13:57:54.456
78347.578125, 122426.710938, 141441.500000, 145574.875000, 93519.335938, 95487.296875, 130087.234375, 136289.250000, 1, 256, 1,0.0,0.0,0.0,0.0,0.0, 13:57:54.456
78386.718750, 122467.351563, 141421.359375, 145428.421875, 93512.789063, 95405.648438, 130036.429688, 136326.125000, 1, 256, 1,0.0,0.0,0.0,0.0,0.0, 13:57:54.457
78392.859375, 122469.117188, 141446.953125, 145478.875000, 93530.265625, 95446.281250, 130052.992188, 136337.953125, 1, 256, 1,0.0,0.0,0.0,0.0,0.0, 13:57:54.457
78336.242188, 122401.609375, 141469.953125, 145630.859375, 93528.460938, 95523.195313, 130091.257813, 136289.734375, 1, 256, 1,0.0,0.0,0.0,0.0,0.0, 13:57:54.458
78333.828125, 122411.023438, 141440.609375, 145598.390625, 93509.164063, 95492.390625, 130079.078125, 136277.437500, 1, 256, 1,0.0,0.0,0.0,0.0,0.0, 13:57:54.458
78401.890625, 122481.679688, 141417.109375, 145450.546875, 93505.679688, 95412.664063, 130038.015625, 136329.359375, 1, 256, 1,0.0,0.0,0.0,0.0,0.0, 13:57:54.458
78427.101563, 122500.812500, 141449.031250, 145472.656250, 93533.531250, 95439.062500, 130050.289063, 136354.843750, 1, 256, 1,0.0,0.0,0.0,0.0,0.0, 13:57:54.458
78369.281250, 122442.718750, 141479.296875, 145626.218750, 93540.640625, 95525.812500, 130095.578125, 136311.937500, 1, 256, 1,0.0,0.0,0.0,0.0,0.0, 13:57:54.459
78344.289063, 122406.929688, 141471.046875, 145636.468750, 93516.320313, 95521.875000, 130093.046875, 136282.687500, 1, 256, 1,0.0,0.0,0.0,0.0,0.0, 13:57:54.459
78376.789063, 122451.390625, 141431.078125, 145470.375000, 93506.929688, 95428.781250, 130044.164063, 136309.843750, 1, 256, 1,0.0,0.0,0.0,0.0,0.0, 13:57:54.460
78419.234375, 122491.156250, 141444.578125, 145440.656250, 93524.523438, 95420.781250, 130040.921875, 136347.015625, 1, 256, 1,0.0,0.0,0.0,0.0,0.0, 13:57:54.461
78368.500000, 122430.757813, 141474.484375, 145586.875000, 93538.179688, 95505.132813, 130084.554688, 136309.000000, 1, 256, 1,0.0,0.0,0.0,0.0,0.0, 13:57:54.462
78337.093750, 122404.453125, 141461.906250, 145634.859375, 93521.617188, 95524.468750, 130098.031250, 136282.359375, 1, 256, 1,0.0,0.0,0.0,0.0,0.0, 13:57:54.462
78374.890625, 122451.773438, 141428.625000, 145497.468750, 93511.734375, 95450.843750, 130061.039063, 136321.546875, 1, 256, 1,0.0,0.0,0.0,0.0,0.0, 13:57:54.462
78419.687500, 122493.835938, 141434.484375, 145429.031250, 93520.765625, 95421.601563, 130038.804688, 136360.078125, 1, 256, 1,0.0,0.0,0.0,0.0,0.0, 13:57:54.463
78385.125000, 122451.031250, 141465.453125, 145563.625000, 93534.250000, 95503.320313, 130081.023438, 136333.187500, 1, 256, 1,0.0,0.0,0.0,0.0,0.0, 13:57:54.463
78345.164063, 122402.531250, 141476.015625, 145660.031250, 93530.828125, 95540.765625, 130109.968750, 136288.015625, 1, 256, 1,0.0,0.0,0.0,0.0,0.0, 13:57:54.463
78373.953125, 122437.914063, 141453.234375, 145542.015625, 93529.328125, 95474.937500, 130085.781250, 136322.406250, 1, 256, 1,0.0,0.0,0.0,0.0,0.0, 13:57:54.464
78407.656250, 122489.453125, 141428.562500, 145433.828125, 93527.273438, 95418.859375, 130047.296875, 136363.562500, 1, 256, 1,0.0,0.0,0.0,0.0,0.0, 13:57:54.464
78389.890625, 122468.757813, 141458.125000, 145545.484375, 93538.023438, 95488.882813, 130074.585938, 136344.828125, 1, 256, 1,0.0,0.0,0.0,0.0,0.0, 13:57:54.464
78340.265625, 122416.500000, 141472.046875, 145663.500000, 93529.351563, 95543.890625, 130103.445313, 136294.828125, 1, 256, 1,0.0,0.0,0.0,0.0,0.0, 13:57:54.465
78376.859375, 122448.304688, 141464.906250, 145577.312500, 93540.664063, 95487.007813, 130083.570313, 136305.421875, 1, 256, 1,0.0,0.0,0.0,0.0,0.0, 13:57:54.465
78427.125000, 122508.093750, 141445.968750, 145436.250000, 93526.781250, 95412.929688, 130037.414063, 136355.000000, 1, 256, 1,5.8706246E-6,7.776445E-6,9.558735E-6,3.0071284E-5,3.8191665E-5, 13:57:54.465
78397.195313, 122481.835938, 141467.671875, 145511.656250, 93528.679688, 95467.335938, 130057.062500, 136347.734375, 1, 256, 1,5.8706246E-6,7.776445E-6,9.558735E-6,3.0071284E-5,3.8191665E-5, 13:57:54.466
78332.601563, 122411.468750, 141475.078125, 145651.359375, 93533.304688, 95539.492188, 130094.726563, 136293.921875, 1, 256, 1,5.8706246E-6,7.776445E-6,9.558735E-6,3.0071284E-5,3.8191665E-5, 13:57:54.467
78342.343750, 122417.687500, 141435.156250, 145579.796875, 93513.031250, 95493.039063, 130065.289063, 136286.984375, 1, 256, 1,5.8706246E-6,7.776445E-6,9.558735E-6,3.0071284E-5,3.8191665E-5, 13:57:54.467
78397.554688, 122480.085938, 141430.015625, 145428.296875, 93509.500000, 95402.070313, 130020.789063, 136327.062500, 1, 256, 1,5.8706246E-6,7.776445E-6,9.558735E-6,3.0071284E-5,3.8191665E-5, 13:57:54.468
78387.164063, 122476.625000, 141433.921875, 145463.406250, 93514.937500, 95439.085938, 130029.703125, 136341.328125, 1, 256, 1,5.8706246E-6,7.776445E-6,9.558735E-6,3.0071284E-5,3.8191665E-5, 13:57:54.468
78354.398438, 122425.687500, 141471.609375, 145630.859375, 93519.312500, 95530.640625, 130075.460938, 136301.796875, 1, 256, 1,5.8706246E-6,7.776445E-6,9.558735E-6,3.0071284E-5,3.8191665E-5, 13:57:54.469
78321.984375, 122404.539063, 141443.375000, 145610.562500, 93498.171875, 95504.773438, 130060.171875, 136278.015625, 1, 256, 1,5.8706246E-6,7.776445E-6,9.558735E-6,3.0071284E-5,3.8191665E-5, 13:57:54.469
78369.593750, 122457.914063, 141397.046875, 145441.875000, 93508.835938, 95407.234375, 130005.187500, 136311.140625, 1, 256, 1,5.8706246E-6,7.776445E-6,9.558735E-6,3.0071284E-5,3.8191665E-5, 13:57:54.469
78385.015625, 122475.281250, 141417.421875, 145449.031250, 93522.039063, 95426.054688, 130006.007813, 136336.859375, 1, 256, 1,5.8706246E-6,7.776445E-6,9.558735E-6,3.0071284E-5,3.8191665E-5, 13:57:54.470
78358.578125, 122418.914063, 141472.093750, 145614.093750, 93523.070313, 95517.468750, 130051.117188, 136293.796875, 1, 256, 1,5.8706246E-6,7.776445E-6,9.558735E-6,3.0071284E-5,3.8191665E-5, 13:57:54.470
78315.101563, 122388.109375, 141448.671875, 145620.890625, 93517.101563, 95513.070313, 130056.125000, 136268.500000, 1, 256, 1,5.8706246E-6,7.776445E-6,9.558735E-6,3.0071284E-5,3.8191665E-5, 13:57:54.471
78384.750000, 122458.406250, 141426.296875, 145472.046875, 93500.718750, 95429.250000, 130016.453125, 136309.515625, 1, 256, 1,5.8706246E-6,7.776445E-6,9.558735E-6,3.0071284E-5,3.8191665E-5, 13:57:54.471
78407.054688, 122479.929688, 141435.109375, 145430.328125, 93515.828125, 95416.328125, 130006.656250, 136342.437500, 1, 256, 1,5.8706246E-6,7.776445E-6,9.558735E-6,3.0071284E-5,3.8191665E-5, 13:57:54.472
78323.437500, 122392.312500, 141436.406250, 145562.468750, 93543.367188, 95490.648438, 130037.484375, 136290.921875, 1, 256, 1,5.8706246E-6,7.776445E-6,9.558735E-6,3.0071284E-5,3.8191665E-5, 13:57:54.472
78294.359375, 122363.968750, 141428.625000, 145615.343750, 93500.453125, 95507.148438, 130042.937500, 136252.593750, 1, 256, 1,5.8706246E-6,7.776445E-6,9.558735E-6,3.0071284E-5,3.8191665E-5, 13:57:54.472
78368.500000, 122440.750000, 141397.359375, 145483.390625, 93493.296875, 95439.304688, 130015.781250, 136303.484375, 1, 256, 1,5.8706246E-6,7.776445E-6,9.558735E-6,3.0071284E-5,3.8191665E-5, 13:57:54.473
78386.250000, 122465.695313, 141389.359375, 145401.562500, 93496.492188, 95397.289063, 129985.179688, 136332.031250, 1, 256, 1,5.8706246E-6,7.776445E-6,9.558735E-6,3.0071284E-5,3.8191665E-5, 13:57:54.473
78338.656250, 122414.289063, 141418.406250, 145535.328125, 93497.523438, 95482.539063, 130025.945313, 136311.296875, 1, 256, 1,5.8706246E-6,7.776445E-6,9.558735E-6,3.0071284E-5,3.8191665E-5, 13:57:54.475
78303.859375, 122364.304688, 141416.265625, 145626.843750, 93471.640625, 95522.546875, 130039.921875, 136261.546875, 1, 256, 1,5.8706246E-6,7.776445E-6,9.558735E-6,3.0071284E-5,3.8191665E-5, 13:57:54.476
78335.867188, 122407.578125, 141385.015625, 145513.468750, 93483.125000, 95449.750000, 130014.640625, 136277.031250, 1, 256, 1,5.8706246E-6,7.776445E-6,9.558735E-6,3.0071284E-5,3.8191665E-5, 13:57:54.476
78399.117188, 122465.921875, 141398.218750, 145404.781250, 93476.960938, 95388.390625, 129972.796875, 136314.078125, 1, 256, 1,5.8706246E-6,7.776445E-6,9.558735E-6,3.0071284E-5,3.8191665E-5, 13:57:54.476
78361.367188, 122432.906250, 141430.140625, 145509.718750, 93503.046875, 95464.273438, 130013.007813, 136318.125000, 1, 256, 1,5.8706246E-6,7.776445E-6,9.558735E-6,3.0071284E-5,3.8191665E-5, 13:57:54.477
78300.437500, 122357.984375, 141416.156250, 145618.500000, 93475.867188, 95517.203125, 130038.242188, 136260.625000, 1, 256, 1,5.8706246E-6,7.776445E-6,9.558735E-6,3.0071284E-5,3.8191665E-5, 13:57:54.477
78315.031250, 122391.421875, 141403.796875, 145539.718750, 93484.109375, 95469.195313, 130027.398438, 136275.203125, 1, 256, 1,5.8706246E-6,7.776445E-6,9.558735E-6,3.0071284E-5,3.8191665E-5, 13:57:54.477
78379.117188, 122456.773438, 141386.265625, 145401.000000, 93483.460938, 95393.265625, 129988.601563, 136324.875000, 1, 256, 1,5.8706246E-6,7.776445E-6,9.558735E-6,3.0071284E-5,3.8191665E-5, 13:57:54.477
78366.937500, 122440.523438, 141410.593750, 145472.875000, 93498.750000, 95442.593750, 130012.601563, 136324.609375, 1, 256, 1,5.8706246E-6,7.776445E-6,9.558735E-6,3.0071284E-5,3.8191665E-5, 13:57:54.478
78329.789063, 122394.039063, 141437.515625, 145622.296875, 93512.164063, 95527.687500, 130060.101563, 136290.296875, 1, 256, 1,5.8706246E-6,7.776445E-6,9.558735E-6,3.0071284E-5,3.8191665E-5, 13:57:54.478
78316.062500, 122384.468750, 141406.671875, 145571.234375, 93490.171875, 95490.601563, 130044.593750, 136280.015625, 1, 256, 1,5.8706246E-6,7.776445E-6,9.558735E-6,3.0071284E-5,3.8191665E-5, 13:57:54.478
78348.585938, 122440.437500, 141368.781250, 145411.765625, 93478.281250, 95400.953125, 129993.312500, 136320.781250, 1, 256, 1,5.8706246E-6,7.776445E-6,9.558735E-6,3.0071284E-5,3.8191665E-5, 13:57:54.478
78384.523438, 122461.671875, 141413.515625, 145453.609375, 93503.531250, 95436.671875, 130011.312500, 136340.546875, 1, 256, 1,5.8706246E-6,7.776445E-6,9.558735E-6,3.0071284E-5,3.8191665E-5, 13:57:54.479
78313.937500, 122382.812500, 141434.281250, 145603.140625, 93517.351563, 95524.648438, 130055.054688, 136301.515625, 1, 256, 1,0.0,0.0,0.0,0.0,0.0, 13:57:54.889
78311.656250, 122384.226563, 141415.062500, 145594.453125, 93495.265625, 95508.351563, 130050.539063, 136280.390625, 1, 256, 1,0.0,0.0,0.0,0.0,0.0, 13:57:54.894
78370.484375, 122443.945313, 141390.625000, 145438.531250, 93482.906250, 95414.921875, 130005.187500, 136318.171875, 1, 256, 1,0.0,0.0,0.0,0.0,0.0, 13:57:54.895
78386.265625, 122469.632813, 141408.218750, 145435.015625, 93502.171875, 95425.273438, 130004.578125, 136346.328125, 1, 256, 1,0.0,0.0,0.0,0.0,0.0, 13:57:54.895
78335.281250, 122404.695313, 141448.656250, 145596.265625, 93508.382813, 95511.257813, 130046.445313, 136299.796875, 1, 256, 1,0.0,0.0,0.0,0.0,0.0, 13:57:54.896
78304.906250, 122382.304688, 141423.484375, 145625.921875, 93500.789063, 95518.078125, 130056.500000, 136273.703125, 1, 256, 1,0.0,0.0,0.0,0.0,0.0, 13:57:54.897
78356.203125, 122445.828125, 141374.906250, 145466.250000, 93488.156250, 95430.789063, 130011.398438, 136311.140625, 1, 256, 1,0.0,0.0,0.0,0.0,0.0, 13:57:54.898
78383.359375, 122467.906250, 141378.828125, 145404.984375, 93493.296875, 95405.000000, 129989.585938, 136336.265625, 1, 256, 1,0.0,0.0,0.0,0.0,0.0, 13:57:54.898
78344.289063, 122419.937500, 141421.421875, 145557.500000, 93503.937500, 95492.664063, 130032.382813, 136302.250000, 1, 256, 1,0.0,0.0,0.0,0.0,0.0, 13:57:54.899
78306.359375, 122385.117188, 141418.906250, 145626.218750, 93493.523438, 95518.031250, 130051.718750, 136266.000000, 1, 256, 1,0.0,0.0,0.0,0.0,0.0, 13:57:54.900
78350.703125, 122446.453125, 141392.593750, 145496.734375, 93493.320313, 95449.078125, 130026.593750, 136307.703125, 1, 256, 1,0.0,0.0,0.0,0.0,0.0, 13:57:54.901
78388.976563, 122481.117188, 141390.562500, 145410.093750, 93493.523438, 95405.984375, 129997.695313, 136342.078125, 1, 256, 1,0.0,0.0,0.0,0.0,0.0, 13:57:54.902
78368.562500, 122442.359375, 141423.812500, 145536.421875, 93510.289063, 95491.765625, 130039.585938, 136331.203125, 1, 256, 1,0.0,0.0,0.0,0.0,0.0, 13:57:54.902
78303.882813, 122381.093750, 141426.796875, 145637.390625, 93502.734375, 95527.578125, 130063.812500, 136267.984375, 1, 256, 1,0.0,0.0,0.0,0.0,0.0, 13:57:54.903
78331.617188, 122421.750000, 141400.453125, 145530.578125, 93494.171875, 95460.968750, 130036.898438, 136291.296875, 1, 256, 1,0.0,0.0,0.0,0.0,0.0, 13:57:54.904
78385.242188, 122478.187500, 141395.468750, 145413.343750, 93498.867188, 95400.460938, 130004.851563, 136341.546875, 1, 256, 1,0.0,0.0,0.0,0.0,0.0, 13:57:54.904
78364.789063, 122457.023438, 141429.031250, 145516.093750, 93525.195313, 95471.765625, 130044.476563, 136342.546875, 1, 256, 1,0.0,0.0,0.0,0.0,0.0, 13:57:54.905
78314.992188, 122394.101563, 141449.015625, 145648.671875, 93519.742188, 95537.703125, 130081.273438, 136295.843750, 1, 256, 1,0.0,0.0,0.0,0.0,0.0, 13:57:54.905
78324.351563, 122410.531250, 141422.406250, 145574.609375, 93500.875000, 95479.164063, 130059.164063, 136294.609375, 1, 256, 1,0.0,0.0,0.0,0.0,0.0, 13:57:54.905
78385.843750, 122477.359375, 141401.515625, 145431.906250, 93499.445313, 95399.726563, 130017.101563, 136339.515625, 1, 256, 1,0.0,0.0,0.0,0.0,0.0, 13:57:54.906
78380.789063, 122472.531250, 141432.359375, 145494.546875, 93519.406250, 95447.976563, 130042.804688, 136345.281250, 1, 256, 1,0.0,0.0,0.0,0.0,0.0, 13:57:54.906
78325.960938, 122393.429688, 141468.031250, 145646.484375, 93517.210938, 95527.531250, 130081.023438, 136292.703125, 1, 256, 1,0.0,0.0,0.0,0.0,0.0, 13:57:54.906
78307.835938, 122387.617188, 141439.390625, 145599.640625, 93494.257813, 95488.414063, 130064.882813, 136275.937500, 1, 256, 1,0.0,0.0,0.0,0.0,0.0, 13:57:54.907
78364.562500, 122466.835938, 141407.296875, 145443.062500, 93495.664063, 95402.023438, 130026.929688, 136325.359375, 1, 256, 1,0.0,0.0,0.0,0.0,0.0, 13:57:54.907
78395.273438, 122499.914063, 141437.765625, 145477.640625, 93534.539063, 95437.046875, 130051.656250, 136359.562500, 1, 256, 1,0.0,0.0,0.0,0.0,0.0, 13:57:54.907
78313.289063, 122397.945313, 141463.187500, 145630.796875, 93524.859375, 95514.007813, 130085.273438, 136303.031250, 1, 256, 1,0.0,0.0,0.0,0.0,0.0, 13:57:54.908
78297.289063, 122378.882813, 141446.593750, 145628.781250, 93505.476563, 95500.148438, 130083.843750, 136280.843750, 1, 256, 1,0.0,0.0,0.0,0.0,0.0, 13:57:54.908
78352.695313, 122458.632813, 141420.437500, 145469.328125, 93502.687500, 95407.656250, 130039.765625, 136312.843750, 1, 256, 1,0.0,0.0,0.0,0.0,0.0, 13:57:54.908
78353.054688, 122456.953125, 141421.937500, 145441.125000, 93515.781250, 95409.046875, 130035.757813, 136341.359375, 1, 256, 1,0.0,0.0,0.0,0.0,0.0, 13:57:54.909
78311.929688, 122400.117188, 141450.484375, 145591.453125, 93518.781250, 95494.515625, 130078.898438, 136303.328125, 1, 256, 1,0.0,0.0,0.0,0.0,0.0, 13:57:54.909
78313.132813, 122393.429688, 141465.953125, 145649.031250, 93515.804688, 95506.945313, 130095.507813, 136271.109375, 1, 256, 1,0.0,0.0,0.0,0.0,0.0, 13:57:54.909
78338.125000, 122426.695313, 141421.421875, 145494.140625, 93509.500000, 95413.445313, 130051.695313, 136298.234375, 1, 256, 1,0.0,0.0,0.0,0.0,0.0, 13:57:54.910
78347.421875, 122460.820313, 141397.734375, 145422.921875, 93503.000000, 95388.390625, 130026.554688, 136338.953125, 1, 256, 1,0.0,0.0,0.0,0.0,0.0, 13:57:54.910
78345.921875, 122438.539063, 141465.500000, 145590.562500, 93532.796875, 95485.953125, 130083.882813, 136319.218750, 1, 256, 1,0.0,0.0,0.0,0.0,0.0, 13:57:54.911
78294.132813, 122394.773438, 141459.046875, 145672.125000, 93518.531250, 95512.734375, 130101.320313, 136271.468750, 1, 256, 1,0.0,0.0,0.0,0.0,0.0, 13:57:54.911
78325.828125, 122434.718750, 141421.984375, 145537.984375, 93493.500000, 95428.218750, 130056.570313, 136287.125000, 1, 256, 1,0.0,0.0,0.0,0.0,0.0, 13:57:54.912
78363.046875, 122476.242188, 141417.093750, 145429.468750, 93499.960938, 95376.273438, 130025.367188, 136327.843750, 1, 256, 1,0.0,0.0,0.0,0.0,0.0, 13:57:54.912
78339.148438, 122432.304688, 141459.796875, 145550.171875, 93522.289063, 95455.046875, 130061.445313, 136308.515625, 1, 256, 1,0.0,0.0,0.0,0.0,0.0, 13:57:54.912
78297.289063, 122379.171875, 141463.187500, 145663.468750, 93517.390625, 95513.335938, 130096.539063, 136277.031250, 1, 256, 1,0.0,0.0,0.0,0.0,0.0, 13:57:54.912
78303.164063, 122416.078125, 141424.640625, 145573.125000, 93500.898438, 95453.390625, 130068.640625, 136287.500000, 1, 256, 1,0.0,0.0,0.0,0.0,0.0, 13:57:54.913
78356.359375, 122467.015625, 141410.156250, 145439.937500, 93511.984375, 95382.218750, 130031.203125, 136329.125000, 1, 256, 1,0.0,0.0,0.0,0.0,0.0, 13:57:54.913
78340.046875, 122444.570313, 141446.953125, 145526.343750, 93528.031250, 95437.679688, 130053.687500, 136315.593750, 1, 256, 1,0.0,0.0,0.0,0.0,0.0, 13:57:54.913
78291.273438, 122391.242188, 141470.375000, 145673.437500, 93518.781250, 95509.937500, 130092.781250, 136273.390625, 1, 256, 1,0.0,0.0,0.0,0.0,0.0, 13:57:54.914
78270.171875, 122382.812500, 141421.093750, 145589.828125, 93489.343750, 95450.570313, 130061.890625, 136260.500000, 1, 256, 1,0.0,0.0,0.0,0.0,0.0, 13:57:54.914
78333.117188, 122460.304688, 141394.109375, 145439.906250, 93491.843750, 95375.492188, 130025.570313, 136314.765625, 1, 256, 1,0.0,0.0,0.0,0.0,0.0, 13:57:54.914
78339.531250, 122457.312500, 141442.453125, 145498.546875, 93518.109375, 95410.671875, 130045.062500, 136314.656250, 1, 256, 1,0.0,0.0,0.0,0.0,0.0, 13:57:54.915
78280.429688, 122372.757813, 141456.921875, 145640.875000, 93509.437500, 95480.703125, 130078.187500, 136261.750000, 1, 256, 1,0.0,0.0,0.0,0.0,0.0, 13:57:54.915
78282.000000, 122383.929688, 141436.453125, 145613.406250, 93499.062500, 95458.867188, 130073.781250, 136260.390625, 1, 256, 1,0.0,0.0,0.0,0.0,0.0, 13:57:54.915
78329.023438, 122442.429688, 141407.484375, 145458.703125, 93487.171875, 95376.609375, 130030.507813, 136305.343750, 1, 256, 1,0.0,0.0,0.0,0.0,0.0, 13:57:54.916
78345.703125, 122445.085938, 141429.921875, 145472.390625, 93516.093750, 95392.750000, 130032.859375, 136318.875000, 1, 256, 1,0.0,0.0,0.0,0.0,0.0, 13:57:54.916
78313.445313, 122407.000000, 141471.343750, 145643.578125, 93521.195313, 95484.007813, 130079.187500, 136280.734375, 1, 256, 1,0.0,0.0,0.0,0.0,0.0, 13:57:54.916
78284.789063, 122389.609375, 141442.609375, 145649.500000, 93508.140625, 95483.945313, 130085.046875, 136268.031250, 1, 256, 1,0.0,0.0,0.0,0.0,0.0, 13:57:54.917
78307.414063, 122420.414063, 141399.984375, 145483.468750, 93493.679688, 95392.343750, 130029.953125, 136296.265625, 1, 256, 1,0.0,0.0,0.0,0.0,0.0, 13:57:54.917
78326.453125, 122447.968750, 141399.593750, 145440.843750, 93500.140625, 95384.320313, 130017.429688, 136329.390625, 1, 256, 1,0.0,0.0,0.0,0.0,0.0, 13:57:54.918
78310.585938, 122408.718750, 141439.109375, 145599.296875, 93516.031250, 95479.320313, 130066.117188, 136301.640625, 1, 256, 1,0.0,0.0,0.0,0.0,0.0, 13:57:54.918
78269.500000, 122372.492188, 141424.843750, 145648.453125, 93494.054688, 95488.820313, 130073.937500, 136256.453125, 1, 256, 1,0.0,0.0,0.0,0.0,0.0, 13:57:54.918
78294.734375, 122413.148438, 141386.937500, 145503.406250, 93481.765625, 95402.312500, 130034.328125, 136280.171875, 1, 256, 1,0.0,0.0,0.0,0.0,0.0, 13:57:54.919
78345.078125, 122461.875000, 141404.125000, 145438.140625, 93507.226563, 95373.953125, 130022.687500, 136323.390625, 1, 256, 1,0.0,0.0,0.0,0.0,0.0, 13:57:54.919
78313.960938, 122424.789063, 141433.156250, 145573.078125, 93511.898438, 95449.140625, 130054.562500, 136294.078125, 1, 256, 1,0.0,0.0,0.0,0.0,0.0, 13:57:54.919
78263.203125, 122359.570313, 141428.796875, 145655.828125, 93495.757813, 95485.796875, 130076.820313, 136258.125000, 1, 256, 1,0.0,0.0,0.0,0.0,0.0, 13:57:54.919
78292.773438, 122408.921875, 141405.781250, 145543.843750, 93490.437500, 95420.687500, 130051.679688, 136285.984375, 1, 256, 1,0.0,0.0,0.0,0.0,0.0, 13:57:54.920
78340.578125, 122448.750000, 141387.859375, 145428.687500, 93493.742188, 95357.609375, 130016.695313, 136321.906250, 1, 256, 1,0.0,0.0,0.0,0.0,0.0, 13:57:54.920
78323.687500, 122411.250000, 141424.750000, 145544.187500, 93511.914063, 95426.453125, 130050.242188, 136304.953125, 1, 256, 1,0.0,0.0,0.0,0.0,0.0, 13:57:54.921
78269.812500, 122356.593750, 141442.031250, 145670.500000, 93501.992188, 95480.187500, 130081.000000, 136252.250000, 1, 256, 1,0.0,0.0,0.0,0.0,0.0, 13:57:54.921
78287.632813, 122394.148438, 141410.921875, 145568.343750, 93486.437500, 95416.445313, 130054.226563, 136262.421875, 1, 256, 1,0.0,0.0,0.0,0.0,0.0, 13:57:54.921
78351.000000, 122471.195313, 141396.328125, 145430.484375, 93497.117188, 95352.609375, 130026.265625, 136322.078125, 1, 256, 1,0.0,0.0,0.0,0.0,0.0, 13:57:54.922
78337.187500, 122443.765625, 141430.562500, 145518.593750, 93512.703125, 95413.359375, 130054.914063, 136323.328125, 1, 256, 1,0.0,0.0,0.0,0.0,0.0, 13:57:54.923
78267.757813, 122356.953125, 141440.093750, 145654.984375, 93498.593750, 95475.156250, 130082.500000, 136263.046875, 1, 256, 1,0.0,0.0,0.0,0.0,0.0, 13:57:54.923
78272.742188, 122374.140625, 141408.750000, 145592.671875, 93483.531250, 95429.539063, 130063.859375, 136259.406250, 1, 256, 1,0.0,0.0,0.0,0.0,0.0, 13:57:54.924
78324.015625, 122434.734375, 141385.234375, 145436.890625, 93480.398438, 95345.476563, 130016.250000, 136298.187500, 1, 256, 1,0.0,0.0,0.0,0.0,0.0, 13:57:54.924
78333.632813, 122437.195313, 141409.609375, 145479.968750, 93498.078125, 95382.085938, 130034.468750, 136315.171875, 1, 256, 1,0.0,0.0,0.0,0.0,0.0, 13:57:54.925
78286.109375, 122380.757813, 141440.156250, 145642.484375, 93503.312500, 95468.296875, 130078.656250, 136274.015625, 1, 256, 1,0.0,0.0,0.0,0.0,0.0, 13:57:54.925
78284.007813, 122384.851563, 141415.437500, 145620.203125, 93484.718750, 95448.875000, 130069.914063, 136267.250000, 1, 256, 1,0.0,0.0,0.0,0.0,0.0, 13:57:54.926
78338.812500, 122450.562500, 141392.750000, 145464.140625, 93485.523438, 95364.718750, 130030.328125, 136311.296875, 1, 256, 1,0.0,0.0,0.0,0.0,0.0, 13:57:54.928
78353.789063, 122458.320313, 141411.343750, 145462.578125, 93501.812500, 95372.117188, 130036.945313, 136329.968750, 1, 256, 1,0.0,0.0,0.0,0.0,0.0, 13:57:54.929
78315.882813, 122410.796875, 141446.500000, 145632.312500, 93515.203125, 95466.289063, 130086.367188, 136302.546875, 1, 256, 1,0.0,0.0,0.0,0.0,0.0, 13:57:54.930
78294.406250, 122396.804688, 141438.281250, 145659.968750, 93506.820313, 95472.453125, 130096.625000, 136278.453125, 1, 256, 1,0.0,0.0,0.0,0.0,0.0, 13:57:54.930
78333.585938, 122443.210938, 141404.890625, 145497.921875, 93499.218750, 95381.460938, 130051.742188, 136306.046875, 1, 256, 1,0.0,0.0,0.0,0.0,0.0, 13:57:54.931
78373.281250, 122480.335938, 141424.406250, 145455.875000, 93521.015625, 95371.804688, 130048.789063, 136347.203125, 1, 256, 1,0.0,0.0,0.0,0.0,0.0, 13:57:54.932
78333.515625, 122425.570313, 141463.609375, 145612.484375, 93534.203125, 95456.164063, 130093.585938, 136319.281250, 1, 256, 1,0.0,0.0,0.0,0.0,0.0, 13:57:54.933
78279.250000, 122367.679688, 141453.859375, 145669.484375, 93512.898438, 95466.625000, 130098.882813, 136272.375000, 1, 256, 1,0.0,0.0,0.0,0.0,0.0, 13:57:54.933
78308.015625, 122414.148438, 141402.421875, 145510.671875, 93486.656250, 95375.765625, 130047.382813, 136290.968750, 1, 256, 1,0.0,0.0,0.0,0.0,0.0, 13:57:54.934
78356.273438, 122469.539063, 141399.750000, 145420.375000, 93498.437500, 95340.398438, 130025.656250, 136329.984375, 1, 256, 1,0.0,0.0,0.0,0.0,0.0, 13:57:54.935
78329.140625, 122447.234375, 141437.515625, 145559.859375, 93513.859375, 95419.750000, 130063.945313, 136307.859375, 1, 256, 1,0.0,0.0,0.0,0.0,0.0, 13:57:54.935
78282.710938, 122400.250000, 141432.796875, 145653.953125, 93494.414063, 95460.453125, 130083.281250, 136268.671875, 1, 256, 1,0.0,0.0,0.0,0.0,0.0, 13:57:54.937
78306.312500, 122432.148438, 141398.968750, 145535.015625, 93483.843750, 95391.031250, 130054.515625, 136281.531250, 1, 256, 1,0.0,0.0,0.0,0.0,0.0, 13:57:54.940
78342.726563, 122475.460938, 141383.546875, 145408.421875, 93487.773438, 95330.500000, 130020.453125, 136321.750000, 1, 256, 1,0.0,0.0,0.0,0.0,0.0, 13:57:54.941
78338.929688, 122467.867188, 141421.156250, 145524.140625, 93508.031250, 95406.335938, 130051.359375, 136324.109375, 1, 256, 1,0.0,0.0,0.0,0.0,0.0, 13:57:54.941
78285.125000, 122413.367188, 141439.015625, 145663.406250, 93498.507813, 95465.078125, 130079.101563, 136271.781250, 1, 256, 1,0.0,0.0,0.0,0.0,0.0, 13:57:54.943
78285.375000, 122421.101563, 141399.453125, 145565.234375, 93478.296875, 95404.304688, 130051.585938, 136271.078125, 1, 256, 1,0.0,0.0,0.0,0.0,0.0, 13:57:54.946
78347.015625, 122489.742188, 141383.921875, 145418.296875, 93490.460938, 95337.023438, 130024.500000, 136332.468750, 1, 256, 1,0.0,0.0,0.0,0.0,0.0, 13:57:54.947
78353.500000, 122489.273438, 141424.531250, 145500.031250, 93518.312500, 95393.507813, 130061.156250, 136347.843750, 1, 256, 1,0.0,0.0,0.0,0.0,0.0, 13:57:54.949
78300.171875, 122428.007813, 141448.468750, 145658.687500, 93510.953125, 95463.671875, 130088.398438, 136291.187500, 1, 256, 1,0.0,0.0,0.0,0.0,0.0, 13:57:54.950
78300.078125, 122435.859375, 141418.312500, 145607.546875, 93492.445313, 95427.796875, 130068.281250, 136284.812500, 1, 256, 1,0.0,0.0,0.0,0.0,0.0, 13:57:54.951
78363.984375, 122515.273438, 141401.468750, 145456.125000, 93504.718750, 95360.382813, 130039.960938, 136343.453125, 1, 256, 1,0.0,0.0,0.0,0.0,0.0, 13:57:54.952
78339.125000, 122473.828125, 141409.796875, 145466.250000, 93507.515625, 95374.976563, 130037.687500, 136339.921875, 1, 256, 1,0.0,0.0,0.0,0.0,0.0, 13:57:54.953
78280.476563, 122402.437500, 141429.718750, 145625.046875, 93502.906250, 95444.468750, 130074.320313, 136286.109375, 1, 256, 1,0.0,0.0,0.0,0.0,0.0, 13:57:54.954
78271.023438, 122409.906250, 141408.171875, 145615.218750, 93486.054688, 95421.781250, 130071.812500, 136270.062500, 1, 256, 1,0.0,0.0,0.0,0.0,0.0, 13:57:54.954
78325.226563, 122476.804688, 141386.046875, 145458.750000, 93491.757813, 95354.351563, 130044.765625, 136332.359375, 1, 256, 1,0.0,0.0,0.0,0.0,0.0, 13:57:54.954
78346.484375, 122501.343750, 141405.828125, 145448.343750, 93509.148438, 95368.382813, 130040.679688, 136350.156250, 1, 256, 1,0.0,0.0,0.0,0.0,0.0, 13:57:54.955
78292.257813, 122432.679688, 141421.828125, 145602.875000, 93505.320313, 95448.406250, 130072.484375, 136308.562500, 1, 256, 1,0.0,0.0,0.0,0.0,0.0, 13:57:54.955
78273.507813, 122411.468750, 141407.718750, 145633.390625, 93490.328125, 95457.968750, 130079.906250, 136287.953125, 1, 256, 1,0.0,0.0,0.0,0.0,0.0, 13:57:54.955
78333.875000, 122488.695313, 141388.500000, 145502.140625, 93499.312500, 95389.015625, 130059.343750, 136337.718750, 1, 256, 1,0.0,0.0,0.0,0.0,0.0, 13:57:54.956
78367.429688, 122517.257813, 141401.171875, 145449.796875, 93518.000000, 95374.976563, 130052.078125, 136376.296875, 1, 256, 1,0.0,0.0,0.0,0.0,0.0, 13:57:54.956
78297.914063, 122422.710938, 141410.625000, 145575.078125, 93503.648438, 95442.078125, 130070.070313, 136325.203125, 1, 256, 1,0.0,0.0,0.0,0.0,0.0, 13:57:54.956
78250.570313, 122389.945313, 141402.921875, 145636.296875, 93487.148438, 95459.578125, 130081.515625, 136273.984375, 1, 256, 1,0.0,0.0,0.0,0.0,0.0, 13:57:54.956
78286.734375, 122448.687500, 141385.218750, 145510.093750, 93481.046875, 95382.890625, 130048.234375, 136294.718750, 1, 256, 1,0.0,0.0,0.0,0.0,0.0, 13:57:54.957
78338.773438, 122492.179688, 141380.187500, 145399.828125, 93495.937500, 95346.171875, 130031.046875, 136354.234375, 1, 256, 1,0.0,0.0,0.0,0.0,0.0, 13:57:54.957
78335.281250, 122491.843750, 141430.562500, 145556.500000, 93524.609375, 95442.703125, 130077.335938, 136357.890625, 1, 256, 1,0.0,0.0,0.0,0.0,0.0, 13:57:54.957
78270.710938, 122410.710938, 141437.046875, 145679.546875, 93508.656250, 95486.000000, 130090.437500, 136297.531250, 1, 256, 1,0.0,0.0,0.0,0.0,0.0, 13:57:54.958
78286.960938, 122425.687500, 141392.125000, 145544.031250, 93490.187500, 95415.078125, 130059.945313, 136306.984375, 1, 256, 1,0.0,0.0,0.0,0.0,0.0, 13:57:54.958
78364.875000, 122522.359375, 141400.796875, 145445.187500, 93521.570313, 95373.906250, 130052.210938, 136374.218750, 1, 256, 1,0.0,0.0,0.0,0.0,0.0, 13:57:54.958
78333.273438, 122470.656250, 141424.359375, 145536.890625, 93529.351563, 95431.796875, 130069.203125, 136352.937500, 1, 256, 1,0.0,0.0,0.0,0.0,0.0, 13:57:54.959
78289.148438, 122427.476563, 141439.796875, 145673.953125, 93519.804688, 95487.742188, 130095.554688, 136307.859375, 1, 256, 1,0.0,0.0,0.0,0.0,0.0, 13:57:54.959
78279.312500, 122415.562500, 141414.984375, 145605.156250, 93507.734375, 95451.710938, 130078.226563, 136312.406250, 1, 256, 1,0.0,0.0,0.0,0.0,0.0, 13:57:54.959
78325.609375, 122468.648438, 141385.859375, 145426.328125, 93504.296875, 95349.320313, 130035.875000, 136341.812500, 1, 256, 1,0.0,0.0,0.0,0.0,0.0, 13:57:54.960
78344.132813, 122491.398438, 141429.453125, 145509.718750, 93537.734375, 95415.031250, 130068.687500, 136371.937500, 1, 256, 1,0.0,0.0,0.0,0.0,0.0, 13:57:54.960
78284.343750, 122410.664063, 141454.812500, 145677.093750, 93532.460938, 95494.742188, 130101.210938, 136318.968750, 1, 256, 1,0.0,0.0,0.0,0.0,0.0, 13:57:54.961
78281.867188, 122420.078125, 141429.078125, 145630.640625, 93515.406250, 95468.234375, 130092.335938, 136313.343750, 1, 256, 1,0.0,0.0,0.0,0.0,0.0, 13:57:54.961
78345.453125, 122498.375000, 141399.968750, 145456.750000, 93520.632813, 95376.992188, 130058.023438, 136363.406250, 1, 256, 1,0.0,0.0,0.0,0.0,0.0, 13:57:54.962
78356.945313, 122502.398438, 141431.890625, 145495.140625, 93545.914063, 95404.953125, 130069.023438, 136378.734375, 1, 256, 1,0.0,0.0,0.0,0.0,0.0, 13:57:55.366
78280.187500, 122394.148438, 141437.046875, 145638.468750, 93526.265625, 95473.460938, 130080.867188, 136313.578125, 1, 256, 1,0.0,0.0,0.0,0.0,0.0, 13:57:55.369
78278.156250, 122406.554688, 141424.718750, 145634.625000, 93512.250000, 95470.109375, 130080.375000, 136297.375000, 1, 256, 1,0.0,0.0,0.0,0.0,0.0, 13:57:55.370
78330.007813, 122474.773438, 141399.046875, 145480.390625, 93512.875000, 95389.554688, 130045.617188, 136337.640625, 1, 256, 1,0.0,0.0,0.0,0.0,0.0, 13:57:55.371
78345.968750, 122489.703125, 141406.703125, 145443.515625, 93522.554688, 95380.429688, 130032.921875, 136355.687500, 1, 256, 1,0.0,0.0,0.0,0.0,0.0, 13:57:55.372
78299.562500, 122422.265625, 141444.890625, 145615.078125, 93530.468750, 95465.125000, 130071.789063, 136317.046875, 1, 256, 1,0.0,0.0,0.0,0.0,0.0, 13:57:55.372
78270.445313, 122392.937500, 141434.921875, 145662.265625, 93511.070313, 95471.312500, 130075.882813, 136279.937500, 1, 256, 1,0.0,0.0,0.0,0.0,0.0, 13:57:55.373
78322.164063, 122473.562500, 141403.140625, 145505.406250, 93511.898438, 95400.078125, 130045.726563, 136324.265625, 1, 256, 1,0.0,0.0,0.0,0.0,0.0, 13:57:55.373
78363.890625, 122498.710938, 141409.765625, 145435.843750, 93526.960938, 95386.781250, 130036.585938, 136364.093750, 1, 256, 1,0.0,0.0,0.0,0.0,0.0, 13:57:55.374
78340.070313, 122455.281250, 141458.937500, 145600.531250, 93544.328125, 95467.921875, 130084.804688, 136342.640625, 1, 256, 1,0.0,0.0,0.0,0.0,0.0, 13:57:55.374
78281.328125, 122397.273438, 141448.156250, 145680.640625, 93524.882813, 95491.523438, 130091.554688, 136290.218750, 1, 256, 1,0.0,0.0,0.0,0.0,0.0, 13:57:55.375
78315.726563, 122442.468750, 141408.218750, 145540.765625, 93514.914063, 95418.945313, 130060.507813, 136316.062500, 1, 256, 1,0.0,0.0,0.0,0.0,0.0, 13:57:55.375
78361.054688, 122490.546875, 141401.734375, 145423.234375, 93529.437500, 95377.617188, 130038.242188, 136361.500000, 1, 256, 1,0.0,0.0,0.0,0.0,0.0, 13:57:55.376
78335.218750, 122462.234375, 141434.296875, 145548.312500, 93539.789063, 95452.117188, 130069.132813, 136346.234375, 1, 256, 1,0.0,0.0,0.0,0.0,0.0, 13:57:55.376
78288.632813, 122399.914063, 141445.562500, 145674.000000, 93529.062500, 95497.375000, 130089.804688, 136293.125000, 1, 256, 1,0.0,0.0,0.0,0.0,0.0, 13:57:55.377
78300.484375, 122424.453125, 141410.625000, 145562.515625, 93513.328125, 95435.039063, 130067.523438, 136304.125000, 1, 256, 1,0.0,0.0,0.0,0.0,0.0, 13:57:55.377
78347.734375, 122481.500000, 141393.421875, 145422.406250, 93517.195313, 95371.625000, 130040.054688, 136354.265625, 1, 256, 1,0.0,0.0,0.0,0.0,0.0, 13:57:55.377
78344.757813, 122467.773438, 141433.625000, 145527.328125, 93538.914063, 95439.109375, 130071.257813, 136358.796875, 1, 256, 1,0.0,0.0,0.0,0.0,0.0, 13:57:55.378
78290.179688, 122399.375000, 141452.140625, 145670.937500, 93539.117188, 95508.132813, 130098.523438, 136310.703125, 1, 256, 1,0.0,0.0,0.0,0.0,0.0, 13:57:55.378
78284.726563, 122399.601563, 141422.546875, 145598.453125, 93512.296875, 95448.000000, 130067.523438, 136292.015625, 1, 256, 1,0.0,0.0,0.0,0.0,0.0, 13:57:55.379
78357.750000, 122483.375000, 141405.265625, 145441.171875, 93515.335938, 95375.742188, 130036.500000, 136344.453125, 1, 256, 1,0.0,0.0,0.0,0.0,0.0, 13:57:55.379
78350.617188, 122464.687500, 141431.328125, 145492.703125, 93528.773438, 95413.265625, 130046.984375, 136348.812500, 1, 256, 1,0.0,0.0,0.0,0.0,0.0, 13:57:55.379
78292.992188, 122403.421875, 141446.937500, 145645.265625, 93526.804688, 95487.343750, 130078.632813, 136301.921875, 1, 256, 1,0.0,0.0,0.0,0.0,0.0, 13:57:55.380
78293.601563, 122417.859375, 141417.375000, 145616.875000, 93516.765625, 95466.328125, 130073.554688, 136295.921875, 1, 256, 1,0.0,0.0,0.0,0.0,0.0, 13:57:55.381
78346.195313, 122467.726563, 141395.437500, 145461.390625, 93523.609375, 95387.359375, 130038.062500, 136330.171875, 1, 256, 1,0.0,0.0,0.0,0.0,0.0, 13:57:55.381
78360.203125, 122475.710938, 141411.406250, 145463.718750, 93535.054688, 95403.789063, 130043.695313, 136351.093750, 1, 256, 1,0.0,0.0,0.0,0.0,0.0, 13:57:55.382
78307.632813, 122420.007813, 141438.687500, 145633.812500, 93533.687500, 95485.351563, 130073.085938, 136306.234375, 1, 256, 1,0.0,0.0,0.0,0.0,0.0, 13:57:55.382
78292.484375, 122404.500000, 141420.078125, 145647.062500, 93512.742188, 95473.390625, 130068.843750, 136286.531250, 1, 256, 1,0.0,0.0,0.0,0.0,0.0, 13:57:55.383
78333.968750, 122458.812500, 141393.156250, 145483.671875, 93503.851563, 95394.828125, 130038.109375, 136327.234375, 1, 256, 1,0.0,0.0,0.0,0.0,0.0, 13:57:55.383
78367.781250, 122491.804688, 141414.156250, 145450.000000, 93536.187500, 95396.281250, 130045.890625, 136367.578125, 1, 256, 1,0.0,0.0,0.0,0.0,0.0, 13:57:55.383
78315.164063, 122426.648438, 141443.406250, 145609.046875, 93536.210938, 95468.921875, 130071.859375, 136317.046875, 1, 256, 1,0.0,0.0,0.0,0.0,0.0, 13:57:55.384
78275.093750, 122386.281250, 141420.234375, 145655.656250, 93502.953125, 95474.937500, 130068.796875, 136275.046875, 1, 256, 1,0.0,0.0,0.0,0.0,0.0, 13:57:55.384
78317.562500, 122438.312500, 141385.187500, 145502.046875, 93495.375000, 95399.500000, 130038.664063, 136307.484375, 1, 256, 1,0.0,0.0,0.0,0.0,0.0, 13:57:55.384
78379.515625, 122498.507813, 141407.078125, 145431.015625, 93506.351563, 95377.171875, 130026.617188, 136351.609375, 1, 256, 1,0.0,0.0,0.0,0.0,0.0, 13:57:55.385
78348.539063, 122454.429688, 141448.703125, 145583.140625, 93544.218750, 95462.085938, 130067.906250, 136334.171875, 1, 256, 1,0.0,0.0,0.0,0.0,0.0, 13:57:55.386
78288.125000, 122388.625000, 141434.250000, 145666.515625, 93528.789063, 95491.054688, 130072.101563, 136282.203125, 1, 256, 1,0.0,0.0,0.0,0.0,0.0, 13:57:55.386
78328.195313, 122439.835938, 141401.218750, 145534.734375, 93520.414063, 95428.421875, 130049.617188, 136311.859375, 1, 256, 1,0.0,0.0,0.0,0.0,0.0, 13:57:55.387
78393.601563, 122509.750000, 141399.046875, 145423.000000, 93523.562500, 95388.281250, 130030.195313, 136367.453125, 1, 256, 1,0.0,0.0,0.0,0.0,0.0, 13:57:55.387
78386.492188, 122480.000000, 141451.843750, 145557.546875, 93548.843750, 95458.843750, 130067.570313, 136354.390625, 1, 256, 1,0.0,0.0,0.0,0.0,0.0, 13:57:55.388
78335.101563, 122420.140625, 141464.093750, 145692.703125, 93552.195313, 95508.617188, 130089.671875, 136301.250000, 1, 256, 1,0.0,0.0,0.0,0.0,0.0, 13:57:55.389
78357.414063, 122451.390625, 141441.296875, 145594.812500, 93527.335938, 95456.070313, 130065.335938, 136314.859375, 1, 256, 1,0.0,0.0,0.0,0.0,0.0, 13:57:55.390
78374.312500, 122492.960938, 141394.359375, 145436.531250, 93541.445313, 95382.062500, 130029.835938, 136349.968750, 1, 256, 1,0.0,0.0,0.0,0.0,0.0, 13:57:55.390
78383.250000, 122475.664063, 141429.984375, 145518.500000, 93542.093750, 95439.531250, 130045.507813, 136353.812500, 1, 256, 1,0.0,0.0,0.0,0.0,0.0, 13:57:55.391
78347.507813, 122429.304688, 141467.812500, 145680.343750, 93542.937500, 95515.859375, 130069.468750, 136311.296875, 1, 256, 1,0.0,0.0,0.0,0.0,0.0, 13:57:55.391
78370.015625, 122449.867188, 141465.031250, 145625.671875, 93527.007813, 95475.828125, 130051.765625, 136307.531250, 1, 256, 1,0.0,0.0,0.0,0.0,0.0, 13:57:55.391
78408.460938, 122501.210938, 141432.765625, 145459.515625, 93539.453125, 95402.093750, 130014.210938, 136355.937500, 1, 256, 1,0.0,0.0,0.0,0.0,0.0, 13:57:55.392
78425.828125, 122513.953125, 141458.546875, 145506.000000, 93588.453125, 95442.054688, 130040.523438, 136375.515625, 1, 256, 1,0.0,0.0,0.0,0.0,0.0, 13:57:55.392
78362.109375, 122431.117188, 141492.843750, 145674.671875, 93561.625000, 95517.585938, 130069.781250, 136321.875000, 1, 256, 1,0.0,0.0,0.0,0.0,0.0, 13:57:55.392
78342.234375, 122417.859375, 141445.093750, 145642.156250, 93528.835938, 95482.382813, 130053.328125, 136285.718750, 1, 256, 1,0.0,0.0,0.0,0.0,0.0, 13:57:55.393
78388.640625, 122479.554688, 141407.437500, 145458.156250, 93512.703125, 95391.007813, 130008.851563, 136324.109375, 1, 256, 1,0.0,0.0,0.0,0.0,0.0, 13:57:55.393
78411.593750, 122495.804688, 141438.328125, 145462.265625, 93587.820313, 95413.335938, 130033.171875, 136362.093750, 1, 256, 1,0.0,0.0,0.0,0.0,0.0, 13:57:55.393
78344.023438, 122435.382813, 141449.453125, 145625.906250, 93550.968750, 95496.726563, 130059.007813, 136325.296875, 1, 256, 1,0.0,0.0,0.0,0.0,0.0, 13:57:55.394
78301.625000, 122387.890625, 141432.687500, 145646.000000, 93515.898438, 95489.937500, 130054.445313, 136289.484375, 1, 256, 1,0.0,0.0,0.0,0.0,0.0, 13:57:55.394
78375.742188, 122453.710938, 141401.375000, 145481.515625, 93545.531250, 95407.835938, 130023.828125, 136324.875000, 1, 256, 1,0.0,0.0,0.0,0.0,0.0, 13:57:55.394
78406.656250, 122490.859375, 141408.890625, 145431.843750, 93533.125000, 95393.578125, 130010.234375, 136352.765625, 1, 256, 1,0.0,0.0,0.0,0.0,0.0, 13:57:55.395
78392.195313, 122452.328125, 141464.609375, 145602.640625, 93538.117188, 95476.835938, 130043.804688, 136321.156250, 1, 256, 1,0.0,0.0,0.0,0.0,0.0, 13:57:55.395
78319.281250, 122388.851563, 141461.593750, 145661.171875, 93527.765625, 95486.718750, 130044.703125, 136274.312500, 1, 256, 1,0.0,0.0,0.0,0.0,0.0, 13:57:55.395
78311.007813, 122426.625000, 141367.890625, 145490.500000, 93499.687500, 95408.414063, 130006.812500, 136306.546875, 1, 256, 1,0.0,0.0,0.0,0.0,0.0, 13:57:55.396
78384.500000, 122480.648438, 141382.984375, 145407.546875, 93525.554688, 95381.796875, 129998.992188, 136355.828125, 1, 256, 1,0.0,0.0,0.0,0.0,0.0, 13:57:55.396
78383.343750, 122461.429688, 141427.468750, 145552.359375, 93544.460938, 95470.195313, 130037.234375, 136351.406250, 1, 256, 1,0.0,0.0,0.0,0.0,0.0, 13:57:55.396
78330.726563, 122411.250000, 141440.062500, 145663.343750, 93529.039063, 95515.640625, 130056.484375, 136307.843750, 1, 256, 1,0.0,0.0,0.0,0.0,0.0, 13:57:55.397
78325.851563, 122431.679688, 141394.828125, 145529.390625, 93525.640625, 95440.898438, 130028.718750, 136316.953125, 1, 256, 1,0.0,0.0,0.0,0.0,0.0, 13:57:55.397
78406.812500, 122505.187500, 141399.046875, 145411.015625, 93541.734375, 95390.601563, 130011.148438, 136370.718750, 1, 256, 1,0.0,0.0,0.0,0.0,0.0, 13:57:55.397
78389.953125, 122468.867188, 141436.578125, 145528.046875, 93549.937500, 95449.835938, 130036.140625, 136351.265625, 1, 256, 1,0.0,0.0,0.0,0.0,0.0, 13:57:55.398
78325.898438, 122408.515625, 141444.046875, 145664.062500, 93536.187500, 95497.312500, 130056.054688, 136290.703125, 1, 256, 1,0.0,0.0,0.0,0.0,0.0, 13:57:55.398
78339.867188, 122434.406250, 141407.609375, 145571.343750, 93530.265625, 95444.132813, 130034.062500, 136296.750000, 1, 256, 1,0.0,0.0,0.0,0.0,0.0, 13:57:55.398
78404.460938, 122504.562500, 141397.843750, 145419.812500, 93533.218750, 95378.156250, 130002.367188, 136352.765625, 1, 256, 1,0.0,0.0,0.0,0.0,0.0, 13:57:55.399
78389.132813, 122494.062500, 141401.359375, 145489.125000, 93542.359375, 95423.703125, 130020.476563, 136354.953125, 1, 256, 1,0.0,0.0,0.0,0.0,0.0, 13:57:55.399
78343.015625, 122428.031250, 141421.343750, 145650.250000, 93536.437500, 95489.687500, 130053.976563, 136305.265625, 1, 256, 1,0.0,0.0,0.0,0.0,0.0, 13:57:55.399
78345.945313, 122429.484375, 141409.890625, 145600.734375, 93536.546875, 95450.867188, 130044.765625, 136299.453125, 1, 256, 1,0.0,0.0,0.0,0.0,0.0, 13:57:55.399
78412.109375, 122508.921875, 141393.906250, 145435.890625, 93542.828125, 95374.265625, 130013.992188, 136350.906250, 1, 256, 1,0.0,0.0,0.0,0.0,0.0, 13:57:55.400
78407.500000, 122508.429688, 141418.671875, 145472.171875, 93555.953125, 95402.945313, 130027.671875, 136368.187500, 1, 256, 1,0.0,0.0,0.0,0.0,0.0, 13:57:55.400
78349.257813, 122442.648438, 141436.156250, 145634.156250, 93548.171875, 95471.250000, 130053.554688, 136313.875000, 1, 256, 1,0.0,0.0,0.0,0.0,0.0, 13:57:55.400
78339.265625, 122441.312500, 141418.562500, 145623.687500, 93535.679688, 95448.960938, 130047.921875, 136291.484375, 1, 256, 1,0.0,0.0,0.0,0.0,0.0, 13:57:55.400
78393.648438, 122498.867188, 141379.625000, 145451.328125, 93525.281250, 95365.031250, 130010.234375, 136335.437500, 1, 256, 1,0.0,0.0,0.0,0.0,0.0, 13:57:55.401
78424.828125, 122520.968750, 141412.937500, 145447.046875, 93552.593750, 95378.664063, 130021.007813, 136372.484375, 1, 256, 1,0.0,0.0,0.0,0.0,0.0, 13:57:55.401
78384.148438, 122478.257813, 141446.015625, 145624.671875, 93559.570313, 95468.968750, 130060.234375, 136342.234375, 1, 256, 1,0.0,0.0,0.0,0.0,0.0, 13:57:55.401
78341.992188, 122435.296875, 141428.312500, 145656.453125, 93539.968750, 95456.789063, 130057.867188, 136287.609375, 1, 256, 1,0.0,0.0,0.0,0.0,0.0, 13:57:55.402
78387.875000, 122504.789063, 141393.906250, 145488.328125, 93531.046875, 95379.742188, 130026.351563, 136332.453125, 1, 256, 1,0.0,0.0,0.0,0.0,0.0, 13:57:55.402
78428.335938, 122542.718750, 141405.437500, 145431.859375, 93556.445313, 95373.257813, 130021.453125, 136375.812500, 1, 256, 1,0.0,0.0,0.0,0.0,0.0, 13:57:55.402
78381.195313, 122486.820313, 141437.250000, 145583.765625, 93558.812500, 95451.421875, 130052.750000, 136340.203125, 1, 256, 1,0.0,0.0,0.0,0.0,0.0, 13:57:55.402
78347.445313, 122445.335938, 141440.359375, 145661.187500, 93537.601563, 95479.140625, 130062.515625, 136304.156250, 1, 256, 1,0.0,0.0,0.0,0.0,0.0, 13:57:55.403
78388.257813, 122491.804688, 141406.500000, 145514.921875, 93531.359375, 95400.054688, 130030.687500, 136325.671875, 1, 256, 1,0.0,0.0,0.0,0.0,0.0, 13:57:55.403
78441.570313, 122548.375000, 141407.078125, 145415.750000, 93549.492188, 95361.210938, 130015.757813, 136369.031250, 1, 256, 1,0.0,0.0,0.0,0.0,0.0, 13:57:55.404
78444.695313, 122533.015625, 141450.703125, 145555.375000, 93563.101563, 95442.484375, 130048.031250, 136356.453125, 1, 256, 1,0.0,0.0,0.0,0.0,0.0, 13:57:55.404
78393.531250, 122474.078125, 141469.750000, 145674.406250, 93555.726563, 95491.429688, 130069.265625, 136308.640625, 1, 256, 1,0.0,0.0,0.0,0.0,0.0, 13:57:55.407
78412.890625, 122512.117188, 141418.562500, 145549.890625, 93545.000000, 95431.414063, 130042.421875, 136324.171875, 1, 256, 1,0.0,0.0,0.0,0.0,0.0, 13:57:55.411
78480.976563, 122579.468750, 141409.953125, 145413.781250, 93565.156250, 95372.031250, 130019.960938, 136366.218750, 1, 256, 1,0.0,0.0,0.0,0.0,0.0, 13:57:55.414
78495.101563, 122568.937500, 141451.312500, 145519.781250, 93579.148438, 95446.015625, 130053.265625, 136370.250000, 1, 256, 1,0.0,0.0,0.0,0.0,0.0, 13:57:55.414
78470.578125, 122534.804688, 141482.640625, 145672.453125, 93579.484375, 95522.031250, 130088.960938, 136341.500000, 1, 256, 1,0.0,0.0,0.0,0.0,0.0, 13:57:55.414
78469.257813, 122545.109375, 141448.578125, 145587.718750, 93560.328125, 95464.945313, 130059.476563, 136332.093750, 1, 256, 1,0.0,0.0,0.0,0.0,0.0, 13:57:55.415
78522.953125, 122602.421875, 141428.578125, 145436.968750, 93570.945313, 95392.812500, 130029.187500, 136372.703125, 1, 256, 1,0.0,0.0,0.0,0.0,0.0, 13:57:55.415
78548.140625, 122611.945313, 141464.968750, 145508.562500, 93595.445313, 95447.507813, 130058.000000, 136388.265625, 1, 256, 1,0.0,0.0,0.0,0.0,0.0, 13:57:55.415
78510.570313, 122566.570313, 141499.125000, 145679.031250, 93600.875000, 95528.601563, 130096.109375, 136342.546875, 1, 256, 1,0.0,0.0,0.0,0.0,0.0, 13:57:55.416
78492.976563, 122541.335938, 141452.078125, 145622.531250, 93577.226563, 95476.609375, 130070.476563, 136312.671875, 1, 256, 1,0.0,0.0,0.0,0.0,0.0, 13:57:55.416
78566.132813, 122628.390625, 141434.921875, 145462.281250, 93580.023438, 95415.390625, 130047.203125, 136386.453125, 1, 256, 1,0.0,0.0,0.0,0.0,0.0, 13:57:55.416
78583.234375, 122639.812500, 141458.203125, 145482.812500, 93593.546875, 95434.390625, 130059.054688, 136393.515625, 1, 256, 1,0.0,0.0,0.0,0.0,0.0, 13:57:55.416
78549.703125, 122580.585938, 141492.593750, 145649.343750, 93596.921875, 95517.695313, 130095.218750, 136353.265625, 1, 256, 1,0.0,0.0,0.0,0.0,0.0, 13:57:55.417
78563.585938, 122580.781250, 141501.531250, 145659.734375, 93601.773438, 95506.476563, 130103.265625, 136332.718750, 1, 256, 1,0.0,0.0,0.0,0.0,0.0, 13:57:55.417
78560.945313, 122623.093750, 141444.718750, 145480.609375, 93601.679688, 95432.984375, 130078.273438, 136394.406250, 1, 256, 1,0.0,0.0,0.0,0.0,0.0, 13:57:55.417
78595.773438, 122655.460938, 141461.953125, 145463.500000, 93618.179688, 95455.085938, 130091.218750, 136447.265625, 1, 256, 1,0.0,0.0,0.0,0.0,0.0, 13:57:55.417
78565.242188, 122603.718750, 141504.312500, 145632.234375, 93612.812500, 95524.109375, 130116.671875, 136381.156250, 1, 256, 1,0.0,0.0,0.0,0.0,0.0, 13:57:55.420
78551.492188, 122569.296875, 141511.453125, 145682.546875, 93595.601563, 95520.468750, 130118.906250, 136330.843750, 1, 256, 1,0.0,0.0,0.0,0.0,0.0, 13:57:55.420
78568.031250, 122600.765625, 141466.437500, 145518.500000, 93590.531250, 95439.867188, 130084.242188, 136365.421875, 1, 256, 1,0.0,0.0,0.0,0.0,0.0, 13:57:55.421
78593.671875, 122637.804688, 141460.593750, 145442.281250, 93613.906250, 95419.015625, 130072.890625, 136407.781250, 1, 256, 1,0.0,0.0,0.0,0.0,0.0, 13:57:55.421
78575.968750, 122613.890625, 141505.250000, 145602.078125, 93601.164063, 95509.492188, 130108.515625, 136387.906250, 1, 256, 1,0.0,0.0,0.0,0.0,0.0, 13:57:55.423
78523.734375, 122550.835938, 141523.750000, 145697.062500, 93603.203125, 95541.609375, 130131.539063, 136350.109375, 1, 256, 1,0.0,0.0,0.0,0.0,0.0, 13:57:55.423
78535.312500, 122578.281250, 141473.281250, 145546.828125, 93596.429688, 95459.914063, 130087.234375, 136357.609375, 1, 256, 1,0.0,0.0,0.0,0.0,0.0, 13:57:55.423
78580.796875, 122645.671875, 141455.046875, 145436.890625, 93600.812500, 95415.882813, 130066.226563, 136405.218750, 1, 256, 1,0.0,0.0,0.0,0.0,0.0, 13:57:55.424
78547.468750, 122585.429688, 141499.656250, 145560.640625, 93601.304688, 95486.250000, 130097.476563, 136385.437500, 1, 256, 1,0.0,0.0,0.0,0.0,0.0, 13:57:55.424
78460.875000, 122505.593750, 141506.140625, 145677.156250, 93585.523438, 95524.851563, 130114.507813, 136319.687500, 1, 256, 1,0.0,0.0,0.0,0.0,0.0, 13:57:55.424
78485.710938, 122545.914063, 141482.484375, 145571.765625, 93580.757813, 95459.023438, 130087.257813, 136327.484375, 1, 256, 1,0.0,0.0,0.0,0.0,0.0, 13:57:55.427
78546.531250, 122618.070313, 141466.218750, 145437.609375, 93595.890625, 95413.312500, 130071.437500, 136403.390625, 1, 256, 1,0.0,0.0,0.0,0.0,0.0, 13:57:55.432
78519.796875, 122577.945313, 141474.843750, 145525.343750, 93601.750000, 95472.054688, 130091.726563, 136392.640625, 1, 256, 1,0.0,0.0,0.0,0.0,0.0, 13:57:55.432
78466.062500, 122509.703125, 141499.171875, 145669.515625, 93582.820313, 95530.679688, 130117.343750, 136328.109375, 1, 256, 1,0.0,0.0,0.0,0.0,0.0, 13:57:55.433
78442.882813, 122511.359375, 141467.109375, 145596.546875, 93575.125000, 95487.187500, 130102.882813, 136331.750000, 1, 256, 1,0.0,0.0,0.0,0.0,0.0, 13:57:55.433
78486.226563, 122547.164063, 141431.812500, 145433.984375, 93570.437500, 95405.960938, 130056.726563, 136368.484375, 1, 256, 1,0.0,0.0,0.0,0.0,0.0, 13:57:55.433
78479.562500, 122538.945313, 141457.687500, 145489.062500, 93598.375000, 95450.390625, 130082.789063, 136383.953125, 1, 256, 1,0.0,0.0,0.0,0.0,0.0, 13:57:55.434
78423.437500, 122481.273438, 141488.687500, 145658.734375, 93605.992188, 95525.500000, 130125.460938, 136335.937500, 1, 256, 1,0.0,0.0,0.0,0.0,0.0, 13:57:55.434
78409.000000, 122464.664063, 141469.531250, 145629.031250, 93564.398438, 95495.726563, 130109.992188, 136310.359375, 1, 256, 1,0.0,0.0,0.0,0.0,0.0, 13:57:55.434
78457.484375, 122525.953125, 141445.562500, 145459.937500, 93577.609375, 95407.437500, 130071.546875, 136349.656250, 1, 256, 1,0.0,0.0,0.0,0.0,0.0, 13:57:55.842
78457.101563, 122524.679688, 141451.437500, 145469.187500, 93583.265625, 95426.078125, 130077.179688, 136371.000000, 1, 256, 1,0.0,0.0,0.0,0.0,0.0, 13:57:55.843
78415.703125, 122474.125000, 141490.218750, 145645.296875, 93586.726563, 95510.093750, 130124.187500, 136331.906250, 1, 256, 1,0.0,0.0,0.0,0.0,0.0, 13:57:55.843
78391.679688, 122446.273438, 141478.421875, 145656.406250, 93570.320313, 95491.367188, 130119.578125, 136293.125000, 1, 256, 1,0.0,0.0,0.0,0.0,0.0, 13:57:55.843
78440.093750, 122504.695313, 141446.140625, 145486.578125, 93552.085938, 95395.703125, 130069.687500, 136323.750000, 1, 256, 1,0.0,0.0,0.0,0.0,0.0, 13:57:55.843
78455.156250, 122525.421875, 141460.609375, 145456.671875, 93574.101563, 95388.773438, 130070.515625, 136358.750000, 1, 256, 1,0.0,0.0,0.0,0.0,0.0, 13:57:55.843
78410.945313, 122465.828125, 141483.562500, 145619.703125, 93578.078125, 95475.804688, 130110.507813, 136328.296875, 1, 256, 1,0.0,0.0,0.0,0.0,0.0, 13:57:55.844
78379.984375, 122438.562500, 141477.781250, 145679.515625, 93561.648438, 95484.414063, 130121.500000, 136288.234375, 1, 256, 1,0.0,0.0,0.0,0.0,0.0, 13:57:55.844
78412.687500, 122478.546875, 141434.843750, 145519.890625, 93550.671875, 95403.210938, 130084.710938, 136324.828125, 1, 256, 1,0.0,0.0,0.0,0.0,0.0, 13:57:55.844
78451.179688, 122513.015625, 141442.734375, 145450.593750, 93568.023438, 95382.984375, 130074.656250, 136373.593750, 1, 256, 1,0.0,0.0,0.0,0.0,0.0, 13:57:55.845
78407.257813, 122455.726563, 141483.281250, 145598.125000, 93578.164063, 95468.500000, 130116.320313, 136346.281250, 1, 256, 1,0.0,0.0,0.0,0.0,0.0, 13:57:55.846
78355.335938, 122402.820313, 141481.984375, 145685.734375, 93557.851563, 95489.937500, 130129.195313, 136282.156250, 1, 256, 1,0.0,0.0,0.0,0.0,0.0, 13:57:55.846
78390.648438, 122445.828125, 141448.859375, 145556.406250, 93544.664063, 95411.593750, 130093.539063, 136291.796875, 1, 256, 1,0.0,0.0,0.0,0.0,0.0, 13:57:55.847
78433.093750, 122496.828125, 141437.437500, 145441.140625, 93554.500000, 95357.945313, 130067.765625, 136337.171875, 1, 256, 1,0.0,0.0,0.0,0.0,0.0, 13:57:55.848
78416.218750, 122462.093750, 141479.812500, 145570.453125, 93574.656250, 95437.695313, 130106.390625, 136330.578125, 1, 256, 1,0.0,0.0,0.0,0.0,0.0, 13:57:55.848
78348.765625, 122397.117188, 141492.390625, 145693.468750, 93557.914063, 95487.718750, 130129.859375, 136275.468750, 1, 256, 1,0.0,0.0,0.0,0.0,0.0, 13:57:55.849
78354.953125, 122417.750000, 141452.812500, 145583.562500, 93539.765625, 95421.429688, 130101.835938, 136280.218750, 1, 256, 1,0.0,0.0,0.0,0.0,0.0, 13:57:55.850
78411.125000, 122484.960938, 141428.734375, 145435.218750, 93541.507813, 95350.148438, 130061.601563, 136326.859375, 1, 256, 1,0.0,0.0,0.0,0.0,0.0, 13:57:55.850
78407.617188, 122471.664063, 141464.968750, 145525.515625, 93557.179688, 95404.125000, 130084.710938, 136324.328125, 1, 256, 1,0.0,0.0,0.0,0.0,0.0, 13:57:55.851
78353.054688, 122405.210938, 141490.843750, 145682.765625, 93552.531250, 95472.609375, 130119.781250, 136272.796875, 1, 256, 1,0.0,0.0,0.0,0.0,0.0, 13:57:55.852
78354.460938, 122414.953125, 141454.703125, 145613.250000, 93534.093750, 95432.375000, 130101.562500, 136274.109375, 1, 256, 1,0.0,0.0,0.0,0.0,0.0, 13:57:55.852
78408.460938, 122474.546875, 141429.078125, 145450.312500, 93538.539063, 95366.085938, 130064.773438, 136324.765625, 1, 256, 1,0.0,0.0,0.0,0.0,0.0, 13:57:55.853
78411.953125, 122467.593750, 141462.593750, 145501.000000, 93558.632813, 95406.515625, 130081.226563, 136328.578125, 1, 256, 1,0.0,0.0,0.0,0.0,0.0, 13:57:55.854
78361.460938, 122413.835938, 141492.953125, 145665.203125, 93560.062500, 95497.671875, 130125.125000, 136292.781250, 1, 256, 1,0.0,0.0,0.0,0.0,0.0, 13:57:55.854
78339.953125, 122400.023438, 141463.062500, 145641.218750, 93532.234375, 95472.500000, 130108.539063, 136272.328125, 1, 256, 1,0.0,0.0,0.0,0.0,0.0, 13:57:55.855
78394.117188, 122462.945313, 141424.531250, 145471.937500, 93523.070313, 95389.734375, 130060.078125, 136318.687500, 1, 256, 1,0.0,0.0,0.0,0.0,0.0, 13:57:55.855
78428.421875, 122502.218750, 141448.296875, 145476.531250, 93547.750000, 95410.117188, 130069.625000, 136349.234375, 1, 256, 1,0.0,0.0,0.0,0.0,0.0, 13:57:55.855
78371.000000, 122421.750000, 141479.984375, 145639.265625, 93548.507813, 95490.093750, 130112.492188, 136299.750000, 1, 256, 1,0.0,0.0,0.0,0.0,0.0, 13:57:55.856
78335.593750, 122385.382813, 141463.468750, 145659.578125, 93530.359375, 95494.000000, 130117.570313, 136282.515625, 1, 256, 1,0.0,0.0,0.0,0.0,0.0, 13:57:55.856
78391.164063, 122462.296875, 141427.578125, 145496.078125, 93527.179688, 95398.156250, 130070.476563, 136306.765625, 1, 256, 1,0.0,0.0,0.0,0.0,0.0, 13:57:55.857
78439.468750, 122501.437500, 141445.953125, 145461.609375, 93550.656250, 95384.234375, 130063.835938, 136340.031250, 1, 256, 1,0.0,0.0,0.0,0.0,0.0, 13:57:55.866
78392.640625, 122445.843750, 141479.406250, 145617.312500, 93557.046875, 95468.835938, 130103.328125, 136303.375000, 1, 256, 1,0.0,0.0,0.0,0.0,0.0, 13:57:55.866
78346.703125, 122395.195313, 141476.328125, 145676.796875, 93542.875000, 95491.882813, 130122.640625, 136269.640625, 1, 256, 1,0.0,0.0,0.0,0.0,0.0, 13:57:55.867
78378.554688, 122442.742188, 141439.062500, 145527.593750, 93529.796875, 95407.546875, 130083.101563, 136296.343750, 1, 256, 1,0.0,0.0,0.0,0.0,0.0, 13:57:55.867
78425.273438, 122502.687500, 141445.437500, 145451.578125, 93546.492188, 95375.046875, 130066.382813, 136342.593750, 1, 256, 1,0.0,0.0,0.0,0.0,0.0, 13:57:55.867
78391.140625, 122453.156250, 141477.546875, 145583.875000, 93558.273438, 95452.156250, 130101.523438, 136318.796875, 1, 256, 1,0.0,0.0,0.0,0.0,0.0, 13:57:55.868
78345.453125, 122403.000000, 141487.703125, 145689.984375, 93549.445313, 95496.953125, 130123.734375, 136273.125000, 1, 256, 1,0.0,0.0,0.0,0.0,0.0, 13:57:55.868
78376.187500, 122455.476563, 141456.781250, 145574.578125, 93537.531250, 95425.382813, 130095.398438, 136290.453125, 1, 256, 1,0.0,0.0,0.0,0.0,0.0, 13:57:55.869
78419.148438, 122500.656250, 141442.703125, 145456.750000, 93542.023438, 95366.757813, 130064.437500, 136335.750000, 1, 256, 1,0.0,0.0,0.0,0.0,0.0, 13:57:55.869
78386.984375, 122453.226563, 141462.328125, 145549.609375, 93548.820313, 95431.398438, 130087.570313, 136320.015625, 1, 256, 1,0.0,0.0,0.0,0.0,0.0, 13:57:55.869
78333.851563, 122400.921875, 141478.359375, 145675.968750, 93541.492188, 95490.093750, 130115.757813, 136262.671875, 1, 256, 1,0.0,0.0,0.0,0.0,0.0, 13:57:55.870
78351.023438, 122428.570313, 141447.171875, 145586.984375, 93527.382813, 95436.445313, 130092.984375, 136276.609375, 1, 256, 1,0.0,0.0,0.0,0.0,0.0, 13:57:55.870
78417.781250, 122495.984375, 141428.640625, 145447.937500, 93533.375000, 95364.343750, 130054.914063, 136329.953125, 1, 256, 1,0.0,0.0,0.0,0.0,0.0, 13:57:55.871
78418.117188, 122489.476563, 141459.578125, 145524.046875, 93554.296875, 95417.671875, 130079.031250, 136337.281250, 1, 256, 1,0.0,0.0,0.0,0.0,0.0, 13:57:55.871
78373.460938, 122445.890625, 141496.656250, 145691.812500, 93556.351563, 95502.500000, 130122.460938, 136299.187500, 1, 256, 1,0.0,0.0,0.0,0.0,0.0, 13:57:55.871
78355.578125, 122431.453125, 141468.390625, 145640.359375, 93537.109375, 95455.242188, 130101.585938, 136279.500000, 1, 256, 1,0.0,0.0,0.0,0.0,0.0, 13:57:55.871
78401.242188, 122484.562500, 141431.156250, 145465.953125, 93536.726563, 95371.406250, 130057.445313, 136329.078125, 1, 256, 1,0.0,0.0,0.0,0.0,0.0, 13:57:55.872
78419.234375, 122501.640625, 141459.843750, 145503.687500, 93553.851563, 95405.531250, 130070.406250, 136348.812500, 1, 256, 1,0.0,0.0,0.0,0.0,0.0, 13:57:55.872
78383.382813, 122458.523438, 141497.125000, 145674.578125, 93563.078125, 95489.687500, 130119.023438, 136308.390625, 1, 256, 1,0.0,0.0,0.0,0.0,0.0, 13:57:55.872
78356.539063, 122435.007813, 141473.031250, 145655.406250, 93542.648438, 95466.578125, 130108.406250, 136284.703125, 1, 256, 1,0.0,0.0,0.0,0.0,0.0, 13:57:55.873
78395.656250, 122473.406250, 141435.671875, 145485.937500, 93530.851563, 95370.890625, 130055.226563, 136319.437500, 1, 256, 1,0.0,0.0,0.0,0.0,0.0, 13:57:55.873
78414.875000, 122486.304688, 141458.234375, 145484.234375, 93549.046875, 95384.593750, 130053.796875, 136343.453125, 1, 256, 1,0.0,0.0,0.0,0.0,0.0, 13:57:55.873
78365.031250, 122442.335938, 141488.125000, 145641.140625, 93555.593750, 95461.992188, 130098.343750, 136296.890625, 1, 256, 1,0.0,0.0,0.0,0.0,0.0, 13:57:55.874
78333.296875, 122412.609375, 141462.796875, 145659.468750, 93534.445313, 95460.562500, 130102.367188, 136273.656250, 1, 256, 1,0.0,0.0,0.0,0.0,0.0, 13:57:55.874
78386.875000, 122480.562500, 141430.093750, 145512.109375, 93530.671875, 95381.125000, 130065.156250, 136319.109375, 1, 256, 1,0.0,0.0,0.0,0.0,0.0, 13:57:55.874
78428.757813, 122530.828125, 141442.703125, 145477.078125, 93548.085938, 95367.445313, 130054.960938, 136355.734375, 1, 256, 1,0.0,0.0,0.0,0.0,0.0, 13:57:55.875
78398.960938, 122487.804688, 141489.937500, 145650.250000, 93566.656250, 95463.445313, 130105.500000, 136333.828125, 1, 256, 1,0.0,0.0,0.0,0.0,0.0, 13:57:55.875
78317.851563, 122406.484375, 141459.062500, 145683.687500, 93527.296875, 95477.218750, 130103.265625, 136286.781250, 1, 256, 1,0.0,0.0,0.0,0.0,0.0, 13:57:55.875
78357.437500, 122457.734375, 141421.156250, 145531.531250, 93515.718750, 95390.914063, 130063.500000, 136306.546875, 1, 256, 1,0.0,0.0,0.0,0.0,0.0, 13:57:55.876
78414.343750, 122521.531250, 141426.609375, 145450.500000, 93531.343750, 95335.953125, 130040.343750, 136337.968750, 1, 256, 1,0.0,0.0,0.0,0.0,0.0, 13:57:55.876
78370.734375, 122448.843750, 141462.984375, 145582.609375, 93543.632813, 95421.093750, 130076.890625, 136320.406250, 1, 256, 1,0.0,0.0,0.0,0.0,0.0, 13:57:55.876
78329.453125, 122409.929688, 141473.171875, 145677.515625, 93533.507813, 95473.171875, 130107.242188, 136283.625000, 1, 256, 1,0.0,0.0,0.0,0.0,0.0, 13:57:55.877
78357.390625, 122451.617188, 141442.859375, 145564.437500, 93523.804688, 95401.242188, 130079.078125, 136294.140625, 1, 256, 1,0.0,0.0,0.0,0.0,0.0, 13:57:55.877
78430.414063, 122537.664063, 141446.734375, 145468.515625, 93543.859375, 95356.406250, 130056.773438, 136358.093750, 1, 256, 1,0.0,0.0,0.0,0.0,0.0, 13:57:55.877
78401.398438, 122494.976563, 141469.187500, 145566.093750, 93553.492188, 95421.250000, 130079.976563, 136342.546875, 1, 256, 1,0.0,0.0,0.0,0.0,0.0, 13:57:55.877
78343.734375, 122408.343750, 141480.750000, 145681.421875, 93543.101563, 95481.820313, 130112.984375, 136288.140625, 1, 256, 1,0.0,0.0,0.0,0.0,0.0, 13:57:55.878
78355.984375, 122435.632813, 141455.406250, 145601.062500, 93526.179688, 95423.414063, 130091.195313, 136291.296875, 1, 256, 1,0.0,0.0,0.0,0.0,0.0, 13:57:55.878
78431.195313, 122527.609375, 141449.343750, 145475.968750, 93541.062500, 95353.078125, 130063.343750, 136352.671875, 1, 256, 1,0.0,0.0,0.0,0.0,0.0, 13:57:55.879
78402.476563, 122479.218750, 141469.265625, 145529.765625, 93544.375000, 95399.406250, 130070.851563, 136341.250000, 1, 256, 1,0.0,0.0,0.0,0.0,0.0, 13:57:55.880
78333.968750, 122415.984375, 141474.531250, 145646.796875, 93527.515625, 95443.421875, 130096.312500, 136271.109375, 1, 256, 1,0.0,0.0,0.0,0.0,0.0, 13:57:55.880
78362.109375, 122450.632813, 141468.968750, 145630.812500, 93528.679688, 95422.992188, 130104.265625, 136287.562500, 1, 256, 1,0.0,0.0,0.0,0.0,0.0, 13:57:55.881
78414.164063, 122509.281250, 141435.890625, 145479.390625, 93524.296875, 95342.953125, 130060.640625, 136337.859375, 1, 256, 1,0.0,0.0,0.0,0.0,0.0, 13:57:55.882
78418.164063, 122507.226563, 141450.578125, 145487.812500, 93539.406250, 95368.835938, 130070.984375, 136354.109375, 1, 256, 1,0.0,0.0,0.0,0.0,0.0, 13:57:55.883
78375.515625, 122445.625000, 141485.843750, 145653.187500, 93545.578125, 95447.445313, 130118.531250, 136303.703125, 1, 256, 1,0.0,0.0,0.0,0.0,0.0, 13:57:55.883
78336.023438, 122399.960938, 141457.562500, 145638.515625, 93517.820313, 95423.976563, 130107.648438, 136273.937500, 1, 256, 1,0.0,0.0,0.0,0.0,0.0, 13:57:55.883
78370.062500, 122444.351563, 141420.359375, 145474.109375, 93508.343750, 95336.039063, 130058.468750, 136308.468750, 1, 256, 1,0.0,0.0,0.0,0.0,0.0, 13:57:55.884
78402.812500, 122481.031250, 141444.109375, 145464.906250, 93529.843750, 95349.093750, 130058.289063, 136341.921875, 1, 256, 1,0.0,0.0,0.0,0.0,0.0, 13:57:55.884
78367.718750, 122424.992188, 141476.296875, 145619.390625, 93536.281250, 95437.296875, 130104.515625, 136301.921875, 1, 256, 1,0.0,0.0,0.0,0.0,0.0, 13:57:55.884
78331.414063, 122394.367188, 141469.015625, 145659.765625, 93522.468750, 95437.343750, 130113.343750, 136268.203125, 1, 256, 1,0.0,0.0,0.0,0.0,0.0, 13:57:55.885
78380.570313, 122466.210938, 141434.218750, 145512.781250, 93516.812500, 95357.164063, 130075.773438, 136310.500000, 1, 256, 1,0.0,0.0,0.0,0.0,0.0, 13:57:55.885
78440.625000, 122533.937500, 141452.562500, 145461.656250, 93542.250000, 95344.937500, 130072.929688, 136364.171875, 1, 256, 1,0.0,0.0,0.0,0.0,0.0, 13:57:55.893
78384.078125, 122458.992188, 141487.359375, 145602.203125, 93549.851563, 95433.742188, 130111.085938, 136328.781250, 1, 256, 1,0.0,0.0,0.0,0.0,0.0, 13:57:55.894
78322.343750, 122376.445313, 141473.625000, 145660.093750, 93524.054688, 95443.601563, 130120.765625, 136260.953125, 1, 256, 1,0.0,0.0,0.0,0.0,0.0, 13:57:55.896
78361.796875, 122428.140625, 141433.750000, 145526.750000, 93513.367188, 95363.132813, 130087.171875, 136292.968750, 1, 256, 1,0.0,0.0,0.0,0.0,0.0, 13:57:55.896
78428.226563, 122494.171875, 141440.515625, 145443.046875, 93530.781250, 95337.632813, 130067.609375, 136357.937500, 1, 256, 1,0.0,0.0,0.0,0.0,0.0, 13:57:55.899
78395.234375, 122460.625000, 141471.734375, 145567.562500, 93551.125000, 95421.539063, 130106.054688, 136341.250000, 1, 256, 1,0.0,0.0,0.0,0.0,0.0, 13:57:55.900
78353.234375, 122417.820313, 141479.671875, 145679.765625, 93536.343750, 95456.093750, 130133.906250, 136279.093750, 1, 256, 1,0.0,0.0,0.0,0.0,0.0, 13:57:55.906
78351.781250, 122417.820313, 141439.953125, 145565.234375, 93516.320313, 95391.656250, 130092.445313, 136287.515625, 1, 256, 1,0.0,0.0,0.0,0.0,0.0, 13:57:55.906
78392.664063, 122465.585938, 141412.828125, 145426.500000, 93512.140625, 95321.023438, 130043.250000, 136326.531250, 1, 256, 1,0.0,0.0,0.0,0.0,0.0, 13:57:55.907
78399.765625, 122456.914063, 141456.234375, 145526.656250, 93550.023438, 95410.070313, 130090.906250, 136349.015625, 1, 256, 1,0.0,0.0,0.0,0.0,0.0, 13:57:55.907
78347.156250, 122393.945313, 141484.406250, 145673.578125, 93550.203125, 95484.500000, 130134.890625, 136302.703125, 1, 256, 1,0.0,0.0,0.0,0.0,0.0, 13:57:55.907
78349.765625, 122410.757813, 141444.984375, 145592.531250, 93525.015625, 95414.117188, 130104.781250, 136279.656250, 1, 256, 1,0.0,0.0,0.0,0.0,0.0, 13:57:55.907
78406.718750, 122471.773438, 141417.562500, 145439.234375, 93518.156250, 95334.523438, 130055.070313, 136327.234375, 1, 256, 1,0.0,0.0,0.0,0.0,0.0, 13:57:55.908
78411.796875, 122476.421875, 141454.031250, 145504.515625, 93540.570313, 95391.851563, 130078.859375, 136342.109375, 1, 256, 1,0.0,0.0,0.0,0.0,0.0, 13:57:55.908
78351.156250, 122410.304688, 141478.843750, 145656.390625, 93544.773438, 95473.125000, 130126.375000, 136292.437500, 1, 256, 1,0.0,0.0,0.0,0.0,0.0, 13:57:55.908
78336.421875, 122403.531250, 141452.890625, 145621.156250, 93520.164063, 95434.882813, 130112.117188, 136274.781250, 1, 256, 1,0.0,0.0,0.0,0.0,0.0, 13:57:55.908
78395.898438, 122466.234375, 141423.703125, 145462.015625, 93513.460938, 95350.460938, 130065.445313, 136322.703125, 1, 256, 1,0.0,0.0,0.0,0.0,0.0, 13:57:55.909
78414.406250, 122473.117188, 141447.171875, 145481.906250, 93541.132813, 95380.367188, 130080.914063, 136355.375000, 1, 256, 1,0.0,0.0,0.0,0.0,0.0, 13:57:55.909
78378.984375, 122429.460938, 141487.140625, 145647.250000, 93555.546875, 95479.765625, 130137.078125, 136324.296875, 1, 256, 1,0.0,0.0,0.0,0.0,0.0, 13:57:55.909
78349.343750, 122401.703125, 141470.984375, 145651.656250, 93537.085938, 95453.453125, 130130.601563, 136275.296875, 1, 256, 1,0.0,0.0,0.0,0.0,0.0, 13:57:55.910
78396.218750, 122452.843750, 141429.187500, 145483.906250, 93512.093750, 95355.578125, 130076.460938, 136307.453125, 1, 256, 1,0.0,0.0,0.0,0.0,0.0, 13:57:55.910
78431.617188, 122492.117188, 141446.234375, 145465.296875, 93535.367188, 95362.617188, 130074.875000, 136347.375000, 1, 256, 1,0.0,0.0,0.0,0.0,0.0, 13:57:55.911
78378.937500, 122432.031250, 141471.140625, 145620.656250, 93553.179688, 95451.710938, 130120.718750, 136311.296875, 1, 256, 1,0.0,0.0,0.0,0.0,0.0, 13:57:55.911
78342.343750, 122393.476563, 141464.875000, 145661.484375, 93537.664063, 95464.054688, 130132.093750, 136271.296875, 1, 256, 1,0.0,0.0,0.0,0.0,0.0, 13:57:55.911
78387.945313, 122449.890625, 141424.828125, 145512.046875, 93527.585938, 95382.000000, 130091.867188, 136308.218750, 1, 256, 1,0.0,0.0,0.0,0.0,0.0, 13:57:55.912
78435.640625, 122494.078125, 141433.312500, 145449.750000, 93537.398438, 95353.945313, 130073.312500, 136348.781250, 1, 256, 1,0.0,0.0,0.0,0.0,0.0, 13:57:55.912
78403.593750, 122447.140625, 141476.171875, 145593.250000, 93554.007813, 95438.500000, 130119.445313, 136321.203125, 1, 256, 1,0.0,0.0,0.0,0.0,0.0, 13:57:55.912
78347.914063, 122401.750000, 141476.500000, 145675.968750, 93550.296875, 95476.750000, 130151.476563, 136287.000000, 1, 256, 1,0.0,0.0,0.0,0.0,0.0, 13:57:55.913
78382.070313, 122435.453125, 141452.890625, 145559.515625, 93525.640625, 95396.617188, 130110.257813, 136299.656250, 1, 256, 1,0.0,0.0,0.0,0.0,0.0, 13:57:55.913
78436.914063, 122493.234375, 141445.281250, 145454.125000, 93536.726563, 95347.039063, 130073.828125, 136348.468750, 1, 256, 1,0.0,0.0,0.0,0.0,0.0, 13:57:55.914
78407.148438, 122454.656250, 141475.734375, 145558.937500, 93563.390625, 95426.054688, 130109.257813, 136335.671875, 1, 256, 1,0.0,0.0,0.0,0.0,0.0, 13:57:55.914
78364.859375, 122410.687500, 141485.109375, 145672.171875, 93534.562500, 95476.296875, 130137.640625, 136282.531250, 1, 256, 1,0.0,0.0,0.0,0.0,0.0, 13:57:55.914
78385.531250, 122442.984375, 141469.703125, 145587.500000, 93538.226563, 95418.500000, 130117.343750, 136293.953125, 1, 256, 1,0.0,0.0,0.0,0.0,0.0, 13:57:55.914
78430.054688, 122483.398438, 141461.453125, 145458.843750, 93530.960938, 95347.375000, 130070.765625, 136329.406250, 1, 256, 1,0.0,0.0,0.0,0.0,0.0, 13:57:55.915
78441.789063, 122484.515625, 141478.421875, 145533.234375, 93525.039063, 95406.539063, 130092.468750, 136337.968750, 1, 256, 1,0.0,0.0,0.0,0.0,0.0, 13:57:55.915
78387.898438, 122427.851563, 141511.953125, 145680.546875, 93562.882813, 95477.640625, 130144.125000, 136292.703125, 1, 256, 1,0.0,0.0,0.0,0.0,0.0, 13:57:55.915
78392.882813, 122434.046875, 141491.406250, 145628.406250, 93544.546875, 95434.476563, 130126.578125, 136290.578125, 1, 256, 1,0.0,0.0,0.0,0.0,0.0, 13:57:55.915
78441.992188, 122482.835938, 141477.781250, 145480.437500, 93529.796875, 95347.820313, 130078.367188, 136333.812500, 1, 256, 1,0.0,0.0,0.0,0.0,0.0, 13:57:55.917
78441.570313, 122480.335938, 141476.046875, 145515.640625, 93539.117188, 95377.617188, 130084.960938, 136335.593750, 1, 256, 1,0.0,0.0,0.0,0.0,0.0, 13:57:55.918
78389.484375, 122420.789063, 141516.562500, 145675.546875, 93543.078125, 95468.789063, 130138.734375, 136304.062500, 1, 256, 1,0.0,0.0,0.0,0.0,0.0, 13:57:55.918
78393.289063, 122413.835938, 141509.046875, 145656.562500, 93553.421875, 95443.109375, 130136.968750, 136287.171875, 1, 256, 1,0.21485208,0.30416185,0.17228344,0.16010897,0.122225106, 13:57:56.323
78439.867188, 122472.289063, 141467.843750, 145493.171875, 93530.445313, 95342.304688, 130075.101563, 136314.453125, 1, 256, 1,0.21485208,0.30416185,0.17228344,0.16010897,0.122225106, 13:57:56.323
78459.289063, 122479.218750, 141498.812500, 145497.531250, 93565.765625, 95352.671875, 130079.500000, 136332.093750, 1, 256, 1,0.21485208,0.30416185,0.17228344,0.16010897,0.122225106, 13:57:56.323
78412.421875, 122418.421875, 141521.562500, 145643.781250, 93564.960938, 95438.500000, 130122.796875, 136292.234375, 1, 256, 1,0.21485208,0.30416185,0.17228344,0.16010897,0.122225106, 13:57:56.323
78382.242188, 122408.320313, 141509.765625, 145661.062500, 93548.554688, 95441.765625, 130128.632813, 136274.625000, 1, 256, 1,0.21485208,0.30416185,0.17228344,0.16010897,0.122225106, 13:57:56.323
78411.796875, 122455.906250, 141449.046875, 145500.281250, 93521.460938, 95355.109375, 130074.250000, 136313.406250, 1, 256, 1,0.21485208,0.30416185,0.17228344,0.16010897,0.122225106, 13:57:56.324
78472.859375, 122496.921875, 141477.421875, 145465.703125, 93545.312500, 95346.835938, 130066.312500, 136351.312500, 1, 256, 1,0.21485208,0.30416185,0.17228344,0.16010897,0.122225106, 13:57:56.324
78414.632813, 122434.023438, 141500.656250, 145613.421875, 93546.156250, 95433.968750, 130107.171875, 136313.890625, 1, 256, 1,0.21485208,0.30416185,0.17228344,0.16010897,0.122225106, 13:57:56.324
78394.382813, 122397.789063, 141490.843750, 145670.000000, 93545.687500, 95449.906250, 130127.648438, 136273.890625, 1, 256, 1,0.21485208,0.30416185,0.17228344,0.16010897,0.122225106, 13:57:56.324
78418.117188, 122439.078125, 141456.109375, 145532.718750, 93525.890625, 95367.156250, 130083.906250, 136297.484375, 1, 256, 1,0.21485208,0.30416185,0.17228344,0.16010897,0.122225106, 13:57:56.324
78457.992188, 122479.421875, 141461.093750, 145453.906250, 93524.390625, 95328.062500, 130050.242188, 136328.921875, 1, 256, 1,0.21485208,0.30416185,0.17228344,0.16010897,0.122225106, 13:57:56.325
78452.500000, 122443.609375, 141511.390625, 145587.171875, 93558.226563, 95417.562500, 130095.398438, 136309.265625, 1, 256, 1,0.21485208,0.30416185,0.17228344,0.16010897,0.122225106, 13:57:56.326
78387.500000, 122389.500000, 141493.484375, 145671.156250, 93518.601563, 95468.234375, 130117.343750, 136272.593750, 1, 256, 1,0.2033884,0.27315372,0.14660293,0.12963253,0.103224315, 13:57:56.326
78388.992188, 122427.656250, 141442.062500, 145553.796875, 93500.046875, 95400.976563, 130083.171875, 136294.031250, 1, 256, 1,0.2033884,0.27315372,0.14660293,0.12963253,0.103224315, 13:57:56.328
78445.882813, 122475.906250, 141432.375000, 145444.937500, 93506.039063, 95345.140625, 130047.695313, 136335.671875, 1, 256, 1,0.2033884,0.27315372,0.14660293,0.12963253,0.103224315, 13:57:56.328
78432.914063, 122450.320313, 141491.093750, 145561.390625, 93537.890625, 95425.429688, 130088.710938, 136331.593750, 1, 256, 1,0.2033884,0.27315372,0.14660293,0.12963253,0.103224315, 13:57:56.329
78364.343750, 122390.210938, 141483.500000, 145674.828125, 93526.312500, 95478.539063, 130120.046875, 136272.859375, 1, 256, 1,0.2033884,0.27315372,0.14660293,0.12963253,0.103224315, 13:57:56.330
78403.750000, 122423.000000, 141445.718750, 145583.546875, 93521.617188, 95412.976563, 130095.015625, 136273.750000, 1, 256, 1,0.2033884,0.27315372,0.14660293,0.12963253,0.103224315, 13:57:56.330
78460.679688, 122480.648438, 141435.125000, 145448.500000, 93519.898438, 95348.265625, 130053.218750, 136329.140625, 1, 256, 1,0.2033884,0.27315372,0.14660293,0.12963253,0.103224315, 13:57:56.331
78466.000000, 122479.664063, 141484.062500, 145531.390625, 93561.468750, 95411.703125, 130089.539063, 136340.421875, 1, 256, 1,0.2033884,0.27315372,0.14660293,0.12963253,0.103224315, 13:57:56.332
78396.750000, 122408.851563, 141490.312500, 145667.203125, 93536.664063, 95485.062500, 130125.500000, 136289.578125, 1, 256, 1,0.2033884,0.27315372,0.14660293,0.12963253,0.103224315, 13:57:56.332
78382.890625, 122405.320313, 141456.546875, 145612.578125, 93523.070313, 95436.382813, 130105.343750, 136272.562500, 1, 256, 1,0.2033884,0.27315372,0.14660293,0.12963253,0.103224315, 13:57:56.333
78451.046875, 122478.148438, 141434.703125, 145465.031250, 93521.195313, 95364.515625, 130064.976563, 136334.390625, 1, 256, 1,0.2033884,0.27315372,0.14660293,0.12963253,0.103224315, 13:57:56.333
78450.171875, 122473.429688, 141460.921875, 145499.921875, 93537.601563, 95392.750000, 130070.320313, 136335.250000, 1, 256, 1,0.2033884,0.27315372,0.14660293,0.12963253,0.103224315, 13:57:56.334
78393.289063, 122410.914063, 141487.296875, 145647.921875, 93548.085938, 95473.617188, 130114.687500, 136287.328125, 1, 256, 1,0.2033884,0.27315372,0.14660293,0.12963253,0.103224315, 13:57:56.334
78378.445313, 122406.398438, 141460.390625, 145631.593750, 93522.156250, 95457.164063, 130110.328125, 136273.656250, 1, 256, 1,0.2033884,0.27315372,0.14660293,0.12963253,0.103224315, 13:57:56.335
78453.031250, 122486.148438, 141429.453125, 145479.765625, 93514.421875, 95377.039063, 130068.125000, 136323.437500, 1, 256, 1,0.2033884,0.27315372,0.14660293,0.12963253,0.103224315, 13:57:56.335
78475.382813, 122506.625000, 141455.562500, 145482.421875, 93535.320313, 95395.164063, 130075.476563, 136357.421875, 1, 256, 1,0.2033884,0.27315372,0.14660293,0.12963253,0.103224315, 13:57:56.335
78438.546875, 122449.851563, 141501.328125, 145644.468750, 93542.960938, 95486.359375, 130123.648438, 136315.375000, 1, 256, 1,0.2033884,0.27315372,0.14660293,0.12963253,0.103224315, 13:57:56.336
78380.460938, 122407.109375, 141484.609375, 145667.078125, 93531.406250, 95489.218750, 130128.296875, 136284.812500, 1, 256, 1,0.2033884,0.27315372,0.14660293,0.12963253,0.103224315, 13:57:56.336
78407.007813, 122446.828125, 141428.921875, 145503.750000, 93514.132813, 95391.523438, 130073.359375, 136308.578125, 1, 256, 1,0.2033884,0.27315372,0.14660293,0.12963253,0.103224315, 13:57:56.336
78463.429688, 122498.218750, 141447.515625, 145464.656250, 93528.992188, 95380.500000, 130063.585938, 136345.953125, 1, 256, 1,0.2033884,0.27315372,0.14660293,0.12963253,0.103224315, 13:57:56.336
78417.898438, 122451.296875, 141477.656250, 145607.640625, 93535.812500, 95470.156250, 130102.773438, 136315.953125, 1, 256, 1,0.2033884,0.27315372,0.14660293,0.12963253,0.103224315, 13:57:56.337
78382.335938, 122410.015625, 141475.625000, 145668.687500, 93532.320313, 95503.929688, 130125.343750, 136291.140625, 1, 256, 1,0.2033884,0.27315372,0.14660293,0.12963253,0.103224315, 13:57:56.337
78406.093750, 122451.570313, 141441.671875, 145534.687500, 93519.875000, 95420.601563, 130083.906250, 136309.781250, 1, 256, 1,0.2033884,0.27315372,0.14660293,0.12963253,0.103224315, 13:57:56.337
78474.890625, 122517.906250, 141439.859375, 145454.281250, 93520.968750, 95374.195313, 130059.453125, 136343.718750, 1, 256, 1,0.2033884,0.27315372,0.14660293,0.12963253,0.103224315, 13:57:56.337
78462.445313, 122488.359375, 141492.609375, 145592.484375, 93541.914063, 95462.937500, 130103.062500, 136329.187500, 1, 256, 1,0.2033884,0.27315372,0.14660293,0.12963253,0.103224315, 13:57:56.337
78413.406250, 122435.226563, 141509.968750, 145690.875000, 93540.750000, 95506.718750, 130132.921875, 136282.453125, 1, 256, 1,0.2033884,0.27315372,0.14660293,0.12963253,0.103224315, 13:57:56.338
78392.257813, 122443.117188, 141446.125000, 145559.500000, 93507.539063, 95423.507813, 130087.390625, 136285.312500, 1, 256, 1,0.2033884,0.27315372,0.14660293,0.12963253,0.103224315, 13:57:56.338
78447.156250, 122500.429688, 141431.640625, 145444.000000, 93517.257813, 95370.757813, 130058.937500, 136344.609375, 1, 256, 1,0.2033884,0.27315372,0.14660293,0.12963253,0.103224315, 13:57:56.338
78440.742188, 122476.085938, 141466.218750, 145545.296875, 93537.265625, 95437.742188, 130092.023438, 136334.937500, 1, 256, 1,0.2033884,0.27315372,0.14660293,0.12963253,0.103224315, 13:57:56.338
78403.460938, 122434.289063, 141490.140625, 145676.421875, 93543.585938, 95509.179688, 130138.531250, 136294.265625, 1, 256, 1,0.2033884,0.27315372,0.14660293,0.12963253,0.103224315, 13:57:56.339
78419.390625, 122463.210938, 141472.140625, 145605.468750, 93528.500000, 95461.007813, 130120.945313, 136303.078125, 1, 256, 1,0.2033884,0.27315372,0.14660293,0.12963253,0.103224315, 13:57:56.339
78457.773438, 122502.445313, 141447.125000, 145455.000000, 93519.539063, 95377.148438, 130068.617188, 136338.109375, 1, 256, 1,0.2033884,0.27315372,0.14660293,0.12963253,0.103224315, 13:57:56.339
78448.226563, 122485.718750, 141466.734375, 145509.406250, 93531.851563, 95424.960938, 130084.398438, 136343.218750, 1, 256, 1,0.2033884,0.27315372,0.14660293,0.12963253,0.103224315, 13:57:56.339
78382.445313, 122425.460938, 141474.625000, 145647.671875, 93536.992188, 95504.914063, 130129.210938, 136300.187500, 1, 256, 1,0.2033884,0.27315372,0.14660293,0.12963253,0.103224315, 13:57:56.340
78395.140625, 122441.484375, 141458.546875, 145611.859375, 93509.343750, 95470.820313, 130112.718750, 136288.734375, 1, 256, 1,0.2033884,0.27315372,0.14660293,0.12963253,0.103224315, 13:57:56.340
78491.859375, 122538.023438, 141463.718750, 145478.375000, 93526.757813, 95397.914063, 130081.828125, 136349.375000, 1, 256, 1,0.2033884,0.27315372,0.14660293,0.12963253,0.103224315, 13:57:56.340
78479.382813, 122541.515625, 141497.281250, 145512.406250, 93563.820313, 95430.031250, 130098.476563, 136369.703125, 1, 256, 1,0.2033884,0.27315372,0.14660293,0.12963253,0.103224315, 13:57:56.340
78394.960938, 122447.726563, 141498.187500, 145647.359375, 93541.156250, 95502.945313, 130125.484375, 136306.593750, 1, 256, 1,0.2033884,0.27315372,0.14660293,0.12963253,0.103224315, 13:57:56.341
78396.773438, 122442.117188, 141479.406250, 145640.187500, 93529.953125, 95498.515625, 130128.875000, 136301.328125, 1, 256, 1,0.2033884,0.27315372,0.14660293,0.12963253,0.103224315, 13:57:56.341
78455.601563, 122514.312500, 141447.125000, 145491.812500, 93520.343750, 95418.703125, 130085.468750, 136347.000000, 1, 256, 1,0.2033884,0.27315372,0.14660293,0.12963253,0.103224315, 13:57:56.341
78492.953125, 122539.921875, 141471.062500, 145486.656250, 93546.718750, 95419.835938, 130083.820313, 136365.328125, 1, 256, 1,0.2033884,0.27315372,0.14660293,0.12963253,0.103224315, 13:57:56.341
78438.054688, 122482.328125, 141500.484375, 145633.437500, 93559.703125, 95504.328125, 130128.210938, 136325.750000, 1, 256, 1,0.2033884,0.27315372,0.14660293,0.12963253,0.103224315, 13:57:56.342
78402.359375, 122446.804688, 141489.687500, 145665.421875, 93537.039063, 95511.523438, 130134.242188, 136288.953125, 1, 256, 1,0.2033884,0.27315372,0.14660293,0.12963253,0.103224315, 13:57:56.342
78417.625000, 122482.570313, 141434.765625, 145508.109375, 93518.265625, 95421.804688, 130080.531250, 136319.281250, 1, 256, 1,0.2033884,0.27315372,0.14660293,0.12963253,0.103224315, 13:57:56.343
78462.062500, 122527.164063, 141434.171875, 145449.859375, 93523.203125, 95394.468750, 130058.445313, 136352.250000, 1, 256, 1,0.2033884,0.27315372,0.14660293,0.12963253,0.103224315, 13:57:56.343
78421.921875, 122489.726563, 141478.140625, 145597.656250, 93542.382813, 95483.093750, 130108.132813, 136324.562500, 1, 256, 1,0.2033884,0.27315372,0.14660293,0.12963253,0.103224315, 13:57:56.343
78388.390625, 122439.945313, 141477.546875, 145660.718750, 93523.632813, 95512.640625, 130122.375000, 136284.421875, 1, 256, 1,0.2033884,0.27315372,0.14660293,0.12963253,0.103224315, 13:57:56.343
78397.757813, 122470.945313, 141440.203125, 145525.984375, 93520.343750, 95437.875000, 130084.109375, 136308.437500, 1, 256, 1,0.2033884,0.27315372,0.14660293,0.12963253,0.103224315, 13:57:56.344
78464.367188, 122541.515625, 141441.140625, 145444.296875, 93538.117188, 95398.203125, 130060.039063, 136359.203125, 1, 256, 1,0.2033884,0.27315372,0.14660293,0.12963253,0.103224315, 13:57:56.344
78464.882813, 122516.968750, 141487.562500, 145576.812500, 93555.812500, 95489.148438, 130105.273438, 136356.718750, 1, 256, 1,0.2033884,0.27315372,0.14660293,0.12963253,0.103224315, 13:57:56.344
78398.335938, 122438.585938, 141503.906250, 145681.046875, 93545.085938, 95533.187500, 130132.093750, 136294.578125, 1, 256, 1,0.2033884,0.27315372,0.14660293,0.12963253,0.103224315, 13:57:56.344
78416.554688, 122477.515625, 141472.046875, 145566.296875, 93529.460938, 95464.562500, 130104.406250, 136311.125000, 1, 256, 1,0.2033884,0.27315372,0.14660293,0.12963253,0.103224315, 13:57:56.345
78466.734375, 122533.531250, 141453.609375, 145442.281250, 93546.828125, 95399.570313, 130067.164063, 136357.500000, 1, 256, 1,0.2033884,0.27315372,0.14660293,0.12963253,0.103224315, 13:57:56.345
78436.250000, 122490.460938, 141467.218750, 145527.546875, 93546.875000, 95460.695313, 130089.960938, 136348.281250, 1, 256, 1,0.2033884,0.27315372,0.14660293,0.12963253,0.103224315, 13:57:56.345
78378.085938, 122445.132813, 141486.000000, 145661.265625, 93525.890625, 95528.156250, 130122.734375, 136296.265625, 1, 256, 1,0.2033884,0.27315372,0.14660293,0.12963253,0.103224315, 13:57:56.345
78399.570313, 122464.398438, 141461.968750, 145589.000000, 93526.492188, 95484.460938, 130105.898438, 136305.875000, 1, 256, 1,0.2033884,0.27315372,0.14660293,0.12963253,0.103224315, 13:57:56.346
78448.671875, 122520.726563, 141433.875000, 145444.828125, 93522.531250, 95401.492188, 130058.023438, 136346.640625, 1, 256, 1,0.2033884,0.27315372,0.14660293,0.12963253,0.103224315, 13:57:56.346
78451.984375, 122514.828125, 141461.328125, 145503.234375, 93532.343750, 95437.382813, 130072.039063, 136343.765625, 1, 256, 1,0.2033884,0.27315372,0.14660293,0.12963253,0.103224315, 13:57:56.347
78399.882813, 122449.085938, 141489.328125, 145652.250000, 93539.656250, 95522.234375, 130119.515625, 136302.562500, 1, 256, 1,0.2033884,0.27315372,0.14660293,0.12963253,0.103224315, 13:57:56.347
78390.445313, 122451.007813, 141466.734375, 145614.218750, 93523.804688, 95496.015625, 130110.773438, 136294.421875, 1, 256, 1,0.2033884,0.27315372,0.14660293,0.12963253,0.103224315, 13:57:56.348
78457.304688, 122533.468750, 141441.203125, 145468.515625, 93526.757813, 95417.070313, 130071.593750, 136345.796875, 1, 256, 1,0.2033884,0.27315372,0.14660293,0.12963253,0.103224315, 13:57:56.348
78447.531250, 122513.570313, 141448.937500, 145478.796875, 93534.578125, 95436.046875, 130072.531250, 136363.671875, 1, 256, 1,0.2033884,0.27315372,0.14660293,0.12963253,0.103224315, 13:57:56.348
78395.968750, 122445.507813, 141473.656250, 145628.531250, 93538.718750, 95515.281250, 130116.632813, 136311.234375, 1, 256, 1,0.2033884,0.27315372,0.14660293,0.12963253,0.103224315, 13:57:56.349
78388.257813, 122447.320313, 141466.437500, 145634.890625, 93529.914063, 95509.421875, 130122.242188, 136292.656250, 1, 256, 1,0.2033884,0.27315372,0.14660293,0.12963253,0.103224315, 13:57:56.350
78451.914063, 122521.242188, 141449.750000, 145490.203125, 93532.796875, 95430.609375, 130085.359375, 136338.890625, 1, 256, 1,0.2033884,0.27315372,0.14660293,0.12963253,0.103224315, 13:57:56.351
78454.867188, 122524.257813, 141462.546875, 145466.984375, 93566.453125, 95430.296875, 130077.132813, 136367.671875, 1, 256, 1,0.2033884,0.27315372,0.14660293,0.12963253,0.103224315, 13:57:56.352
78384.968750, 122436.125000, 141463.875000, 145597.265625, 93540.367188, 95510.031250, 130102.101563, 136319.843750, 1, 256, 1,0.2033884,0.27315372,0.14660293,0.12963253,0.103224315, 13:57:56.353
78367.757813, 122426.515625, 141457.843750, 145643.203125, 93516.656250, 95521.359375, 130112.804688, 136282.765625, 1, 256, 1,0.2033884,0.27315372,0.14660293,0.12963253,0.103224315, 13:57:56.353
78426.546875, 122486.148438, 141431.171875, 145502.187500, 93503.601563, 95427.234375, 130066.742188, 136301.578125, 1, 256, 1,0.2033884,0.27315372,0.14660293,0.12963253,0.103224315, 13:57:56.353
78470.757813, 122534.671875, 141432.203125, 145437.656250, 93522.515625, 95398.851563, 130050.578125, 136348.234375, 1, 256, 1,0.2033884,0.27315372,0.14660293,0.12963253,0.103224315, 13:57:56.354
78439.468750, 122491.710938, 141468.296875, 145576.015625, 93545.671875, 95494.312500, 130100.421875, 136336.625000, 1, 256, 1,0.2033884,0.27315372,0.14660293,0.12963253,0.103224315, 13:57:56.354
78400.664063, 122448.664063, 141483.000000, 145667.515625, 93536.726563, 95542.148438, 130126.976563, 136304.234375, 1, 256, 1,0.2033884,0.27315372,0.14660293,0.12963253,0.103224315, 13:57:56.354
78412.953125, 122478.992188, 141449.187500, 145544.968750, 93518.265625, 95463.382813, 130086.210938, 136314.828125, 1, 256, 1,0.2033884,0.27315372,0.14660293,0.12963253,0.103224315, 13:57:56.354
78469.039063, 122541.359375, 141437.234375, 145444.828125, 93522.734375, 95417.156250, 130057.843750, 136367.406250, 1, 256, 1,0.2033884,0.27315372,0.14660293,0.12963253,0.103224315, 13:57:56.355
78440.960938, 122486.703125, 141470.062500, 145557.140625, 93535.070313, 95493.171875, 130094.125000, 136348.656250, 1, 256, 1,0.2033884,0.27315372,0.14660293,0.12963253,0.103224315, 13:57:56.355
78389.937500, 122436.750000, 141482.734375, 145667.921875, 93532.234375, 95542.218750, 130127.898438, 136296.281250, 1, 256, 1,0.2033884,0.27315372,0.14660293,0.12963253,0.103224315, 13:57:56.355
78408.109375, 122474.296875, 141446.453125, 145563.828125, 93513.234375, 95475.718750, 130096.179688, 136305.156250, 1, 256, 1,0.2033884,0.27315372,0.14660293,0.12963253,0.103224315, 13:57:56.355
78467.382813, 122533.468750, 141437.859375, 145441.031250, 93517.664063, 95406.273438, 130056.078125, 136349.796875, 1, 256, 1,0.2033884,0.27315372,0.14660293,0.12963253,0.103224315, 13:57:56.355
78454.976563, 122512.570313, 141474.125000, 145531.328125, 93540.015625, 95472.164063, 130088.265625, 136353.421875, 1, 256, 1,0.2033884,0.27315372,0.14660293,0.12963253,0.103224315, 13:57:56.356
78389.171875, 122445.023438, 141489.359375, 145664.453125, 93537.867188, 95537.210938, 130128.320313, 136291.859375, 1, 256, 1,0.2033884,0.27315372,0.14660293,0.12963253,0.103224315, 13:57:56.356
78402.250000, 122462.765625, 141457.687500, 145599.859375, 93524.812500, 95490.828125, 130112.898438, 136292.421875, 1, 256, 1,0.2033884,0.27315372,0.14660293,0.12963253,0.103224315, 13:57:56.357
78464.367188, 122536.195313, 141434.031250, 145453.125000, 93527.765625, 95416.601563, 130071.523438, 136351.578125, 1, 256, 1,0.2033884,0.27315372,0.14660293,0.12963253,0.103224315, 13:57:56.357
78465.171875, 122526.539063, 141461.593750, 145499.531250, 93548.125000, 95458.843750, 130089.179688, 136362.062500, 1, 256, 1,0.2033884,0.27315372,0.14660293,0.12963253,0.103224315, 13:57:56.357
78413.984375, 122466.414063, 141489.375000, 145651.093750, 93553.203125, 95539.843750, 130137.281250, 136312.312500, 1, 256, 1,0.2033884,0.27315372,0.14660293,0.12963253,0.103224315, 13:57:56.358
78410.187500, 122472.601563, 141479.078125, 145636.671875, 93541.109375, 95517.000000, 130134.960938, 136298.609375, 1, 256, 1,0.2033884,0.27315372,0.14660293,0.12963253,0.103224315, 13:57:56.358
78457.281250, 122523.359375, 141454.484375, 145485.265625, 93532.007813, 95432.359375, 130086.546875, 136340.468750, 1, 256, 1,0.2033884,0.27315372,0.14660293,0.12963253,0.103224315, 13:57:56.360
78454.218750, 122511.046875, 141453.390625, 145470.687500, 93533.914063, 95437.382813, 130077.984375, 136354.203125, 1, 256, 1,0.2033884,0.27315372,0.14660293,0.12963253,0.103224315, 13:57:56.360
78409.445313, 122455.726563, 141489.718750, 145629.906250, 93548.687500, 95529.031250, 130129.703125, 136315.218750, 1, 256, 1,0.2033884,0.27315372,0.14660293,0.12963253,0.103224315, 13:57:56.360
78392.414063, 122447.632813, 141473.390625, 145644.140625, 93530.335938, 95521.429688, 130130.648438, 136286.062500, 1, 256, 1,0.2033884,0.27315372,0.14660293,0.12963253,0.103224315, 13:57:56.361
78439.421875, 122499.757813, 141440.062500, 145493.156250, 93520.812500, 95430.078125, 130082.875000, 136316.328125, 1, 256, 1,0.2033884,0.27315372,0.14660293,0.12963253,0.103224315, 13:57:56.361
78474.109375, 122531.343750, 141444.406250, 145452.500000, 93534.757813, 95422.898438, 130072.750000, 136355.687500, 1, 256, 1,0.2033884,0.27315372,0.14660293,0.12963253,0.103224315, 13:57:56.361
78436.828125, 122484.429688, 141483.125000, 145604.156250, 93550.585938, 95517.921875, 130121.234375, 136327.468750, 1, 256, 1,0.2033884,0.27315372,0.14660293,0.12963253,0.103224315, 13:57:56.361
78388.929688, 122439.742188, 141477.468750, 145658.921875, 93533.914063, 95539.492188, 130134.531250, 136293.250000, 1, 256, 1,0.2033884,0.27315372,0.14660293,0.12963253,0.103224315, 13:57:56.362
78422.414063, 122491.781250, 141441.312500, 145519.015625, 93518.171875, 95454.929688, 130088.421875, 136313.453125, 1, 256, 1,0.2033884,0.27315372,0.14660293,0.12963253,0.103224315, 13:57:56.362
78463.289063, 122525.554688, 141443.625000, 145446.687500, 93520.500000, 95415.750000, 130059.859375, 136345.906250, 1, 256, 1,0.2033884,0.27315372,0.14660293,0.12963253,0.103224315, 13:57:56.363
78437.390625, 122490.507813, 141479.875000, 145579.906250, 93537.640625, 95493.914063, 130105.718750, 136326.437500, 1, 256, 1,0.2033884,0.27315372,0.14660293,0.12963253,0.103224315, 13:57:56.363
78387.656250, 122429.710938, 141491.250000, 145676.687500, 93533.195313, 95541.031250, 130136.234375, 136289.250000, 1, 256, 1,0.2033884,0.27315372,0.14660293,0.12963253,0.103224315, 13:57:56.363
78421.804688, 122483.289063, 141459.625000, 145555.812500, 93526.890625, 95473.570313, 130110.437500, 136313.421875, 1, 256, 1,0.2033884,0.27315372,0.14660293,0.12963253,0.103224315, 13:57:56.363
78465.820313, 122540.953125, 141444.218750, 145439.843750, 93531.140625, 95416.484375, 130078.320313, 136357.656250, 1, 256, 1,0.2033884,0.27315372,0.14660293,0.12963253,0.103224315, 13:57:56.363
78448.226563, 122510.109375, 141480.171875, 145549.593750, 93551.101563, 95492.039063, 130117.500000, 136349.406250, 1, 256, 1,0.2033884,0.27315372,0.14660293,0.12963253,0.103224315, 13:57:56.364
78392.929688, 122443.570313, 141497.843750, 145670.265625, 93547.164063, 95555.132813, 130150.757813, 136302.468750, 1, 256, 1,0.2033884,0.27315372,0.14660293,0.12963253,0.103224315, 13:57:56.364
78402.273438, 122464.398438, 141468.859375, 145581.093750, 93528.234375, 95491.164063, 130120.453125, 136299.750000, 1, 256, 1,0.2033884,0.27315372,0.14660293,0.12963253,0.103224315, 13:57:56.364
78463.609375, 122527.273438, 141454.328125, 145449.718750, 93531.164063, 95421.312500, 130079.015625, 136352.703125, 1, 256, 1,0.2033884,0.27315372,0.14660293,0.12963253,0.103224315, 13:57:56.365
78451.398438, 122505.015625, 141483.390625, 145521.156250, 93541.085938, 95473.507813, 130099.929688, 136349.125000, 1, 256, 1,0.2033884,0.27315372,0.14660293,0.12963253,0.103224315, 13:57:56.365
78399.921875, 122449.937500, 141505.484375, 145661.687500, 93538.742188, 95547.804688, 130143.046875, 136303.328125, 1, 256, 1,0.2033884,0.27315372,0.14660293,0.12963253,0.103224315, 13:57:56.366
78409.492188, 122469.250000, 141484.796875, 145610.703125, 93524.992188, 95508.398438, 130128.898438, 136297.296875, 1, 256, 1,0.2033884,0.27315372,0.14660293,0.12963253,0.103224315, 13:57:56.375
78461.078125, 122532.210938, 141451.562500, 145452.343750, 93514.171875, 95418.835938, 130076.351563, 136340.031250, 1, 256, 1,0.2033884,0.27315372,0.14660293,0.12963253,0.103224315, 13:57:56.376
78474.960938, 122536.859375, 141480.140625, 145493.250000, 93538.468750, 95452.335938, 130091.929688, 136356.031250, 1, 256, 1,0.2033884,0.27315372,0.14660293,0.12963253,0.103224315, 13:57:56.377
78426.164063, 122472.937500, 141517.765625, 145653.296875, 93546.648438, 95542.390625, 130136.703125, 136312.718750, 1, 256, 1,0.09017046,0.06098729,0.022198139,0.037463363,0.03555307, 13:57:56.809
78415.125000, 122475.617188, 141502.859375, 145646.953125, 93533.578125, 95525.070313, 130135.609375, 136298.750000, 1, 256, 1,0.07641981,0.06098729,0.022198139,0.037463363,0.03555307, 13:57:56.812
78462.398438, 122537.000000, 141466.531250, 145491.093750, 93527.335938, 95441.476563, 130090.320313, 136345.343750, 1, 256, 1,0.07641981,0.06098729,0.022198139,0.037463363,0.03555307, 13:57:56.813
78466.804688, 122519.007813, 141471.718750, 145475.468750, 93533.976563, 95437.007813, 130077.335938, 136346.218750, 1, 256, 1,0.07641981,0.06098729,0.022198139,0.037463363,0.03555307, 13:57:56.813
78427.773438, 122473.898438, 141507.640625, 145629.234375, 93545.671875, 95530.593750, 130125.523438, 136316.625000, 1, 256, 1,0.07641981,0.06098729,0.022198139,0.037463363,0.03555307, 13:57:56.814
78391.296875, 122446.562500, 141499.859375, 145654.328125, 93531.093750, 95533.742188, 130128.789063, 136283.921875, 1, 256, 1,0.07641981,0.06098729,0.022198139,0.037463363,0.03555307, 13:57:56.815
78441.414063, 122510.625000, 141465.171875, 145505.578125, 93525.171875, 95451.421875, 130087.687500, 136325.781250, 1, 256, 1,0.07641981,0.06098729,0.022198139,0.037463363,0.03555307, 13:57:56.816
78483.656250, 122551.210938, 141472.593750, 145467.187500, 93546.117188, 95446.882813, 130080.195313, 136371.093750, 1, 256, 1,0.07641981,0.06098729,0.022198139,0.037463363,0.03555307, 13:57:56.816
78432.851563, 122490.859375, 141499.296875, 145605.140625, 93557.289063, 95524.851563, 130118.554688, 136326.328125, 1, 256, 1,0.07641981,0.06098729,0.022198139,0.037463363,0.03555307, 13:57:56.817
78410.031250, 122480.515625, 141505.296875, 145685.984375, 93556.484375, 95553.390625, 130145.015625, 136296.031250, 1, 256, 1,0.07641981,0.06098729,0.022198139,0.037463363,0.03555307, 13:57:56.817
78432.312500, 122488.648438, 141468.484375, 145552.359375, 93540.507813, 95472.656250, 130100.804688, 136318.343750, 1, 256, 1,0.07641981,0.06098729,0.022198139,0.037463363,0.03555307, 13:57:56.817
78465.507813, 122517.554688, 141461.187500, 145454.437500, 93542.695313, 95431.257813, 130068.554688, 136353.421875, 1, 256, 1,0.07641981,0.06098729,0.022198139,0.037463363,0.03555307, 13:57:56.818
78436.539063, 122490.882813, 141492.687500, 145580.281250, 93557.203125, 95506.968750, 130108.781250, 136328.343750, 1, 256, 1,0.07641981,0.06098729,0.022198139,0.037463363,0.03555307, 13:57:56.818
78391.054688, 122454.632813, 141503.343750, 145688.984375, 93547.164063, 95557.906250, 130138.781250, 136285.203125, 1, 256, 1,0.07641981,0.06098729,0.022198139,0.037463363,0.03555307, 13:57:56.819
78409.335938, 122470.765625, 141465.234375, 145572.453125, 93528.101563, 95484.773438, 130106.148438, 136301.015625, 1, 256, 1,0.07641981,0.06098729,0.022198139,0.037463363,0.03555307, 13:57:56.819
78467.562500, 122535.765625, 141460.312500, 145455.515625, 93539.343750, 95429.632813, 130079.078125, 136354.625000, 1, 256, 1,0.07641981,0.06098729,0.022198139,0.037463363,0.03555307, 13:57:56.819
78447.890625, 122510.445313, 141502.781250, 145570.671875, 93562.632813, 95502.359375, 130117.296875, 136348.875000, 1, 256, 1,0.07641981,0.06098729,0.022198139,0.037463363,0.03555307, 13:57:56.820
78386.960938, 122433.398438, 141514.859375, 145688.109375, 93560.242188, 95575.031250, 130155.968750, 136311.640625, 1, 256, 1,0.07641981,0.06098729,0.022198139,0.037463363,0.03555307, 13:57:56.820
78401.671875, 122471.195313, 141487.359375, 145602.296875, 93546.179688, 95520.445313, 130134.710938, 136309.890625, 1, 256, 1,0.07641981,0.06098729,0.022198139,0.037463363,0.03555307, 13:57:56.820
78463.429688, 122535.093750, 141469.015625, 145471.765625, 93544.570313, 95433.046875, 130087.953125, 136342.734375, 1, 256, 1,0.07641981,0.06098729,0.022198139,0.037463363,0.03555307, 13:57:56.821
78461.976563, 122524.593750, 141501.640625, 145548.546875, 93566.679688, 95491.609375, 130114.882813, 136355.890625, 1, 256, 1,0.07641981,0.06098729,0.022198139,0.037463363,0.03555307, 13:57:56.821
78411.773438, 122472.203125, 141527.937500, 145699.703125, 93568.804688, 95564.523438, 130158.203125, 136303.140625, 1, 256, 1,0.07641981,0.06098729,0.022198139,0.037463363,0.03555307, 13:57:56.821
78402.898438, 122469.828125, 141504.671875, 145652.500000, 93552.554688, 95536.179688, 130145.039063, 136296.687500, 1, 256, 1,0.07641981,0.06098729,0.022198139,0.037463363,0.03555307, 13:57:56.822
78448.164063, 122514.335938, 141477.171875, 145498.140625, 93546.429688, 95453.593750, 130098.125000, 136340.515625, 1, 256, 1,0.07641981,0.06098729,0.022198139,0.037463363,0.03555307, 13:57:56.822
78442.078125, 122498.554688, 141492.031250, 145525.468750, 93549.625000, 95478.984375, 130093.765625, 136339.421875, 1, 256, 1,0.07641981,0.06098729,0.022198139,0.037463363,0.03555307, 13:57:56.822
78384.929688, 122436.281250, 141511.765625, 145662.765625, 93545.312500, 95537.859375, 130130.601563, 136278.062500, 1, 256, 1,0.07641981,0.06098729,0.022198139,0.037463363,0.03555307, 13:57:56.822
78371.875000, 122427.007813, 141492.171875, 145656.390625, 93530.671875, 95523.843750, 130131.898438, 136267.265625, 1, 256, 1,0.07641981,0.06098729,0.022198139,0.037463363,0.03555307, 13:57:56.823
78415.484375, 122474.281250, 141455.218750, 145495.250000, 93524.210938, 95441.164063, 130085.429688, 136308.906250, 1, 256, 1,0.07641981,0.06098729,0.022198139,0.037463363,0.03555307, 13:57:56.823
78453.546875, 122524.835938, 141483.359375, 145495.296875, 93549.468750, 95455.671875, 130091.218750, 136346.171875, 1, 256, 1,0.07641981,0.06098729,0.022198139,0.037463363,0.03555307, 13:57:56.823
78407.929688, 122472.828125, 141513.843750, 145650.953125, 93555.882813, 95548.875000, 130137.976563, 136310.750000, 1, 256, 1,0.07641981,0.06098729,0.022198139,0.037463363,0.03555307, 13:57:56.823
78366.796875, 122423.226563, 141506.968750, 145689.531250, 93539.835938, 95559.601563, 130148.328125, 136277.281250, 1, 256, 1,0.07641981,0.06098729,0.022198139,0.037463363,0.03555307, 13:57:56.824
78390.000000, 122465.562500, 141453.125000, 145521.453125, 93514.914063, 95449.632813, 130090.656250, 136296.625000, 1, 256, 1,0.07641981,0.06098729,0.022198139,0.037463363,0.03555307, 13:57:56.824
78450.125000, 122518.000000, 141468.812500, 145477.796875, 93538.585938, 95444.132813, 130085.093750, 136349.687500, 1, 256, 1,0.07641981,0.06098729,0.022198139,0.037463363,0.03555307, 13:57:56.824
78408.062500, 122453.289063, 141515.187500, 145628.265625, 93553.312500, 95530.773438, 130129.078125, 136309.062500, 1, 256, 1,0.07641981,0.06098729,0.022198139,0.037463363,0.03555307, 13:57:56.825
78359.492188, 122403.890625, 141511.765625, 145692.328125, 93536.570313, 95558.218750, 130146.984375, 136266.906250, 1, 256, 1,0.07641981,0.06098729,0.022198139,0.037463363,0.03555307, 13:57:56.825
78387.789063, 122446.070313, 141477.390625, 145563.078125, 93521.195313, 95471.781250, 130105.273438, 136282.421875, 1, 256, 1,0.07641981,0.06098729,0.022198139,0.037463363,0.03555307, 13:57:56.825
78445.921875, 122493.187500, 141469.265625, 145462.109375, 93524.921875, 95420.554688, 130071.125000, 136321.296875, 1, 256, 1,0.07641981,0.06098729,0.022198139,0.037463363,0.03555307, 13:57:56.825
78410.562500, 122448.796875, 141503.859375, 145578.921875, 93542.000000, 95497.312500, 130108.648438, 136301.015625, 1, 256, 1,0.07641981,0.06098729,0.022198139,0.037463363,0.03555307, 13:57:56.826
78361.125000, 122407.625000, 141510.906250, 145690.718750, 93539.296875, 95548.851563, 130140.859375, 136253.218750, 1, 256, 1,0.07641981,0.06098729,0.022198139,0.037463363,0.03555307, 13:57:56.826
78378.554688, 122432.703125, 141470.265625, 145580.578125, 93526.375000, 95480.546875, 130108.828125, 136264.812500, 1, 256, 1,0.07641981,0.06098729,0.022198139,0.037463363,0.03555307, 13:57:56.826
78429.835938, 122491.625000, 141453.437500, 145459.406250, 93527.828125, 95418.453125, 130070.898438, 136315.703125, 1, 256, 1,0.07641981,0.06098729,0.022198139,0.037463363,0.03555307, 13:57:56.826
78421.468750, 122475.304688, 141489.312500, 145558.796875, 93546.453125, 95487.898438, 130105.476563, 136318.796875, 1, 256, 1,0.07641981,0.06098729,0.022198139,0.037463363,0.03555307, 13:57:56.826
78363.468750, 122400.429688, 141498.140625, 145682.671875, 93537.890625, 95553.343750, 130142.289063, 136268.437500, 1, 256, 1,0.07641981,0.06098729,0.022198139,0.037463363,0.03555307, 13:57:56.827
78373.039063, 122427.585938, 141465.609375, 145611.390625, 93517.367188, 95502.875000, 130121.617188, 136269.328125, 1, 256, 1,0.07641981,0.06098729,0.022198139,0.037463363,0.03555307, 13:57:56.827
78431.757813, 122486.953125, 141448.671875, 145476.531250, 93520.632813, 95420.710938, 130083.171875, 136310.000000, 1, 256, 1,0.07641981,0.06098729,0.022198139,0.037463363,0.03555307, 13:57:56.827
78424.375000, 122468.375000, 141480.531250, 145534.078125, 93537.781250, 95460.359375, 130098.726563, 136303.593750, 1, 256, 1,0.07641981,0.06098729,0.022198139,0.037463363,0.03555307, 13:57:56.827
78366.914063, 122399.578125, 141500.796875, 145673.640625, 93540.234375, 95536.625000, 130140.945313, 136260.156250, 1, 256, 1,0.07641981,0.06098729,0.022198139,0.037463363,0.03555307, 13:57:56.828
78371.382813, 122405.320313, 141484.859375, 145640.656250, 93525.929688, 95512.242188, 130136.101563, 136257.484375, 1, 256, 1,0.07641981,0.06098729,0.022198139,0.037463363,0.03555307, 13:57:56.828
78417.718750, 122463.281250, 141452.093750, 145483.953125, 93515.671875, 95426.859375, 130087.414063, 136305.140625, 1, 256, 1,0.07641981,0.06098729,0.022198139,0.037463363,0.03555307, 13:57:56.828
78432.359375, 122469.851563, 141476.281250, 145507.281250, 93539.296875, 95452.585938, 130093.585938, 136323.468750, 1, 256, 1,0.07641981,0.06098729,0.022198139,0.037463363,0.03555307, 13:57:56.829
78377.640625, 122408.789063, 141502.500000, 145656.812500, 93543.992188, 95535.312500, 130138.023438, 136273.781250, 1, 256, 1,0.07641981,0.06098729,0.022198139,0.037463363,0.03555307, 13:57:56.829
78356.070313, 122390.367188, 141486.781250, 145662.109375, 93529.242188, 95534.617188, 130145.640625, 136264.812500, 1, 256, 1,0.07641981,0.06098729,0.022198139,0.037463363,0.03555307, 13:57:56.829
78403.234375, 122447.992188, 141448.812500, 145498.250000, 93515.921875, 95429.875000, 130095.531250, 136288.781250, 1, 256, 1,0.07641981,0.06098729,0.022198139,0.037463363,0.03555307, 13:57:56.830
78442.703125, 122476.421875, 141469.062500, 145480.609375, 93536.437500, 95431.906250, 130090.523438, 136323.312500, 1, 256, 1,0.07641981,0.06098729,0.022198139,0.037463363,0.03555307, 13:57:56.830
78403.906250, 122430.539063, 141506.750000, 145641.593750, 93551.281250, 95533.273438, 130140.367188, 136301.843750, 1, 256, 1,0.07641981,0.06098729,0.022198139,0.037463363,0.03555307, 13:57:56.831
78358.867188, 122386.953125, 141490.765625, 145673.281250, 93529.281250, 95539.398438, 130146.734375, 136261.968750, 1, 256, 1,0.07641981,0.06098729,0.022198139,0.037463363,0.03555307, 13:57:56.831
78392.843750, 122434.601563, 141452.078125, 145516.531250, 93512.765625, 95442.031250, 130098.234375, 136275.812500, 1, 256, 1,0.07641981,0.06098729,0.022198139,0.037463363,0.03555307, 13:57:56.832
78431.914063, 122469.359375, 141461.812500, 145453.687500, 93524.453125, 95412.914063, 130077.335938, 136312.828125, 1, 256, 1,0.07641981,0.06098729,0.022198139,0.037463363,0.03555307, 13:57:56.832
78405.851563, 122439.140625, 141500.375000, 145596.234375, 93543.210938, 95508.289063, 130126.195313, 136304.312500, 1, 256, 1,0.07641981,0.06098729,0.022198139,0.037463363,0.03555307, 13:57:56.833
78365.570313, 122398.125000, 141505.203125, 145682.546875, 93528.992188, 95542.640625, 130150.445313, 136255.796875, 1, 256, 1,0.07641981,0.06098729,0.022198139,0.037463363,0.03555307, 13:57:56.833
78399.765625, 122439.703125, 141464.984375, 145555.140625, 93510.351563, 95465.835938, 130112.179688, 136276.375000, 1, 256, 1,0.07641981,0.06098729,0.022198139,0.037463363,0.03555307, 13:57:56.833
78450.460938, 122492.718750, 141458.281250, 145457.921875, 93521.460938, 95423.328125, 130083.820313, 136333.765625, 1, 256, 1,0.07641981,0.06098729,0.022198139,0.037463363,0.03555307, 13:57:56.834
78410.945313, 122441.132813, 141495.078125, 145573.312500, 93536.859375, 95488.929688, 130116.789063, 136302.625000, 1, 256, 1,0.07641981,0.06098729,0.022198139,0.037463363,0.03555307, 13:57:56.834
78369.390625, 122392.539063, 141502.562500, 145682.875000, 93531.515625, 95540.875000, 130148.546875, 136255.843750, 1, 256, 1,0.07641981,0.06098729,0.022198139,0.037463363,0.03555307, 13:57:56.834
78399.546875, 122430.046875, 141474.328125, 145592.531250, 93520.726563, 95485.109375, 130128.140625, 136275.562500, 1, 256, 1,0.07641981,0.06098729,0.022198139,0.037463363,0.03555307, 13:57:56.834
78454.531250, 122485.875000, 141457.593750, 145461.171875, 93523.476563, 95410.632813, 130081.914063, 136308.328125, 1, 256, 1,0.07641981,0.06098729,0.022198139,0.037463363,0.03555307, 13:57:56.835
78450.085938, 122476.960938, 141498.984375, 145554.265625, 93546.609375, 95480.523438, 130119.539063, 136318.906250, 1, 256, 1,0.07641981,0.06098729,0.022198139,0.037463363,0.03555307, 13:57:56.835
78379.656250, 122401.593750, 141510.593750, 145685.937500, 93537.062500, 95550.421875, 130157.664063, 136268.796875, 1, 256, 1,0.07641981,0.06098729,0.022198139,0.037463363,0.03555307, 13:57:56.835
78372.273438, 122402.507813, 141477.031250, 145610.968750, 93513.703125, 95493.171875, 130131.226563, 136252.140625, 1, 256, 1,0.07641981,0.06098729,0.022198139,0.037463363,0.03555307, 13:57:56.835
78430.054688, 122469.609375, 141457.875000, 145466.484375, 93511.734375, 95413.046875, 130083.882813, 136299.906250, 1, 256, 1,0.07641981,0.06098729,0.022198139,0.037463363,0.03555307, 13:57:56.836
78454.929688, 122484.851563, 141493.734375, 145520.296875, 93540.859375, 95462.640625, 130107.976563, 136325.718750, 1, 256, 1,0.07641981,0.06098729,0.022198139,0.037463363,0.03555307, 13:57:56.836
78392.390625, 122409.343750, 141514.296875, 145667.703125, 93542.781250, 95534.304688, 130149.132813, 136265.437500, 1, 256, 1,0.07641981,0.06098729,0.022198139,0.037463363,0.03555307, 13:57:56.836
78380.437500, 122415.984375, 141487.312500, 145643.000000, 93525.796875, 95516.734375, 130142.242188, 136255.375000, 1, 256, 1,0.07641981,0.06098729,0.022198139,0.037463363,0.03555307, 13:57:56.836
78438.843750, 122478.343750, 141461.453125, 145482.890625, 93514.757813, 95423.351563, 130091.398438, 136289.437500, 1, 256, 1,0.07641981,0.06098729,0.022198139,0.037463363,0.03555307, 13:57:56.837
78463.585938, 122493.546875, 141487.546875, 145496.187500, 93520.570313, 95447.625000, 130095.890625, 136320.718750, 1, 256, 1,0.07641981,0.06098729,0.022198139,0.037463363,0.03555307, 13:57:56.837
78413.093750, 122435.500000, 141524.937500, 145651.000000, 93530.000000, 95545.812500, 130147.968750, 136286.453125, 1, 256, 1,0.07641981,0.06098729,0.022198139,0.037463363,0.03555307, 13:57:56.837
78390.492188, 122417.640625, 141512.937500, 145669.156250, 93539.164063, 95542.171875, 130154.406250, 136260.046875, 1, 256, 1,0.07641981,0.06098729,0.022198139,0.037463363,0.03555307, 13:57:56.837
78450.015625, 122477.656250, 141487.140625, 145521.562500, 93535.031250, 95457.968750, 130111.710938, 136303.703125, 1, 256, 1,0.07641981,0.06098729,0.022198139,0.037463363,0.03555307, 13:57:56.837
78479.382813, 122504.695313, 141494.343750, 145489.796875, 93537.820313, 95453.859375, 130104.445313, 136344.390625, 1, 256, 1,0.07641981,0.06098729,0.022198139,0.037463363,0.03555307, 13:57:56.838
78415.195313, 122442.937500, 141514.921875, 145628.109375, 93538.781250, 95542.234375, 130144.054688, 136309.031250, 1, 256, 1,0.07641981,0.06098729,0.022198139,0.037463363,0.03555307, 13:57:56.838
78391.320313, 122411.937500, 141520.015625, 145685.953125, 93551.679688, 95564.585938, 130164.281250, 136274.843750, 1, 256, 1,0.07641981,0.06098729,0.022198139,0.037463363,0.03555307, 13:57:56.838
78438.101563, 122460.531250, 141497.359375, 145547.000000, 93544.328125, 95474.601563, 130125.773438, 136295.484375, 1, 256, 1,0.07641981,0.06098729,0.022198139,0.037463363,0.03555307, 13:57:56.838
78457.078125, 122486.148438, 141473.968750, 145462.281250, 93538.093750, 95432.492188, 130092.085938, 136324.093750, 1, 256, 1,0.07641981,0.06098729,0.022198139,0.037463363,0.03555307, 13:57:56.839
78432.875000, 122443.164063, 141510.156250, 145595.703125, 93555.367188, 95517.515625, 130130.531250, 136302.359375, 1, 256, 1,0.07641981,0.06098729,0.022198139,0.037463363,0.03555307, 13:57:56.839
78396.750000, 122402.976563, 141514.609375, 145689.453125, 93532.796875, 95562.687500, 130153.687500, 136265.593750, 1, 256, 1,0.07641981,0.06098729,0.022198139,0.037463363,0.03555307, 13:57:56.839
78430.796875, 122436.546875, 141485.437500, 145568.500000, 93525.664063, 95482.132813, 130107.039063, 136271.390625, 1, 256, 1,0.07641981,0.06098729,0.022198139,0.037463363,0.03555307, 13:57:56.839
78499.234375, 122497.632813, 141505.250000, 145467.296875, 93572.046875, 95432.757813, 130078.695313, 136326.734375, 1, 256, 1,0.07641981,0.06098729,0.022198139,0.037463363,0.03555307, 13:57:56.840
