%OpenBCI Raw EEG Data
%
%Sample Rate = 250.0 Hz
%First Column = SampleIndex
%Last Column = Timestamp 
%Other Columns = EEG data in microvolts followed by Accel Data (in G) interleaved with Aux Data
0, 0.00, 0.00, 0.00, 0.00, 0.00, 0.00, 0.00, 0.00, 0, 1, 1, 0, 1, 18:18:01.817
1, -157847.95, -154503.66, -157951.66, -157900.70, -158016.72, -158004.41, -158034.31, 187500.00, 0, 1, 1, 0, 1, 18:18:02.298
2, -157846.41, -154401.86, -157950.23, -157899.36, -158015.50, -158003.36, -158033.06, 187500.00, 0, 1, 1, 0, 1, 18:18:02.298
3, -157843.52, -154277.66, -157947.34, -157896.34, -158012.67, -158000.67, -158030.22, 187500.00, 0, 1, 1, 0, 1, 18:18:02.298
4, -157847.14, -154340.31, -157950.88, -157900.00, -158016.09, -158004.16, -158033.73, 187500.00, 0, 1, 1, 0, 1, 18:18:02.298
5, -157852.69, -154494.56, -157956.33, -157905.59, -158021.47, -158009.19, -158039.02, 187500.00, 0, 1, 1, 0, 1, 18:18:02.299
6, -157851.50, -154435.14, -157955.22, -157904.39, -158020.41, -158008.19, -158037.92, 187500.00, 0, 1, 1, 0, 1, 18:18:02.299
7, -157849.52, -154282.95, -157953.33, -157902.42, -158018.63, -158006.53, -158036.19, 187500.00, 0, 1, 1, 0, 1, 18:18:02.299
8, -157852.23, -154311.98, -157956.00, -157905.08, -158021.23, -158009.17, -158038.83, 187500.00, 0, 1, 1, 0, 1, 18:18:02.299
9, -157857.38, -154470.98, -157961.05, -157910.23, -158026.17, -158013.95, -158043.81, 187500.00, 0, 1, 1, 0, 1, 18:18:02.299
10, -157859.75, -154461.52, -157963.58, -157912.78, -158028.69, -158016.41, -158046.34, 187500.00, 0, 1, 1, 0, 1, 18:18:02.299
11, -157854.92, -154296.95, -157958.88, -157907.97, -158024.17, -158012.14, -158041.78, 187500.00, 0, 1, 1, 0, 1, 18:18:02.299
12, -157856.42, -154292.72, -157960.28, -157909.30, -158025.53, -158013.50, -158043.17, 187500.00, 0, 1, 1, 0, 1, 18:18:02.299
13, -157863.50, -154445.83, -157967.42, -157916.45, -158032.55, -158020.25, -158050.09, 187500.00, 0, 1, 1, 0, 1, 18:18:02.299
14, -157866.03, -154488.86, -157969.88, -157918.95, -158034.98, -158022.64, -158052.52, 187500.00, 0, 1, 1, 0, 1, 18:18:02.299
15, -157860.80, -154322.78, -157964.83, -157913.92, -158030.00, -158017.95, -158047.53, 187500.00, 0, 1, 1, 0, 1, 18:18:02.299
16, -157862.13, -154288.28, -157966.13, -157915.16, -158031.34, -158019.30, -158049.00, 187500.00, 0, 1, 1, 0, 1, 18:18:02.300
17, -157868.27, -154426.16, -157972.20, -157921.33, -158037.36, -158025.20, -158054.98, 187500.00, 0, 1, 1, 0, 1, 18:18:02.300
18, -157870.56, -154516.27, -157974.45, -157923.61, -158039.50, -158027.25, -158057.11, 187500.00, 0, 1, 1, 0, 1, 18:18:02.300
19, -157867.70, -154366.22, -157971.69, -157920.80, -158036.80, -158024.91, -158054.39, 187500.00, 0, 1, 1, 0, 1, 18:18:02.300
20, -157866.41, -154301.59, -157970.41, -157919.47, -158035.64, -158023.70, -158053.11, 187500.00, 0, 1, 1, 0, 1, 18:18:02.300
21, -157872.09, -154422.13, -157976.02, -157925.16, -158041.16, -158029.16, -158058.70, 187500.00, 0, 1, 1, 0, 1, 18:18:02.300
22, -157875.91, -154550.48, -157979.69, -157929.00, -158044.80, -158032.53, -158062.30, 187500.00, 0, 1, 1, 0, 1, 18:18:02.300
23, -157874.20, -154427.58, -157978.14, -157927.41, -158043.38, -158031.34, -158060.83, 187500.00, 0, 1, 1, 0, 1, 18:18:02.300
24, -157874.34, -154329.41, -157978.25, -157927.42, -158043.55, -158031.64, -158061.14, 187500.00, 0, 1, 1, 0, 1, 18:18:02.300
25, -157876.58, -154417.73, -157980.53, -157929.70, -158045.69, -158033.75, -158063.34, 187500.00, 0, 1, 1, 0, 1, 18:18:02.300
26, -157881.00, -154570.67, -157984.78, -157934.09, -158049.92, -158037.67, -158067.55, 187500.00, 0, 1, 1, 0, 1, 18:18:02.301
27, -157880.30, -154486.27, -157984.16, -157933.38, -158049.31, -158037.17, -158066.86, 187500.00, 0, 1, 1, 0, 1, 18:18:02.301
28, -157876.84, -154357.14, -157980.84, -157929.86, -158046.05, -158034.03, -158063.63, 187500.00, 0, 1, 1, 0, 1, 18:18:02.301
29, -157881.05, -154414.92, -157984.97, -157934.09, -158050.14, -158038.08, -158067.75, 187500.00, 0, 1, 1, 0, 1, 18:18:02.301
30, -157885.98, -154575.92, -157989.67, -157939.00, -158054.95, -158042.67, -158072.52, 187500.00, 0, 1, 1, 0, 1, 18:18:02.301
31, -157884.89, -154539.55, -157988.66, -157937.94, -158053.89, -158041.72, -158071.47, 187500.00, 0, 1, 1, 0, 1, 18:18:02.301
32, -157882.53, -154387.83, -157986.42, -157935.52, -158051.77, -158039.72, -158069.20, 187500.00, 0, 1, 1, 0, 1, 18:18:02.301
33, -157886.19, -154408.66, -157990.14, -157939.17, -158055.27, -158043.34, -158072.83, 187500.00, 0, 1, 1, 0, 1, 18:18:02.301
34, -157891.67, -154569.95, -157995.48, -157944.64, -158060.52, -158048.42, -158078.27, 187500.00, 0, 1, 1, 0, 1, 18:18:02.302
35, -157892.14, -154586.09, -157995.84, -157945.11, -158060.95, -158048.83, -158078.64, 187500.00, 0, 1, 1, 0, 1, 18:18:02.302
36, -157890.42, -154422.28, -157994.23, -157943.45, -158059.55, -158047.59, -158077.09, 187500.00, 0, 1, 1, 0, 1, 18:18:02.302
37, -157891.98, -154408.55, -157995.84, -157944.94, -158061.05, -158049.05, -158078.66, 187500.00, 0, 1, 1, 0, 1, 18:18:02.302
38, -157896.94, -154558.53, -158000.78, -157949.92, -158065.92, -158053.69, -158083.56, 187500.00, 0, 1, 1, 0, 1, 18:18:02.302
39, -157899.11, -154619.34, -158002.94, -157952.13, -158068.02, -158055.75, -158085.70, 187500.00, 0, 1, 1, 0, 1, 18:18:02.302
40, -157894.02, -154455.44, -157997.95, -157947.13, -158063.17, -158051.13, -158080.73, 187500.00, 0, 1, 1, 0, 1, 18:18:02.302
41, -157895.89, -154405.23, -157999.84, -157948.95, -158065.08, -158052.95, -158082.63, 187500.00, 0, 1, 1, 0, 1, 18:18:02.302
42, -157900.78, -154537.44, -158004.72, -157953.94, -158069.78, -158057.61, -158087.38, 187500.00, 0, 1, 1, 0, 1, 18:18:02.302
43, -157905.50, -154641.39, -158009.42, -157958.63, -158074.45, -158062.19, -158092.00, 187500.00, 0, 1, 1, 0, 1, 18:18:02.302
44, -157902.64, -154498.05, -158006.59, -157955.75, -158071.80, -158059.64, -158089.25, 187500.00, 0, 1, 1, 0, 1, 18:18:02.303
45, -157902.48, -154418.25, -158006.58, -157955.64, -158071.84, -158059.70, -158089.25, 187500.00, 0, 1, 1, 0, 1, 18:18:02.303
46, -157908.45, -154526.52, -158012.56, -157961.63, -158077.66, -158065.47, -158095.17, 187500.00, 0, 1, 1, 0, 1, 18:18:02.303
47, -157912.77, -154660.98, -158016.70, -157965.83, -158081.72, -158069.39, -158099.30, 187500.00, 0, 1, 1, 0, 1, 18:18:02.303
48, -157908.39, -154547.08, -158012.55, -157961.53, -158077.66, -158065.42, -158095.20, 187500.00, 0, 1, 1, 0, 1, 18:18:02.303
49, -157906.59, -154432.88, -158010.78, -157959.70, -158075.83, -158063.80, -158093.45, 187500.00, 0, 1, 1, 0, 1, 18:18:02.303
50, -157911.52, -154509.05, -158015.56, -157964.59, -158080.61, -158068.47, -158098.27, 187500.00, 0, 1, 1, 0, 1, 18:18:02.303
51, -157918.41, -154664.30, -158022.30, -157971.34, -158087.33, -158074.92, -158104.91, 187500.00, 0, 1, 1, 0, 1, 18:18:02.303
52, -157916.30, -154593.33, -158020.38, -157969.39, -158085.34, -158073.14, -158102.89, 187500.00, 0, 1, 1, 0, 1, 18:18:02.304
53, -157914.67, -154452.38, -158018.77, -157967.75, -158083.91, -158071.80, -158101.38, 187500.00, 0, 1, 1, 0, 1, 18:18:02.304
54, -157917.27, -154491.70, -158021.42, -157970.48, -158086.50, -158074.42, -158104.03, 187500.00, 0, 1, 1, 0, 1, 18:18:02.304
55, -157920.77, -154648.52, -158024.77, -157973.86, -158089.70, -158077.48, -158107.36, 187500.00, 0, 1, 1, 0, 1, 18:18:02.304
56, -157919.81, -154627.39, -158023.86, -157973.00, -158088.88, -158076.63, -158106.53, 187500.00, 0, 1, 1, 0, 1, 18:18:02.304
57, -157916.77, -154468.00, -158020.97, -157969.98, -158086.08, -158074.03, -158103.72, 187500.00, 0, 1, 1, 0, 1, 18:18:02.304
58, -157917.91, -154476.00, -158021.91, -157970.97, -158087.06, -158075.02, -158104.64, 187500.00, 0, 1, 1, 0, 1, 18:18:02.304
59, -157922.92, -154632.97, -158026.81, -157975.98, -158091.80, -158079.67, -158109.50, 187500.00, 0, 1, 1, 0, 1, 18:18:02.304
60, -157926.47, -154665.86, -158030.31, -157979.53, -158095.36, -158083.17, -158113.00, 187500.00, 0, 1, 1, 0, 1, 18:18:02.304
61, -157923.11, -154503.50, -158027.19, -157976.36, -158092.39, -158080.34, -158109.89, 187500.00, 0, 1, 1, 0, 1, 18:18:02.304
62, -157924.53, -154478.89, -158028.55, -157977.67, -158093.77, -158081.64, -158111.23, 187500.00, 0, 1, 1, 0, 1, 18:18:02.304
63, -157931.92, -154621.00, -158035.92, -157984.97, -158100.98, -158088.83, -158118.45, 187500.00, 0, 1, 1, 0, 1, 18:18:02.305
64, -157933.08, -154698.47, -158037.05, -157986.14, -158102.16, -158089.81, -158119.56, 187500.00, 0, 1, 1, 0, 1, 18:18:02.305
65, -157929.23, -154540.52, -158033.36, -157982.34, -158098.48, -158086.53, -158115.97, 187500.00, 0, 1, 1, 0, 1, 18:18:02.311
66, -157930.58, -154482.11, -158034.70, -157983.58, -158099.73, -158087.83, -158117.38, 187500.00, 0, 1, 1, 0, 1, 18:18:02.311
67, -157935.67, -154607.55, -158039.66, -157988.70, -158104.70, -158092.67, -158122.34, 187500.00, 0, 1, 1, 0, 1, 18:18:02.311
68, -157939.52, -154727.42, -158043.45, -157992.56, -158108.61, -158096.28, -158126.11, 187500.00, 0, 1, 1, 0, 1, 18:18:02.312
69, -157935.41, -154597.89, -158039.48, -157988.63, -158104.64, -158092.56, -158122.20, 187500.00, 0, 1, 1, 0, 1, 18:18:02.312
70, -157933.75, -154507.23, -158037.83, -157986.77, -158102.98, -158090.91, -158120.50, 187500.00, 0, 1, 1, 0, 1, 18:18:02.312
71, -157939.13, -154605.20, -158043.17, -157992.23, -158108.17, -158096.03, -158125.78, 187500.00, 0, 1, 1, 0, 1, 18:18:02.312
72, -157943.48, -154748.36, -158047.34, -157996.50, -158112.30, -158099.98, -158129.89, 187500.00, 0, 1, 1, 0, 1, 18:18:02.312
73, -157942.14, -154648.25, -158046.09, -157995.17, -158111.14, -158099.05, -158128.75, 187500.00, 0, 1, 1, 0, 1, 18:18:02.312
74, -157940.61, -154525.11, -158044.67, -157993.70, -158109.75, -158097.80, -158127.39, 187500.00, 0, 1, 1, 0, 1, 18:18:02.312
75, -157944.03, -154590.63, -158048.11, -157997.13, -158113.11, -158101.13, -158130.73, 187500.00, 0, 1, 1, 0, 1, 18:18:02.312
76, -157946.56, -154750.64, -158050.56, -157999.63, -158115.52, -158103.19, -158133.09, 187500.00, 0, 1, 1, 0, 1, 18:18:02.312
77, -157948.19, -154697.42, -158052.13, -158001.28, -158117.11, -158104.86, -158134.72, 187500.00, 0, 1, 1, 0, 1, 18:18:02.312
78, -157946.78, -154548.92, -158050.78, -157999.84, -158115.86, -158103.81, -158133.42, 187500.00, 0, 1, 1, 0, 1, 18:18:02.312
79, -157948.13, -154580.22, -158052.11, -158001.22, -158117.27, -158105.17, -158134.78, 187500.00, 0, 1, 1, 0, 1, 18:18:02.312
80, -157953.11, -154739.13, -158057.05, -158006.17, -158122.06, -158109.78, -158139.66, 187500.00, 0, 1, 1, 0, 1, 18:18:02.313
81, -157955.44, -154732.53, -158059.33, -158008.48, -158124.39, -158112.19, -158141.88, 187500.00, 0, 1, 1, 0, 1, 18:18:02.313
82, -157950.88, -154568.45, -158054.91, -158004.03, -158120.19, -158108.20, -158137.58, 187500.00, 0, 1, 1, 0, 1, 18:18:02.313
83, -157952.00, -154563.30, -158056.05, -158005.13, -158121.31, -158109.16, -158138.63, 187500.00, 0, 1, 1, 0, 1, 18:18:02.313
84, -157960.02, -154714.34, -158064.00, -158013.19, -158129.11, -158116.77, -158146.50, 187500.00, 0, 1, 1, 0, 1, 18:18:02.313
85, -157960.78, -154762.16, -158064.73, -158013.95, -158129.75, -158117.42, -158147.23, 187500.00, 0, 1, 1, 0, 1, 18:18:02.313
86, -157956.11, -154595.03, -158060.25, -158009.33, -158125.38, -158113.27, -158142.86, 187500.00, 0, 1, 1, 0, 1, 18:18:02.313
87, -157957.20, -154555.36, -158061.30, -158010.38, -158126.53, -158114.36, -158144.08, 187500.00, 0, 1, 1, 0, 1, 18:18:02.313
88, -157962.61, -154689.72, -158066.72, -158015.86, -158131.80, -158119.55, -158149.36, 187500.00, 0, 1, 1, 0, 1, 18:18:02.313
89, -157966.64, -154777.48, -158070.80, -158019.98, -158135.77, -158123.48, -158153.34, 187500.00, 0, 1, 1, 0, 1, 18:18:02.313
90, -157965.05, -154625.55, -158069.23, -158018.38, -158134.41, -158122.30, -158151.89, 187500.00, 0, 1, 1, 0, 1, 18:18:02.313
91, -157965.70, -154550.22, -158070.06, -158018.94, -158135.09, -158123.03, -158152.58, 187500.00, 0, 1, 1, 0, 1, 18:18:02.314
92, -157969.52, -154659.73, -158073.72, -158022.78, -158138.70, -158126.56, -158156.38, 187500.00, 0, 1, 1, 0, 1, 18:18:02.314
93, -157972.89, -154786.78, -158076.94, -158026.20, -158141.89, -158129.58, -158159.58, 187500.00, 0, 1, 1, 0, 1, 18:18:02.314
94, -157967.84, -154660.81, -158072.00, -158021.17, -158137.06, -158125.00, -158154.59, 187500.00, 0, 1, 1, 0, 1, 18:18:02.314
95, -157967.63, -154553.08, -158071.78, -158020.81, -158137.05, -158124.97, -158154.59, 187500.00, 0, 1, 1, 0, 1, 18:18:02.314
96, -157973.03, -154635.55, -158077.14, -158026.11, -158142.20, -158130.08, -158159.84, 187500.00, 0, 1, 1, 0, 1, 18:18:02.314
97, -157979.86, -154779.61, -158084.03, -158033.02, -158148.84, -158136.67, -158166.48, 187500.00, 0, 1, 1, 0, 1, 18:18:02.314
98, -157977.81, -154695.81, -158081.95, -158031.03, -158146.98, -158134.88, -158164.47, 187500.00, 0, 1, 1, 0, 1, 18:18:02.314
99, -157974.45, -154563.63, -158078.64, -158027.66, -158143.77, -158131.75, -158161.30, 187500.00, 0, 1, 1, 0, 1, 18:18:02.314
100, -157975.86, -154616.33, -158080.03, -158029.13, -158145.09, -158133.05, -158162.80, 187500.00, 0, 1, 1, 0, 1, 18:18:02.314
101, -157981.44, -154780.59, -158085.52, -158034.67, -158150.52, -158138.27, -158168.19, 187500.00, 0, 1, 1, 0, 1, 18:18:02.314
102, -157983.95, -154746.95, -158088.05, -158037.27, -158153.16, -158140.91, -158170.75, 187500.00, 0, 1, 1, 0, 1, 18:18:02.315
103, -157980.09, -154593.17, -158084.31, -158033.42, -158149.47, -158137.48, -158167.02, 187500.00, 0, 1, 1, 0, 1, 18:18:02.315
104, -157978.02, -154614.63, -158082.23, -158031.33, -158147.28, -158135.28, -158164.89, 187500.00, 0, 1, 1, 0, 1, 18:18:02.315
105, -157984.38, -154773.69, -158088.50, -158037.69, -158153.47, -158141.36, -158171.13, 187500.00, 0, 1, 1, 0, 1, 18:18:02.315
106, -157987.41, -154790.70, -158091.45, -158040.75, -158156.45, -158144.38, -158174.06, 187500.00, 0, 1, 1, 0, 1, 18:18:02.315
107, -157984.09, -154629.70, -158088.42, -158037.53, -158153.50, -158141.53, -158171.08, 187500.00, 0, 1, 1, 0, 1, 18:18:02.315
108, -157985.33, -154619.55, -158089.56, -158038.72, -158154.77, -158142.81, -158172.27, 187500.00, 0, 1, 1, 0, 1, 18:18:02.315
109, -157989.72, -154775.36, -158093.80, -158043.03, -158158.75, -158146.72, -158176.36, 187500.00, 0, 1, 1, 0, 1, 18:18:02.315
110, -157992.00, -154844.59, -158096.03, -158045.36, -158160.98, -158148.80, -158178.58, 187500.00, 0, 1, 1, 0, 1, 18:18:02.315
111, -157988.97, -154686.81, -158093.14, -158042.45, -158158.28, -158146.25, -158175.89, 187500.00, 0, 1, 1, 0, 1, 18:18:02.315
112, -157989.25, -154638.42, -158093.44, -158042.52, -158158.44, -158146.50, -158176.09, 187500.00, 0, 1, 1, 0, 1, 18:18:02.316
113, -157995.17, -154769.08, -158099.38, -158048.48, -158164.20, -158152.20, -158181.84, 187500.00, 0, 1, 1, 0, 1, 18:18:02.316
114, -157998.67, -154874.66, -158102.75, -158052.00, -158167.55, -158155.39, -158185.17, 187500.00, 0, 1, 1, 0, 1, 18:18:02.316
115, -157994.94, -154733.19, -158099.19, -158048.38, -158164.17, -158152.11, -158181.75, 187500.00, 0, 1, 1, 0, 1, 18:18:02.316
116, -157992.83, -154649.28, -158097.03, -158046.14, -158162.09, -158150.14, -158179.69, 187500.00, 0, 1, 1, 0, 1, 18:18:02.316
117, -157997.64, -154751.67, -158101.75, -158050.91, -158166.77, -158154.67, -158184.31, 187500.00, 0, 1, 1, 0, 1, 18:18:02.316
118, -158005.53, -154888.31, -158109.55, -158058.70, -158174.44, -158162.14, -158192.03, 187500.00, 0, 1, 1, 0, 1, 18:18:02.316
119, -158003.38, -154777.05, -158107.50, -158056.59, -158172.53, -158160.45, -158190.13, 187500.00, 0, 1, 1, 0, 1, 18:18:02.316
120, -158000.09, -154659.42, -158104.30, -158053.34, -158169.44, -158157.45, -158187.05, 187500.00, 0, 1, 1, 0, 1, 18:18:02.316
121, -158000.92, -154730.03, -158105.03, -158054.20, -158170.13, -158158.09, -158187.78, 187500.00, 0, 1, 1, 0, 1, 18:18:02.778
122, -158006.20, -154880.95, -158110.25, -158059.50, -158175.27, -158163.02, -158192.88, 187500.00, 0, 1, 1, 0, 1, 18:18:02.778
123, -158007.22, -154812.94, -158111.30, -158060.58, -158176.39, -158164.22, -158193.95, 187500.00, 0, 1, 1, 0, 1, 18:18:02.778
124, -158004.39, -154670.53, -158108.64, -158057.83, -158173.81, -158161.92, -158191.31, 187500.00, 0, 1, 1, 0, 1, 18:18:02.778
125, -158007.52, -154710.59, -158111.70, -158060.83, -158176.88, -158164.88, -158194.41, 187500.00, 0, 1, 1, 0, 1, 18:18:02.778
126, -158012.64, -154874.20, -158116.69, -158065.88, -158181.66, -158169.41, -158199.25, 187500.00, 0, 1, 1, 0, 1, 18:18:02.778
127, -158014.44, -154857.59, -158118.56, -158067.75, -158183.53, -158171.36, -158201.02, 187500.00, 0, 1, 1, 0, 1, 18:18:02.778
128, -158013.33, -154698.45, -158117.44, -158066.59, -158182.64, -158170.70, -158200.03, 187500.00, 0, 1, 1, 0, 1, 18:18:02.779
129, -158012.70, -154703.80, -158116.84, -158065.86, -158181.86, -158169.92, -158199.31, 187500.00, 0, 1, 1, 0, 1, 18:18:02.779
130, -158020.09, -154857.28, -158124.22, -158073.36, -158189.09, -158176.97, -158206.63, 187500.00, 0, 1, 1, 0, 1, 18:18:02.779
131, -158020.86, -154888.23, -158124.91, -158074.14, -158189.77, -158177.56, -158207.34, 187500.00, 0, 1, 1, 0, 1, 18:18:02.779
132, -158018.02, -154720.36, -158122.30, -158071.36, -158187.31, -158175.28, -158204.72, 187500.00, 0, 1, 1, 0, 1, 18:18:02.779
133, -158019.39, -154691.20, -158123.67, -158072.63, -158188.63, -158176.63, -158206.09, 187500.00, 0, 1, 1, 0, 1, 18:18:02.779
134, -158023.34, -154830.33, -158127.48, -158076.67, -158192.45, -158180.31, -158210.00, 187500.00, 0, 1, 1, 0, 1, 18:18:02.779
135, -158025.83, -154910.08, -158129.91, -158079.22, -158194.88, -158182.59, -158212.38, 187500.00, 0, 1, 1, 0, 1, 18:18:02.779
136, -158022.72, -154751.81, -158126.92, -158076.06, -158191.92, -158180.00, -158209.47, 187500.00, 0, 1, 1, 0, 1, 18:18:02.779
137, -158022.78, -154685.44, -158127.17, -158076.20, -158192.16, -158180.30, -158209.63, 187500.00, 0, 1, 1, 0, 1, 18:18:02.780
138, -158026.83, -154803.17, -158131.13, -158080.36, -158196.14, -158184.11, -158213.59, 187500.00, 0, 1, 1, 0, 1, 18:18:02.780
139, -158031.05, -154919.11, -158135.19, -158084.47, -158200.13, -158187.88, -158217.64, 187500.00, 0, 1, 1, 0, 1, 18:18:02.780
140, -158028.44, -154781.53, -158132.73, -158081.92, -158197.73, -158185.72, -158215.25, 187500.00, 0, 1, 1, 0, 1, 18:18:02.780
141, -158024.73, -154685.75, -158129.11, -158078.06, -158194.13, -158182.19, -158211.63, 187500.00, 0, 1, 1, 0, 1, 18:18:02.780
142, -158030.56, -154776.02, -158134.86, -158083.91, -158199.86, -158187.73, -158217.42, 187500.00, 0, 1, 1, 0, 1, 18:18:02.780
143, -158036.73, -154917.75, -158140.89, -158090.06, -158205.89, -158193.50, -158223.45, 187500.00, 0, 1, 1, 0, 1, 18:18:02.780
144, -158037.02, -154819.02, -158141.14, -158090.42, -158206.25, -158194.20, -158223.83, 187500.00, 0, 1, 1, 0, 1, 18:18:02.780
145, -158033.38, -154689.63, -158137.45, -158086.70, -158202.64, -158190.70, -158220.19, 187500.00, 0, 1, 1, 0, 1, 18:18:02.780
146, -158035.64, -154748.97, -158139.80, -158088.98, -158204.88, -158192.83, -158222.42, 187500.00, 0, 1, 1, 0, 1, 18:18:02.781
147, -158041.80, -154903.70, -158145.97, -158095.16, -158210.83, -158198.63, -158228.48, 187500.00, 0, 1, 1, 0, 1, 18:18:02.781
148, -158041.09, -154852.86, -158145.31, -158094.53, -158210.30, -158198.13, -158227.88, 187500.00, 0, 1, 1, 0, 1, 18:18:02.781
149, -158039.55, -154704.16, -158143.89, -158092.94, -158208.91, -158196.98, -158226.41, 187500.00, 0, 1, 1, 0, 1, 18:18:02.781
150, -158042.72, -154732.56, -158146.92, -158096.08, -158212.03, -158200.02, -158229.48, 187500.00, 0, 1, 1, 0, 1, 18:18:02.781
151, -158047.75, -154893.22, -158151.84, -158101.13, -158216.86, -158204.64, -158234.47, 187500.00, 0, 1, 1, 0, 1, 18:18:02.781
152, -158047.22, -154894.00, -158151.27, -158100.52, -158216.28, -158204.13, -158233.94, 187500.00, 0, 1, 1, 0, 1, 18:18:02.781
153, -158045.02, -154731.98, -158149.31, -158098.44, -158214.45, -158202.48, -158231.97, 187500.00, 0, 1, 1, 0, 1, 18:18:02.781
154, -158045.67, -154727.05, -158149.89, -158098.94, -158215.00, -158202.94, -158232.52, 187500.00, 0, 1, 1, 0, 1, 18:18:02.781
155, -158050.56, -154878.78, -158154.66, -158103.92, -158219.77, -158207.39, -158237.20, 187500.00, 0, 1, 1, 0, 1, 18:18:02.781
156, -158052.16, -154930.16, -158156.27, -158105.53, -158221.31, -158209.02, -158238.80, 187500.00, 0, 1, 1, 0, 1, 18:18:02.781
157, -158049.11, -154766.80, -158153.39, -158102.56, -158218.52, -158206.52, -158236.00, 187500.00, 0, 1, 1, 0, 1, 18:18:02.782
158, -158048.28, -154727.31, -158152.58, -158101.58, -158217.58, -158205.55, -158235.06, 187500.00, 0, 1, 1, 0, 1, 18:18:02.782
159, -158054.52, -154862.88, -158158.69, -158107.81, -158223.67, -158211.39, -158241.11, 187500.00, 0, 1, 1, 0, 1, 18:18:02.782
160, -158058.59, -154958.66, -158162.64, -158111.86, -158227.56, -158215.19, -158245.11, 187500.00, 0, 1, 1, 0, 1, 18:18:02.782
161, -158058.44, -154809.88, -158162.72, -158111.92, -158227.81, -158215.67, -158245.36, 187500.00, 0, 1, 1, 0, 1, 18:18:02.782
162, -158057.38, -154735.83, -158161.66, -158110.78, -158226.86, -158214.72, -158244.27, 187500.00, 0, 1, 1, 0, 1, 18:18:02.782
163, -158061.45, -154847.84, -158165.67, -158114.84, -158230.72, -158218.47, -158248.27, 187500.00, 0, 1, 1, 0, 1, 18:18:02.782
164, -158065.52, -154975.80, -158169.66, -158118.88, -158234.66, -158222.25, -158252.22, 187500.00, 0, 1, 1, 0, 1, 18:18:02.782
165, -158062.09, -154852.17, -158166.33, -158115.52, -158231.48, -158219.39, -158249.03, 187500.00, 0, 1, 1, 0, 1, 18:18:02.782
166, -158060.95, -154745.09, -158165.16, -158114.25, -158230.36, -158218.31, -158247.91, 187500.00, 0, 1, 1, 0, 1, 18:18:02.782
167, -158065.55, -154824.45, -158169.81, -158118.94, -158234.86, -158222.72, -158252.47, 187500.00, 0, 1, 1, 0, 1, 18:18:02.782
168, -158070.45, -154975.53, -158174.59, -158123.92, -158239.59, -158227.14, -158257.19, 187500.00, 0, 1, 1, 0, 1, 18:18:02.783
169, -158064.94, -154892.42, -158169.14, -158118.42, -158234.16, -158221.94, -158251.66, 187500.00, 0, 1, 1, 0, 1, 18:18:02.783
170, -158065.03, -154754.36, -158169.23, -158118.45, -158234.39, -158222.27, -158251.91, 187500.00, 0, 1, 1, 0, 1, 18:18:02.783
171, -158069.44, -154801.73, -158173.48, -158122.81, -158238.67, -158226.50, -158256.25, 187500.00, 0, 1, 1, 0, 1, 18:18:02.783
172, -158075.16, -154960.09, -158179.13, -158128.50, -158244.27, -158231.95, -158261.81, 187500.00, 0, 1, 1, 0, 1, 18:18:02.783
173, -158076.94, -154927.06, -158181.08, -158130.41, -158246.14, -158233.97, -158263.67, 187500.00, 0, 1, 1, 0, 1, 18:18:02.783
174, -158073.88, -154770.22, -158178.28, -158127.41, -158243.39, -158231.25, -158260.83, 187500.00, 0, 1, 1, 0, 1, 18:18:02.783
175, -158075.13, -154784.22, -158179.47, -158128.47, -158244.56, -158232.39, -158262.11, 187500.00, 0, 1, 1, 0, 1, 18:18:02.783
176, -158080.34, -154943.78, -158184.55, -158133.63, -158249.50, -158237.19, -158267.06, 187500.00, 0, 1, 1, 0, 1, 18:18:02.783
177, -158081.77, -154962.78, -158186.08, -158135.23, -158250.95, -158238.66, -158268.55, 187500.00, 0, 1, 1, 0, 1, 18:18:02.784
178, -158079.17, -154799.42, -158183.67, -158132.70, -158248.63, -158236.59, -158266.23, 187500.00, 0, 1, 1, 0, 1, 18:18:02.784
179, -158079.83, -154781.16, -158184.25, -158133.38, -158249.39, -158237.20, -158266.84, 187500.00, 0, 1, 1, 0, 1, 18:18:02.784
180, -158086.48, -154925.20, -158190.84, -158140.06, -158255.83, -158243.45, -158273.38, 187500.00, 0, 1, 1, 0, 1, 18:18:02.784
181, -158089.17, -154993.25, -158193.58, -158142.86, -158258.48, -158246.02, -158275.98, 187500.00, 0, 1, 1, 0, 1, 18:18:02.784
182, -158084.73, -154832.66, -158189.34, -158138.45, -158254.30, -158242.19, -158271.83, 187500.00, 0, 1, 1, 0, 1, 18:18:02.784
183, -158083.31, -154782.83, -158187.78, -158136.95, -158252.89, -158240.75, -158270.33, 187500.00, 0, 1, 1, 0, 1, 18:18:02.784
184, -158088.50, -154912.83, -158192.88, -158142.03, -158257.86, -158245.63, -158275.41, 187500.00, 0, 1, 1, 0, 1, 18:18:02.784
185, -158092.78, -155025.22, -158197.13, -158146.30, -158261.98, -158249.66, -158279.52, 187500.00, 0, 1, 1, 0, 1, 18:18:02.784
186, -158091.22, -154891.13, -158195.67, -158144.78, -158260.67, -158248.52, -158278.20, 187500.00, 0, 1, 1, 0, 1, 18:18:02.784
187, -158090.64, -154808.13, -158195.06, -158144.02, -158260.05, -158247.94, -158277.55, 187500.00, 0, 1, 1, 0, 1, 18:18:02.785
188, -158093.55, -154908.41, -158197.97, -158147.11, -158262.80, -158250.70, -158280.44, 187500.00, 0, 1, 1, 0, 1, 18:18:02.785
189, -158097.61, -155049.16, -158201.94, -158151.08, -158266.59, -158254.41, -158284.36, 187500.00, 0, 1, 1, 0, 1, 18:18:02.785
190, -158096.47, -154939.97, -158200.91, -158149.98, -158265.81, -158253.72, -158283.45, 187500.00, 0, 1, 1, 0, 1, 18:18:02.785
191, -158092.39, -154821.23, -158196.83, -158145.97, -158261.95, -158249.86, -158279.38, 187500.00, 0, 1, 1, 0, 1, 18:18:02.785
192, -158096.92, -154888.78, -158201.33, -158150.52, -158266.38, -158254.17, -158283.84, 187500.00, 0, 1, 1, 0, 1, 18:18:02.785
193, -158103.66, -155039.88, -158207.94, -158157.27, -158272.94, -158260.47, -158290.44, 187500.00, 0, 1, 1, 0, 1, 18:18:02.785
194, -158103.97, -154975.69, -158208.38, -158157.52, -158273.33, -158260.94, -158290.78, 187500.00, 0, 1, 1, 0, 1, 18:18:02.785
195, -158101.61, -154830.64, -158206.02, -158155.13, -158271.05, -158258.89, -158288.56, 187500.00, 0, 1, 1, 0, 1, 18:18:02.785
196, -158105.22, -154862.14, -158209.55, -158158.72, -158274.58, -158262.34, -158292.08, 187500.00, 0, 1, 1, 0, 1, 18:18:02.785
197, -158111.19, -155017.33, -158215.56, -158164.72, -158280.34, -158268.03, -158297.94, 187500.00, 0, 1, 1, 0, 1, 18:18:02.785
198, -158109.53, -154996.13, -158213.98, -158163.11, -158278.83, -158266.58, -158296.33, 187500.00, 0, 1, 1, 0, 1, 18:18:02.786
199, -158106.05, -154826.95, -158210.61, -158159.69, -158275.64, -158263.56, -158293.02, 187500.00, 0, 1, 1, 0, 1, 18:18:02.786
200, -158109.11, -154821.14, -158213.52, -158162.61, -158278.58, -158266.45, -158296.05, 187500.00, 0, 1, 1, 0, 1, 18:18:02.786
201, -158114.25, -154967.30, -158218.56, -158167.78, -158283.53, -158271.16, -158301.03, 187500.00, 0, 1, 1, 0, 1, 18:18:02.786
202, -158115.66, -154998.34, -158220.06, -158169.25, -158284.92, -158272.56, -158302.56, 187500.00, 0, 1, 1, 0, 1, 18:18:02.786
203, -158111.98, -154826.75, -158216.50, -158165.61, -158281.64, -158269.44, -158299.16, 187500.00, 0, 1, 1, 0, 1, 18:18:02.786
204, -158111.23, -154788.16, -158215.83, -158164.78, -158280.83, -158268.63, -158298.41, 187500.00, 0, 1, 1, 0, 1, 18:18:02.786
205, -158114.47, -154921.36, -158218.98, -158168.14, -158283.97, -158271.61, -158301.47, 187500.00, 0, 1, 1, 0, 1, 18:18:02.786
206, -158116.92, -154998.19, -158221.44, -158170.66, -158286.31, -158273.92, -158303.81, 187500.00, 0, 1, 1, 0, 1, 18:18:02.786
207, -158117.33, -154834.91, -158221.91, -158171.16, -158287.05, -158274.91, -158304.50, 187500.00, 0, 1, 1, 0, 1, 18:18:02.786
208, -158117.89, -154764.02, -158222.47, -158171.69, -158287.61, -158275.47, -158305.08, 187500.00, 0, 1, 1, 0, 1, 18:18:02.786
209, -158120.80, -154875.61, -158225.33, -158174.59, -158290.36, -158278.00, -158307.88, 187500.00, 0, 1, 1, 0, 1, 18:18:02.787
210, -158126.63, -154992.56, -158231.06, -158180.34, -158295.98, -158283.34, -158313.53, 187500.00, 0, 1, 1, 0, 1, 18:18:02.787
211, -158124.03, -154858.33, -158228.63, -158177.84, -158293.64, -158281.28, -158311.28, 187500.00, 0, 1, 1, 0, 1, 18:18:02.787
212, -158121.52, -154756.95, -158226.08, -158175.22, -158291.27, -158279.00, -158308.75, 187500.00, 0, 1, 1, 0, 1, 18:18:02.787
213, -158124.33, -154843.36, -158228.80, -158178.17, -158293.97, -158281.73, -158311.50, 187500.00, 0, 1, 1, 0, 1, 18:18:02.787
214, -158129.25, -154984.08, -158233.83, -158183.16, -158298.73, -158286.28, -158316.28, 187500.00, 0, 1, 1, 0, 1, 18:18:02.787
215, -158128.95, -154886.86, -158233.52, -158182.78, -158298.45, -158286.13, -158316.03, 187500.00, 0, 1, 1, 0, 1, 18:18:02.787
216, -158127.23, -154755.72, -158231.75, -158180.86, -158296.75, -158284.56, -158314.31, 187500.00, 0, 1, 1, 0, 1, 18:18:02.787
217, -158130.58, -154807.86, -158235.06, -158184.30, -158300.06, -158287.83, -158317.69, 187500.00, 0, 1, 1, 0, 1, 18:18:02.787
218, -158136.39, -154963.19, -158240.83, -158190.16, -158305.69, -158293.17, -158323.25, 187500.00, 0, 1, 1, 0, 1, 18:18:02.787
219, -158134.47, -154913.20, -158239.08, -158188.28, -158303.92, -158291.58, -158321.42, 187500.00, 0, 1, 1, 0, 1, 18:18:02.787
220, -158131.34, -154758.09, -158236.06, -158185.09, -158300.95, -158288.81, -158318.39, 187500.00, 0, 1, 1, 0, 1, 18:18:02.788
221, -158134.25, -154776.89, -158238.88, -158187.89, -158303.75, -158291.41, -158321.17, 187500.00, 0, 1, 1, 0, 1, 18:18:02.788
222, -158142.47, -154929.19, -158247.03, -158196.17, -158311.80, -158299.39, -158329.41, 187500.00, 0, 1, 1, 0, 1, 18:18:02.788
223, -158142.30, -154925.30, -158246.95, -158196.02, -158311.75, -158299.31, -158329.25, 187500.00, 0, 1, 1, 0, 1, 18:18:02.788
224, -158139.19, -154752.16, -158243.84, -158192.98, -158308.84, -158296.69, -158326.28, 187500.00, 0, 1, 1, 0, 1, 18:18:02.788
225, -158140.75, -154734.28, -158245.41, -158194.56, -158310.45, -158298.30, -158327.89, 187500.00, 0, 1, 1, 0, 1, 18:18:02.788
226, -158144.53, -154877.41, -158249.23, -158198.36, -158314.06, -158301.80, -158331.59, 187500.00, 0, 1, 1, 0, 1, 18:18:02.788
227, -158148.36, -154925.19, -158253.00, -158202.16, -158317.83, -158305.47, -158335.28, 187500.00, 0, 1, 1, 0, 1, 18:18:02.788
228, -158145.36, -154754.73, -158250.19, -158199.31, -158315.19, -158303.00, -158332.58, 187500.00, 0, 1, 1, 0, 1, 18:18:02.788
229, -158144.73, -154704.95, -158249.52, -158198.52, -158314.55, -158302.31, -158331.95, 187500.00, 0, 1, 1, 0, 1, 18:18:02.788
230, -158150.41, -154830.91, -158255.13, -158204.17, -158319.97, -158307.63, -158337.50, 187500.00, 0, 1, 1, 0, 1, 18:18:02.788
231, -158156.56, -154919.20, -158261.13, -158210.27, -158325.97, -158313.47, -158343.42, 187500.00, 0, 1, 1, 0, 1, 18:18:02.789
232, -158152.94, -154761.42, -158257.61, -158206.78, -158322.63, -158310.30, -158340.11, 187500.00, 0, 1, 1, 0, 1, 18:18:02.789
233, -158151.28, -154676.33, -158256.00, -158204.95, -158320.98, -158308.84, -158338.50, 187500.00, 0, 1, 1, 0, 1, 18:18:02.789
234, -158155.66, -154776.86, -158260.47, -158209.47, -158325.31, -158313.02, -158342.86, 187500.00, 0, 1, 1, 0, 1, 18:18:02.789
235, -158159.53, -154903.38, -158264.31, -158213.38, -158329.06, -158316.64, -158346.50, 187500.00, 0, 1, 1, 0, 1, 18:18:02.789
236, -158156.33, -154779.34, -158261.14, -158210.20, -158326.05, -158313.83, -158343.48, 187500.00, 0, 1, 1, 0, 1, 18:18:02.789
237, -158153.61, -154665.28, -158258.34, -158207.36, -158323.34, -158311.20, -158340.78, 187500.00, 0, 1, 1, 0, 1, 18:18:02.789
238, -158157.55, -154739.69, -158262.28, -158211.31, -158327.25, -158314.88, -158344.58, 187500.00, 0, 1, 1, 0, 1, 18:18:02.789
239, -158164.92, -154884.16, -158269.64, -158218.83, -158334.41, -158321.94, -158351.83, 187500.00, 0, 1, 1, 0, 1, 18:18:02.789
240, -158165.05, -154800.67, -158269.86, -158219.05, -158334.67, -158322.52, -158352.14, 187500.00, 0, 1, 1, 0, 1, 18:18:02.789
241, -158161.19, -154660.86, -158266.08, -158215.09, -158330.97, -158319.02, -158348.47, 187500.00, 0, 1, 1, 0, 1, 18:18:03.257
242, -158162.91, -154704.55, -158267.72, -158216.80, -158332.69, -158320.47, -158350.13, 187500.00, 0, 1, 1, 0, 1, 18:18:03.257
243, -158167.89, -154863.08, -158272.55, -158221.78, -158337.38, -158324.95, -158354.86, 187500.00, 0, 1, 1, 0, 1, 18:18:03.258
244, -158166.17, -154831.89, -158270.94, -158220.14, -158335.73, -158323.44, -158353.23, 187500.00, 0, 1, 1, 0, 1, 18:18:03.258
245, -158164.83, -154675.45, -158269.64, -158218.78, -158334.61, -158322.50, -158352.09, 187500.00, 0, 1, 1, 0, 1, 18:18:03.258
246, -158170.70, -154687.97, -158275.61, -158224.66, -158340.48, -158328.38, -158357.98, 187500.00, 0, 1, 1, 0, 1, 18:18:03.258
247, -158176.06, -154843.77, -158280.91, -158230.08, -158345.70, -158333.36, -158363.20, 187500.00, 0, 1, 1, 0, 1, 18:18:03.258
248, -158176.72, -154865.59, -158281.59, -158230.72, -158346.38, -158333.97, -158363.83, 187500.00, 0, 1, 1, 0, 1, 18:18:03.258
249, -158173.92, -154698.23, -158278.75, -158227.88, -158343.69, -158331.59, -158361.14, 187500.00, 0, 1, 1, 0, 1, 18:18:03.259
250, -158174.70, -154676.88, -158279.47, -158228.69, -158344.47, -158332.42, -158361.88, 187500.00, 0, 1, 1, 0, 1, 18:18:03.259
251, -158179.80, -154823.20, -158284.47, -158233.73, -158349.31, -158337.05, -158366.75, 187500.00, 0, 1, 1, 0, 1, 18:18:03.259
252, -158181.08, -154894.34, -158285.77, -158234.97, -158350.53, -158338.17, -158367.98, 187500.00, 0, 1, 1, 0, 1, 18:18:03.259
253, -158179.92, -154738.23, -158284.72, -158233.88, -158349.67, -158337.50, -158367.05, 187500.00, 0, 1, 1, 0, 1, 18:18:03.259
254, -158180.27, -154685.23, -158285.02, -158234.16, -158350.08, -158337.89, -158367.52, 187500.00, 0, 1, 1, 0, 1, 18:18:03.259
255, -158184.52, -154810.34, -158289.28, -158238.44, -158354.13, -158341.97, -158371.73, 187500.00, 0, 1, 1, 0, 1, 18:18:03.259
0, -158188.78, -154921.03, -158293.50, -158242.77, -158358.30, -158345.94, -158375.78, 187500.00, 0, 1, 1, 0, 1, 18:18:03.260
1, -158183.84, -154780.45, -158288.75, -158238.00, -158353.75, -158341.58, -158371.06, 187500.00, 0, 1, 1, 0, 1, 18:18:03.260
2, -158184.97, -154693.94, -158289.84, -158238.98, -158354.95, -158342.81, -158372.25, 187500.00, 0, 1, 1, 0, 1, 18:18:03.260
3, -158188.28, -154793.52, -158293.03, -158242.23, -158358.06, -158345.81, -158375.53, 187500.00, 0, 1, 1, 0, 1, 18:18:03.260
4, -158192.88, -154936.86, -158297.48, -158246.67, -158362.47, -158349.97, -158379.92, 187500.00, 0, 1, 1, 0, 1, 18:18:03.260
5, -158193.03, -154832.97, -158297.80, -158246.97, -158362.86, -158350.45, -158380.19, 187500.00, 0, 1, 1, 0, 1, 18:18:03.260
6, -158190.11, -154715.22, -158295.03, -158243.97, -158360.05, -158347.78, -158377.44, 187500.00, 0, 1, 1, 0, 1, 18:18:03.260
7, -158191.77, -154784.75, -158296.64, -158245.77, -158361.64, -158349.34, -158379.06, 187500.00, 0, 1, 1, 0, 1, 18:18:03.260
8, -158198.67, -154941.97, -158303.47, -158252.72, -158368.39, -158355.83, -158385.81, 187500.00, 0, 1, 1, 0, 1, 18:18:03.260
9, -158198.52, -154881.58, -158303.34, -158252.61, -158368.30, -158355.94, -158385.70, 187500.00, 0, 1, 1, 0, 1, 18:18:03.260
10, -158196.20, -154738.42, -158301.13, -158250.28, -158366.17, -158354.02, -158383.52, 187500.00, 0, 1, 1, 0, 1, 18:18:03.261
11, -158198.58, -154776.91, -158303.30, -158252.52, -158368.39, -158356.14, -158385.84, 187500.00, 0, 1, 1, 0, 1, 18:18:03.261
12, -158203.36, -154942.38, -158307.98, -158257.31, -158372.92, -158360.47, -158390.47, 187500.00, 0, 1, 1, 0, 1, 18:18:03.261
13, -158204.75, -154934.89, -158309.52, -158258.77, -158374.52, -158362.13, -158391.91, 187500.00, 0, 1, 1, 0, 1, 18:18:03.261
14, -158202.89, -154775.20, -158307.78, -158256.89, -158372.86, -158360.70, -158390.27, 187500.00, 0, 1, 1, 0, 1, 18:18:03.261
15, -158203.47, -154777.48, -158308.34, -158257.36, -158373.30, -158361.08, -158390.84, 187500.00, 0, 1, 1, 0, 1, 18:18:03.261
16, -158210.22, -154930.69, -158315.09, -158264.22, -158379.92, -158367.61, -158397.44, 187500.00, 0, 1, 1, 0, 1, 18:18:03.261
17, -158211.47, -154970.92, -158316.28, -158265.48, -158381.14, -158368.78, -158398.56, 187500.00, 0, 1, 1, 0, 1, 18:18:03.261
18, -158206.67, -154806.41, -158311.66, -158260.88, -158376.66, -158364.47, -158394.05, 187500.00, 0, 1, 1, 0, 1, 18:18:03.261
19, -158208.86, -154774.56, -158313.73, -158262.84, -158378.73, -158366.64, -158396.13, 187500.00, 0, 1, 1, 0, 1, 18:18:03.261
20, -158212.81, -154915.42, -158317.59, -158266.78, -158382.56, -158370.31, -158399.97, 187500.00, 0, 1, 1, 0, 1, 18:18:03.262
21, -158214.36, -155005.14, -158319.17, -158268.34, -158383.94, -158371.47, -158401.42, 187500.00, 0, 1, 1, 0, 1, 18:18:03.262
22, -158212.23, -154854.20, -158317.16, -158266.33, -158382.06, -158369.86, -158399.55, 187500.00, 0, 1, 1, 0, 1, 18:18:03.262
23, -158214.36, -154789.78, -158319.20, -158268.34, -158384.19, -158371.98, -158401.58, 187500.00, 0, 1, 1, 0, 1, 18:18:03.262
24, -158218.56, -154907.00, -158323.41, -158272.61, -158388.30, -158375.98, -158405.69, 187500.00, 0, 1, 1, 0, 1, 18:18:03.262
25, -158221.22, -155030.11, -158325.97, -158275.17, -158390.77, -158378.22, -158408.14, 187500.00, 0, 1, 1, 0, 1, 18:18:03.262
26, -158217.95, -154902.44, -158322.86, -158272.05, -158387.72, -158375.53, -158405.13, 187500.00, 0, 1, 1, 0, 1, 18:18:03.262
27, -158214.30, -154804.47, -158319.20, -158268.31, -158384.20, -158372.09, -158401.59, 187500.00, 0, 1, 1, 0, 1, 18:18:03.262
28, -158220.53, -154895.61, -158325.30, -158274.53, -158390.30, -158378.11, -158407.70, 187500.00, 0, 1, 1, 0, 1, 18:18:03.262
29, -158224.94, -155050.14, -158329.50, -158278.86, -158394.42, -158382.02, -158411.92, 187500.00, 0, 1, 1, 0, 1, 18:18:03.262
30, -158222.92, -154962.50, -158327.53, -158276.83, -158392.55, -158380.33, -158409.98, 187500.00, 0, 1, 1, 0, 1, 18:18:03.262
31, -158220.08, -154835.36, -158324.80, -158274.02, -158389.80, -158377.75, -158407.28, 187500.00, 0, 1, 1, 0, 1, 18:18:03.263
32, -158224.70, -154898.13, -158329.45, -158278.67, -158394.45, -158382.27, -158411.80, 187500.00, 0, 1, 1, 0, 1, 18:18:03.263
33, -158230.23, -155063.52, -158334.91, -158284.23, -158399.75, -158387.36, -158417.17, 187500.00, 0, 1, 1, 0, 1, 18:18:03.263
34, -158229.16, -155025.23, -158333.97, -158283.30, -158398.83, -158386.52, -158416.13, 187500.00, 0, 1, 1, 0, 1, 18:18:03.263
35, -158228.03, -154879.91, -158332.95, -158282.22, -158398.09, -158385.84, -158415.30, 187500.00, 0, 1, 1, 0, 1, 18:18:03.263
36, -158231.48, -154911.06, -158336.36, -158285.48, -158401.38, -158389.00, -158418.75, 187500.00, 0, 1, 1, 0, 1, 18:18:03.263
37, -158236.42, -155083.80, -158341.00, -158290.31, -158405.95, -158393.33, -158423.38, 187500.00, 0, 1, 1, 0, 1, 18:18:03.263
38, -158238.14, -155102.28, -158342.75, -158292.02, -158407.67, -158395.13, -158425.05, 187500.00, 0, 1, 1, 0, 1, 18:18:03.263
39, -158233.38, -154945.13, -158338.14, -158287.42, -158403.25, -158390.94, -158420.47, 187500.00, 0, 1, 1, 0, 1, 18:18:03.263
40, -158235.48, -154946.58, -158340.13, -158289.34, -158405.27, -158392.92, -158422.50, 187500.00, 0, 1, 1, 0, 1, 18:18:03.263
41, -158242.02, -155110.48, -158346.56, -158295.81, -158411.55, -158399.19, -158428.80, 187500.00, 0, 1, 1, 0, 1, 18:18:03.264
42, -158243.91, -155180.09, -158348.48, -158297.73, -158413.38, -158400.89, -158430.64, 187500.00, 0, 1, 1, 0, 1, 18:18:03.264
43, -158240.33, -155027.38, -158344.98, -158294.25, -158410.08, -158397.80, -158427.34, 187500.00, 0, 1, 1, 0, 1, 18:18:03.264
44, -158239.14, -154994.50, -158343.75, -158292.95, -158408.91, -158396.53, -158426.13, 187500.00, 0, 1, 1, 0, 1, 18:18:03.264
45, -158244.69, -155145.80, -158349.31, -158298.61, -158414.34, -158401.94, -158431.55, 187500.00, 0, 1, 1, 0, 1, 18:18:03.264
46, -158248.92, -155264.16, -158353.36, -158302.72, -158418.34, -158405.88, -158435.58, 187500.00, 0, 1, 1, 0, 1, 18:18:03.265
47, -158245.14, -155127.11, -158349.67, -158299.05, -158414.78, -158402.61, -158431.97, 187500.00, 0, 1, 1, 0, 1, 18:18:03.265
48, -158243.66, -155061.83, -158348.30, -158297.66, -158413.36, -158401.27, -158430.48, 187500.00, 0, 1, 1, 0, 1, 18:18:03.265
49, -158248.31, -155188.72, -158352.88, -158302.22, -158417.78, -158405.53, -158435.00, 187500.00, 0, 1, 1, 0, 1, 18:18:03.265
50, -158253.20, -155337.94, -158357.61, -158307.05, -158422.50, -158409.95, -158439.75, 187500.00, 0, 1, 1, 0, 1, 18:18:03.265
51, -158250.69, -155236.97, -158355.27, -158304.59, -158420.28, -158407.83, -158437.42, 187500.00, 0, 1, 1, 0, 1, 18:18:03.265
52, -158248.06, -155142.88, -158352.73, -158301.95, -158417.78, -158405.53, -158435.02, 187500.00, 0, 1, 1, 0, 1, 18:18:03.265
53, -158254.41, -155242.58, -158358.89, -158308.17, -158423.89, -158411.59, -158441.23, 187500.00, 0, 1, 1, 0, 1, 18:18:03.265
54, -158259.52, -155423.23, -158363.77, -158313.11, -158428.64, -158416.11, -158445.97, 187500.00, 0, 1, 1, 0, 1, 18:18:03.266
55, -158257.23, -155371.66, -158361.67, -158311.00, -158426.61, -158414.19, -158443.86, 187500.00, 0, 1, 1, 0, 1, 18:18:03.266
56, -158253.14, -155254.27, -158357.72, -158306.94, -158422.81, -158410.47, -158439.95, 187500.00, 0, 1, 1, 0, 1, 18:18:03.266
57, -158258.39, -155327.59, -158362.89, -158312.14, -158427.77, -158415.56, -158445.13, 187500.00, 0, 1, 1, 0, 1, 18:18:03.266
58, -158265.81, -155523.08, -158370.08, -158319.44, -158434.86, -158422.44, -158452.19, 187500.00, 0, 1, 1, 0, 1, 18:18:03.266
59, -158265.59, -155533.36, -158369.91, -158319.20, -158434.70, -158422.28, -158452.00, 187500.00, 0, 1, 1, 0, 1, 18:18:03.266
60, -158262.33, -155407.11, -158366.78, -158315.92, -158431.75, -158419.34, -158448.89, 187500.00, 0, 1, 1, 0, 1, 18:18:03.266
61, -158265.00, -155459.11, -158369.41, -158318.61, -158434.30, -158421.98, -158451.48, 187500.00, 0, 1, 1, 0, 1, 18:18:03.266
62, -158272.34, -155665.75, -158376.63, -158325.94, -158441.36, -158428.94, -158458.63, 187500.00, 0, 1, 1, 0, 1, 18:18:03.266
63, -158274.91, -155735.97, -158379.22, -158328.44, -158443.84, -158431.38, -158461.09, 187500.00, 0, 1, 1, 0, 1, 18:18:03.266
64, -158271.16, -155604.66, -158375.53, -158324.73, -158440.38, -158428.00, -158457.55, 187500.00, 0, 1, 1, 0, 1, 18:18:03.266
65, -158271.89, -155626.91, -158376.28, -158325.45, -158441.09, -158428.80, -158458.31, 187500.00, 0, 1, 1, 0, 1, 18:18:03.267
66, -158277.09, -155833.56, -158381.38, -158330.67, -158446.08, -158433.63, -158463.25, 187500.00, 0, 1, 1, 0, 1, 18:18:03.267
67, -158282.55, -155971.00, -158386.75, -158336.11, -158451.44, -158438.86, -158468.47, 187500.00, 0, 1, 1, 0, 1, 18:18:03.267
68, -158281.39, -155862.63, -158385.64, -158334.95, -158450.42, -158438.03, -158467.42, 187500.00, 0, 1, 1, 0, 1, 18:18:03.267
69, -158282.06, -155860.30, -158386.20, -158335.53, -158450.97, -158438.55, -158468.13, 187500.00, 0, 1, 1, 0, 1, 18:18:03.267
70, -158288.61, -156056.77, -158392.53, -158342.02, -158457.33, -158444.78, -158474.47, 187500.00, 0, 1, 1, 0, 1, 18:18:03.267
71, -158293.63, -156250.56, -158397.48, -158347.00, -158462.06, -158449.31, -158479.14, 187500.00, 0, 1, 1, 0, 1, 18:18:03.267
72, -158293.95, -156173.42, -158398.09, -158347.42, -158462.70, -158450.08, -158479.61, 187500.00, 0, 1, 1, 0, 1, 18:18:03.267
73, -158296.33, -156147.69, -158400.45, -158349.72, -158465.17, -158452.53, -158482.02, 187500.00, 0, 1, 1, 0, 1, 18:18:03.267
74, -158301.67, -156335.14, -158405.56, -158355.05, -158470.23, -158457.50, -158487.20, 187500.00, 0, 1, 1, 0, 1, 18:18:03.267
75, -158309.39, -156579.39, -158413.05, -158362.73, -158477.58, -158464.72, -158494.63, 187500.00, 0, 1, 1, 0, 1, 18:18:03.267
76, -158310.61, -156559.64, -158414.39, -158364.05, -158478.91, -158466.22, -158495.92, 187500.00, 0, 1, 1, 0, 1, 18:18:03.268
77, -158308.81, -156517.91, -158412.55, -158362.16, -158477.23, -158464.56, -158494.16, 187500.00, 0, 1, 1, 0, 1, 18:18:03.268
78, -158314.52, -156694.08, -158418.14, -158367.61, -158482.63, -158469.75, -158499.61, 187500.00, 0, 1, 1, 0, 1, 18:18:03.268
79, -158324.53, -156980.36, -158427.97, -158377.53, -158492.30, -158479.05, -158509.27, 187500.00, 0, 1, 1, 0, 1, 18:18:03.268
80, -158327.64, -157025.63, -158431.19, -158380.70, -158495.56, -158482.47, -158512.33, 187500.00, 0, 1, 1, 0, 1, 18:18:03.268
81, -158327.25, -156960.81, -158430.75, -158380.23, -158495.19, -158482.17, -158511.89, 187500.00, 0, 1, 1, 0, 1, 18:18:03.268
82, -158330.95, -157100.70, -158434.17, -158383.72, -158498.61, -158485.34, -158515.30, 187500.00, 0, 1, 1, 0, 1, 18:18:03.268
83, -158338.34, -157388.00, -158441.20, -158390.88, -158505.56, -158492.09, -158522.17, 187500.00, 0, 1, 1, 0, 1, 18:18:03.268
84, -158340.25, -157486.19, -158443.06, -158392.81, -158507.30, -158494.00, -158523.91, 187500.00, 0, 1, 1, 0, 1, 18:18:03.268
85, -158340.28, -157396.16, -158443.27, -158392.92, -158507.59, -158494.50, -158524.11, 187500.00, 0, 1, 1, 0, 1, 18:18:03.268
86, -158346.48, -157484.73, -158449.30, -158398.89, -158513.63, -158500.38, -158530.09, 187500.00, 0, 1, 1, 0, 1, 18:18:03.268
87, -158353.77, -157743.78, -158456.19, -158405.91, -158520.47, -158506.98, -158536.83, 187500.00, 0, 1, 1, 0, 1, 18:18:03.269
88, -158355.53, -157891.94, -158457.69, -158407.50, -158521.94, -158508.39, -158538.17, 187500.00, 0, 1, 1, 0, 1, 18:18:03.269
89, -158352.61, -157804.19, -158455.00, -158404.86, -158519.39, -158506.03, -158535.48, 187500.00, 0, 1, 1, 0, 1, 18:18:03.269
90, -158355.58, -157833.28, -158457.84, -158407.75, -158522.20, -158508.86, -158538.38, 187500.00, 0, 1, 1, 0, 1, 18:18:03.269
91, -158364.08, -158037.67, -158466.16, -158416.13, -158530.34, -158516.84, -158546.44, 187500.00, 0, 1, 1, 0, 1, 18:18:03.269
92, -158369.59, -158209.95, -158471.27, -158421.31, -158535.47, -158521.72, -158551.41, 187500.00, 0, 1, 1, 0, 1, 18:18:03.269
93, -158366.33, -158143.92, -158468.20, -158418.25, -158532.61, -158519.13, -158548.36, 187500.00, 0, 1, 1, 0, 1, 18:18:03.269
94, -158365.92, -158112.34, -158467.78, -158417.84, -158532.11, -158518.77, -158548.00, 187500.00, 0, 1, 1, 0, 1, 18:18:03.269
95, -158374.98, -158251.95, -158475.58, -158425.67, -158539.88, -158526.30, -158555.56, 187500.00, 0, 1, 1, 0, 1, 18:18:03.269
96, -158383.42, -158376.97, -158481.28, -158431.44, -158545.70, -158531.91, -158561.06, 187500.00, 0, 1, 1, 0, 1, 18:18:03.269
97, -158381.23, -158365.59, -158479.30, -158429.50, -158543.94, -158530.48, -158559.22, 187500.00, 0, 1, 1, 0, 1, 18:18:03.270
98, -158379.69, -158337.45, -158478.64, -158428.69, -158543.31, -158529.86, -158558.58, 187500.00, 0, 1, 1, 0, 1, 18:18:03.270
99, -158383.98, -158376.03, -158482.00, -158432.16, -158546.64, -158532.95, -158561.77, 187500.00, 0, 1, 1, 0, 1, 18:18:03.270
100, -158391.58, -158403.39, -158489.16, -158439.52, -158553.81, -158539.84, -158568.80, 187500.00, 0, 1, 1, 0, 1, 18:18:03.270
101, -158393.19, -158404.45, -158490.78, -158441.13, -158555.48, -158541.67, -158570.38, 187500.00, 0, 1, 1, 0, 1, 18:18:03.270
102, -158389.80, -158398.88, -158487.36, -158437.52, -158552.14, -158538.44, -158566.94, 187500.00, 0, 1, 1, 0, 1, 18:18:03.270
103, -158394.42, -158405.89, -158491.94, -158442.22, -158556.66, -158542.91, -158571.52, 187500.00, 0, 1, 1, 0, 1, 18:18:03.270
104, -158403.09, -158418.03, -158500.64, -158451.13, -158565.28, -158551.25, -158580.08, 187500.00, 0, 1, 1, 0, 1, 18:18:03.270
105, -158401.88, -158417.00, -158499.36, -158449.91, -158564.03, -158550.17, -158578.73, 187500.00, 0, 1, 1, 0, 1, 18:18:03.736
106, -158399.88, -158413.72, -158497.31, -158447.75, -158562.16, -158548.56, -158576.81, 187500.00, 0, 1, 1, 0, 1, 18:18:03.737
107, -158400.91, -158415.50, -158498.47, -158448.78, -158563.14, -158549.44, -158577.83, 187500.00, 0, 1, 1, 0, 1, 18:18:03.737
108, -158408.14, -158424.80, -158505.84, -158456.30, -158570.33, -158556.36, -158584.92, 187500.00, 0, 1, 1, 0, 1, 18:18:03.737
109, -158411.88, -158428.91, -158509.53, -158460.09, -158574.16, -158560.13, -158588.64, 187500.00, 0, 1, 1, 0, 1, 18:18:03.737
110, -158410.31, -158426.33, -158507.91, -158458.38, -158572.75, -158558.98, -158587.20, 187500.00, 0, 1, 1, 0, 1, 18:18:03.737
111, -158410.05, -158426.19, -158507.64, -158457.92, -158572.34, -158558.59, -158586.81, 187500.00, 0, 1, 1, 0, 1, 18:18:03.737
112, -158416.13, -158433.77, -158513.72, -158464.16, -158578.22, -158564.39, -158592.80, 187500.00, 0, 1, 1, 0, 1, 18:18:03.737
113, -158420.02, -158438.34, -158517.66, -158468.19, -158582.06, -158568.13, -158596.59, 187500.00, 0, 1, 1, 0, 1, 18:18:03.737
114, -158417.22, -158434.75, -158514.83, -158465.30, -158579.50, -158565.77, -158593.80, 187500.00, 0, 1, 1, 0, 1, 18:18:03.737
115, -158416.11, -158433.50, -158513.69, -158464.05, -158578.45, -158564.59, -158592.58, 187500.00, 0, 1, 1, 0, 1, 18:18:03.737
116, -158423.59, -158442.06, -158521.06, -158471.56, -158585.84, -158571.73, -158599.91, 187500.00, 0, 1, 1, 0, 1, 18:18:03.738
117, -158428.64, -158447.75, -158526.08, -158476.55, -158590.61, -158576.39, -158604.73, 187500.00, 0, 1, 1, 0, 1, 18:18:03.738
118, -158427.50, -158446.23, -158525.05, -158475.52, -158589.73, -158575.86, -158603.81, 187500.00, 0, 1, 1, 0, 1, 18:18:03.738
119, -158428.69, -158447.16, -158526.23, -158476.66, -158591.03, -158577.17, -158604.95, 187500.00, 0, 1, 1, 0, 1, 18:18:03.738
120, -158434.92, -158454.13, -158532.33, -158482.94, -158597.02, -158583.08, -158611.02, 187500.00, 0, 1, 1, 0, 1, 18:18:03.738
121, -158442.84, -158462.83, -158540.20, -158490.81, -158604.70, -158590.58, -158618.70, 187500.00, 0, 1, 1, 0, 1, 18:18:03.738
122, -158441.19, -158460.94, -158538.59, -158489.20, -158603.33, -158589.52, -158617.23, 187500.00, 0, 1, 1, 0, 1, 18:18:03.738
123, -158437.25, -158456.67, -158534.69, -158485.23, -158599.53, -158585.78, -158613.36, 187500.00, 0, 1, 1, 0, 1, 18:18:03.738
124, -158442.14, -158462.06, -158539.39, -158490.09, -158604.22, -158590.36, -158618.13, 187500.00, 0, 1, 1, 0, 1, 18:18:03.738
125, -158449.50, -158470.22, -158546.84, -158497.52, -158611.42, -158597.33, -158625.30, 187500.00, 0, 1, 1, 0, 1, 18:18:03.738
126, -158448.81, -158469.33, -158546.08, -158496.80, -158610.80, -158596.80, -158624.58, 187500.00, 0, 1, 1, 0, 1, 18:18:03.739
127, -158446.70, -158466.69, -158543.88, -158494.36, -158608.75, -158594.88, -158622.48, 187500.00, 0, 1, 1, 0, 1, 18:18:03.739
128, -158450.28, -158470.70, -158547.47, -158497.95, -158612.27, -158598.30, -158625.98, 187500.00, 0, 1, 1, 0, 1, 18:18:03.739
129, -158458.33, -158479.36, -158555.42, -158506.05, -158620.05, -158605.89, -158633.67, 187500.00, 0, 1, 1, 0, 1, 18:18:03.739
130, -158459.25, -158480.33, -158556.31, -158506.97, -158620.94, -158606.91, -158634.50, 187500.00, 0, 1, 1, 0, 1, 18:18:03.739
131, -158456.08, -158476.75, -158553.14, -158503.77, -158617.94, -158604.16, -158631.48, 187500.00, 0, 1, 1, 0, 1, 18:18:03.739
132, -158457.95, -158478.80, -158554.91, -158505.58, -158619.73, -158605.94, -158633.34, 187500.00, 0, 1, 1, 0, 1, 18:18:03.739
133, -158465.44, -158486.89, -158562.33, -158513.11, -158627.08, -158612.98, -158640.63, 187500.00, 0, 1, 1, 0, 1, 18:18:03.739
134, -158468.83, -158490.45, -158565.75, -158516.42, -158630.53, -158616.33, -158643.84, 187500.00, 0, 1, 1, 0, 1, 18:18:03.740
135, -158463.67, -158484.86, -158560.56, -158511.17, -158625.45, -158611.59, -158638.78, 187500.00, 0, 1, 1, 0, 1, 18:18:03.740
136, -158463.94, -158485.08, -158560.75, -158511.28, -158625.45, -158611.75, -158638.97, 187500.00, 0, 1, 1, 0, 1, 18:18:03.740
137, -158472.13, -158493.89, -158568.95, -158519.59, -158633.52, -158619.53, -158647.00, 187500.00, 0, 1, 1, 0, 1, 18:18:03.740
138, -158475.20, -158497.28, -158571.94, -158522.66, -158636.52, -158622.30, -158649.88, 187500.00, 0, 1, 1, 0, 1, 18:18:03.740
139, -158472.98, -158494.72, -158569.78, -158520.36, -158634.55, -158620.69, -158647.84, 187500.00, 0, 1, 1, 0, 1, 18:18:03.740
140, -158472.80, -158494.36, -158569.44, -158519.97, -158634.30, -158620.61, -158647.63, 187500.00, 0, 1, 1, 0, 1, 18:18:03.740
141, -158480.72, -158502.73, -158577.38, -158528.00, -158642.13, -158628.16, -158655.45, 187500.00, 0, 1, 1, 0, 1, 18:18:03.740
142, -158486.53, -158508.89, -158583.13, -158533.88, -158647.78, -158633.66, -158661.02, 187500.00, 0, 1, 1, 0, 1, 18:18:03.740
143, -158484.45, -158506.52, -158581.11, -158531.80, -158645.91, -158632.09, -158659.14, 187500.00, 0, 1, 1, 0, 1, 18:18:03.741
144, -158482.05, -158503.80, -158578.64, -158529.16, -158643.48, -158629.72, -158656.70, 187500.00, 0, 1, 1, 0, 1, 18:18:03.741
145, -158487.14, -158509.33, -158583.75, -158534.45, -158648.61, -158634.66, -158661.78, 187500.00, 0, 1, 1, 0, 1, 18:18:03.741
146, -158492.34, -158515.08, -158589.00, -158539.75, -158653.66, -158639.58, -158666.94, 187500.00, 0, 1, 1, 0, 1, 18:18:03.741
147, -158490.92, -158513.42, -158587.56, -158538.30, -158652.30, -158638.55, -158665.58, 187500.00, 0, 1, 1, 0, 1, 18:18:03.741
148, -158490.20, -158512.38, -158586.81, -158537.47, -158651.77, -158638.06, -158664.91, 187500.00, 0, 1, 1, 0, 1, 18:18:03.741
149, -158496.28, -158518.56, -158592.75, -158543.52, -158657.69, -158643.95, -158670.83, 187500.00, 0, 1, 1, 0, 1, 18:18:03.741
150, -158504.58, -158527.27, -158601.05, -158551.77, -158665.69, -158651.83, -158678.97, 187500.00, 0, 1, 1, 0, 1, 18:18:03.741
151, -158503.28, -158525.86, -158599.91, -158550.70, -158664.50, -158651.02, -158677.91, 187500.00, 0, 1, 1, 0, 1, 18:18:03.741
152, -158499.77, -158521.86, -158596.33, -158547.16, -158661.19, -158647.80, -158674.52, 187500.00, 0, 1, 1, 0, 1, 18:18:03.741
153, -158502.61, -158524.72, -158599.05, -158549.80, -158663.94, -158650.36, -158677.17, 187500.00, 0, 1, 1, 0, 1, 18:18:03.741
154, -158508.33, -158530.91, -158604.86, -158555.69, -158669.58, -158655.72, -158682.89, 187500.00, 0, 1, 1, 0, 1, 18:18:03.742
155, -158510.19, -158532.78, -158606.94, -158557.72, -158671.50, -158657.73, -158684.78, 187500.00, 0, 1, 1, 0, 1, 18:18:03.742
156, -158507.22, -158529.36, -158603.95, -158554.75, -158668.77, -158655.27, -158682.05, 187500.00, 0, 1, 1, 0, 1, 18:18:03.742
157, -158508.33, -158530.39, -158604.91, -158555.69, -158669.81, -158656.19, -158683.13, 187500.00, 0, 1, 1, 0, 1, 18:18:03.742
158, -158515.91, -158538.33, -158612.48, -158563.27, -158677.20, -158663.34, -158690.47, 187500.00, 0, 1, 1, 0, 1, 18:18:03.742
159, -158519.14, -158541.67, -158615.86, -158566.59, -158680.38, -158666.67, -158693.63, 187500.00, 0, 1, 1, 0, 1, 18:18:03.742
160, -158512.22, -158534.33, -158609.06, -158559.83, -158673.78, -158660.36, -158686.97, 187500.00, 0, 1, 1, 0, 1, 18:18:03.742
161, -158513.97, -158535.89, -158610.81, -158561.45, -158675.59, -158662.11, -158688.73, 187500.00, 0, 1, 1, 0, 1, 18:18:03.742
162, -158521.66, -158544.05, -158618.45, -158569.13, -158683.08, -158669.47, -158696.19, 187500.00, 0, 1, 1, 0, 1, 18:18:03.742
163, -158524.69, -158547.22, -158621.39, -158572.23, -158686.00, -158672.22, -158699.13, 187500.00, 0, 1, 1, 0, 1, 18:18:03.742
164, -158519.92, -158542.02, -158616.88, -158567.72, -158681.53, -158668.09, -158694.67, 187500.00, 0, 1, 1, 0, 1, 18:18:03.742
165, -158517.97, -158539.83, -158614.88, -158565.66, -158679.59, -158666.13, -158692.75, 187500.00, 0, 1, 1, 0, 1, 18:18:03.743
166, -158527.44, -158549.61, -158624.41, -158575.20, -158688.94, -158675.28, -158702.09, 187500.00, 0, 1, 1, 0, 1, 18:18:03.743
167, -158533.83, -158556.31, -158630.70, -158581.69, -158695.28, -158681.41, -158708.28, 187500.00, 0, 1, 1, 0, 1, 18:18:03.743
168, -158529.19, -158551.45, -158626.17, -158577.08, -158690.92, -158677.31, -158703.91, 187500.00, 0, 1, 1, 0, 1, 18:18:03.743
169, -158525.88, -158547.78, -158622.88, -158573.55, -158687.55, -158674.17, -158700.63, 187500.00, 0, 1, 1, 0, 1, 18:18:03.743
170, -158529.72, -158551.80, -158626.70, -158577.34, -158691.25, -158677.73, -158704.36, 187500.00, 0, 1, 1, 0, 1, 18:18:03.743
171, -158535.16, -158557.66, -158632.09, -158582.81, -158696.42, -158682.77, -158709.58, 187500.00, 0, 1, 1, 0, 1, 18:18:03.743
172, -158532.53, -158554.80, -158629.59, -158580.39, -158694.00, -158680.48, -158707.13, 187500.00, 0, 1, 1, 0, 1, 18:18:03.743
173, -158530.23, -158552.00, -158627.33, -158578.09, -158692.00, -158678.52, -158705.09, 187500.00, 0, 1, 1, 0, 1, 18:18:03.743
174, -158536.83, -158558.67, -158633.77, -158584.50, -158698.44, -158684.91, -158711.48, 187500.00, 0, 1, 1, 0, 1, 18:18:03.743
175, -158544.09, -158566.56, -158641.08, -158591.80, -158705.61, -158691.84, -158718.59, 187500.00, 0, 1, 1, 0, 1, 18:18:03.744
176, -158542.75, -158565.22, -158639.75, -158590.56, -158704.36, -158690.72, -158717.41, 187500.00, 0, 1, 1, 0, 1, 18:18:03.744
177, -158537.16, -158559.05, -158634.23, -158584.97, -158698.97, -158685.63, -158712.05, 187500.00, 0, 1, 1, 0, 1, 18:18:03.744
178, -158537.34, -158559.27, -158634.44, -158585.23, -158699.13, -158685.78, -158712.27, 187500.00, 0, 1, 1, 0, 1, 18:18:03.744
179, -158546.94, -158569.34, -158643.98, -158594.88, -158708.48, -158694.86, -158721.67, 187500.00, 0, 1, 1, 0, 1, 18:18:03.744
180, -158548.05, -158570.63, -158645.13, -158596.03, -158709.72, -158696.06, -158722.80, 187500.00, 0, 1, 1, 0, 1, 18:18:03.744
181, -158545.05, -158567.20, -158642.23, -158592.97, -158706.97, -158693.63, -158720.09, 187500.00, 0, 1, 1, 0, 1, 18:18:03.744
182, -158544.92, -158566.88, -158642.00, -158592.75, -158706.72, -158693.33, -158719.84, 187500.00, 0, 1, 1, 0, 1, 18:18:03.744
183, -158550.63, -158573.08, -158647.67, -158598.55, -158712.27, -158698.63, -158725.34, 187500.00, 0, 1, 1, 0, 1, 18:18:03.744
184, -158555.80, -158578.48, -158652.94, -158603.92, -158717.47, -158703.81, -158730.48, 187500.00, 0, 1, 1, 0, 1, 18:18:03.744
185, -158552.36, -158574.61, -158649.66, -158600.53, -158714.34, -158701.00, -158727.36, 187500.00, 0, 1, 1, 0, 1, 18:18:03.744
186, -158550.73, -158572.67, -158647.98, -158598.63, -158712.63, -158699.38, -158725.61, 187500.00, 0, 1, 1, 0, 1, 18:18:03.745
187, -158556.98, -158579.31, -158654.06, -158604.89, -158718.64, -158705.19, -158731.63, 187500.00, 0, 1, 1, 0, 1, 18:18:03.745
188, -158562.20, -158584.89, -158659.25, -158610.28, -158723.78, -158709.98, -158736.73, 187500.00, 0, 1, 1, 0, 1, 18:18:03.745
189, -158556.44, -158578.78, -158653.64, -158604.59, -158718.41, -158704.78, -158731.22, 187500.00, 0, 1, 1, 0, 1, 18:18:03.745
190, -158555.58, -158577.53, -158652.66, -158603.55, -158717.52, -158703.92, -158730.23, 187500.00, 0, 1, 1, 0, 1, 18:18:03.745
191, -158560.52, -158582.94, -158657.59, -158608.53, -158722.33, -158708.64, -158735.06, 187500.00, 0, 1, 1, 0, 1, 18:18:03.745
192, -158566.11, -158588.91, -158663.22, -158614.17, -158727.83, -158713.92, -158740.52, 187500.00, 0, 1, 1, 0, 1, 18:18:03.745
193, -158562.31, -158584.75, -158659.27, -158610.25, -158724.11, -158710.55, -158736.78, 187500.00, 0, 1, 1, 0, 1, 18:18:03.745
194, -158559.83, -158581.98, -158656.86, -158607.66, -158721.83, -158708.48, -158734.50, 187500.00, 0, 1, 1, 0, 1, 18:18:03.746
195, -158568.19, -158590.63, -158665.28, -158616.13, -158730.11, -158716.58, -158742.83, 187500.00, 0, 1, 1, 0, 1, 18:18:03.746
196, -158573.91, -158596.75, -158670.94, -158621.92, -158735.58, -158721.70, -158748.28, 187500.00, 0, 1, 1, 0, 1, 18:18:03.746
197, -158570.16, -158592.89, -158667.36, -158618.25, -158732.03, -158718.28, -158744.67, 187500.00, 0, 1, 1, 0, 1, 18:18:03.746
198, -158566.05, -158588.33, -158663.22, -158613.94, -158728.03, -158714.59, -158740.70, 187500.00, 0, 1, 1, 0, 1, 18:18:03.746
199, -158569.22, -158591.61, -158666.31, -158617.14, -158731.06, -158717.58, -158743.83, 187500.00, 0, 1, 1, 0, 1, 18:18:03.746
200, -158576.53, -158599.48, -158673.63, -158624.58, -158738.27, -158724.47, -158751.03, 187500.00, 0, 1, 1, 0, 1, 18:18:03.746
201, -158575.92, -158598.83, -158673.11, -158624.05, -158737.81, -158724.11, -158750.56, 187500.00, 0, 1, 1, 0, 1, 18:18:03.746
202, -158572.09, -158594.42, -158669.31, -158620.20, -158734.23, -158720.80, -158746.94, 187500.00, 0, 1, 1, 0, 1, 18:18:03.746
203, -158573.48, -158595.97, -158670.77, -158621.63, -158735.69, -158722.28, -158748.39, 187500.00, 0, 1, 1, 0, 1, 18:18:03.746
204, -158580.06, -158603.13, -158677.42, -158628.42, -158742.17, -158728.50, -158754.88, 187500.00, 0, 1, 1, 0, 1, 18:18:03.746
205, -158583.09, -158606.28, -158680.45, -158631.58, -158745.13, -158731.44, -158757.86, 187500.00, 0, 1, 1, 0, 1, 18:18:03.747
206, -158578.30, -158601.11, -158675.75, -158626.69, -158740.58, -158727.23, -158753.19, 187500.00, 0, 1, 1, 0, 1, 18:18:03.747
207, -158578.61, -158601.14, -158675.94, -158626.77, -158740.81, -158727.48, -158753.39, 187500.00, 0, 1, 1, 0, 1, 18:18:03.747
208, -158583.39, -158606.39, -158680.73, -158631.58, -158745.45, -158731.84, -158758.05, 187500.00, 0, 1, 1, 0, 1, 18:18:03.747
209, -158587.98, -158611.39, -158685.36, -158636.27, -158750.05, -158736.25, -158762.63, 187500.00, 0, 1, 1, 0, 1, 18:18:03.747
210, -158585.13, -158608.17, -158682.52, -158633.45, -158747.41, -158733.97, -158760.02, 187500.00, 0, 1, 1, 0, 1, 18:18:03.747
211, -158581.73, -158604.42, -158679.13, -158629.91, -158744.08, -158730.59, -158756.67, 187500.00, 0, 1, 1, 0, 1, 18:18:03.747
212, -158589.89, -158613.00, -158687.14, -158638.03, -158751.97, -158738.42, -158764.69, 187500.00, 0, 1, 1, 0, 1, 18:18:03.747
213, -158597.88, -158621.25, -158695.02, -158645.91, -158759.81, -158745.91, -158772.34, 187500.00, 0, 1, 1, 0, 1, 18:18:03.747
214, -158592.03, -158615.22, -158689.27, -158640.11, -158754.20, -158740.63, -158766.77, 187500.00, 0, 1, 1, 0, 1, 18:18:03.747
215, -158587.72, -158610.52, -158684.91, -158635.69, -158749.92, -158736.55, -158762.56, 187500.00, 0, 1, 1, 0, 1, 18:18:03.747
216, -158594.41, -158617.42, -158691.44, -158642.38, -158756.45, -158742.95, -158769.11, 187500.00, 0, 1, 1, 0, 1, 18:18:03.748
217, -158600.69, -158624.11, -158697.69, -158648.67, -158762.53, -158748.67, -158775.25, 187500.00, 0, 1, 1, 0, 1, 18:18:03.748
218, -158597.38, -158620.52, -158694.41, -158645.33, -158759.27, -158745.84, -158771.91, 187500.00, 0, 1, 1, 0, 1, 18:18:03.748
219, -158592.30, -158614.98, -158689.25, -158640.09, -158754.20, -158741.02, -158766.88, 187500.00, 0, 1, 1, 0, 1, 18:18:03.748
220, -158595.61, -158618.45, -158692.55, -158643.33, -158757.34, -158743.94, -158770.11, 187500.00, 0, 1, 1, 0, 1, 18:18:03.748
221, -158602.30, -158625.72, -158699.33, -158650.20, -158763.97, -158750.13, -158776.64, 187500.00, 0, 1, 1, 0, 1, 18:18:03.748
222, -158602.86, -158626.33, -158699.97, -158650.94, -158764.80, -158751.16, -158777.41, 187500.00, 0, 1, 1, 0, 1, 18:18:03.748
223, -158597.53, -158620.38, -158694.56, -158645.48, -158759.66, -158746.23, -158772.23, 187500.00, 0, 1, 1, 0, 1, 18:18:03.748
224, -158598.88, -158621.73, -158695.84, -158646.80, -158760.84, -158747.36, -158773.39, 187500.00, 0, 1, 1, 0, 1, 18:18:03.748
225, -158607.38, -158630.80, -158704.31, -158655.41, -158769.13, -158755.47, -158781.84, 187500.00, 0, 1, 1, 0, 1, 18:18:04.217
226, -158609.61, -158633.09, -158706.70, -158657.75, -158771.52, -158757.91, -158784.23, 187500.00, 0, 1, 1, 0, 1, 18:18:04.217
227, -158602.97, -158626.02, -158700.11, -158651.05, -158765.17, -158751.73, -158777.67, 187500.00, 0, 1, 1, 0, 1, 18:18:04.217
228, -158601.94, -158625.08, -158699.23, -158650.13, -158764.23, -158750.72, -158776.77, 187500.00, 0, 1, 1, 0, 1, 18:18:04.217
229, -158610.92, -158634.48, -158708.20, -158659.14, -158772.97, -158759.31, -158785.72, 187500.00, 0, 1, 1, 0, 1, 18:18:04.218
230, -158613.36, -158637.05, -158710.66, -158661.75, -158775.48, -158761.69, -158788.08, 187500.00, 0, 1, 1, 0, 1, 18:18:04.218
231, -158606.31, -158629.61, -158703.73, -158654.78, -158768.86, -158755.38, -158781.22, 187500.00, 0, 1, 1, 0, 1, 18:18:04.218
232, -158605.27, -158628.42, -158702.56, -158653.50, -158767.70, -158754.31, -158780.23, 187500.00, 0, 1, 1, 0, 1, 18:18:04.218
233, -158613.81, -158637.55, -158711.17, -158662.22, -158776.11, -158762.61, -158788.78, 187500.00, 0, 1, 1, 0, 1, 18:18:04.218
234, -158616.95, -158640.94, -158714.38, -158665.55, -158779.20, -158765.55, -158791.89, 187500.00, 0, 1, 1, 0, 1, 18:18:04.218
235, -158610.09, -158633.75, -158707.45, -158658.63, -158772.58, -158759.27, -158785.17, 187500.00, 0, 1, 1, 0, 1, 18:18:04.218
236, -158608.63, -158632.00, -158705.92, -158657.02, -158771.13, -158757.81, -158783.70, 187500.00, 0, 1, 1, 0, 1, 18:18:04.218
237, -158615.78, -158639.41, -158712.95, -158664.23, -158778.06, -158764.66, -158790.77, 187500.00, 0, 1, 1, 0, 1, 18:18:04.218
238, -158621.63, -158645.66, -158718.81, -158670.09, -158783.80, -158770.09, -158796.59, 187500.00, 0, 1, 1, 0, 1, 18:18:04.218
239, -158613.66, -158637.61, -158711.11, -158662.27, -158776.13, -158762.80, -158788.94, 187500.00, 0, 1, 1, 0, 1, 18:18:04.218
240, -158610.59, -158634.17, -158708.05, -158659.14, -158773.22, -158760.02, -158785.98, 187500.00, 0, 1, 1, 0, 1, 18:18:04.219
241, -158615.28, -158639.17, -158712.72, -158663.98, -158777.83, -158764.59, -158790.66, 187500.00, 0, 1, 1, 0, 1, 18:18:04.219
242, -158622.70, -158647.11, -158720.16, -158671.52, -158785.16, -158771.52, -158797.94, 187500.00, 0, 1, 1, 0, 1, 18:18:04.219
243, -158619.94, -158644.16, -158717.52, -158668.72, -158782.56, -158769.13, -158795.30, 187500.00, 0, 1, 1, 0, 1, 18:18:04.219
244, -158616.17, -158639.94, -158713.67, -158664.80, -158778.94, -158765.73, -158791.64, 187500.00, 0, 1, 1, 0, 1, 18:18:04.220
245, -158621.19, -158645.03, -158718.66, -158669.75, -158783.86, -158770.53, -158796.63, 187500.00, 0, 1, 1, 0, 1, 18:18:04.220
246, -158627.23, -158651.38, -158724.56, -158675.83, -158789.61, -158776.03, -158802.52, 187500.00, 0, 1, 1, 0, 1, 18:18:04.220
247, -158623.27, -158647.31, -158720.63, -158671.98, -158785.69, -158772.34, -158798.66, 187500.00, 0, 1, 1, 0, 1, 18:18:04.220
248, -158618.09, -158641.61, -158715.42, -158666.61, -158780.64, -158767.66, -158793.52, 187500.00, 0, 1, 1, 0, 1, 18:18:04.220
249, -158621.03, -158644.63, -158718.34, -158669.50, -158783.61, -158770.50, -158796.44, 187500.00, 0, 1, 1, 0, 1, 18:18:04.220
250, -158628.89, -158653.06, -158726.19, -158677.52, -158791.28, -158777.91, -158804.25, 187500.00, 0, 1, 1, 0, 1, 18:18:04.220
251, -158631.05, -158655.16, -158728.42, -158679.75, -158793.36, -158780.02, -158806.25, 187500.00, 0, 1, 1, 0, 1, 18:18:04.220
252, -158625.50, -158649.25, -158723.05, -158674.27, -158788.17, -158775.13, -158800.94, 187500.00, 0, 1, 1, 0, 1, 18:18:04.221
253, -158626.28, -158649.91, -158723.69, -158674.94, -158788.89, -158775.77, -158801.73, 187500.00, 0, 1, 1, 0, 1, 18:18:04.221
254, -158632.47, -158656.45, -158729.80, -158681.11, -158794.86, -158781.47, -158807.70, 187500.00, 0, 1, 1, 0, 1, 18:18:04.221
255, -158634.59, -158658.80, -158732.05, -158683.36, -158797.05, -158783.53, -158809.86, 187500.00, 0, 1, 1, 0, 1, 18:18:04.221
0, -158629.00, -158652.83, -158726.45, -158677.84, -158791.73, -158778.61, -158804.58, 187500.00, 0, 1, 1, 0, 1, 18:18:04.221
1, -158628.84, -158652.50, -158726.30, -158677.55, -158791.56, -158778.47, -158804.48, 187500.00, 0, 1, 1, 0, 1, 18:18:04.221
2, -158635.94, -158659.94, -158733.34, -158684.73, -158798.59, -158785.25, -158811.48, 187500.00, 0, 1, 1, 0, 1, 18:18:04.221
3, -158640.00, -158664.34, -158737.39, -158688.91, -158802.59, -158789.11, -158815.42, 187500.00, 0, 1, 1, 0, 1, 18:18:04.222
4, -158635.17, -158659.20, -158732.83, -158684.17, -158798.00, -158784.91, -158810.91, 187500.00, 0, 1, 1, 0, 1, 18:18:04.222
5, -158631.58, -158655.22, -158729.13, -158680.34, -158794.41, -158781.31, -158807.33, 187500.00, 0, 1, 1, 0, 1, 18:18:04.222
6, -158635.47, -158659.53, -158733.08, -158684.39, -158798.44, -158785.05, -158811.19, 187500.00, 0, 1, 1, 0, 1, 18:18:04.222
7, -158642.97, -158667.30, -158740.55, -158691.92, -158805.67, -158792.13, -158818.45, 187500.00, 0, 1, 1, 0, 1, 18:18:04.222
8, -158640.56, -158664.61, -158738.22, -158689.52, -158803.47, -158790.25, -158816.11, 187500.00, 0, 1, 1, 0, 1, 18:18:04.222
9, -158636.38, -158659.98, -158733.95, -158685.11, -158799.34, -158786.31, -158811.95, 187500.00, 0, 1, 1, 0, 1, 18:18:04.222
10, -158639.98, -158663.83, -158737.53, -158688.84, -158802.86, -158789.56, -158815.55, 187500.00, 0, 1, 1, 0, 1, 18:18:04.223
11, -158646.84, -158671.25, -158744.45, -158695.80, -158809.61, -158795.97, -158822.30, 187500.00, 0, 1, 1, 0, 1, 18:18:04.223
12, -158646.59, -158670.83, -158744.20, -158695.59, -158809.45, -158796.05, -158822.02, 187500.00, 0, 1, 1, 0, 1, 18:18:04.223
13, -158639.94, -158663.72, -158737.48, -158688.78, -158802.86, -158789.72, -158815.55, 187500.00, 0, 1, 1, 0, 1, 18:18:04.223
14, -158643.28, -158667.08, -158740.67, -158692.03, -158806.02, -158792.86, -158818.84, 187500.00, 0, 1, 1, 0, 1, 18:18:04.223
15, -158651.52, -158675.67, -158748.92, -158700.31, -158814.03, -158800.67, -158826.86, 187500.00, 0, 1, 1, 0, 1, 18:18:04.223
16, -158653.44, -158677.59, -158750.83, -158702.19, -158815.86, -158802.67, -158828.72, 187500.00, 0, 1, 1, 0, 1, 18:18:04.223
17, -158647.78, -158671.47, -158745.13, -158696.39, -158810.50, -158797.56, -158823.22, 187500.00, 0, 1, 1, 0, 1, 18:18:04.224
18, -158648.23, -158671.77, -158745.28, -158696.58, -158810.69, -158797.67, -158823.47, 187500.00, 0, 1, 1, 0, 1, 18:18:04.224
19, -158655.05, -158678.98, -158752.09, -158703.38, -158817.31, -158804.06, -158830.11, 187500.00, 0, 1, 1, 0, 1, 18:18:04.224
20, -158656.59, -158680.55, -158753.59, -158704.89, -158818.80, -158805.61, -158831.64, 187500.00, 0, 1, 1, 0, 1, 18:18:04.224
21, -158651.31, -158674.84, -158748.28, -158699.58, -158813.70, -158800.89, -158826.44, 187500.00, 0, 1, 1, 0, 1, 18:18:04.224
22, -158652.31, -158675.72, -158749.28, -158700.36, -158814.66, -158801.70, -158827.47, 187500.00, 0, 1, 1, 0, 1, 18:18:04.224
23, -158660.44, -158684.23, -158757.42, -158708.59, -158822.53, -158809.42, -158835.61, 187500.00, 0, 1, 1, 0, 1, 18:18:04.224
24, -158663.30, -158687.25, -158760.17, -158711.39, -158825.33, -158812.05, -158838.36, 187500.00, 0, 1, 1, 0, 1, 18:18:04.225
25, -158657.58, -158681.13, -158754.41, -158705.52, -158819.80, -158806.84, -158832.63, 187500.00, 0, 1, 1, 0, 1, 18:18:04.225
26, -158657.42, -158680.77, -158754.05, -158705.27, -158819.58, -158806.70, -158832.45, 187500.00, 0, 1, 1, 0, 1, 18:18:04.227
27, -158662.44, -158686.00, -158758.94, -158710.23, -158824.38, -158811.31, -158837.33, 187500.00, 0, 1, 1, 0, 1, 18:18:04.227
28, -158666.22, -158690.03, -158762.69, -158713.94, -158827.95, -158814.77, -158840.88, 187500.00, 0, 1, 1, 0, 1, 18:18:04.227
29, -158662.16, -158685.72, -158758.77, -158709.94, -158824.14, -158811.34, -158837.09, 187500.00, 0, 1, 1, 0, 1, 18:18:04.227
30, -158659.58, -158682.72, -158755.98, -158707.03, -158821.52, -158808.77, -158834.42, 187500.00, 0, 1, 1, 0, 1, 18:18:04.227
31, -158664.23, -158687.66, -158760.64, -158711.73, -158826.02, -158813.09, -158839.06, 187500.00, 0, 1, 1, 0, 1, 18:18:04.227
32, -158669.86, -158693.56, -158766.20, -158717.31, -158831.42, -158818.23, -158844.44, 187500.00, 0, 1, 1, 0, 1, 18:18:04.227
33, -158667.00, -158690.39, -158763.41, -158714.53, -158828.73, -158815.83, -158841.66, 187500.00, 0, 1, 1, 0, 1, 18:18:04.227
34, -158662.09, -158685.11, -158758.42, -158709.45, -158823.95, -158811.17, -158836.86, 187500.00, 0, 1, 1, 0, 1, 18:18:04.228
35, -158665.28, -158688.48, -158761.55, -158712.53, -158826.95, -158814.19, -158840.08, 187500.00, 0, 1, 1, 0, 1, 18:18:04.228
36, -158671.05, -158694.59, -158767.20, -158718.30, -158832.55, -158819.55, -158845.64, 187500.00, 0, 1, 1, 0, 1, 18:18:04.228
37, -158670.56, -158693.89, -158766.64, -158717.83, -158832.20, -158819.28, -158845.13, 187500.00, 0, 1, 1, 0, 1, 18:18:04.228
38, -158665.47, -158688.33, -158761.50, -158712.56, -158827.11, -158814.48, -158840.14, 187500.00, 0, 1, 1, 0, 1, 18:18:04.228
39, -158668.38, -158691.30, -158764.30, -158715.27, -158829.86, -158817.20, -158842.89, 187500.00, 0, 1, 1, 0, 1, 18:18:04.228
40, -158675.88, -158699.17, -158771.67, -158722.80, -158837.09, -158824.19, -158850.11, 187500.00, 0, 1, 1, 0, 1, 18:18:04.228
41, -158675.97, -158699.25, -158771.86, -158722.95, -158837.28, -158824.36, -158850.25, 187500.00, 0, 1, 1, 0, 1, 18:18:04.228
42, -158668.38, -158691.28, -158764.34, -158715.23, -158830.02, -158817.39, -158842.91, 187500.00, 0, 1, 1, 0, 1, 18:18:04.229
43, -158667.09, -158689.95, -158762.84, -158713.83, -158828.66, -158816.02, -158841.58, 187500.00, 0, 1, 1, 0, 1, 18:18:04.229
44, -158674.30, -158697.41, -158769.86, -158720.94, -158835.45, -158822.64, -158848.44, 187500.00, 0, 1, 1, 0, 1, 18:18:04.229
45, -158677.95, -158701.11, -158773.47, -158724.52, -158839.00, -158826.13, -158851.97, 187500.00, 0, 1, 1, 0, 1, 18:18:04.229
46, -158672.25, -158695.06, -158767.88, -158718.84, -158833.59, -158820.97, -158846.56, 187500.00, 0, 1, 1, 0, 1, 18:18:04.229
47, -158671.63, -158694.16, -158767.20, -158718.09, -158832.92, -158820.22, -158846.00, 187500.00, 0, 1, 1, 0, 1, 18:18:04.229
48, -158679.19, -158702.09, -158774.67, -158725.78, -158840.23, -158827.38, -158853.38, 187500.00, 0, 1, 1, 0, 1, 18:18:04.229
49, -158682.58, -158705.78, -158777.98, -158729.14, -158843.52, -158830.53, -158856.64, 187500.00, 0, 1, 1, 0, 1, 18:18:04.229
50, -158677.98, -158700.86, -158773.48, -158724.47, -158839.06, -158826.50, -158852.23, 187500.00, 0, 1, 1, 0, 1, 18:18:04.229
51, -158675.45, -158698.13, -158770.98, -158721.81, -158836.56, -158824.09, -158849.78, 187500.00, 0, 1, 1, 0, 1, 18:18:04.229
52, -158682.00, -158704.91, -158777.27, -158728.31, -158842.80, -158830.19, -158856.03, 187500.00, 0, 1, 1, 0, 1, 18:18:04.229
53, -158686.89, -158710.08, -158782.08, -158733.30, -158847.50, -158834.67, -158860.81, 187500.00, 0, 1, 1, 0, 1, 18:18:04.230
54, -158683.66, -158706.67, -158779.02, -158730.22, -158844.64, -158832.08, -158857.80, 187500.00, 0, 1, 1, 0, 1, 18:18:04.230
55, -158681.67, -158704.38, -158777.00, -158728.05, -158842.83, -158830.38, -158855.91, 187500.00, 0, 1, 1, 0, 1, 18:18:04.230
56, -158686.00, -158708.91, -158781.28, -158732.30, -158847.00, -158834.38, -158860.23, 187500.00, 0, 1, 1, 0, 1, 18:18:04.230
57, -158691.59, -158714.84, -158786.77, -158737.75, -158852.34, -158839.42, -158865.59, 187500.00, 0, 1, 1, 0, 1, 18:18:04.230
58, -158692.84, -158715.91, -158788.08, -158739.02, -158853.73, -158841.03, -158867.00, 187500.00, 0, 1, 1, 0, 1, 18:18:04.230
59, -158688.13, -158710.81, -158783.41, -158734.28, -158849.13, -158836.61, -158862.36, 187500.00, 0, 1, 1, 0, 1, 18:18:04.230
60, -158689.36, -158712.06, -158784.48, -158735.31, -158850.06, -158837.50, -158863.50, 187500.00, 0, 1, 1, 0, 1, 18:18:04.230
61, -158697.73, -158720.88, -158792.91, -158743.67, -158858.25, -158845.48, -158871.70, 187500.00, 0, 1, 1, 0, 1, 18:18:04.230
62, -158694.45, -158717.58, -158789.56, -158740.41, -158855.05, -158842.33, -158868.45, 187500.00, 0, 1, 1, 0, 1, 18:18:04.230
63, -158690.09, -158713.08, -158785.30, -158736.14, -158851.03, -158838.52, -158864.33, 187500.00, 0, 1, 1, 0, 1, 18:18:04.231
64, -158693.95, -158716.98, -158789.11, -158739.88, -158854.73, -158842.20, -158868.19, 187500.00, 0, 1, 1, 0, 1, 18:18:04.231
65, -158702.13, -158725.36, -158797.09, -158747.97, -158862.61, -158849.78, -158876.11, 187500.00, 0, 1, 1, 0, 1, 18:18:04.231
66, -158703.92, -158727.27, -158798.91, -158749.80, -158864.44, -158851.66, -158877.92, 187500.00, 0, 1, 1, 0, 1, 18:18:04.231
67, -158698.30, -158721.44, -158793.45, -158744.30, -158859.23, -158846.59, -158872.73, 187500.00, 0, 1, 1, 0, 1, 18:18:04.231
68, -158698.98, -158722.02, -158794.14, -158744.94, -158859.75, -158847.22, -158873.44, 187500.00, 0, 1, 1, 0, 1, 18:18:04.231
69, -158708.64, -158731.89, -158803.69, -158754.59, -158869.11, -158856.41, -158882.83, 187500.00, 0, 1, 1, 0, 1, 18:18:04.231
70, -158713.11, -158736.55, -158808.11, -158759.19, -158873.63, -158860.75, -158887.14, 187500.00, 0, 1, 1, 0, 1, 18:18:04.231
71, -158708.98, -158732.11, -158804.05, -158754.98, -158869.75, -158857.13, -158883.17, 187500.00, 0, 1, 1, 0, 1, 18:18:04.231
72, -158707.94, -158731.00, -158803.06, -158753.94, -158868.75, -158856.17, -158882.19, 187500.00, 0, 1, 1, 0, 1, 18:18:04.231
73, -158713.50, -158736.81, -158808.48, -158759.55, -158874.11, -158861.36, -158887.58, 187500.00, 0, 1, 1, 0, 1, 18:18:04.231
74, -158717.94, -158741.45, -158812.84, -158763.81, -158878.36, -158865.53, -158891.77, 187500.00, 0, 1, 1, 0, 1, 18:18:04.232
75, -158713.97, -158737.30, -158809.05, -158759.89, -158874.67, -158862.14, -158888.00, 187500.00, 0, 1, 1, 0, 1, 18:18:04.232
76, -158712.17, -158735.27, -158807.27, -158758.09, -158872.94, -158860.48, -158886.36, 187500.00, 0, 1, 1, 0, 1, 18:18:04.232
77, -158720.48, -158743.63, -158815.38, -158766.30, -158880.91, -158868.42, -158894.50, 187500.00, 0, 1, 1, 0, 1, 18:18:04.232
78, -158725.59, -158749.06, -158820.47, -158771.56, -158885.98, -158873.20, -158899.47, 187500.00, 0, 1, 1, 0, 1, 18:18:04.232
79, -158723.02, -158746.44, -158818.02, -158768.95, -158883.70, -158871.05, -158896.94, 187500.00, 0, 1, 1, 0, 1, 18:18:04.232
80, -158720.22, -158743.33, -158815.28, -158766.02, -158881.00, -158868.42, -158894.25, 187500.00, 0, 1, 1, 0, 1, 18:18:04.232
81, -158723.83, -158747.06, -158818.91, -158769.64, -158884.44, -158871.88, -158897.89, 187500.00, 0, 1, 1, 0, 1, 18:18:04.232
82, -158730.38, -158753.86, -158825.34, -158776.11, -158890.75, -158877.84, -158904.16, 187500.00, 0, 1, 1, 0, 1, 18:18:04.232
83, -158725.66, -158748.98, -158820.58, -158771.41, -158886.08, -158873.38, -158899.47, 187500.00, 0, 1, 1, 0, 1, 18:18:04.232
84, -158721.41, -158744.41, -158816.33, -158767.13, -158881.95, -158869.53, -158895.39, 187500.00, 0, 1, 1, 0, 1, 18:18:04.233
85, -158724.06, -158747.00, -158818.86, -158769.63, -158884.55, -158871.97, -158897.81, 187500.00, 0, 1, 1, 0, 1, 18:18:04.233
86, -158732.38, -158755.70, -158827.16, -158777.94, -158892.72, -158879.84, -158905.98, 187500.00, 0, 1, 1, 0, 1, 18:18:04.233
87, -158732.27, -158755.67, -158827.13, -158777.89, -158892.67, -158879.92, -158905.97, 187500.00, 0, 1, 1, 0, 1, 18:18:04.233
88, -158724.89, -158748.09, -158819.83, -158770.61, -158885.56, -158873.16, -158898.81, 187500.00, 0, 1, 1, 0, 1, 18:18:04.233
89, -158727.02, -158750.05, -158821.86, -158772.61, -158887.50, -158874.89, -158900.88, 187500.00, 0, 1, 1, 0, 1, 18:18:04.233
90, -158734.97, -158758.36, -158829.80, -158780.58, -158895.30, -158882.36, -158908.81, 187500.00, 0, 1, 1, 0, 1, 18:18:04.697
91, -158738.53, -158762.06, -158833.44, -158784.19, -158898.92, -158885.94, -158912.38, 187500.00, 0, 1, 1, 0, 1, 18:18:04.697
92, -158733.03, -158756.25, -158827.98, -158778.72, -158893.61, -158880.91, -158907.00, 187500.00, 0, 1, 1, 0, 1, 18:18:04.697
93, -158733.98, -158757.03, -158828.78, -158779.56, -158894.55, -158881.84, -158907.84, 187500.00, 0, 1, 1, 0, 1, 18:18:04.697
94, -158740.25, -158763.55, -158835.00, -158785.80, -158900.52, -158887.70, -158913.91, 187500.00, 0, 1, 1, 0, 1, 18:18:04.697
95, -158741.66, -158765.02, -158836.20, -158787.03, -158901.72, -158888.69, -158915.05, 187500.00, 0, 1, 1, 0, 1, 18:18:04.697
96, -158735.63, -158758.63, -158830.23, -158781.02, -158895.95, -158883.30, -158909.36, 187500.00, 0, 1, 1, 0, 1, 18:18:04.697
97, -158735.83, -158758.73, -158830.47, -158781.20, -158896.13, -158883.59, -158909.59, 187500.00, 0, 1, 1, 0, 1, 18:18:04.697
98, -158742.11, -158765.36, -158836.83, -158787.59, -158902.38, -158889.53, -158915.89, 187500.00, 0, 1, 1, 0, 1, 18:18:04.697
99, -158748.28, -158771.67, -158842.83, -158793.69, -158908.41, -158895.34, -158921.92, 187500.00, 0, 1, 1, 0, 1, 18:18:04.697
100, -158742.94, -158766.09, -158837.44, -158788.19, -158903.22, -158890.48, -158916.73, 187500.00, 0, 1, 1, 0, 1, 18:18:04.698
101, -158737.39, -158760.33, -158831.95, -158782.52, -158897.73, -158885.11, -158911.16, 187500.00, 0, 1, 1, 0, 1, 18:18:04.698
102, -158741.09, -158764.38, -158835.67, -158786.31, -158901.36, -158888.70, -158914.86, 187500.00, 0, 1, 1, 0, 1, 18:18:04.698
103, -158746.28, -158769.83, -158840.61, -158791.38, -158906.28, -158893.38, -158919.73, 187500.00, 0, 1, 1, 0, 1, 18:18:04.698
104, -158742.70, -158766.06, -158837.06, -158787.81, -158902.80, -158890.20, -158916.20, 187500.00, 0, 1, 1, 0, 1, 18:18:04.698
105, -158734.69, -158757.89, -158829.03, -158779.72, -158894.92, -158882.52, -158908.27, 187500.00, 0, 1, 1, 0, 1, 18:18:04.698
106, -158739.52, -158762.69, -158833.66, -158784.42, -158899.59, -158887.02, -158912.98, 187500.00, 0, 1, 1, 0, 1, 18:18:04.698
107, -158748.00, -158771.56, -158842.20, -158793.00, -158907.94, -158895.17, -158921.45, 187500.00, 0, 1, 1, 0, 1, 18:18:04.698
108, -158744.00, -158767.55, -158838.23, -158789.05, -158903.94, -158891.48, -158917.56, 187500.00, 0, 1, 1, 0, 1, 18:18:04.698
109, -158740.77, -158763.92, -158835.02, -158785.69, -158900.92, -158888.63, -158914.42, 187500.00, 0, 1, 1, 0, 1, 18:18:04.698
110, -158744.14, -158767.28, -158838.36, -158789.11, -158904.22, -158891.86, -158917.81, 187500.00, 0, 1, 1, 0, 1, 18:18:04.698
111, -158751.97, -158775.36, -158846.00, -158796.98, -158911.73, -158899.28, -158925.44, 187500.00, 0, 1, 1, 0, 1, 18:18:04.699
112, -158751.11, -158774.67, -158845.30, -158796.22, -158911.05, -158898.50, -158924.67, 187500.00, 0, 1, 1, 0, 1, 18:18:04.699
113, -158744.63, -158767.92, -158838.91, -158789.73, -158904.92, -158892.59, -158918.47, 187500.00, 0, 1, 1, 0, 1, 18:18:04.699
114, -158744.63, -158767.97, -158838.95, -158789.67, -158904.84, -158892.56, -158918.48, 187500.00, 0, 1, 1, 0, 1, 18:18:04.699
115, -158752.08, -158775.75, -158846.31, -158797.16, -158912.11, -158899.64, -158925.72, 187500.00, 0, 1, 1, 0, 1, 18:18:04.699
116, -158756.83, -158780.64, -158850.98, -158801.78, -158916.69, -158904.17, -158930.33, 187500.00, 0, 1, 1, 0, 1, 18:18:04.699
117, -158747.69, -158771.25, -158841.81, -158792.58, -158907.86, -158895.48, -158921.36, 187500.00, 0, 1, 1, 0, 1, 18:18:04.699
118, -158744.63, -158768.06, -158838.73, -158789.41, -158904.67, -158892.47, -158918.30, 187500.00, 0, 1, 1, 0, 1, 18:18:04.699
119, -158751.50, -158775.14, -158845.38, -158796.31, -158911.27, -158898.91, -158924.97, 187500.00, 0, 1, 1, 0, 1, 18:18:04.699
120, -158754.11, -158777.94, -158847.88, -158798.91, -158913.67, -158901.20, -158927.45, 187500.00, 0, 1, 1, 0, 1, 18:18:04.699
121, -158745.22, -158768.84, -158839.06, -158790.00, -158905.03, -158892.95, -158918.59, 187500.00, 0, 1, 1, 0, 1, 18:18:04.700
122, -158741.56, -158764.92, -158835.30, -158786.09, -158901.36, -158889.27, -158914.89, 187500.00, 0, 1, 1, 0, 1, 18:18:04.700
123, -158747.38, -158770.98, -158840.91, -158791.80, -158906.97, -158894.80, -158920.55, 187500.00, 0, 1, 1, 0, 1, 18:18:04.700
124, -158750.27, -158774.09, -158843.52, -158794.47, -158909.44, -158897.14, -158923.05, 187500.00, 0, 1, 1, 0, 1, 18:18:04.700
125, -158743.89, -158767.59, -158837.13, -158788.00, -158903.17, -158891.11, -158916.81, 187500.00, 0, 1, 1, 0, 1, 18:18:04.700
126, -158737.48, -158761.02, -158830.58, -158781.33, -158896.78, -158884.94, -158910.53, 187500.00, 0, 1, 1, 0, 1, 18:18:04.700
127, -158737.66, -158761.34, -158830.63, -158781.41, -158896.72, -158884.94, -158910.42, 187500.00, 0, 1, 1, 0, 1, 18:18:04.700
128, -158740.66, -158764.59, -158833.22, -158784.19, -158899.33, -158887.34, -158912.97, 187500.00, 0, 1, 1, 0, 1, 18:18:04.700
129, -158734.84, -158758.73, -158827.27, -158778.30, -158893.61, -158881.83, -158907.31, 187500.00, 0, 1, 1, 0, 1, 18:18:04.700
130, -158729.25, -158752.95, -158821.61, -158772.48, -158888.16, -158876.48, -158901.81, 187500.00, 0, 1, 1, 0, 1, 18:18:04.700
131, -158731.84, -158755.50, -158824.14, -158774.84, -158890.52, -158878.78, -158904.27, 187500.00, 0, 1, 1, 0, 1, 18:18:04.701
132, -158737.41, -158761.28, -158829.44, -158780.22, -158895.78, -158883.84, -158909.52, 187500.00, 0, 1, 1, 0, 1, 18:18:04.701
133, -158733.05, -158756.98, -158824.98, -158775.88, -158891.45, -158879.56, -158905.11, 187500.00, 0, 1, 1, 0, 1, 18:18:04.701
134, -158726.64, -158750.39, -158818.73, -158769.53, -158885.25, -158873.64, -158899.02, 187500.00, 0, 1, 1, 0, 1, 18:18:04.701
135, -158727.20, -158751.05, -158819.17, -158769.94, -158885.61, -158874.05, -158899.53, 187500.00, 0, 1, 1, 0, 1, 18:18:04.701
136, -158735.36, -158759.42, -158827.13, -158777.98, -158893.50, -158881.72, -158907.47, 187500.00, 0, 1, 1, 0, 1, 18:18:04.701
137, -158736.98, -158761.17, -158828.73, -158779.64, -158895.28, -158883.41, -158909.09, 187500.00, 0, 1, 1, 0, 1, 18:18:04.701
138, -158727.23, -158751.22, -158819.00, -158769.78, -158885.67, -158874.11, -158899.48, 187500.00, 0, 1, 1, 0, 1, 18:18:04.701
139, -158725.25, -158749.22, -158816.97, -158767.67, -158883.66, -158872.14, -158897.42, 187500.00, 0, 1, 1, 0, 1, 18:18:04.701
140, -158730.81, -158754.98, -158822.30, -158773.16, -158888.95, -158877.31, -158902.88, 187500.00, 0, 1, 1, 0, 1, 18:18:04.701
141, -158734.81, -158759.16, -158826.27, -158777.20, -158892.89, -158881.09, -158906.86, 187500.00, 0, 1, 1, 0, 1, 18:18:04.702
142, -158729.97, -158754.09, -158821.56, -158772.28, -158888.23, -158876.66, -158902.23, 187500.00, 0, 1, 1, 0, 1, 18:18:04.702
143, -158729.25, -158753.39, -158820.92, -158771.52, -158887.58, -158876.06, -158901.61, 187500.00, 0, 1, 1, 0, 1, 18:18:04.702
144, -158733.92, -158758.28, -158825.36, -158776.19, -158892.02, -158880.47, -158906.17, 187500.00, 0, 1, 1, 0, 1, 18:18:04.702
145, -158736.19, -158760.72, -158827.59, -158778.56, -158894.23, -158882.45, -158908.31, 187500.00, 0, 1, 1, 0, 1, 18:18:04.702
146, -158732.94, -158757.48, -158824.56, -158775.48, -158891.30, -158879.75, -158905.30, 187500.00, 0, 1, 1, 0, 1, 18:18:04.702
147, -158729.44, -158753.73, -158821.08, -158771.75, -158887.86, -158876.44, -158901.88, 187500.00, 0, 1, 1, 0, 1, 18:18:04.702
148, -158733.52, -158757.95, -158825.14, -158775.81, -158891.73, -158880.16, -158905.91, 187500.00, 0, 1, 1, 0, 1, 18:18:04.702
149, -158738.66, -158763.25, -158830.16, -158780.78, -158896.59, -158884.84, -158910.84, 187500.00, 0, 1, 1, 0, 1, 18:18:04.702
150, -158737.33, -158761.81, -158828.89, -158779.55, -158895.55, -158883.89, -158909.70, 187500.00, 0, 1, 1, 0, 1, 18:18:04.702
151, -158733.91, -158758.16, -158825.48, -158776.08, -158892.22, -158880.75, -158906.39, 187500.00, 0, 1, 1, 0, 1, 18:18:04.702
152, -158735.56, -158759.89, -158827.11, -158777.73, -158893.88, -158882.39, -158908.02, 187500.00, 0, 1, 1, 0, 1, 18:18:04.703
153, -158741.41, -158766.00, -158832.77, -158783.45, -158899.38, -158887.70, -158913.59, 187500.00, 0, 1, 1, 0, 1, 18:18:04.703
154, -158740.09, -158764.77, -158831.52, -158782.23, -158898.30, -158886.67, -158912.47, 187500.00, 0, 1, 1, 0, 1, 18:18:04.703
155, -158733.20, -158757.73, -158824.83, -158775.41, -158891.75, -158880.33, -158905.97, 187500.00, 0, 1, 1, 0, 1, 18:18:04.703
156, -158737.30, -158761.78, -158828.94, -158779.39, -158895.66, -158884.17, -158910.08, 187500.00, 0, 1, 1, 0, 1, 18:18:04.703
157, -158744.28, -158769.02, -158835.89, -158786.47, -158902.44, -158890.77, -158916.89, 187500.00, 0, 1, 1, 0, 1, 18:18:04.703
158, -158745.19, -158770.06, -158836.94, -158787.53, -158903.42, -158891.91, -158917.83, 187500.00, 0, 1, 1, 0, 1, 18:18:04.703
159, -158738.28, -158762.89, -158830.06, -158780.66, -158896.75, -158885.47, -158911.16, 187500.00, 0, 1, 1, 0, 1, 18:18:04.703
160, -158740.00, -158764.48, -158831.67, -158782.31, -158898.45, -158887.08, -158912.98, 187500.00, 0, 1, 1, 0, 1, 18:18:04.703
161, -158747.25, -158771.97, -158838.95, -158789.53, -158905.52, -158894.02, -158920.14, 187500.00, 0, 1, 1, 0, 1, 18:18:04.704
162, -158748.63, -158773.44, -158840.36, -158790.98, -158907.00, -158895.42, -158921.59, 187500.00, 0, 1, 1, 0, 1, 18:18:04.704
163, -158742.58, -158767.30, -158834.53, -158785.05, -158901.31, -158889.98, -158915.80, 187500.00, 0, 1, 1, 0, 1, 18:18:04.704
164, -158742.00, -158766.63, -158833.92, -158784.47, -158900.72, -158889.53, -158915.33, 187500.00, 0, 1, 1, 0, 1, 18:18:04.704
165, -158747.31, -158772.06, -158839.17, -158789.84, -158905.81, -158894.45, -158920.50, 187500.00, 0, 1, 1, 0, 1, 18:18:04.704
166, -158749.28, -158774.09, -158841.17, -158791.77, -158907.67, -158896.28, -158922.42, 187500.00, 0, 1, 1, 0, 1, 18:18:04.704
167, -158742.13, -158766.77, -158834.03, -158784.58, -158900.78, -158889.67, -158915.47, 187500.00, 0, 1, 1, 0, 1, 18:18:04.704
168, -158739.89, -158764.39, -158831.78, -158782.25, -158898.48, -158887.50, -158913.31, 187500.00, 0, 1, 1, 0, 1, 18:18:04.704
169, -158745.80, -158770.38, -158837.64, -158788.19, -158904.25, -158893.11, -158919.25, 187500.00, 0, 1, 1, 0, 1, 18:18:04.704
170, -158749.75, -158774.52, -158841.42, -158792.06, -158908.14, -158896.73, -158922.97, 187500.00, 0, 1, 1, 0, 1, 18:18:04.704
171, -158743.11, -158767.72, -158834.86, -158785.48, -158901.77, -158890.55, -158916.52, 187500.00, 0, 1, 1, 0, 1, 18:18:04.704
172, -158738.75, -158763.23, -158830.53, -158781.13, -158897.55, -158886.39, -158912.25, 187500.00, 0, 1, 1, 0, 1, 18:18:04.705
173, -158744.09, -158768.77, -158835.88, -158786.45, -158902.81, -158891.64, -158917.59, 187500.00, 0, 1, 1, 0, 1, 18:18:04.705
174, -158749.50, -158774.22, -158841.14, -158791.66, -158907.91, -158896.56, -158922.70, 187500.00, 0, 1, 1, 0, 1, 18:18:04.705
175, -158744.59, -158769.16, -158836.23, -158786.77, -158903.16, -158891.92, -158917.86, 187500.00, 0, 1, 1, 0, 1, 18:18:04.705
176, -158738.08, -158762.45, -158829.59, -158780.08, -158896.59, -158885.72, -158911.42, 187500.00, 0, 1, 1, 0, 1, 18:18:04.705
177, -158739.77, -158764.23, -158831.20, -158781.69, -158898.14, -158887.30, -158912.98, 187500.00, 0, 1, 1, 0, 1, 18:18:04.705
178, -158745.38, -158770.05, -158836.78, -158787.30, -158903.67, -158892.42, -158918.47, 187500.00, 0, 1, 1, 0, 1, 18:18:04.705
179, -158743.72, -158768.34, -158835.27, -158785.78, -158902.06, -158890.92, -158916.86, 187500.00, 0, 1, 1, 0, 1, 18:18:04.705
180, -158737.53, -158761.94, -158829.08, -158779.44, -158896.09, -158885.14, -158910.77, 187500.00, 0, 1, 1, 0, 1, 18:18:04.705
181, -158738.70, -158763.11, -158830.17, -158780.47, -158897.19, -158886.23, -158911.94, 187500.00, 0, 1, 1, 0, 1, 18:18:04.705
182, -158743.06, -158767.81, -158834.38, -158784.80, -158901.34, -158890.14, -158916.19, 187500.00, 0, 1, 1, 0, 1, 18:18:04.705
183, -158741.08, -158765.69, -158832.14, -158782.63, -158899.31, -158888.08, -158914.14, 187500.00, 0, 1, 1, 0, 1, 18:18:04.706
184, -158736.14, -158760.61, -158827.28, -158777.83, -158894.55, -158883.64, -158909.36, 187500.00, 0, 1, 1, 0, 1, 18:18:04.706
185, -158738.33, -158762.67, -158829.41, -158779.91, -158896.63, -158885.67, -158911.42, 187500.00, 0, 1, 1, 0, 1, 18:18:04.706
186, -158745.08, -158769.59, -158836.13, -158786.66, -158903.16, -158892.05, -158918.03, 187500.00, 0, 1, 1, 0, 1, 18:18:04.706
187, -158749.34, -158774.14, -158840.52, -158791.06, -158907.42, -158896.20, -158922.38, 187500.00, 0, 1, 1, 0, 1, 18:18:04.706
188, -158745.80, -158770.34, -158837.03, -158787.39, -158904.05, -158893.06, -158918.89, 187500.00, 0, 1, 1, 0, 1, 18:18:04.706
189, -158742.22, -158766.69, -158833.41, -158783.75, -158900.48, -158889.52, -158915.36, 187500.00, 0, 1, 1, 0, 1, 18:18:04.706
190, -158746.53, -158771.28, -158837.69, -158788.08, -158904.63, -158893.56, -158919.53, 187500.00, 0, 1, 1, 0, 1, 18:18:04.706
191, -158747.30, -158771.98, -158838.28, -158788.69, -158905.16, -158893.94, -158920.11, 187500.00, 0, 1, 1, 0, 1, 18:18:04.706
192, -158740.30, -158764.86, -158831.27, -158781.67, -158898.41, -158887.45, -158913.31, 187500.00, 0, 1, 1, 0, 1, 18:18:04.706
193, -158738.08, -158762.56, -158829.03, -158779.45, -158896.28, -158885.41, -158911.20, 187500.00, 0, 1, 1, 0, 1, 18:18:04.707
194, -158741.25, -158765.91, -158832.14, -158782.66, -158899.42, -158888.47, -158914.34, 187500.00, 0, 1, 1, 0, 1, 18:18:04.707
195, -158744.50, -158769.23, -158835.16, -158785.67, -158902.38, -158891.30, -158917.34, 187500.00, 0, 1, 1, 0, 1, 18:18:04.707
196, -158736.81, -158761.44, -158827.48, -158777.89, -158894.72, -158883.92, -158909.81, 187500.00, 0, 1, 1, 0, 1, 18:18:04.707
197, -158730.02, -158754.48, -158820.58, -158770.83, -158887.97, -158877.33, -158903.03, 187500.00, 0, 1, 1, 0, 1, 18:18:04.707
198, -158732.00, -158756.48, -158822.38, -158772.69, -158889.78, -158879.06, -158904.80, 187500.00, 0, 1, 1, 0, 1, 18:18:04.707
199, -158735.63, -158760.17, -158825.91, -158776.22, -158893.09, -158882.28, -158908.16, 187500.00, 0, 1, 1, 0, 1, 18:18:04.707
200, -158731.33, -158755.83, -158821.64, -158771.98, -158888.95, -158878.27, -158903.91, 187500.00, 0, 1, 1, 0, 1, 18:18:04.707
201, -158726.86, -158751.06, -158817.08, -158767.30, -158884.63, -158874.09, -158899.53, 187500.00, 0, 1, 1, 0, 1, 18:18:04.708
202, -158725.92, -158750.20, -158816.05, -158766.27, -158883.61, -158873.02, -158898.70, 187500.00, 0, 1, 1, 0, 1, 18:18:04.708
203, -158728.66, -158753.02, -158818.58, -158768.95, -158886.03, -158875.36, -158901.19, 187500.00, 0, 1, 1, 0, 1, 18:18:04.708
204, -158729.88, -158754.27, -158819.94, -158770.25, -158887.34, -158876.80, -158902.41, 187500.00, 0, 1, 1, 0, 1, 18:18:04.708
205, -158727.23, -158751.34, -158817.20, -158767.45, -158884.78, -158874.42, -158899.84, 187500.00, 0, 1, 1, 0, 1, 18:18:04.708
206, -158729.20, -158753.14, -158819.06, -158769.31, -158886.59, -158876.13, -158901.73, 187500.00, 0, 1, 1, 0, 1, 18:18:04.708
207, -158738.44, -158762.69, -158828.39, -158778.67, -158895.78, -158885.11, -158910.95, 187500.00, 0, 1, 1, 0, 1, 18:18:04.708
208, -158738.53, -158762.88, -158828.55, -158778.78, -158895.86, -158885.16, -158911.08, 187500.00, 0, 1, 1, 0, 1, 18:18:04.708
209, -158733.75, -158758.02, -158823.95, -158774.14, -158891.44, -158880.94, -158906.64, 187500.00, 0, 1, 1, 0, 1, 18:18:04.708
210, -158733.48, -158757.73, -158823.72, -158773.84, -158891.22, -158880.70, -158906.44, 187500.00, 0, 1, 1, 0, 1, 18:18:05.176
211, -158739.94, -158764.34, -158830.23, -158780.47, -158897.52, -158886.78, -158912.84, 187500.00, 0, 1, 1, 0, 1, 18:18:05.177
212, -158744.77, -158769.22, -158835.02, -158785.30, -158902.28, -158891.45, -158917.67, 187500.00, 0, 1, 1, 0, 1, 18:18:05.177
213, -158742.39, -158766.83, -158832.86, -158782.98, -158900.20, -158889.63, -158915.56, 187500.00, 0, 1, 1, 0, 1, 18:18:05.177
214, -158742.00, -158766.27, -158832.34, -158782.41, -158899.80, -158889.20, -158915.13, 187500.00, 0, 1, 1, 0, 1, 18:18:05.177
215, -158745.41, -158769.83, -158835.67, -158785.88, -158903.08, -158892.27, -158918.39, 187500.00, 0, 1, 1, 0, 1, 18:18:05.177
216, -158749.14, -158773.59, -158839.36, -158789.56, -158906.64, -158895.70, -158922.13, 187500.00, 0, 1, 1, 0, 1, 18:18:05.177
217, -158746.59, -158770.97, -158836.91, -158787.06, -158904.33, -158893.66, -158919.80, 187500.00, 0, 1, 1, 0, 1, 18:18:05.177
218, -158745.55, -158769.73, -158836.00, -158786.09, -158903.38, -158892.78, -158918.91, 187500.00, 0, 1, 1, 0, 1, 18:18:05.177
219, -158750.98, -158775.30, -158841.45, -158791.64, -158908.73, -158897.98, -158924.27, 187500.00, 0, 1, 1, 0, 1, 18:18:05.178
220, -158757.91, -158782.36, -158848.23, -158798.48, -158915.44, -158904.53, -158931.06, 187500.00, 0, 1, 1, 0, 1, 18:18:05.178
221, -158754.94, -158779.23, -158845.44, -158795.59, -158912.63, -158901.97, -158928.36, 187500.00, 0, 1, 1, 0, 1, 18:18:05.178
222, -158751.61, -158775.77, -158842.20, -158792.23, -158909.55, -158898.88, -158925.22, 187500.00, 0, 1, 1, 0, 1, 18:18:05.178
223, -158755.94, -158780.27, -158846.59, -158796.59, -158913.97, -158903.08, -158929.59, 187500.00, 0, 1, 1, 0, 1, 18:18:05.178
224, -158762.31, -158786.81, -158852.97, -158802.98, -158920.11, -158908.98, -158935.77, 187500.00, 0, 1, 1, 0, 1, 18:18:05.178
225, -158761.27, -158785.69, -158851.94, -158802.13, -158919.20, -158908.31, -158934.88, 187500.00, 0, 1, 1, 0, 1, 18:18:05.178
226, -158760.77, -158784.91, -158851.41, -158801.55, -158918.80, -158908.09, -158934.52, 187500.00, 0, 1, 1, 0, 1, 18:18:05.178
227, -158763.19, -158787.23, -158853.78, -158803.80, -158921.02, -158910.33, -158936.91, 187500.00, 0, 1, 1, 0, 1, 18:18:05.178
228, -158767.94, -158792.36, -158858.69, -158808.63, -158925.69, -158914.73, -158941.63, 187500.00, 0, 1, 1, 0, 1, 18:18:05.178
229, -158770.27, -158794.61, -158860.86, -158810.97, -158927.98, -158917.03, -158943.86, 187500.00, 0, 1, 1, 0, 1, 18:18:05.178
230, -158766.80, -158790.97, -158857.59, -158807.59, -158924.77, -158914.03, -158940.66, 187500.00, 0, 1, 1, 0, 1, 18:18:05.179
231, -158767.31, -158791.48, -158858.20, -158808.16, -158925.39, -158914.55, -158941.28, 187500.00, 0, 1, 1, 0, 1, 18:18:05.179
232, -158775.30, -158799.64, -158866.05, -158816.09, -158933.14, -158922.17, -158949.00, 187500.00, 0, 1, 1, 0, 1, 18:18:05.179
233, -158778.55, -158802.97, -158869.31, -158819.44, -158936.34, -158925.34, -158952.28, 187500.00, 0, 1, 1, 0, 1, 18:18:05.179
234, -158773.80, -158797.98, -158864.75, -158814.77, -158931.98, -158921.09, -158947.73, 187500.00, 0, 1, 1, 0, 1, 18:18:05.179
235, -158772.59, -158796.73, -158863.61, -158813.45, -158930.75, -158919.94, -158946.53, 187500.00, 0, 1, 1, 0, 1, 18:18:05.179
236, -158777.16, -158801.56, -158868.11, -158818.06, -158935.16, -158924.34, -158951.20, 187500.00, 0, 1, 1, 0, 1, 18:18:05.179
237, -158781.44, -158805.88, -158872.33, -158822.42, -158939.41, -158928.52, -158955.36, 187500.00, 0, 1, 1, 0, 1, 18:18:05.179
238, -158779.05, -158803.38, -158870.14, -158820.03, -158937.23, -158926.55, -158953.08, 187500.00, 0, 1, 1, 0, 1, 18:18:05.179
239, -158778.73, -158802.80, -158869.64, -158819.52, -158936.83, -158926.13, -158952.75, 187500.00, 0, 1, 1, 0, 1, 18:18:05.179
240, -158785.94, -158810.19, -158876.81, -158826.78, -158943.97, -158933.08, -158959.92, 187500.00, 0, 1, 1, 0, 1, 18:18:05.180
241, -158792.75, -158817.16, -158883.70, -158833.70, -158950.67, -158939.69, -158966.70, 187500.00, 0, 1, 1, 0, 1, 18:18:05.180
242, -158789.06, -158813.31, -158880.08, -158830.11, -158947.19, -158936.39, -158963.23, 187500.00, 0, 1, 1, 0, 1, 18:18:05.180
243, -158785.95, -158810.19, -158877.00, -158826.94, -158944.17, -158933.50, -158960.17, 187500.00, 0, 1, 1, 0, 1, 18:18:05.180
244, -158788.95, -158813.20, -158879.97, -158829.95, -158947.00, -158936.25, -158963.13, 187500.00, 0, 1, 1, 0, 1, 18:18:05.180
245, -158796.38, -158820.84, -158887.38, -158837.45, -158954.33, -158943.36, -158970.36, 187500.00, 0, 1, 1, 0, 1, 18:18:05.180
246, -158794.67, -158819.16, -158885.88, -158835.92, -158952.84, -158942.00, -158968.75, 187500.00, 0, 1, 1, 0, 1, 18:18:05.180
247, -158790.83, -158815.16, -158882.09, -158831.98, -158949.17, -158938.47, -158965.06, 187500.00, 0, 1, 1, 0, 1, 18:18:05.180
248, -158794.94, -158819.22, -158886.16, -158836.00, -158953.11, -158942.47, -158969.09, 187500.00, 0, 1, 1, 0, 1, 18:18:05.180
249, -158801.20, -158825.70, -158892.33, -158842.31, -158959.16, -158948.38, -158975.23, 187500.00, 0, 1, 1, 0, 1, 18:18:05.180
250, -158800.63, -158825.02, -158891.77, -158841.80, -158958.58, -158947.86, -158974.75, 187500.00, 0, 1, 1, 0, 1, 18:18:05.181
251, -158796.28, -158820.52, -158887.50, -158837.50, -158954.47, -158943.83, -158970.61, 187500.00, 0, 1, 1, 0, 1, 18:18:05.181
252, -158797.03, -158821.30, -158888.16, -158838.17, -158955.20, -158944.52, -158971.34, 187500.00, 0, 1, 1, 0, 1, 18:18:05.181
253, -158802.92, -158827.33, -158893.98, -158843.98, -158960.89, -158950.00, -158977.02, 187500.00, 0, 1, 1, 0, 1, 18:18:05.181
254, -158802.92, -158827.33, -158893.98, -158844.05, -158960.86, -158950.05, -158977.05, 187500.00, 0, 1, 1, 0, 1, 18:18:05.181
255, -158799.70, -158823.98, -158890.92, -158840.81, -158957.86, -158947.31, -158974.08, 187500.00, 0, 1, 1, 0, 1, 18:18:05.181
0, -158802.13, -158826.28, -158893.34, -158843.16, -158960.30, -158949.67, -158976.48, 187500.00, 0, 1, 1, 0, 1, 18:18:05.181
1, -158809.86, -158834.13, -158900.94, -158850.98, -158967.81, -158957.06, -158984.13, 187500.00, 0, 1, 1, 0, 1, 18:18:05.181
2, -158811.34, -158835.63, -158902.38, -158852.41, -158969.22, -158958.36, -158985.47, 187500.00, 0, 1, 1, 0, 1, 18:18:05.181
3, -158806.08, -158830.28, -158897.25, -158847.25, -158964.19, -158953.55, -158980.38, 187500.00, 0, 1, 1, 0, 1, 18:18:05.181
4, -158806.75, -158831.00, -158898.02, -158847.92, -158964.97, -158954.31, -158981.22, 187500.00, 0, 1, 1, 0, 1, 18:18:05.182
5, -158815.55, -158839.88, -158906.77, -158856.66, -158973.67, -158962.92, -158989.98, 187500.00, 0, 1, 1, 0, 1, 18:18:05.182
6, -158817.56, -158841.92, -158908.77, -158858.67, -158975.59, -158964.59, -158991.89, 187500.00, 0, 1, 1, 0, 1, 18:18:05.182
7, -158814.97, -158839.33, -158906.28, -158856.14, -158973.30, -158962.30, -158989.52, 187500.00, 0, 1, 1, 0, 1, 18:18:05.182
8, -158814.61, -158838.83, -158905.97, -158855.81, -158973.02, -158962.14, -158989.23, 187500.00, 0, 1, 1, 0, 1, 18:18:05.182
9, -158819.38, -158843.72, -158910.70, -158860.59, -158977.66, -158966.67, -158993.81, 187500.00, 0, 1, 1, 0, 1, 18:18:05.182
10, -158824.16, -158848.67, -158915.44, -158865.44, -158982.34, -158971.23, -158998.50, 187500.00, 0, 1, 1, 0, 1, 18:18:05.182
11, -158823.41, -158847.78, -158914.77, -158864.70, -158981.63, -158970.83, -158997.88, 187500.00, 0, 1, 1, 0, 1, 18:18:05.182
12, -158821.70, -158845.97, -158913.20, -158863.00, -158980.06, -158969.42, -158996.38, 187500.00, 0, 1, 1, 0, 1, 18:18:05.183
13, -158824.94, -158849.31, -158916.42, -158866.30, -158983.19, -158972.47, -158999.44, 187500.00, 0, 1, 1, 0, 1, 18:18:05.183
14, -158831.64, -158856.22, -158923.16, -158873.13, -158989.83, -158978.86, -159006.06, 187500.00, 0, 1, 1, 0, 1, 18:18:05.183
15, -158830.28, -158854.77, -158921.84, -158871.77, -158988.64, -158977.69, -159004.77, 187500.00, 0, 1, 1, 0, 1, 18:18:05.183
16, -158827.53, -158851.88, -158919.11, -158868.95, -158986.03, -158975.23, -159002.23, 187500.00, 0, 1, 1, 0, 1, 18:18:05.183
17, -158830.38, -158854.67, -158921.91, -158871.86, -158988.83, -158977.98, -159005.09, 187500.00, 0, 1, 1, 0, 1, 18:18:05.183
18, -158839.36, -158863.92, -158930.86, -158880.98, -158997.66, -158986.56, -159014.02, 187500.00, 0, 1, 1, 0, 1, 18:18:05.183
19, -158841.50, -158866.06, -158933.19, -158883.14, -159000.00, -158988.75, -159016.20, 187500.00, 0, 1, 1, 0, 1, 18:18:05.183
20, -158834.91, -158859.23, -158926.58, -158876.55, -158993.39, -158982.56, -159009.75, 187500.00, 0, 1, 1, 0, 1, 18:18:05.183
21, -158837.28, -158861.59, -158928.97, -158878.92, -158995.78, -158984.94, -159012.11, 187500.00, 0, 1, 1, 0, 1, 18:18:05.183
22, -158845.30, -158869.80, -158937.03, -158887.02, -159003.69, -158992.58, -159020.08, 187500.00, 0, 1, 1, 0, 1, 18:18:05.184
23, -158849.75, -158874.25, -158941.59, -158891.61, -159008.22, -158997.09, -159024.52, 187500.00, 0, 1, 1, 0, 1, 18:18:05.184
24, -158847.89, -158872.19, -158939.86, -158889.88, -159006.59, -158995.69, -159022.95, 187500.00, 0, 1, 1, 0, 1, 18:18:05.184
25, -158851.31, -158875.55, -158943.39, -158893.31, -159010.11, -158999.17, -159026.48, 187500.00, 0, 1, 1, 0, 1, 18:18:05.184
26, -158859.00, -158883.44, -158951.16, -158901.11, -159017.72, -159006.61, -159034.13, 187500.00, 0, 1, 1, 0, 1, 18:18:05.184
27, -158862.58, -158887.02, -158954.58, -158904.67, -159021.17, -159009.92, -159037.58, 187500.00, 0, 1, 1, 0, 1, 18:18:05.184
28, -158855.45, -158879.80, -158947.73, -158897.63, -159014.31, -159003.31, -159030.63, 187500.00, 0, 1, 1, 0, 1, 18:18:05.184
29, -158856.84, -158880.95, -158949.16, -158898.91, -159015.64, -159004.77, -159032.08, 187500.00, 0, 1, 1, 0, 1, 18:18:05.184
30, -158863.61, -158887.97, -158955.81, -158905.83, -159022.36, -159011.25, -159038.88, 187500.00, 0, 1, 1, 0, 1, 18:18:05.184
31, -158868.92, -158893.53, -158961.27, -158911.28, -159027.72, -159016.39, -159044.23, 187500.00, 0, 1, 1, 0, 1, 18:18:05.184
32, -158868.30, -158892.83, -158960.81, -158910.75, -159027.34, -159016.20, -159043.83, 187500.00, 0, 1, 1, 0, 1, 18:18:05.185
33, -158864.44, -158888.70, -158956.89, -158906.80, -159023.48, -159012.47, -159039.92, 187500.00, 0, 1, 1, 0, 1, 18:18:05.185
34, -158868.39, -158892.75, -158960.69, -158910.66, -159027.31, -159016.16, -159043.77, 187500.00, 0, 1, 1, 0, 1, 18:18:05.185
35, -158874.45, -158899.02, -158966.77, -158916.78, -159033.19, -159021.91, -159049.63, 187500.00, 0, 1, 1, 0, 1, 18:18:05.185
36, -158874.47, -158898.91, -158966.86, -158916.89, -159033.48, -159022.28, -159049.80, 187500.00, 0, 1, 1, 0, 1, 18:18:05.185
37, -158872.27, -158896.53, -158964.64, -158914.64, -159031.30, -159020.27, -159047.67, 187500.00, 0, 1, 1, 0, 1, 18:18:05.185
38, -158876.02, -158900.36, -158968.44, -158918.38, -159035.03, -159023.92, -159051.45, 187500.00, 0, 1, 1, 0, 1, 18:18:05.185
39, -158883.45, -158907.98, -158975.92, -158925.86, -159042.36, -159031.06, -159058.88, 187500.00, 0, 1, 1, 0, 1, 18:18:05.185
40, -158883.06, -158907.58, -158975.59, -158925.59, -159042.09, -159030.88, -159058.50, 187500.00, 0, 1, 1, 0, 1, 18:18:05.185
41, -158876.66, -158900.92, -158969.17, -158919.20, -159035.83, -159024.81, -159052.22, 187500.00, 0, 1, 1, 0, 1, 18:18:05.185
42, -158879.02, -158903.31, -158971.53, -158921.48, -159038.22, -159027.05, -159054.66, 187500.00, 0, 1, 1, 0, 1, 18:18:05.186
43, -158886.52, -158911.11, -158978.92, -158929.06, -159045.55, -159034.13, -159061.94, 187500.00, 0, 1, 1, 0, 1, 18:18:05.186
44, -158886.83, -158911.55, -158979.38, -158929.48, -159045.89, -159034.58, -159062.30, 187500.00, 0, 1, 1, 0, 1, 18:18:05.186
45, -158884.67, -158909.09, -158977.20, -158927.20, -159043.91, -159032.80, -159060.19, 187500.00, 0, 1, 1, 0, 1, 18:18:05.186
46, -158884.53, -158908.92, -158977.02, -158927.00, -159043.77, -159032.61, -159060.08, 187500.00, 0, 1, 1, 0, 1, 18:18:05.186
47, -158890.66, -158915.22, -158983.08, -158933.13, -159049.69, -159038.47, -159066.11, 187500.00, 0, 1, 1, 0, 1, 18:18:05.186
48, -158888.23, -158912.88, -158980.64, -158930.78, -159047.20, -159036.02, -159063.75, 187500.00, 0, 1, 1, 0, 1, 18:18:05.186
49, -158883.91, -158908.22, -158976.31, -158926.42, -159043.03, -159032.03, -159059.45, 187500.00, 0, 1, 1, 0, 1, 18:18:05.186
50, -158883.72, -158907.91, -158976.11, -158926.08, -159042.80, -159031.84, -159059.17, 187500.00, 0, 1, 1, 0, 1, 18:18:05.186
51, -158890.64, -158915.06, -158982.92, -158932.94, -159049.58, -159038.48, -159065.92, 187500.00, 0, 1, 1, 0, 1, 18:18:05.186
52, -158893.73, -158918.38, -158986.02, -158936.13, -159052.64, -159041.42, -159069.02, 187500.00, 0, 1, 1, 0, 1, 18:18:05.187
53, -158886.81, -158911.16, -158979.08, -158929.13, -159045.83, -159034.84, -159062.14, 187500.00, 0, 1, 1, 0, 1, 18:18:05.187
54, -158883.97, -158908.25, -158976.28, -158926.23, -159043.11, -159032.08, -159059.34, 187500.00, 0, 1, 1, 0, 1, 18:18:05.187
55, -158891.77, -158916.20, -158984.20, -158934.06, -159050.77, -159039.70, -159067.13, 187500.00, 0, 1, 1, 0, 1, 18:18:05.187
56, -158895.53, -158919.98, -158987.86, -158937.77, -159054.38, -159043.23, -159070.75, 187500.00, 0, 1, 1, 0, 1, 18:18:05.187
57, -158888.63, -158912.98, -158980.86, -158930.86, -159047.63, -159036.72, -159063.88, 187500.00, 0, 1, 1, 0, 1, 18:18:05.187
58, -158882.39, -158906.55, -158974.56, -158924.50, -159041.28, -159030.64, -159057.67, 187500.00, 0, 1, 1, 0, 1, 18:18:05.187
59, -158887.23, -158911.48, -158979.42, -158929.23, -159046.06, -159035.31, -159062.41, 187500.00, 0, 1, 1, 0, 1, 18:18:05.187
60, -158893.00, -158917.45, -158985.06, -158934.89, -159051.59, -159040.56, -159067.91, 187500.00, 0, 1, 1, 0, 1, 18:18:05.187
61, -158891.86, -158916.22, -158983.92, -158933.80, -159050.58, -159039.70, -159066.91, 187500.00, 0, 1, 1, 0, 1, 18:18:05.187
62, -158889.38, -158913.55, -158981.52, -158931.38, -159048.23, -159037.39, -159064.53, 187500.00, 0, 1, 1, 0, 1, 18:18:05.187
63, -158893.34, -158917.59, -158985.52, -158935.47, -159052.14, -159041.23, -159068.52, 187500.00, 0, 1, 1, 0, 1, 18:18:05.188
64, -158901.56, -158926.08, -158993.70, -158943.78, -159060.19, -159049.11, -159076.67, 187500.00, 0, 1, 1, 0, 1, 18:18:05.188
65, -158902.61, -158927.05, -158994.84, -158944.91, -159061.41, -159050.36, -159077.83, 187500.00, 0, 1, 1, 0, 1, 18:18:05.188
66, -158898.88, -158923.20, -158991.27, -158941.17, -159057.94, -159047.05, -159074.31, 187500.00, 0, 1, 1, 0, 1, 18:18:05.188
67, -158900.09, -158924.56, -158992.64, -158942.41, -159059.17, -159048.22, -159075.61, 187500.00, 0, 1, 1, 0, 1, 18:18:05.188
68, -158908.00, -158932.66, -159000.56, -158950.33, -159066.91, -159055.66, -159083.27, 187500.00, 0, 1, 1, 0, 1, 18:18:05.188
69, -158911.83, -158936.52, -159004.27, -158954.17, -159070.70, -159059.52, -159087.08, 187500.00, 0, 1, 1, 0, 1, 18:18:05.188
70, -158907.75, -158932.25, -159000.38, -158950.17, -159066.91, -159055.92, -159083.31, 187500.00, 0, 1, 1, 0, 1, 18:18:05.188
71, -158906.72, -158931.09, -158999.31, -158949.03, -159065.88, -159054.72, -159082.17, 187500.00, 0, 1, 1, 0, 1, 18:18:05.188
72, -158914.13, -158938.72, -159006.70, -158956.53, -159073.14, -159061.83, -159089.55, 187500.00, 0, 1, 1, 0, 1, 18:18:05.188
73, -158919.28, -158943.88, -159011.69, -158961.67, -159078.14, -159066.83, -159094.64, 187500.00, 0, 1, 1, 0, 1, 18:18:05.189
74, -158916.00, -158940.55, -159008.41, -158958.30, -159075.06, -159063.92, -159091.58, 187500.00, 0, 1, 1, 0, 1, 18:18:05.656
75, -158914.38, -158938.88, -159006.81, -158956.59, -159073.53, -159062.36, -159090.02, 187500.00, 0, 1, 1, 0, 1, 18:18:05.656
76, -158920.83, -158945.53, -159013.30, -158963.20, -159080.00, -159068.63, -159096.45, 187500.00, 0, 1, 1, 0, 1, 18:18:05.656
77, -158926.42, -158951.31, -159018.89, -158968.94, -159085.41, -159074.09, -159101.92, 187500.00, 0, 1, 1, 0, 1, 18:18:05.656
78, -158922.22, -158947.00, -159014.70, -158964.89, -159081.41, -159070.39, -159097.83, 187500.00, 0, 1, 1, 0, 1, 18:18:05.661
79, -158919.94, -158944.55, -159012.47, -158962.41, -159079.17, -159068.17, -159095.55, 187500.00, 0, 1, 1, 0, 1, 18:18:05.661
80, -158925.91, -158950.72, -159018.48, -158968.48, -159085.03, -159073.98, -159101.50, 187500.00, 0, 1, 1, 0, 1, 18:18:05.661
81, -158931.67, -158956.77, -159024.14, -158974.30, -159090.64, -159079.48, -159107.13, 187500.00, 0, 1, 1, 0, 1, 18:18:05.661
82, -158928.09, -158953.02, -159020.39, -158970.70, -159087.22, -159076.16, -159103.59, 187500.00, 0, 1, 1, 0, 1, 18:18:05.661
83, -158924.00, -158948.75, -159016.34, -158966.45, -159083.27, -159072.28, -159099.63, 187500.00, 0, 1, 1, 0, 1, 18:18:05.661
84, -158928.16, -158953.00, -159020.50, -158970.61, -159087.23, -159076.11, -159103.67, 187500.00, 0, 1, 1, 0, 1, 18:18:05.661
85, -158936.09, -158961.22, -159028.39, -158978.59, -159095.13, -159083.70, -159111.48, 187500.00, 0, 1, 1, 0, 1, 18:18:05.661
86, -158934.17, -158959.16, -159026.42, -158976.58, -159093.20, -159082.03, -159109.64, 187500.00, 0, 1, 1, 0, 1, 18:18:05.661
87, -158927.47, -158952.25, -159019.73, -158969.78, -159086.53, -159075.61, -159102.95, 187500.00, 0, 1, 1, 0, 1, 18:18:05.661
88, -158931.31, -158956.23, -159023.69, -158973.69, -159090.34, -159079.39, -159106.84, 187500.00, 0, 1, 1, 0, 1, 18:18:05.662
89, -158938.56, -158963.77, -159030.73, -158980.98, -159097.39, -159086.25, -159113.95, 187500.00, 0, 1, 1, 0, 1, 18:18:05.662
90, -158936.95, -158962.03, -159029.08, -158979.38, -159095.67, -159084.73, -159112.25, 187500.00, 0, 1, 1, 0, 1, 18:18:05.662
91, -158931.78, -158956.64, -159023.97, -158974.14, -159090.70, -159079.86, -159107.17, 187500.00, 0, 1, 1, 0, 1, 18:18:05.662
92, -158933.61, -158958.47, -159025.77, -158975.92, -159092.63, -159081.58, -159109.03, 187500.00, 0, 1, 1, 0, 1, 18:18:05.662
93, -158939.03, -158964.19, -159031.20, -158981.45, -159098.02, -159086.69, -159114.33, 187500.00, 0, 1, 1, 0, 1, 18:18:05.662
94, -158942.84, -158968.11, -159034.95, -158985.20, -159101.77, -159090.50, -159118.08, 187500.00, 0, 1, 1, 0, 1, 18:18:05.662
95, -158937.39, -158962.52, -159029.59, -158979.77, -159096.52, -159085.52, -159112.81, 187500.00, 0, 1, 1, 0, 1, 18:18:05.662
96, -158937.86, -158962.83, -159030.00, -158979.95, -159096.83, -159085.83, -159113.14, 187500.00, 0, 1, 1, 0, 1, 18:18:05.662
97, -158941.84, -158967.03, -159034.00, -158984.05, -159100.63, -159089.63, -159116.97, 187500.00, 0, 1, 1, 0, 1, 18:18:05.662
98, -158945.22, -158970.63, -159037.22, -158987.45, -159104.00, -159092.94, -159120.20, 187500.00, 0, 1, 1, 0, 1, 18:18:05.662
99, -158940.80, -158966.00, -159032.81, -158982.95, -159099.78, -159088.95, -159115.94, 187500.00, 0, 1, 1, 0, 1, 18:18:05.663
100, -158939.14, -158964.28, -159031.11, -158981.16, -159098.06, -159087.23, -159114.33, 187500.00, 0, 1, 1, 0, 1, 18:18:05.663
101, -158946.47, -158971.66, -159038.31, -158988.56, -159105.23, -159094.17, -159121.59, 187500.00, 0, 1, 1, 0, 1, 18:18:05.663
102, -158949.59, -158974.91, -159041.50, -158991.69, -159108.30, -159097.05, -159124.70, 187500.00, 0, 1, 1, 0, 1, 18:18:05.663
103, -158946.53, -158971.88, -159038.61, -158988.67, -159105.41, -159094.44, -159121.69, 187500.00, 0, 1, 1, 0, 1, 18:18:05.663
104, -158943.30, -158968.44, -159035.31, -158985.31, -159102.27, -159091.38, -159118.44, 187500.00, 0, 1, 1, 0, 1, 18:18:05.663
105, -158948.70, -158973.95, -159040.53, -158990.66, -159107.52, -159096.45, -159123.66, 187500.00, 0, 1, 1, 0, 1, 18:18:05.663
106, -158956.59, -158982.00, -159048.34, -158998.55, -159115.27, -159103.91, -159131.42, 187500.00, 0, 1, 1, 0, 1, 18:18:05.663
107, -158953.23, -158978.55, -159045.11, -158995.27, -159112.03, -159100.94, -159128.14, 187500.00, 0, 1, 1, 0, 1, 18:18:05.663
108, -158949.19, -158974.23, -159040.97, -158991.02, -159108.03, -159097.05, -159124.09, 187500.00, 0, 1, 1, 0, 1, 18:18:05.663
109, -158952.88, -158978.09, -159044.69, -158994.72, -159111.69, -159100.63, -159127.73, 187500.00, 0, 1, 1, 0, 1, 18:18:05.664
110, -158958.16, -158983.59, -159049.89, -159000.17, -159116.83, -159105.50, -159132.91, 187500.00, 0, 1, 1, 0, 1, 18:18:05.664
111, -158955.88, -158981.27, -159047.61, -158997.88, -159114.47, -159103.44, -159130.56, 187500.00, 0, 1, 1, 0, 1, 18:18:05.664
112, -158953.59, -158978.83, -159045.33, -158995.39, -159112.39, -159101.50, -159128.45, 187500.00, 0, 1, 1, 0, 1, 18:18:05.664
113, -158956.61, -158981.81, -159048.28, -158998.34, -159115.38, -159104.41, -159131.42, 187500.00, 0, 1, 1, 0, 1, 18:18:05.664
114, -158964.75, -158990.14, -159056.44, -159006.53, -159123.27, -159112.14, -159139.34, 187500.00, 0, 1, 1, 0, 1, 18:18:05.664
115, -158966.14, -158991.58, -159057.89, -159008.03, -159124.72, -159113.55, -159140.80, 187500.00, 0, 1, 1, 0, 1, 18:18:05.664
116, -158961.72, -158987.02, -159053.58, -159003.64, -159120.52, -159109.64, -159136.59, 187500.00, 0, 1, 1, 0, 1, 18:18:05.664
117, -158962.73, -158987.95, -159054.52, -159004.69, -159121.45, -159110.50, -159137.63, 187500.00, 0, 1, 1, 0, 1, 18:18:05.664
118, -158970.34, -158995.78, -159062.09, -159012.30, -159128.86, -159117.80, -159145.11, 187500.00, 0, 1, 1, 0, 1, 18:18:05.664
119, -158972.50, -158997.98, -159064.31, -159014.47, -159131.08, -159119.84, -159147.28, 187500.00, 0, 1, 1, 0, 1, 18:18:05.664
120, -158971.95, -158997.25, -159063.86, -159013.86, -159130.80, -159119.73, -159146.92, 187500.00, 0, 1, 1, 0, 1, 18:18:05.665
121, -158969.05, -158994.23, -159060.84, -159010.81, -159127.81, -159116.75, -159143.98, 187500.00, 0, 1, 1, 0, 1, 18:18:05.665
122, -158974.92, -159000.22, -159066.63, -159016.67, -159133.50, -159122.33, -159149.75, 187500.00, 0, 1, 1, 0, 1, 18:18:05.665
123, -158978.55, -159003.95, -159070.25, -159020.39, -159137.06, -159125.75, -159153.27, 187500.00, 0, 1, 1, 0, 1, 18:18:05.665
124, -158974.92, -159000.33, -159066.81, -159016.86, -159133.64, -159122.73, -159149.89, 187500.00, 0, 1, 1, 0, 1, 18:18:05.665
125, -158972.70, -158997.91, -159064.44, -159014.42, -159131.34, -159120.47, -159147.66, 187500.00, 0, 1, 1, 0, 1, 18:18:05.665
126, -158978.86, -159004.20, -159070.56, -159020.66, -159137.33, -159126.28, -159153.64, 187500.00, 0, 1, 1, 0, 1, 18:18:05.665
127, -158983.23, -159008.83, -159075.03, -159025.19, -159141.69, -159130.38, -159157.98, 187500.00, 0, 1, 1, 0, 1, 18:18:05.665
128, -158980.36, -159005.81, -159072.23, -159022.28, -159139.03, -159128.02, -159155.19, 187500.00, 0, 1, 1, 0, 1, 18:18:05.666
129, -158981.06, -159006.33, -159072.83, -159022.86, -159139.77, -159128.86, -159156.00, 187500.00, 0, 1, 1, 0, 1, 18:18:05.666
130, -158983.19, -159008.56, -159074.81, -159025.03, -159141.83, -159130.69, -159157.98, 187500.00, 0, 1, 1, 0, 1, 18:18:05.666
131, -158989.61, -159015.22, -159081.20, -159031.58, -159148.06, -159136.77, -159164.23, 187500.00, 0, 1, 1, 0, 1, 18:18:05.666
132, -158987.11, -159012.63, -159078.80, -159029.17, -159145.73, -159134.45, -159161.83, 187500.00, 0, 1, 1, 0, 1, 18:18:05.666
133, -158983.70, -159009.08, -159075.39, -159025.70, -159142.47, -159131.39, -159158.50, 187500.00, 0, 1, 1, 0, 1, 18:18:05.666
134, -158985.83, -159011.25, -159077.61, -159027.72, -159144.53, -159133.34, -159160.64, 187500.00, 0, 1, 1, 0, 1, 18:18:05.666
135, -158992.78, -159018.39, -159084.44, -159034.64, -159151.33, -159139.97, -159167.45, 187500.00, 0, 1, 1, 0, 1, 18:18:05.666
136, -158992.20, -159017.80, -159083.94, -159034.05, -159150.77, -159139.47, -159166.81, 187500.00, 0, 1, 1, 0, 1, 18:18:05.666
137, -158987.11, -159012.56, -159078.86, -159028.86, -159145.69, -159134.56, -159161.77, 187500.00, 0, 1, 1, 0, 1, 18:18:05.666
138, -158988.88, -159014.23, -159080.47, -159030.63, -159147.41, -159136.33, -159163.48, 187500.00, 0, 1, 1, 0, 1, 18:18:05.666
139, -158997.66, -159023.33, -159089.19, -159039.58, -159156.06, -159144.80, -159172.27, 187500.00, 0, 1, 1, 0, 1, 18:18:05.667
140, -158998.19, -159023.98, -159089.94, -159040.19, -159156.70, -159145.33, -159172.80, 187500.00, 0, 1, 1, 0, 1, 18:18:05.667
141, -158994.97, -159020.52, -159086.80, -159036.91, -159153.67, -159142.50, -159169.63, 187500.00, 0, 1, 1, 0, 1, 18:18:05.667
142, -158995.44, -159020.92, -159087.13, -159037.27, -159154.05, -159142.88, -159170.14, 187500.00, 0, 1, 1, 0, 1, 18:18:05.667
143, -159001.50, -159027.20, -159093.14, -159043.30, -159160.00, -159148.64, -159176.06, 187500.00, 0, 1, 1, 0, 1, 18:18:05.667
144, -159005.19, -159030.95, -159096.67, -159046.98, -159163.55, -159152.17, -159179.69, 187500.00, 0, 1, 1, 0, 1, 18:18:05.667
145, -159000.09, -159025.69, -159091.67, -159041.86, -159158.66, -159147.45, -159174.72, 187500.00, 0, 1, 1, 0, 1, 18:18:05.667
146, -159001.09, -159026.53, -159092.80, -159042.80, -159159.66, -159148.55, -159175.75, 187500.00, 0, 1, 1, 0, 1, 18:18:05.667
147, -159007.59, -159033.22, -159099.20, -159049.36, -159166.03, -159154.73, -159182.17, 187500.00, 0, 1, 1, 0, 1, 18:18:05.667
148, -159012.06, -159037.94, -159103.75, -159054.06, -159170.50, -159159.09, -159186.70, 187500.00, 0, 1, 1, 0, 1, 18:18:05.667
149, -159009.45, -159035.20, -159101.28, -159051.50, -159168.05, -159156.86, -159184.30, 187500.00, 0, 1, 1, 0, 1, 18:18:05.668
150, -159007.69, -159033.30, -159099.59, -159049.63, -159166.41, -159155.23, -159182.50, 187500.00, 0, 1, 1, 0, 1, 18:18:05.668
151, -159014.64, -159040.56, -159106.58, -159056.70, -159173.38, -159162.00, -159189.36, 187500.00, 0, 1, 1, 0, 1, 18:18:05.668
152, -159024.28, -159050.38, -159116.20, -159066.45, -159182.84, -159171.28, -159199.00, 187500.00, 0, 1, 1, 0, 1, 18:18:05.668
153, -159021.25, -159047.25, -159113.22, -159063.53, -159179.97, -159168.59, -159196.06, 187500.00, 0, 1, 1, 0, 1, 18:18:05.668
154, -159016.94, -159042.77, -159108.88, -159059.03, -159175.73, -159164.39, -159191.80, 187500.00, 0, 1, 1, 0, 1, 18:18:05.668
155, -159020.31, -159046.33, -159112.27, -159062.42, -159179.06, -159167.70, -159195.20, 187500.00, 0, 1, 1, 0, 1, 18:18:05.668
156, -159028.39, -159054.52, -159120.19, -159070.52, -159186.91, -159175.34, -159203.02, 187500.00, 0, 1, 1, 0, 1, 18:18:05.668
157, -159026.38, -159052.58, -159118.23, -159068.55, -159184.98, -159173.58, -159200.98, 187500.00, 0, 1, 1, 0, 1, 18:18:05.668
158, -159020.27, -159046.27, -159112.19, -159062.30, -159179.00, -159167.81, -159194.91, 187500.00, 0, 1, 1, 0, 1, 18:18:05.668
159, -159024.16, -159050.19, -159115.94, -159066.05, -159182.72, -159171.44, -159198.73, 187500.00, 0, 1, 1, 0, 1, 18:18:05.668
160, -159029.95, -159056.28, -159121.75, -159071.97, -159188.38, -159176.83, -159204.45, 187500.00, 0, 1, 1, 0, 1, 18:18:05.669
161, -159030.06, -159056.42, -159121.89, -159072.06, -159188.50, -159177.03, -159204.58, 187500.00, 0, 1, 1, 0, 1, 18:18:05.669
162, -159026.31, -159052.53, -159118.17, -159068.27, -159184.95, -159173.70, -159200.88, 187500.00, 0, 1, 1, 0, 1, 18:18:05.669
163, -159029.06, -159055.25, -159120.95, -159070.98, -159187.59, -159176.38, -159203.56, 187500.00, 0, 1, 1, 0, 1, 18:18:05.669
164, -159035.30, -159061.77, -159127.11, -159077.31, -159193.66, -159182.22, -159209.73, 187500.00, 0, 1, 1, 0, 1, 18:18:05.669
165, -159036.03, -159062.42, -159127.78, -159077.97, -159194.27, -159182.80, -159210.39, 187500.00, 0, 1, 1, 0, 1, 18:18:05.669
166, -159034.83, -159061.09, -159126.67, -159076.84, -159193.39, -159182.13, -159209.39, 187500.00, 0, 1, 1, 0, 1, 18:18:05.669
167, -159038.02, -159064.47, -159129.94, -159080.20, -159196.70, -159185.34, -159212.72, 187500.00, 0, 1, 1, 0, 1, 18:18:05.669
168, -159045.98, -159072.59, -159137.91, -159088.14, -159204.50, -159192.97, -159220.55, 187500.00, 0, 1, 1, 0, 1, 18:18:05.669
169, -159049.00, -159075.77, -159140.95, -159091.19, -159207.52, -159195.88, -159223.50, 187500.00, 0, 1, 1, 0, 1, 18:18:05.669
170, -159042.02, -159068.59, -159133.86, -159084.22, -159200.73, -159189.20, -159216.56, 187500.00, 0, 1, 1, 0, 1, 18:18:05.669
