%OpenBCI Raw EEG Data
%
%Sample Rate = 250.0 Hz
%First Column = SampleIndex
%Last Column = Timestamp 
%Other Columns = EEG data in microvolts followed by Accel Data (in G) interleaved with Aux Data
0, 0.00, 0.00, 0.00, 0.00, 0.00, 0.00, 0.00, 0.00, 0, 21:47:10.131
1, -44098.52, -41076.58, -69626.73, -122851.53, -68468.95, -44131.06, -83129.71, -81419.73, 0, 21:47:10.608
2, -44128.73, -41097.57, -69523.63, -122889.24, -68461.18, -44086.11, -83118.58, -81377.52, 0, 21:47:10.608
3, -44161.26, -41124.77, -69450.94, -122920.84, -68489.50, -44043.51, -83145.70, -81386.23, 0, 21:47:10.609
4, -44142.32, -41113.84, -69515.58, -122894.83, -68496.77, -44086.20, -83156.53, -81428.84, 0, 21:47:10.609
5, -44098.18, -41081.43, -69613.63, -122850.75, -68476.13, -44136.91, -83135.57, -81430.29, 0, 21:47:10.609
6, -44110.81, -41090.60, -69550.06, -122871.76, -68456.93, -44093.75, -83107.67, -81376.53, 0, 21:47:10.610
7, -44156.12, -41125.89, -69448.12, -122923.66, -68485.45, -44039.46, -83136.38, -81377.91, 0, 21:47:10.610
8, -44144.87, -41116.70, -69509.41, -122904.51, -68501.97, -44073.13, -83163.91, -81426.42, 0, 21:47:10.611
9, -44102.88, -41083.80, -69606.66, -122862.70, -68485.88, -44125.32, -83147.08, -81430.45, 0, 21:47:10.612
10, -44101.27, -41080.80, -69571.73, -122869.52, -68457.89, -44097.71, -83116.10, -81387.37, 0, 21:47:10.612
11, -44155.40, -41126.96, -69458.47, -122927.48, -68480.24, -44037.92, -83129.11, -81374.85, 0, 21:47:10.612
12, -44166.15, -41138.07, -69497.23, -122931.41, -68510.58, -44069.43, -83171.02, -81434.38, 0, 21:47:10.612
13, -44108.95, -41095.45, -69615.98, -122872.66, -68484.55, -44129.65, -83149.45, -81451.07, 0, 21:47:10.613
14, -44103.39, -41088.52, -69609.19, -122872.32, -68456.87, -44113.42, -83106.84, -81392.13, 0, 21:47:10.613
15, -44152.16, -41126.80, -69477.35, -122924.80, -68472.73, -44049.81, -83117.09, -81363.99, 0, 21:47:10.613
16, -44170.09, -41139.88, -69486.25, -122935.13, -68503.83, -44059.31, -83156.82, -81412.34, 0, 21:47:10.613
17, -44126.45, -41105.91, -69594.41, -122881.73, -68487.28, -44117.56, -83149.58, -81432.52, 0, 21:47:10.614
18, -44100.23, -41084.89, -69618.88, -122860.59, -68455.10, -44117.85, -83112.10, -81398.39, 0, 21:47:10.614
19, -44143.64, -41123.32, -69484.89, -122912.73, -68468.20, -44053.36, -83117.13, -81365.96, 0, 21:47:10.614
20, -44177.15, -41153.49, -69466.52, -122939.66, -68514.13, -44044.31, -83171.60, -81408.20, 0, 21:47:10.614
21, -44139.20, -41120.41, -69574.30, -122889.26, -68508.43, -44110.90, -83174.73, -81449.75, 0, 21:47:10.615
22, -44107.72, -41096.52, -69630.40, -122861.86, -68478.73, -44134.86, -83138.59, -81434.31, 0, 21:47:10.615
23, -44136.29, -41122.98, -69512.60, -122901.51, -68469.65, -44065.37, -83120.81, -81373.11, 0, 21:47:10.615
24, -44172.45, -41147.30, -69461.89, -122933.63, -68506.26, -44037.20, -83159.48, -81389.09, 0, 21:47:10.615
25, -44140.04, -41118.47, -69553.28, -122892.63, -68503.91, -44098.11, -83168.67, -81442.11, 0, 21:47:10.615
26, -44099.03, -41082.93, -69633.62, -122852.83, -68465.67, -44131.66, -83139.23, -81427.88, 0, 21:47:10.616
27, -44113.65, -41100.43, -69538.89, -122883.09, -68454.14, -44080.12, -83112.43, -81374.90, 0, 21:47:10.616
28, -44157.81, -41138.90, -69454.29, -122930.61, -68488.63, -44039.64, -83146.48, -81384.78, 0, 21:47:10.616
29, -44143.38, -41127.01, -69526.02, -122907.16, -68509.80, -44092.75, -83171.87, -81441.22, 0, 21:47:10.616
30, -44102.52, -41091.80, -69626.93, -122864.25, -68489.72, -44144.94, -83153.54, -81443.32, 0, 21:47:10.617
31, -44108.95, -41091.91, -69565.71, -122879.47, -68472.06, -44107.61, -83126.34, -81399.26, 0, 21:47:10.617
32, -44149.52, -41123.77, -69463.27, -122920.45, -68496.45, -44049.01, -83140.59, -81390.01, 0, 21:47:10.617
33, -44147.73, -41126.85, -69504.87, -122916.42, -68520.92, -44080.05, -83174.05, -81436.01, 0, 21:47:10.617
34, -44099.10, -41085.52, -69615.16, -122862.95, -68494.95, -44139.80, -83157.90, -81454.94, 0, 21:47:10.617
35, -44098.05, -41086.35, -69583.68, -122867.16, -68460.64, -44108.13, -83115.79, -81399.06, 0, 21:47:10.618
36, -44146.55, -41124.93, -69465.38, -122921.98, -68477.63, -44047.78, -83129.76, -81383.26, 0, 21:47:10.618
37, -44151.73, -41129.24, -69489.45, -122922.70, -68511.63, -44069.52, -83168.24, -81432.68, 0, 21:47:10.618
38, -44111.19, -41095.89, -69595.66, -122873.68, -68501.68, -44130.86, -83161.02, -81453.06, 0, 21:47:10.618
39, -44105.33, -41090.08, -69610.28, -122870.20, -68480.40, -44126.07, -83131.97, -81419.89, 0, 21:47:10.619
40, -44128.27, -41112.32, -69493.07, -122902.80, -68476.31, -44059.36, -83122.49, -81383.15, 0, 21:47:10.619
41, -44148.58, -41132.39, -69471.77, -122921.38, -68506.84, -44053.68, -83156.80, -81414.37, 0, 21:47:10.619
42, -44105.67, -41093.70, -69576.24, -122868.45, -68496.45, -44117.11, -83154.79, -81447.70, 0, 21:47:10.619
43, -44081.15, -41071.44, -69618.53, -122844.02, -68464.87, -44131.57, -83121.66, -81422.62, 0, 21:47:10.619
44, -44120.71, -41102.98, -69482.32, -122892.88, -68465.67, -44063.13, -83117.40, -81377.70, 0, 21:47:10.620
45, -44158.55, -41135.79, -69450.47, -122928.02, -68515.16, -44047.66, -83165.38, -81409.99, 0, 21:47:10.620
46, -44123.06, -41104.70, -69557.06, -122882.00, -68510.80, -44106.38, -83167.91, -81443.88, 0, 21:47:10.620
47, -44094.36, -41080.16, -69628.79, -122854.86, -68479.20, -44128.20, -83132.77, -81419.76, 0, 21:47:10.620
48, -44137.30, -41121.71, -69518.05, -122909.02, -68473.52, -44072.63, -83121.30, -81384.20, 0, 21:47:10.620
49, -44173.33, -41148.13, -69469.82, -122940.36, -68510.76, -44046.64, -83164.11, -81408.56, 0, 21:47:10.621
50, -44139.13, -41114.36, -69554.09, -122898.63, -68512.05, -44098.70, -83172.78, -81444.08, 0, 21:47:10.621
51, -44101.71, -41080.14, -69638.31, -122860.65, -68479.40, -44135.77, -83137.29, -81428.68, 0, 21:47:10.621
52, -44118.74, -41092.59, -69549.44, -122889.82, -68461.52, -44090.87, -83114.67, -81389.38, 0, 21:47:10.621
53, -44159.11, -41128.24, -69456.50, -122931.35, -68486.80, -44037.90, -83142.66, -81386.97, 0, 21:47:10.622
54, -44135.13, -41113.39, -69525.77, -122901.40, -68497.21, -44082.94, -83163.06, -81429.95, 0, 21:47:10.622
55, -44099.19, -41080.40, -69616.12, -122859.91, -68474.43, -44131.95, -83136.10, -81434.82, 0, 21:47:10.622
56, -44107.68, -41086.26, -69563.32, -122872.63, -68455.08, -44098.00, -83113.51, -81393.56, 0, 21:47:10.622
57, -44155.85, -41126.58, -69456.19, -122922.38, -68487.27, -44041.61, -83141.80, -81382.32, 0, 21:47:10.623
58, -44148.65, -41122.54, -69496.20, -122909.58, -68506.64, -44069.23, -83166.10, -81421.95, 0, 21:47:10.623
59, -44103.88, -41086.39, -69611.98, -122863.60, -68494.26, -44135.93, -83165.98, -81448.77, 0, 21:47:10.624
60, -44105.29, -41086.57, -69588.98, -122872.61, -68463.01, -44113.56, -83126.25, -81410.17, 0, 21:47:10.624
61, -44153.03, -41125.69, -69454.06, -122927.23, -68479.91, -44045.90, -83135.39, -81388.22, 0, 21:47:10.624
62, -44160.50, -41136.66, -69477.60, -122927.70, -68515.56, -44059.60, -83170.44, -81430.82, 0, 21:47:10.624
63, -44106.02, -41092.14, -69604.80, -122869.48, -68505.52, -44129.70, -83157.52, -81459.08, 0, 21:47:10.624
64, -44102.52, -41086.91, -69615.55, -122866.15, -68479.55, -44125.70, -83125.64, -81419.55, 0, 21:47:10.625
65, -44146.73, -41123.30, -69485.89, -122916.40, -68489.07, -44056.92, -83131.21, -81384.80, 0, 21:47:10.625
66, -44161.95, -41138.41, -69480.75, -122932.63, -68521.55, -44055.00, -83173.56, -81424.90, 0, 21:47:10.625
67, -44121.94, -41108.46, -69587.15, -122884.43, -68511.20, -44119.04, -83174.46, -81460.30, 0, 21:47:10.625
68, -44097.15, -41085.79, -69626.98, -122860.29, -68472.94, -44130.48, -83125.66, -81431.70, 0, 21:47:10.626
69, -44122.41, -41107.41, -69506.52, -122898.07, -68458.18, -44067.71, -83110.65, -81388.87, 0, 21:47:10.626
70, -44148.45, -41133.98, -69457.80, -122924.51, -68492.45, -44038.16, -83142.18, -81391.04, 0, 21:47:10.626
71, -44108.64, -41104.79, -69549.55, -122875.76, -68487.58, -44096.93, -83141.98, -81426.71, 0, 21:47:10.626
72, -44089.02, -41082.97, -69619.09, -122849.99, -68461.52, -44131.08, -83117.17, -81418.46, 0, 21:47:10.626
73, -44125.11, -41112.70, -69515.09, -122891.27, -68455.05, -44074.98, -83102.87, -81374.41, 0, 21:47:10.626
74, -44166.46, -41148.02, -69451.72, -122934.91, -68503.45, -44044.87, -83150.43, -81398.41, 0, 21:47:10.627
75, -44130.81, -41120.41, -69538.04, -122895.20, -68509.26, -44090.87, -83161.38, -81436.73, 0, 21:47:10.635
76, -44097.58, -41096.99, -69630.42, -122864.00, -68481.59, -44134.95, -83141.65, -81434.27, 0, 21:47:10.636
77, -44126.03, -41124.59, -69552.79, -122901.53, -68476.20, -44103.39, -83128.99, -81400.54, 0, 21:47:10.637
78, -44164.54, -41160.16, -69461.53, -122943.58, -68507.00, -44054.62, -83151.59, -81401.56, 0, 21:47:10.637
79, -44149.97, -41144.33, -69521.57, -122918.79, -68519.67, -44088.84, -83168.47, -81436.25, 0, 21:47:10.637
80, -44094.54, -41095.78, -69626.28, -122860.31, -68485.01, -44137.23, -83131.27, -81432.72, 0, 21:47:10.637
81, -44094.54, -41091.02, -69575.62, -122868.77, -68457.94, -44101.69, -83097.13, -81384.22, 0, 21:47:10.638
82, -44144.94, -41134.00, -69457.87, -122929.85, -68489.25, -44043.89, -83127.32, -81376.30, 0, 21:47:10.638
83, -44148.47, -41139.10, -69500.42, -122929.23, -68519.96, -44074.29, -83171.11, -81426.24, 0, 21:47:10.638
84, -44099.50, -41099.40, -69612.78, -122873.05, -68496.52, -44136.13, -83157.16, -81449.02, 0, 21:47:10.638
85, -44096.13, -41097.12, -69609.16, -122873.97, -68473.38, -44126.41, -83129.69, -81415.53, 0, 21:47:10.639
86, -44143.22, -41134.76, -69478.74, -122925.18, -68491.17, -44063.04, -83140.30, -81389.41, 0, 21:47:10.639
87, -44157.99, -41147.59, -69493.72, -122932.06, -68526.13, -44076.34, -83185.91, -81436.66, 0, 21:47:10.639
88, -44113.67, -41107.14, -69605.52, -122883.56, -68510.44, -44138.68, -83176.02, -81467.61, 0, 21:47:10.640
89, -44093.44, -41088.90, -69625.26, -122877.73, -68484.05, -44136.29, -83137.11, -81424.41, 0, 21:47:10.640
90, -44134.64, -41130.81, -69490.63, -122924.58, -68495.04, -44068.56, -83136.66, -81383.23, 0, 21:47:10.640
91, -44154.21, -41148.93, -69470.05, -122931.22, -68518.80, -44055.31, -83163.44, -81414.93, 0, 21:47:10.640
92, -44104.50, -41107.96, -69574.07, -122877.37, -68502.88, -44116.73, -83158.03, -81445.98, 0, 21:47:10.641
93, -44078.11, -41083.53, -69623.54, -122861.26, -68476.98, -44140.94, -83133.78, -81434.60, 0, 21:47:10.641
94, -44119.48, -41124.06, -69497.92, -122914.18, -68476.04, -44075.61, -83127.23, -81389.80, 0, 21:47:10.641
95, -44146.08, -41147.50, -69459.18, -122936.67, -68508.85, -44049.59, -83160.42, -81402.08, 0, 21:47:10.642
96, -44104.50, -41110.09, -69553.30, -122889.10, -68502.57, -44104.84, -83159.08, -81437.82, 0, 21:47:10.642
97, -44059.09, -41070.30, -69622.71, -122841.31, -68463.08, -44127.28, -83120.57, -81418.15, 0, 21:47:10.642
98, -44080.25, -41088.63, -69522.57, -122872.48, -68452.59, -44073.79, -83100.36, -81369.42, 0, 21:47:10.643
99, -44126.61, -41128.24, -69443.54, -122926.77, -68498.10, -44040.91, -83142.20, -81392.60, 0, 21:47:10.643
100, -44102.88, -41107.27, -69527.60, -122889.77, -68511.07, -44093.60, -83160.98, -81442.84, 0, 21:47:10.643
101, -44063.94, -41068.85, -69620.23, -122844.78, -68478.97, -44145.95, -83128.95, -81446.58, 0, 21:47:10.644
102, -44080.79, -41077.30, -69540.90, -122871.91, -68462.19, -44104.10, -83106.66, -81400.20, 0, 21:47:10.644
103, -44126.45, -41119.54, -69438.20, -122922.70, -68494.21, -44046.37, -83136.82, -81388.45, 0, 21:47:10.644
104, -44108.91, -41107.16, -69501.27, -122893.80, -68499.63, -44081.13, -83153.41, -81424.81, 0, 21:47:10.645
105, -44074.18, -41077.23, -69604.98, -122856.25, -68484.31, -44142.55, -83139.59, -81444.45, 0, 21:47:10.645
106, -44076.05, -41078.68, -69573.09, -122867.53, -68471.02, -44117.04, -83113.66, -81399.40, 0, 21:47:10.645
107, -44122.05, -41113.06, -69453.75, -122918.03, -68492.38, -44050.86, -83129.22, -81378.95, 0, 21:47:10.645
108, -44124.27, -41115.63, -69491.41, -122912.28, -68520.19, -44069.64, -83161.90, -81422.93, 0, 21:47:10.646
109, -44065.73, -41065.90, -69598.21, -122851.38, -68491.35, -44127.62, -83143.44, -81439.54, 0, 21:47:10.646
110, -44060.34, -41062.63, -69586.70, -122850.73, -68462.97, -44111.03, -83108.81, -81395.75, 0, 21:47:10.646
111, -44103.88, -41101.50, -69454.38, -122903.23, -68477.74, -44043.89, -83112.59, -81367.16, 0, 21:47:10.647
112, -44111.21, -41108.99, -69459.77, -122904.68, -68504.92, -44044.54, -83144.59, -81399.10, 0, 21:47:10.647
113, -44069.05, -41075.51, -69570.27, -122848.45, -68489.45, -44109.94, -83139.08, -81435.05, 0, 21:47:10.647
114, -44073.91, -41073.05, -69601.81, -122850.84, -68475.51, -44125.96, -83124.37, -81422.35, 0, 21:47:10.647
115, -44118.00, -41109.24, -69479.44, -122905.02, -68479.91, -44063.31, -83125.87, -81384.22, 0, 21:47:10.648
116, -44129.96, -41123.54, -69457.46, -122915.08, -68498.30, -44041.63, -83149.41, -81402.16, 0, 21:47:10.648
117, -44075.36, -41078.23, -69552.86, -122855.27, -68488.23, -44094.43, -83139.77, -81424.95, 0, 21:47:10.649
118, -44056.76, -41057.85, -69609.79, -122837.45, -68473.23, -44119.79, -83120.41, -81410.46, 0, 21:47:10.650
119, -44091.05, -41082.75, -69504.09, -122880.43, -68473.18, -44065.32, -83120.99, -81374.72, 0, 21:47:10.650
120, -44136.40, -41121.78, -69454.02, -122928.58, -68515.45, -44046.01, -83165.52, -81406.91, 0, 21:47:10.650
121, -44104.01, -41093.43, -69541.13, -122883.43, -68516.27, -44101.42, -83171.15, -81447.50, 0, 21:47:11.088
122, -44055.93, -41052.71, -69615.06, -122833.41, -68480.47, -44131.68, -83135.57, -81426.04, 0, 21:47:11.088
123, -44074.33, -41070.37, -69521.05, -122866.24, -68466.38, -44082.40, -83109.05, -81379.88, 0, 21:47:11.089
124, -44118.74, -41102.67, -69439.11, -122910.45, -68495.42, -44036.04, -83137.13, -81387.15, 0, 21:47:11.089
125, -44121.36, -41109.91, -69524.34, -122904.10, -68521.46, -44093.75, -83161.79, -81447.41, 0, 21:47:11.089
126, -44084.86, -41078.59, -69636.90, -122860.78, -68500.79, -44146.73, -83144.17, -81446.83, 0, 21:47:11.089
127, -44091.21, -41078.62, -69559.72, -122876.37, -68475.02, -44101.02, -83115.98, -81388.66, 0, 21:47:11.089
128, -44139.73, -41126.27, -69460.59, -122931.98, -68515.47, -44057.37, -83163.66, -81399.33, 0, 21:47:11.090
129, -44109.85, -41099.13, -69514.59, -122895.95, -68513.48, -44089.95, -83166.55, -81448.46, 0, 21:47:11.090
130, -44065.86, -41057.34, -69615.49, -122846.57, -68479.95, -44147.13, -83131.09, -81457.09, 0, 21:47:11.091
131, -44079.00, -41071.13, -69583.66, -122870.09, -68466.95, -44124.00, -83117.28, -81413.08, 0, 21:47:11.091
132, -44129.32, -41116.84, -69464.10, -122925.63, -68498.39, -44056.41, -83136.10, -81390.90, 0, 21:47:11.091
133, -44125.83, -41117.93, -69493.96, -122913.96, -68526.18, -44072.09, -83167.53, -81426.71, 0, 21:47:11.092
134, -44095.27, -41086.35, -69612.45, -122871.83, -68517.57, -44145.54, -83163.59, -81454.02, 0, 21:47:11.092
135, -44084.95, -41066.64, -69615.49, -122866.64, -68487.91, -44138.52, -83131.48, -81415.84, 0, 21:47:11.092
136, -44126.77, -41101.53, -69484.35, -122918.19, -68495.48, -44071.74, -83135.86, -81387.10, 0, 21:47:11.092
137, -44149.61, -41126.63, -69485.34, -122935.57, -68539.12, -44076.81, -83178.15, -81433.21, 0, 21:47:11.093
138, -44114.23, -41096.52, -69609.99, -122889.59, -68536.98, -44147.24, -83176.67, -81471.88, 0, 21:47:11.093
139, -44092.48, -41073.59, -69650.20, -122869.05, -68496.18, -44150.10, -83136.80, -81428.90, 0, 21:47:11.093
140, -44121.05, -41097.55, -69505.30, -122908.04, -68488.11, -44072.74, -83119.50, -81375.01, 0, 21:47:11.093
141, -44142.48, -41115.96, -69476.13, -122931.41, -68523.63, -44052.09, -83155.98, -81379.05, 0, 21:47:11.093
142, -44107.84, -41092.38, -69588.89, -122890.20, -68513.41, -44119.30, -83165.88, -81412.29, 0, 21:47:11.093
143, -44081.86, -41069.68, -69652.48, -122860.83, -68484.55, -44160.88, -83141.13, -81453.24, 0, 21:47:11.094
144, -44129.25, -41109.02, -69543.38, -122915.95, -68491.42, -44106.29, -83133.04, -81382.72, 0, 21:47:11.094
145, -44154.95, -41132.73, -69482.18, -122939.35, -68525.73, -44071.74, -83164.36, -81424.74, 0, 21:47:11.095
146, -44118.63, -41105.41, -69560.88, -122893.77, -68518.58, -44117.80, -83164.94, -81455.59, 0, 21:47:11.095
147, -44081.93, -41076.92, -69640.44, -122858.91, -68495.31, -44155.49, -83144.24, -81449.13, 0, 21:47:11.095
148, -44107.86, -41090.13, -69552.62, -122893.10, -68486.62, -44105.22, -83128.28, -81402.23, 0, 21:47:11.095
149, -44151.40, -41128.57, -69469.53, -122937.25, -68518.04, -44063.24, -83159.69, -81411.53, 0, 21:47:11.096
150, -44127.50, -41112.90, -69542.73, -122909.53, -68531.05, -44108.75, -83179.48, -81455.97, 0, 21:47:11.096
151, -44090.51, -41080.88, -69642.36, -122865.14, -68503.22, -44158.20, -83156.84, -81451.59, 0, 21:47:11.097
152, -44113.22, -41097.50, -69595.35, -122892.44, -68499.69, -44127.91, -83135.92, -81409.30, 0, 21:47:11.097
153, -44148.70, -41129.13, -69485.67, -122940.31, -68530.63, -44065.68, -83160.02, -81401.52, 0, 21:47:11.097
154, -44141.72, -41128.55, -69521.68, -122927.64, -68547.12, -44082.76, -83179.69, -81427.38, 0, 21:47:11.097
155, -44093.62, -41086.02, -69641.48, -122872.48, -68520.19, -44161.05, -83158.48, -81450.80, 0, 21:47:11.097
156, -44091.72, -41082.35, -69615.02, -122876.03, -68492.05, -44142.91, -83129.06, -81417.34, 0, 21:47:11.098
157, -44141.41, -41123.79, -69483.23, -122931.22, -68510.60, -44076.27, -83142.05, -81398.21, 0, 21:47:11.098
158, -44146.66, -41127.23, -69495.62, -122930.34, -68536.86, -44080.75, -83166.52, -81425.16, 0, 21:47:11.098
159, -44103.01, -41088.99, -69611.80, -122880.79, -68528.61, -44147.42, -83167.09, -81459.61, 0, 21:47:11.098
160, -44099.25, -41088.92, -69636.52, -122883.56, -68515.96, -44152.00, -83155.57, -81441.17, 0, 21:47:11.098
161, -44142.86, -41119.68, -69512.94, -122929.54, -68524.55, -44082.36, -83156.51, -81402.63, 0, 21:47:11.098
162, -44165.59, -41141.91, -69506.28, -122949.55, -68551.95, -44081.15, -83187.05, -81432.97, 0, 21:47:11.099
163, -44126.50, -41117.02, -69608.65, -122907.79, -68535.12, -44146.17, -83174.59, -81463.99, 0, 21:47:11.099
164, -44111.75, -41099.92, -69654.83, -122896.50, -68518.17, -44162.80, -83154.63, -81451.97, 0, 21:47:11.099
165, -44146.79, -41128.91, -69533.75, -122943.95, -68516.63, -44092.43, -83159.69, -81414.48, 0, 21:47:11.099
166, -44173.75, -41153.27, -69496.98, -122968.32, -68548.98, -44066.17, -83184.52, -81435.43, 0, 21:47:11.099
167, -44132.76, -41122.31, -69592.24, -122917.47, -68547.79, -44124.67, -83187.53, -81465.09, 0, 21:47:11.099
168, -44105.94, -41097.86, -69660.95, -122886.00, -68520.59, -44154.73, -83147.91, -81439.67, 0, 21:47:11.100
169, -44132.51, -41112.05, -69553.30, -122919.46, -68500.02, -44095.70, -83127.97, -81394.70, 0, 21:47:11.100
170, -44167.74, -41139.19, -69486.54, -122954.41, -68525.17, -44059.54, -83153.18, -81412.23, 0, 21:47:11.100
171, -44135.89, -41115.61, -69573.80, -122912.87, -68539.86, -44112.48, -83171.84, -81460.17, 0, 21:47:11.100
172, -44093.44, -41082.08, -69661.18, -122869.08, -68516.30, -44154.15, -83152.64, -81446.00, 0, 21:47:11.100
173, -44113.60, -41097.66, -69574.49, -122895.16, -68501.45, -44105.54, -83136.62, -81400.94, 0, 21:47:11.101
174, -44158.84, -41130.38, -69471.70, -122940.60, -68536.37, -44060.05, -83169.50, -81407.40, 0, 21:47:11.101
175, -44141.32, -41113.80, -69529.84, -122910.43, -68540.17, -44099.01, -83168.98, -81448.28, 0, 21:47:11.101
176, -44094.54, -41078.14, -69633.15, -122860.18, -68510.95, -44145.57, -83142.45, -81443.90, 0, 21:47:11.102
177, -44124.73, -41102.04, -69596.02, -122895.63, -68501.14, -44117.45, -83131.43, -81406.30, 0, 21:47:11.102
178, -44171.25, -41139.95, -69483.39, -122945.05, -68523.27, -44059.51, -83153.07, -81398.01, 0, 21:47:11.102
179, -44162.62, -41141.27, -69513.12, -122932.66, -68544.55, -44088.48, -83176.27, -81437.70, 0, 21:47:11.102
180, -44107.72, -41095.31, -69634.04, -122875.18, -68521.41, -44151.40, -83155.28, -81454.09, 0, 21:47:11.103
181, -44100.26, -41086.73, -69630.71, -122877.30, -68496.77, -44134.75, -83124.37, -81411.42, 0, 21:47:11.103
182, -44152.65, -41133.07, -69505.95, -122940.78, -68519.74, -44072.14, -83143.03, -81390.68, 0, 21:47:11.103
183, -44174.62, -41150.34, -69521.39, -122953.97, -68556.42, -44086.71, -83188.41, -81439.16, 0, 21:47:11.103
184, -44133.63, -41114.91, -69627.94, -122902.60, -68540.77, -44150.75, -83179.63, -81472.51, 0, 21:47:11.103
185, -44104.01, -41088.07, -69635.00, -122878.17, -68497.32, -44140.58, -83125.73, -81426.51, 0, 21:47:11.104
186, -44153.77, -41127.92, -69498.70, -122938.93, -68513.93, -44076.21, -83138.41, -81392.04, 0, 21:47:11.104
187, -44166.22, -41137.07, -69499.62, -122948.23, -68545.47, -44074.82, -83175.24, -81426.27, 0, 21:47:11.104
188, -44119.08, -41096.68, -69610.62, -122891.92, -68525.13, -44133.77, -83159.20, -81443.12, 0, 21:47:11.104
189, -44098.02, -41073.25, -69651.41, -122867.94, -68491.98, -44142.68, -83125.13, -81408.90, 0, 21:47:11.104
190, -44149.77, -41114.56, -69529.81, -122927.51, -68502.33, -44085.15, -83130.16, -81384.64, 0, 21:47:11.105
191, -44177.46, -41143.73, -69488.24, -122957.79, -68543.81, -44062.46, -83166.84, -81421.99, 0, 21:47:11.105
192, -44128.89, -41106.96, -69577.02, -122903.03, -68524.88, -44111.37, -83159.62, -81445.38, 0, 21:47:11.105
193, -44096.84, -41080.94, -69646.85, -122873.10, -68492.54, -44140.13, -83130.11, -81431.25, 0, 21:47:11.106
194, -44114.96, -41095.78, -69550.98, -122905.09, -68478.79, -44080.30, -83111.96, -81379.52, 0, 21:47:11.106
195, -44162.17, -41136.86, -69473.87, -122951.40, -68519.80, -44042.59, -83150.25, -81392.87, 0, 21:47:11.106
196, -44135.29, -41121.38, -69559.90, -122914.98, -68529.69, -44096.88, -83165.97, -81441.53, 0, 21:47:11.107
197, -44089.64, -41080.88, -69651.25, -122867.05, -68496.94, -44140.87, -83134.25, -81438.76, 0, 21:47:11.107
198, -44112.60, -41094.69, -69575.44, -122892.50, -68481.97, -44095.21, -83107.63, -81387.84, 0, 21:47:11.107
199, -44165.91, -41138.29, -69475.39, -122947.71, -68515.85, -44047.44, -83145.42, -81390.61, 0, 21:47:11.107
200, -44141.63, -41122.25, -69544.03, -122915.77, -68528.93, -44083.56, -83170.50, -81438.87, 0, 21:47:11.108
201, -44089.84, -41078.19, -69645.51, -122861.55, -68499.94, -44135.35, -83134.23, -81435.70, 0, 21:47:11.108
202, -44108.86, -41092.56, -69597.98, -122886.94, -68482.95, -44112.21, -83110.73, -81396.91, 0, 21:47:11.108
203, -44161.68, -41134.94, -69484.42, -122942.16, -68515.52, -44058.46, -83143.86, -81399.22, 0, 21:47:11.109
204, -44152.02, -41130.89, -69517.66, -122925.34, -68535.12, -44077.10, -83170.50, -81431.96, 0, 21:47:11.109
205, -44099.70, -41089.90, -69618.28, -122871.00, -68507.63, -44137.03, -83152.30, -81445.35, 0, 21:47:11.109
206, -44092.55, -41083.58, -69613.63, -122869.23, -68482.44, -44120.93, -83116.68, -81400.52, 0, 21:47:11.109
207, -44150.53, -41129.64, -69491.62, -122932.65, -68507.13, -44056.52, -83130.52, -81376.26, 0, 21:47:11.110
208, -44174.45, -41153.00, -69504.65, -122952.23, -68549.49, -44068.99, -83175.87, -81430.06, 0, 21:47:11.110
209, -44123.68, -41109.86, -69617.34, -122891.63, -68527.34, -44132.22, -83163.44, -81457.02, 0, 21:47:11.110
210, -44106.76, -41089.70, -69640.44, -122876.52, -68490.62, -44135.55, -83130.98, -81419.42, 0, 21:47:11.111
211, -44143.89, -41121.11, -69516.02, -122922.92, -68494.73, -44068.61, -83128.57, -81382.97, 0, 21:47:11.111
212, -44164.90, -41144.82, -69489.85, -122942.62, -68525.41, -44055.51, -83155.57, -81410.99, 0, 21:47:11.111
213, -44119.35, -41105.24, -69594.01, -122890.13, -68515.88, -44118.30, -83153.96, -81448.44, 0, 21:47:11.111
214, -44104.48, -41086.37, -69653.98, -122872.72, -68495.47, -44136.07, -83126.18, -81421.45, 0, 21:47:11.112
215, -44137.74, -41114.89, -69533.48, -122915.62, -68489.48, -44073.23, -83113.53, -81376.13, 0, 21:47:11.112
216, -44177.59, -41147.93, -69478.25, -122955.51, -68528.39, -44052.49, -83161.43, -81414.20, 0, 21:47:11.112
217, -44146.26, -41126.89, -69576.64, -122915.44, -68529.91, -44112.66, -83169.38, -81462.18, 0, 21:47:11.112
218, -44098.40, -41088.83, -69656.26, -122872.19, -68501.43, -44146.39, -83133.16, -81436.05, 0, 21:47:11.113
219, -44132.54, -41113.11, -69555.03, -122918.03, -68499.78, -44100.28, -83127.16, -81389.25, 0, 21:47:11.113
220, -44172.93, -41145.20, -69480.04, -122954.69, -68526.78, -44059.62, -83148.51, -81384.60, 0, 21:47:11.113
221, -44138.08, -41114.51, -69551.97, -122912.08, -68522.22, -44098.92, -83154.41, -81383.64, 0, 21:47:11.113
222, -44105.15, -41084.25, -69652.28, -122870.09, -68507.06, -44156.25, -83144.15, -81454.80, 0, 21:47:11.114
223, -44120.02, -41099.61, -69577.24, -122890.76, -68487.06, -44115.17, -83110.24, -81402.50, 0, 21:47:11.114
224, -44171.27, -41142.12, -69473.84, -122943.82, -68520.08, -44060.18, -83141.65, -81396.94, 0, 21:47:11.114
225, -44159.38, -41140.84, -69540.88, -122930.95, -68542.23, -44100.64, -83170.52, -81450.65, 0, 21:47:11.115
226, -44099.70, -41088.99, -69650.42, -122870.80, -68510.82, -44152.76, -83141.70, -81454.16, 0, 21:47:11.115
227, -44102.70, -41085.01, -69602.15, -122884.34, -68482.79, -44110.18, -83114.18, -81399.71, 0, 21:47:11.115
228, -44163.31, -41139.32, -69494.79, -122954.28, -68516.88, -44059.02, -83148.95, -81392.84, 0, 21:47:11.115
229, -44162.62, -41146.16, -69523.89, -122947.55, -68536.86, -44089.46, -83171.38, -81434.16, 0, 21:47:11.115
230, -44115.26, -41107.02, -69635.96, -122888.97, -68521.05, -44152.83, -83157.59, -81454.58, 0, 21:47:11.116
231, -44113.60, -41101.57, -69637.57, -122891.70, -68499.82, -44148.49, -83129.27, -81423.98, 0, 21:47:11.116
232, -44156.00, -41139.19, -69514.26, -122942.05, -68515.38, -44084.95, -83138.48, -81400.00, 0, 21:47:11.116
233, -44158.53, -41144.98, -69502.84, -122941.63, -68536.68, -44076.54, -83160.29, -81414.20, 0, 21:47:11.116
234, -44123.66, -41115.18, -69616.23, -122896.73, -68526.84, -44145.68, -83160.58, -81448.70, 0, 21:47:11.117
235, -44112.48, -41099.65, -69641.62, -122890.49, -68498.95, -44155.07, -83130.52, -81423.87, 0, 21:47:11.117
236, -44152.70, -41129.96, -69530.84, -122938.57, -68513.93, -44095.14, -83134.45, -81395.35, 0, 21:47:11.117
237, -44168.70, -41146.18, -69497.02, -122956.98, -68541.53, -44073.44, -83166.01, -81420.18, 0, 21:47:11.117
238, -44133.90, -41115.41, -69593.96, -122910.70, -68542.80, -44136.02, -83175.13, -81464.71, 0, 21:47:11.118
239, -44109.58, -41088.34, -69666.05, -122880.59, -68528.13, -44168.77, -83157.25, -81457.04, 0, 21:47:11.118
240, -44142.32, -41118.87, -69554.40, -122922.43, -68516.63, -44109.29, -83141.78, -81410.98, 0, 21:47:11.118
241, -44174.94, -41150.92, -69503.15, -122955.13, -68548.98, -44075.94, -83170.88, -81423.91, 0, 21:47:11.569
242, -44152.90, -41133.13, -69589.54, -122921.31, -68550.23, -44127.28, -83170.37, -81460.73, 0, 21:47:11.570
243, -44119.08, -41103.56, -69665.06, -122885.91, -68520.03, -44158.60, -83139.03, -81445.22, 0, 21:47:11.570
244, -44140.83, -41122.49, -69578.66, -122916.38, -68500.74, -44106.18, -83116.92, -81397.14, 0, 21:47:11.570
245, -44182.78, -41156.58, -69500.16, -122959.38, -68542.49, -44065.32, -83153.38, -81410.23, 0, 21:47:11.570
246, -44151.24, -41130.94, -69559.97, -122920.53, -68549.27, -44106.09, -83172.88, -81454.90, 0, 21:47:11.570
247, -44119.46, -41104.63, -69659.25, -122884.45, -68523.98, -44163.34, -83150.92, -81467.45, 0, 21:47:11.571
248, -44133.00, -41116.30, -69600.73, -122907.97, -68507.60, -44128.76, -83129.20, -81421.93, 0, 21:47:11.571
249, -44165.28, -41143.95, -69495.39, -122951.35, -68530.78, -44070.78, -83154.84, -81404.52, 0, 21:47:11.571
250, -44160.47, -41143.50, -69540.77, -122938.91, -68554.38, -44103.28, -83185.52, -81451.85, 0, 21:47:11.571
251, -44104.55, -41086.55, -69637.30, -122873.05, -68519.45, -44154.55, -83148.17, -81456.26, 0, 21:47:11.572
252, -44112.38, -41091.31, -69622.10, -122887.92, -68504.01, -44139.48, -83127.14, -81417.88, 0, 21:47:11.572
253, -44163.58, -41138.41, -69502.28, -122945.95, -68527.18, -44077.53, -83148.09, -81401.05, 0, 21:47:11.572
254, -44162.29, -41140.08, -69525.92, -122937.32, -68545.18, -44085.68, -83166.95, -81432.25, 0, 21:47:11.572
255, -44127.39, -41115.50, -69641.53, -122894.36, -68534.56, -44156.29, -83161.02, -81461.82, 0, 21:47:11.573
0, -44111.86, -41101.82, -69646.96, -122884.68, -68511.42, -44149.70, -83131.81, -81429.23, 0, 21:47:11.573
1, -44154.21, -41142.34, -69523.65, -122936.31, -68521.20, -44082.98, -83142.85, -81397.65, 0, 21:47:11.574
2, -44171.16, -41160.85, -69514.77, -122950.23, -68551.57, -44080.57, -83184.63, -81438.96, 0, 21:47:11.575
3, -44115.64, -41113.39, -69617.91, -122887.14, -68532.88, -44138.97, -83169.54, -81463.77, 0, 21:47:11.575
4, -44102.52, -41097.64, -69652.03, -122877.23, -68504.61, -44148.25, -83135.73, -81434.35, 0, 21:47:11.575
5, -44146.30, -41130.02, -69527.85, -122929.92, -68510.77, -44082.64, -83133.71, -81397.83, 0, 21:47:11.575
6, -44162.55, -41144.02, -69487.57, -122945.77, -68546.18, -44060.90, -83175.33, -81425.32, 0, 21:47:11.575
7, -44121.49, -41109.57, -69577.40, -122891.27, -68529.09, -44121.63, -83164.80, -81462.20, 0, 21:47:11.575
8, -44102.27, -41093.90, -69654.60, -122868.90, -68508.85, -44162.44, -83142.63, -81455.81, 0, 21:47:11.576
9, -44136.82, -41124.13, -69554.67, -122913.52, -68506.46, -44105.29, -83131.50, -81408.54, 0, 21:47:11.576
10, -44185.89, -41166.61, -69495.57, -122965.80, -68558.43, -44070.62, -83179.80, -81422.30, 0, 21:47:11.576
11, -44155.45, -41139.43, -69584.24, -122927.80, -68567.02, -44128.15, -83191.52, -81468.24, 0, 21:47:11.576
12, -44117.52, -41105.04, -69675.70, -122883.34, -68538.59, -44177.28, -83161.30, -81461.87, 0, 21:47:11.577
13, -44145.61, -41126.34, -69588.98, -122916.84, -68525.08, -44129.76, -83143.23, -81414.46, 0, 21:47:11.577
14, -44181.62, -41155.04, -69496.02, -122956.14, -68552.77, -44078.89, -83172.38, -81418.82, 0, 21:47:11.577
15, -44151.38, -41137.63, -69553.30, -122922.70, -68556.84, -44115.95, -83186.57, -81459.34, 0, 21:47:11.578
16, -44102.72, -41102.87, -69648.86, -122873.64, -68530.85, -44165.39, -83159.48, -81457.53, 0, 21:47:11.578
17, -44114.54, -41102.49, -69604.20, -122887.83, -68505.66, -44133.50, -83120.50, -81412.56, 0, 21:47:11.578
18, -44165.17, -41143.84, -69498.97, -122941.90, -68538.90, -44076.70, -83147.84, -81407.13, 0, 21:47:11.578
19, -44177.89, -41159.11, -69543.59, -122944.98, -68576.73, -44109.09, -83194.76, -81465.04, 0, 21:47:11.578
20, -44125.05, -41116.41, -69650.76, -122889.35, -68551.86, -44169.55, -83183.38, -81481.47, 0, 21:47:11.579
21, -44105.54, -41094.02, -69634.64, -122877.91, -68515.02, -44148.05, -83142.79, -81425.68, 0, 21:47:11.579
22, -44162.96, -41141.63, -69507.09, -122939.89, -68536.13, -44084.97, -83152.22, -81405.88, 0, 21:47:11.579
23, -44175.54, -41152.18, -69527.02, -122947.94, -68569.38, -44103.79, -83193.21, -81459.25, 0, 21:47:11.579
24, -44127.73, -41105.73, -69641.51, -122890.18, -68551.37, -44169.08, -83179.96, -81483.77, 0, 21:47:11.579
25, -44117.60, -41095.87, -69657.91, -122883.67, -68529.46, -44166.00, -83152.27, -81449.13, 0, 21:47:11.580
26, -44167.54, -41142.63, -69529.93, -122943.64, -68546.92, -44103.32, -83163.55, -81417.43, 0, 21:47:11.580
27, -44190.98, -41164.00, -69513.99, -122961.99, -68577.34, -44094.71, -83194.73, -81446.67, 0, 21:47:11.580
28, -44139.42, -41119.36, -69610.35, -122900.55, -68561.78, -44154.71, -83184.59, -81474.92, 0, 21:47:11.580
29, -44105.29, -41091.54, -69663.68, -122874.20, -68530.16, -44175.90, -83146.97, -81452.70, 0, 21:47:11.581
30, -44150.48, -41131.21, -69550.47, -122932.58, -68535.16, -44117.20, -83150.90, -81413.23, 0, 21:47:11.581
31, -44173.73, -41151.64, -69501.23, -122958.66, -68571.95, -44087.72, -83186.64, -81435.45, 0, 21:47:11.581
32, -44128.20, -41109.46, -69592.40, -122903.81, -68560.71, -44147.71, -83192.45, -81479.46, 0, 21:47:11.581
33, -44114.34, -41092.70, -69676.20, -122880.81, -68541.80, -44194.20, -83176.72, -81482.14, 0, 21:47:11.581
34, -44140.54, -41113.62, -69564.04, -122919.03, -68533.80, -44123.48, -83153.16, -81407.87, 0, 21:47:11.582
35, -44169.86, -41136.17, -69502.99, -122946.93, -68564.73, -44080.45, -83182.87, -81409.45, 0, 21:47:11.582
36, -44151.94, -41127.30, -69571.88, -122917.18, -68568.53, -44129.54, -83184.30, -81452.34, 0, 21:47:11.582
37, -44130.14, -41111.18, -69669.58, -122890.22, -68556.98, -44187.30, -83173.27, -81468.62, 0, 21:47:11.582
38, -44139.57, -41117.17, -69609.56, -122911.99, -68541.76, -44146.62, -83147.99, -81425.34, 0, 21:47:11.583
39, -44170.24, -41144.73, -69518.46, -122951.40, -68564.35, -44092.41, -83171.66, -81425.21, 0, 21:47:11.583
40, -44162.87, -41146.79, -69567.37, -122927.48, -68572.42, -44130.34, -83189.97, -81471.13, 0, 21:47:11.583
41, -44124.02, -41111.94, -69664.51, -122883.61, -68553.24, -44183.83, -83173.34, -81465.89, 0, 21:47:11.584
42, -44125.65, -41113.46, -69617.95, -122898.98, -68536.08, -44151.67, -83146.07, -81418.44, 0, 21:47:11.584
43, -44168.99, -41150.52, -69504.67, -122952.05, -68551.91, -44089.80, -83156.55, -81404.02, 0, 21:47:11.584
44, -44177.11, -41156.42, -69545.75, -122951.29, -68574.73, -44118.30, -83180.59, -81455.50, 0, 21:47:11.584
45, -44131.98, -41118.40, -69643.02, -122901.60, -68558.32, -44179.36, -83171.77, -81476.11, 0, 21:47:11.585
46, -44121.78, -41108.66, -69637.15, -122896.19, -68529.80, -44162.22, -83141.58, -81429.99, 0, 21:47:11.585
47, -44163.71, -41138.92, -69524.02, -122943.95, -68548.87, -44101.24, -83160.71, -81407.98, 0, 21:47:11.585
48, -44155.91, -41135.50, -69534.42, -122933.18, -68567.59, -44106.00, -83190.87, -81443.25, 0, 21:47:11.585
49, -44119.68, -41105.06, -69619.29, -122889.38, -68543.27, -44168.36, -83170.46, -81465.22, 0, 21:47:11.586
50, -44114.61, -41100.23, -69649.93, -122885.10, -68526.04, -44176.57, -83141.34, -81439.38, 0, 21:47:11.586
51, -44149.03, -41129.20, -69531.85, -122925.47, -68522.22, -44104.86, -83133.45, -81395.10, 0, 21:47:11.586
52, -44174.24, -41156.02, -69511.15, -122946.10, -68557.96, -44093.38, -83171.89, -81427.67, 0, 21:47:11.586
53, -44132.76, -41116.75, -69607.51, -122894.05, -68554.18, -44157.57, -83176.41, -81461.73, 0, 21:47:11.587
54, -44109.91, -41088.68, -69654.59, -122872.43, -68527.12, -44176.52, -83151.33, -81437.53, 0, 21:47:11.587
55, -44146.23, -41115.86, -69539.27, -122920.55, -68531.83, -44118.63, -83146.23, -81403.98, 0, 21:47:11.587
56, -44178.71, -41146.90, -69499.95, -122951.82, -68565.94, -44091.83, -83183.51, -81427.05, 0, 21:47:11.587
57, -44138.93, -41119.00, -69588.40, -122905.11, -68561.76, -44153.39, -83190.91, -81467.91, 0, 21:47:11.587
58, -44107.39, -41088.96, -69658.13, -122872.54, -68533.42, -44191.39, -83164.29, -81455.07, 0, 21:47:11.587
59, -44132.27, -41107.52, -69564.30, -122905.71, -68522.20, -44138.64, -83142.07, -81402.62, 0, 21:47:11.588
60, -44175.85, -41148.75, -69493.07, -122952.12, -68563.05, -44101.51, -83178.21, -81409.79, 0, 21:47:11.588
61, -44148.63, -41133.31, -69560.46, -122924.17, -68565.27, -44149.39, -83192.97, -81423.80, 0, 21:47:11.588
62, -44101.60, -41091.51, -69655.63, -122872.67, -68538.42, -44196.28, -83166.01, -81469.05, 0, 21:47:11.588
63, -44097.40, -41084.27, -69585.85, -122879.41, -68509.13, -44145.12, -83129.38, -81399.44, 0, 21:47:11.588
64, -44145.01, -41129.40, -69486.36, -122932.89, -68540.46, -44092.61, -83157.38, -81393.85, 0, 21:47:11.588
65, -44144.54, -41136.20, -69533.46, -122923.84, -68563.39, -44124.11, -83188.32, -81431.78, 0, 21:47:11.589
66, -44098.56, -41095.16, -69646.52, -122871.78, -68534.85, -44186.60, -83166.19, -81442.31, 0, 21:47:11.589
67, -44107.16, -41095.63, -69616.72, -122887.67, -68509.37, -44164.00, -83131.08, -81396.63, 0, 21:47:11.590
68, -44154.73, -41134.07, -69503.04, -122940.27, -68536.19, -44101.13, -83149.41, -81379.59, 0, 21:47:11.590
69, -44165.41, -41143.35, -69524.43, -122944.89, -68567.02, -44118.34, -83186.26, -81427.16, 0, 21:47:11.590
70, -44113.11, -41101.79, -69638.69, -122887.45, -68548.15, -44185.87, -83174.91, -81451.63, 0, 21:47:11.590
71, -44107.72, -41099.58, -69637.86, -122886.84, -68523.90, -44177.24, -83146.27, -81412.31, 0, 21:47:11.591
72, -44165.84, -41143.12, -69518.04, -122946.08, -68546.25, -44113.18, -83166.68, -81393.63, 0, 21:47:11.591
73, -44184.77, -41156.29, -69524.54, -122961.10, -68584.90, -44121.25, -83211.56, -81444.52, 0, 21:47:11.591
74, -44125.20, -41101.84, -69627.27, -122900.62, -68553.27, -44185.08, -83179.33, -81457.15, 0, 21:47:11.592
75, -44100.53, -41085.61, -69653.42, -122875.60, -68519.59, -44188.82, -83134.12, -81415.60, 0, 21:47:11.592
76, -44148.07, -41129.98, -69527.70, -122935.46, -68531.23, -44120.71, -83139.30, -81375.26, 0, 21:47:11.592
77, -44190.49, -41175.93, -69509.63, -122975.94, -68578.84, -44116.08, -83190.58, -81421.37, 0, 21:47:11.593
78, -44140.25, -41135.41, -69613.70, -122917.09, -68564.96, -44180.73, -83187.91, -81466.38, 0, 21:47:11.593
79, -44099.23, -41095.87, -69669.20, -122879.36, -68527.88, -44199.70, -83152.24, -81437.75, 0, 21:47:11.593
80, -44129.18, -41120.17, -69550.20, -122925.29, -68536.30, -44136.36, -83166.41, -81393.72, 0, 21:47:11.593
81, -44174.51, -41158.84, -69518.10, -122964.67, -68577.85, -44117.76, -83206.35, -81429.66, 0, 21:47:11.593
82, -44141.86, -41130.02, -69600.98, -122919.97, -68561.67, -44174.69, -83183.35, -81460.17, 0, 21:47:11.594
83, -44104.71, -41093.39, -69671.19, -122881.98, -68540.03, -44216.84, -83162.37, -81454.36, 0, 21:47:11.594
84, -44137.59, -41122.98, -69579.41, -122922.34, -68526.96, -44164.23, -83138.20, -81411.38, 0, 21:47:11.594
85, -44176.59, -41156.64, -69506.41, -122966.80, -68563.13, -44113.16, -83174.62, -81418.26, 0, 21:47:11.594
86, -44151.76, -41141.04, -69569.51, -122936.83, -68573.02, -44156.07, -83204.73, -81461.53, 0, 21:47:11.595
87, -44115.79, -41112.14, -69664.73, -122893.69, -68551.48, -44214.18, -83189.44, -81467.44, 0, 21:47:11.595
88, -44130.21, -41118.09, -69616.61, -122909.87, -68524.99, -44181.20, -83134.25, -81421.97, 0, 21:47:11.595
89, -44163.27, -41147.75, -69503.62, -122951.78, -68547.55, -44110.29, -83148.91, -81387.48, 0, 21:47:11.595
90, -44158.08, -41146.07, -69556.64, -122943.55, -68577.92, -44149.21, -83189.55, -81435.76, 0, 21:47:11.596
91, -44123.46, -41112.81, -69667.70, -122906.47, -68565.27, -44219.75, -83183.29, -81456.39, 0, 21:47:11.596
92, -44117.63, -41107.92, -69643.43, -122906.00, -68535.97, -44194.54, -83145.98, -81411.17, 0, 21:47:11.596
93, -44162.33, -41140.08, -69524.23, -122951.80, -68548.41, -44122.99, -83159.23, -81391.93, 0, 21:47:11.596
94, -44164.32, -41153.27, -69547.92, -122941.61, -68572.45, -44136.87, -83189.41, -81438.49, 0, 21:47:11.597
95, -44109.36, -41117.66, -69636.99, -122882.16, -68552.48, -44196.35, -83178.73, -81451.84, 0, 21:47:11.597
96, -44098.49, -41106.49, -69628.14, -122874.64, -68520.63, -44181.42, -83135.08, -81406.15, 0, 21:47:11.597
97, -44144.07, -41146.14, -69509.23, -122930.57, -68541.82, -44118.34, -83160.13, -81386.43, 0, 21:47:11.597
98, -44162.11, -41163.86, -69518.75, -122950.10, -68566.34, -44126.52, -83186.10, -81425.21, 0, 21:47:11.597
99, -44125.54, -41136.33, -69613.03, -122904.05, -68548.35, -44192.84, -83159.91, -81455.32, 0, 21:47:11.598
100, -44100.55, -41111.47, -69655.68, -122880.05, -68528.08, -44202.00, -83132.28, -81424.18, 0, 21:47:11.598
101, -44133.99, -41137.87, -69535.76, -122926.12, -68522.51, -44133.50, -83126.78, -81383.73, 0, 21:47:11.598
102, -44162.96, -41170.66, -69500.45, -122959.98, -68568.24, -44121.87, -83176.36, -81420.88, 0, 21:47:11.598
103, -44115.77, -41135.81, -69597.05, -122906.23, -68559.26, -44179.27, -83174.17, -81452.93, 0, 21:47:11.599
104, -44085.77, -41107.45, -69648.64, -122873.26, -68517.86, -44197.58, -83133.87, -81427.07, 0, 21:47:11.599
105, -44110.70, -41125.89, -69544.30, -122906.34, -68508.45, -44135.11, -83121.30, -81379.73, 0, 21:47:11.599
106, -44143.49, -41155.84, -69488.53, -122940.60, -68546.45, -44101.93, -83155.37, -81398.26, 0, 21:47:12.049
107, -44122.66, -41143.66, -69565.42, -122910.95, -68559.48, -44161.70, -83173.79, -81447.66, 0, 21:47:12.049
108, -44076.23, -41097.41, -69649.64, -122859.45, -68526.45, -44201.13, -83138.63, -81434.42, 0, 21:47:12.049
109, -44107.63, -41118.20, -69562.94, -122897.46, -68514.48, -44149.68, -83118.91, -81383.19, 0, 21:47:12.050
110, -44160.45, -41165.43, -69475.23, -122955.73, -68557.31, -44103.23, -83159.48, -81396.78, 0, 21:47:12.050
111, -44135.29, -41143.01, -69549.87, -122923.08, -68565.56, -44148.29, -83174.34, -81443.65, 0, 21:47:12.050
112, -44084.21, -41103.58, -69647.41, -122870.71, -68533.66, -44197.69, -83146.30, -81439.27, 0, 21:47:12.050
113, -44088.08, -41106.22, -69589.61, -122885.23, -68512.03, -44160.38, -83120.63, -81390.30, 0, 21:47:12.050
114, -44130.52, -41138.25, -69479.45, -122935.06, -68538.96, -44102.14, -83147.75, -81380.76, 0, 21:47:12.050
115, -44122.79, -41138.92, -69521.66, -122925.56, -68565.80, -44131.19, -83181.30, -81427.16, 0, 21:47:12.051
116, -44081.15, -41105.13, -69625.28, -122875.52, -68549.53, -44196.73, -83164.13, -81449.17, 0, 21:47:12.051
117, -44090.16, -41108.30, -69614.80, -122881.55, -68529.77, -44181.53, -83135.84, -81410.73, 0, 21:47:12.051
118, -44135.95, -41147.32, -69498.19, -122934.08, -68544.51, -44118.07, -83145.65, -81386.92, 0, 21:47:12.051
119, -44149.43, -41162.28, -69508.45, -122947.13, -68576.98, -44133.43, -83181.84, -81432.16, 0, 21:47:12.051
120, -44096.10, -41113.04, -69615.09, -122883.74, -68552.93, -44195.54, -83165.61, -81453.35, 0, 21:47:12.052
121, -44079.49, -41097.35, -69622.82, -122872.43, -68520.41, -44191.05, -83129.84, -81416.20, 0, 21:47:12.052
122, -44117.78, -41128.84, -69504.67, -122920.53, -68535.97, -44126.28, -83134.67, -81384.87, 0, 21:47:12.053
123, -44150.95, -41161.65, -69499.23, -122949.88, -68582.21, -44130.10, -83182.53, -81433.37, 0, 21:47:12.053
124, -44101.18, -41122.43, -69607.06, -122892.08, -68570.26, -44195.63, -83180.16, -81469.34, 0, 21:47:12.053
125, -44077.46, -41100.54, -69650.65, -122872.25, -68546.00, -44204.02, -83151.75, -81434.38, 0, 21:47:12.053
126, -44118.68, -41136.06, -69532.25, -122923.59, -68548.66, -44137.03, -83146.84, -81394.52, 0, 21:47:12.053
127, -44146.01, -41161.21, -69492.95, -122948.88, -68575.82, -44113.60, -83179.04, -81420.38, 0, 21:47:12.053
128, -44105.96, -41122.13, -69593.49, -122893.69, -68560.53, -44172.77, -83175.64, -81457.48, 0, 21:47:12.053
129, -44072.14, -41089.90, -69639.98, -122860.83, -68524.73, -44192.35, -83135.84, -81429.80, 0, 21:47:12.054
130, -44111.01, -41123.21, -69541.20, -122911.59, -68535.07, -44143.22, -83141.20, -81394.14, 0, 21:47:12.054
131, -44147.82, -41153.16, -69492.78, -122947.15, -68566.37, -44111.14, -83168.88, -81408.96, 0, 21:47:12.054
132, -44118.09, -41134.54, -69558.73, -122906.80, -68560.15, -44159.69, -83166.39, -81443.65, 0, 21:47:12.054
133, -44078.84, -41102.49, -69627.88, -122864.20, -68535.74, -44200.21, -83146.48, -81440.10, 0, 21:47:12.054
134, -44087.85, -41110.47, -69546.84, -122887.70, -68520.99, -44156.27, -83126.60, -81403.06, 0, 21:47:12.054
135, -44135.86, -41153.61, -69460.81, -122941.23, -68555.63, -44108.30, -83156.22, -81409.16, 0, 21:47:12.055
136, -44144.29, -41161.79, -69546.83, -122931.55, -68586.21, -44154.55, -83186.33, -81459.45, 0, 21:47:12.055
137, -44087.52, -41113.71, -69642.27, -122872.54, -68555.37, -44204.26, -83171.48, -81464.53, 0, 21:47:12.055
138, -44101.06, -41126.96, -69590.41, -122895.52, -68536.05, -44176.97, -83150.81, -81427.05, 0, 21:47:12.055
139, -44153.43, -41170.64, -69486.74, -122951.66, -68548.71, -44118.14, -83141.11, -81414.04, 0, 21:47:12.055
140, -44142.26, -41163.80, -69527.49, -122933.72, -68568.11, -44138.10, -83167.80, -81437.51, 0, 21:47:12.055
141, -44098.45, -41124.79, -69629.08, -122888.57, -68555.28, -44209.25, -83169.97, -81464.91, 0, 21:47:12.055
142, -44091.23, -41115.29, -69621.52, -122894.85, -68547.77, -44205.20, -83161.63, -81448.52, 0, 21:47:12.055
143, -44121.71, -41141.11, -69492.27, -122936.47, -68543.63, -44122.59, -83133.17, -81393.47, 0, 21:47:12.056
144, -44123.66, -41144.02, -69498.39, -122924.78, -68567.04, -44117.36, -83155.77, -81410.19, 0, 21:47:12.056
145, -44086.82, -41111.32, -69589.31, -122878.55, -68561.80, -44183.38, -83165.81, -81442.98, 0, 21:47:12.056
146, -44073.10, -41095.02, -69631.96, -122871.89, -68547.88, -44196.59, -83150.41, -81424.90, 0, 21:47:12.056
147, -44107.23, -41125.58, -69511.48, -122920.40, -68541.22, -44130.46, -83131.74, -81389.49, 0, 21:47:12.056
148, -44134.39, -41148.20, -69489.16, -122950.51, -68581.19, -44124.15, -83176.56, -81432.45, 0, 21:47:12.056
149, -44090.82, -41107.81, -69587.70, -122900.80, -68574.19, -44187.36, -83180.70, -81471.93, 0, 21:47:12.056
150, -44053.61, -41075.11, -69629.52, -122868.81, -68529.38, -44195.61, -83132.82, -81430.98, 0, 21:47:12.057
151, -44087.47, -41104.79, -69515.30, -122920.17, -68537.24, -44134.30, -83130.07, -81395.06, 0, 21:47:12.057
152, -44118.74, -41131.28, -69491.84, -122956.77, -68592.18, -44122.18, -83194.45, -81434.69, 0, 21:47:12.057
153, -44073.97, -41090.35, -69570.45, -122903.77, -68579.40, -44175.81, -83182.55, -81460.41, 0, 21:47:12.057
154, -44041.09, -41057.43, -69639.18, -122869.37, -68552.26, -44208.55, -83154.12, -81444.48, 0, 21:47:12.057
155, -44067.71, -41079.15, -69545.53, -122905.17, -68543.61, -44149.25, -83131.27, -81400.52, 0, 21:47:12.057
156, -44104.24, -41108.68, -69479.66, -122947.09, -68574.52, -44112.42, -83171.51, -81421.95, 0, 21:47:12.058
157, -44079.25, -41091.85, -69548.79, -122914.67, -68578.99, -44166.82, -83183.73, -81471.57, 0, 21:47:12.058
158, -44028.00, -41047.28, -69636.79, -122861.97, -68551.66, -44218.32, -83163.15, -81472.04, 0, 21:47:12.058
159, -44042.68, -41057.65, -69561.98, -122884.09, -68534.72, -44174.58, -83142.30, -81424.77, 0, 21:47:12.058
160, -44082.13, -41086.46, -69470.98, -122923.39, -68561.23, -44108.13, -83159.98, -81400.58, 0, 21:47:12.058
161, -44073.73, -41083.29, -69527.24, -122907.41, -68583.33, -44148.65, -83188.48, -81448.84, 0, 21:47:12.058
162, -44026.86, -41041.78, -69615.49, -122853.68, -68546.95, -44205.22, -83169.48, -81463.39, 0, 21:47:12.058
163, -44046.30, -41063.06, -69587.44, -122879.91, -68538.29, -44189.40, -83150.88, -81426.53, 0, 21:47:12.058
164, -44084.21, -41095.71, -69474.18, -122921.72, -68565.34, -44118.70, -83146.70, -81399.84, 0, 21:47:12.059
165, -44083.20, -41097.30, -69503.28, -122915.79, -68583.22, -44137.23, -83171.04, -81439.88, 0, 21:47:12.059
166, -44029.98, -41056.40, -69601.70, -122859.65, -68556.40, -44197.13, -83159.06, -81447.32, 0, 21:47:12.059
167, -44021.71, -41045.98, -69604.16, -122858.62, -68532.70, -44186.27, -83133.09, -81409.43, 0, 21:47:12.059
168, -44065.93, -41082.44, -69481.13, -122918.97, -68549.31, -44115.43, -83140.84, -81381.96, 0, 21:47:12.059
169, -44075.94, -41093.95, -69498.57, -122925.18, -68580.00, -44124.06, -83179.58, -81425.73, 0, 21:47:12.059
170, -44043.33, -41065.36, -69607.91, -122882.91, -68575.51, -44199.43, -83179.06, -81458.83, 0, 21:47:12.059
171, -44026.43, -41049.00, -69631.83, -122870.75, -68546.43, -44201.29, -83143.10, -81427.09, 0, 21:47:12.059
172, -44059.87, -41080.65, -69510.10, -122918.34, -68550.85, -44132.87, -83142.61, -81389.92, 0, 21:47:12.060
173, -44081.91, -41103.89, -69497.90, -122938.88, -68593.52, -44130.72, -83193.15, -81434.98, 0, 21:47:12.060
174, -44039.21, -41064.80, -69594.21, -122882.27, -68575.38, -44198.43, -83181.86, -81474.84, 0, 21:47:12.060
175, -44009.27, -41034.79, -69633.80, -122852.18, -68529.46, -44211.50, -83126.65, -81441.64, 0, 21:47:12.060
176, -44040.60, -41061.70, -69521.23, -122895.70, -68524.88, -44138.41, -83115.05, -81384.95, 0, 21:47:12.060
177, -44071.87, -41090.91, -69488.93, -122931.77, -68574.52, -44116.06, -83169.54, -81407.55, 0, 21:47:12.060
178, -44043.55, -41067.84, -69570.88, -122896.34, -68575.75, -44176.93, -83180.83, -81456.41, 0, 21:47:12.060
179, -44013.51, -41035.28, -69632.12, -122863.02, -68544.75, -44214.45, -83145.70, -81443.48, 0, 21:47:12.061
180, -44045.16, -41060.76, -69542.02, -122902.29, -68543.52, -44163.78, -83140.48, -81401.52, 0, 21:47:12.061
181, -44085.11, -41099.98, -69479.28, -122946.70, -68581.38, -44124.11, -83173.07, -81418.84, 0, 21:47:12.061
182, -44061.68, -41087.45, -69552.55, -122915.70, -68590.20, -44176.90, -83191.55, -81468.35, 0, 21:47:12.061
183, -44027.23, -41055.46, -69640.95, -122879.18, -68563.08, -44230.50, -83175.06, -81469.02, 0, 21:47:12.061
184, -44051.42, -41073.16, -69577.98, -122909.38, -68550.95, -44190.09, -83153.11, -81421.28, 0, 21:47:12.061
185, -44092.10, -41106.02, -69484.77, -122955.13, -68578.19, -44133.83, -83169.14, -81407.80, 0, 21:47:12.061
186, -44074.04, -41091.47, -69540.90, -122930.92, -68595.96, -44173.50, -83197.02, -81458.70, 0, 21:47:12.061
187, -44018.00, -41042.70, -69629.28, -122869.57, -68561.78, -44223.75, -83163.22, -81457.11, 0, 21:47:12.062
188, -44026.09, -41049.43, -69593.63, -122883.18, -68540.75, -44199.68, -83143.10, -81416.43, 0, 21:47:12.062
189, -44072.77, -41093.23, -69489.20, -122937.70, -68572.04, -44143.22, -83176.49, -81411.45, 0, 21:47:12.062
190, -44071.13, -41099.09, -69506.77, -122930.68, -68595.06, -44156.12, -83199.85, -81450.91, 0, 21:47:12.062
191, -44020.93, -41055.48, -69607.06, -122870.87, -68563.02, -44215.30, -83173.54, -81467.01, 0, 21:47:12.062
192, -44013.51, -41045.04, -69612.74, -122868.49, -68530.78, -44208.11, -83135.95, -81432.43, 0, 21:47:12.062
193, -44050.68, -41072.60, -69481.02, -122913.78, -68534.38, -44133.65, -83133.60, -81393.25, 0, 21:47:12.062
194, -44069.64, -41091.54, -69480.02, -122932.65, -68577.74, -44136.60, -83179.71, -81424.70, 0, 21:47:12.063
195, -44026.52, -41059.66, -69583.82, -122885.17, -68567.91, -44200.66, -83172.36, -81423.52, 0, 21:47:12.063
196, -44016.11, -41046.52, -69615.71, -122868.27, -68535.41, -44199.19, -83132.70, -81395.87, 0, 21:47:12.063
197, -44062.04, -41083.45, -69503.77, -122924.27, -68553.34, -44153.84, -83143.44, -81417.43, 0, 21:47:12.063
198, -44084.50, -41105.10, -69483.62, -122946.02, -68587.24, -44147.13, -83186.20, -81440.84, 0, 21:47:12.063
199, -44042.43, -41068.89, -69571.73, -122896.13, -68580.11, -44209.04, -83190.02, -81475.93, 0, 21:47:12.063
200, -44005.98, -41033.87, -69629.95, -122854.66, -68542.27, -44226.97, -83139.81, -81445.53, 0, 21:47:12.063
201, -44043.60, -41068.47, -69519.35, -122900.37, -68544.73, -44164.23, -83128.30, -81401.34, 0, 21:47:12.064
202, -44082.64, -41107.47, -69477.91, -122942.80, -68588.31, -44141.77, -83178.17, -81430.33, 0, 21:47:12.064
203, -44057.16, -41086.28, -69559.54, -122907.57, -68590.88, -44197.89, -83194.58, -81480.78, 0, 21:47:12.064
204, -44027.82, -41056.11, -69635.78, -122874.77, -68560.64, -44235.40, -83158.41, -81468.71, 0, 21:47:12.064
205, -44048.61, -41071.80, -69557.15, -122906.61, -68549.47, -44184.95, -83142.16, -81421.26, 0, 21:47:12.064
206, -44081.53, -41099.18, -69487.93, -122943.73, -68578.59, -44140.49, -83181.14, -81425.86, 0, 21:47:12.064
207, -44074.11, -41095.22, -69549.75, -122923.77, -68589.95, -44188.21, -83198.71, -81468.30, 0, 21:47:12.065
208, -44031.39, -41063.75, -69633.55, -122880.32, -68571.66, -44235.15, -83179.48, -81437.17, 0, 21:47:12.065
209, -44037.27, -41070.37, -69580.38, -122886.34, -68537.51, -44188.91, -83129.09, -81397.18, 0, 21:47:12.065
210, -44073.14, -41097.26, -69483.19, -122923.23, -68552.82, -44127.73, -83141.94, -81416.67, 0, 21:47:12.065
211, -44065.61, -41093.28, -69523.53, -122910.47, -68572.40, -44159.09, -83170.10, -81452.46, 0, 21:47:12.065
212, -44017.27, -41049.96, -69623.24, -122858.30, -68563.88, -44232.92, -83170.37, -81477.56, 0, 21:47:12.065
213, -44018.92, -41042.68, -69598.19, -122863.22, -68538.02, -44210.32, -83135.91, -81423.87, 0, 21:47:12.065
214, -44071.16, -41082.06, -69485.96, -122918.14, -68563.33, -44139.93, -83149.41, -81395.80, 0, 21:47:12.066
215, -44091.54, -41103.05, -69506.21, -122934.57, -68598.57, -44160.68, -83182.38, -81442.73, 0, 21:47:12.066
216, -44048.31, -41062.84, -69610.66, -122873.81, -68566.45, -44224.02, -83150.92, -81463.55, 0, 21:47:12.066
217, -44041.36, -41048.33, -69618.57, -122868.97, -68540.26, -44214.57, -83121.48, -81420.54, 0, 21:47:12.066
218, -44090.36, -41083.82, -69505.34, -122927.75, -68566.88, -44152.50, -83141.20, -81389.38, 0, 21:47:12.066
219, -44095.14, -41094.02, -69500.83, -122937.98, -68600.01, -44151.54, -83181.05, -81427.29, 0, 21:47:12.066
220, -44053.30, -41063.80, -69586.92, -122880.72, -68576.55, -44209.78, -83162.61, -81448.79, 0, 21:47:12.066
221, -44043.57, -41053.25, -69628.25, -122868.07, -68552.53, -44228.73, -83138.09, -81430.77, 0, 21:47:12.067
222, -44077.39, -41082.59, -69516.76, -122908.23, -68548.57, -44160.61, -83130.78, -81390.77, 0, 21:47:12.067
223, -44112.66, -41113.95, -69481.36, -122940.60, -68588.47, -44143.09, -83170.52, -81420.16, 0, 21:47:12.067
224, -44080.54, -41085.88, -69582.43, -122898.63, -68588.72, -44209.38, -83172.34, -81465.02, 0, 21:47:12.067
225, -44059.42, -41068.00, -69645.55, -122879.07, -68570.92, -44243.98, -83150.27, -81452.37, 0, 21:47:12.067
226, -44085.71, -41085.32, -69544.77, -122916.30, -68565.96, -44184.30, -83135.34, -81406.86, 0, 21:47:12.528
227, -44115.59, -41113.06, -69497.94, -122950.95, -68600.25, -44150.93, -83176.59, -81424.43, 0, 21:47:12.528
228, -44078.20, -41090.26, -69559.34, -122903.32, -68589.27, -44193.75, -83171.40, -81450.58, 0, 21:47:12.529
229, -44032.46, -41051.57, -69622.26, -122855.89, -68554.79, -44225.90, -83130.23, -81428.99, 0, 21:47:12.529
230, -44050.50, -41061.88, -69547.56, -122884.39, -68537.09, -44176.68, -83106.29, -81380.11, 0, 21:47:12.529
231, -44104.13, -41110.87, -69479.97, -122940.94, -68581.84, -44136.31, -83152.48, -81395.91, 0, 21:47:12.529
232, -44095.77, -41108.86, -69549.28, -122921.72, -68604.48, -44184.79, -83187.80, -81456.68, 0, 21:47:12.529
233, -44053.63, -41069.25, -69643.72, -122873.44, -68581.38, -44242.35, -83170.93, -81465.83, 0, 21:47:12.530
234, -44060.70, -41070.30, -69589.61, -122883.77, -68555.19, -44205.49, -83135.86, -81412.65, 0, 21:47:12.530
235, -44100.26, -41105.17, -69491.77, -122922.90, -68569.16, -44144.34, -83152.60, -81397.32, 0, 21:47:12.530
236, -44083.09, -41090.98, -69530.95, -122902.07, -68576.40, -44168.81, -83162.95, -81431.98, 0, 21:47:12.530
237, -44039.39, -41053.94, -69616.14, -122858.41, -68562.72, -44225.05, -83148.35, -81443.61, 0, 21:47:12.530
238, -44055.33, -41070.14, -69609.21, -122880.14, -68562.61, -44220.76, -83135.41, -81416.49, 0, 21:47:12.530
239, -44100.82, -41109.59, -69509.19, -122929.98, -68586.35, -44163.65, -83155.33, -81400.29, 0, 21:47:12.530
240, -44104.06, -41118.11, -69512.76, -122928.66, -68607.96, -44169.32, -83188.88, -81436.79, 0, 21:47:12.531
241, -44045.25, -41073.12, -69603.06, -122864.12, -68573.48, -44223.64, -83165.12, -81447.88, 0, 21:47:12.531
242, -44034.19, -41059.62, -69612.98, -122855.63, -68547.79, -44219.21, -83134.27, -81406.33, 0, 21:47:12.531
243, -44089.71, -41104.41, -69499.41, -122917.18, -68572.20, -44158.98, -83148.51, -81389.67, 0, 21:47:12.531
244, -44114.09, -41123.21, -69497.31, -122935.46, -68608.81, -44151.55, -83182.23, -81385.09, 0, 21:47:12.531
245, -44056.27, -41077.07, -69584.02, -122869.70, -68587.98, -44200.28, -83172.85, -81426.06, 0, 21:47:12.531
246, -44028.38, -41052.75, -69620.45, -122842.37, -68553.85, -44212.17, -83136.73, -81426.35, 0, 21:47:12.531
247, -44076.59, -41092.65, -69521.68, -122904.95, -68569.18, -44162.26, -83143.99, -81389.96, 0, 21:47:12.531
248, -44110.43, -41122.74, -69486.36, -122941.50, -68616.21, -44149.30, -83195.31, -81425.21, 0, 21:47:12.532
249, -44073.91, -41098.87, -69574.77, -122900.88, -68613.04, -44214.16, -83208.10, -81469.18, 0, 21:47:12.532
250, -44037.99, -41066.79, -69637.22, -122864.95, -68570.86, -44240.18, -83152.98, -81445.30, 0, 21:47:12.532
251, -44063.58, -41086.50, -69553.24, -122902.34, -68559.98, -44183.77, -83131.79, -81394.05, 0, 21:47:12.532
252, -44106.98, -41118.40, -69492.45, -122945.41, -68598.38, -44148.20, -83173.41, -81413.43, 0, 21:47:12.532
253, -44080.05, -41097.37, -69555.20, -122907.73, -68602.46, -44194.25, -83186.98, -81453.94, 0, 21:47:12.532
254, -44038.55, -41059.53, -69629.28, -122860.70, -68573.05, -44237.77, -83158.63, -81442.76, 0, 21:47:12.532
255, -44065.57, -41080.92, -69573.91, -122891.67, -68568.38, -44199.07, -83151.41, -81397.74, 0, 21:47:12.532
0, -44103.23, -41114.51, -69494.48, -122937.92, -68592.41, -44142.95, -83177.09, -81388.64, 0, 21:47:12.533
1, -44086.29, -41105.59, -69542.49, -122916.22, -68600.90, -44181.20, -83186.15, -81439.56, 0, 21:47:12.533
2, -44036.29, -41063.33, -69634.22, -122864.00, -68581.38, -44234.68, -83155.73, -81440.63, 0, 21:47:12.533
3, -44054.30, -41076.89, -69598.37, -122891.02, -68564.27, -44209.07, -83137.34, -81406.75, 0, 21:47:12.533
4, -44101.82, -41120.28, -69495.73, -122944.76, -68597.41, -44150.48, -83171.20, -81402.95, 0, 21:47:12.534
5, -44090.80, -41110.45, -69526.30, -122933.00, -68617.39, -44171.05, -83201.57, -81443.54, 0, 21:47:12.534
6, -44040.40, -41062.99, -69614.66, -122879.25, -68590.66, -44229.65, -83183.16, -81449.22, 0, 21:47:12.534
7, -44025.40, -41050.52, -69604.11, -122871.49, -68559.77, -44213.71, -83140.10, -81401.61, 0, 21:47:12.534
8, -44076.32, -41092.72, -69501.88, -122930.55, -68574.28, -44147.64, -83132.48, -81371.27, 0, 21:47:12.535
9, -44086.89, -41105.06, -69509.48, -122937.65, -68608.52, -44151.29, -83175.22, -81413.01, 0, 21:47:12.535
10, -44051.38, -41075.44, -69601.59, -122892.50, -68596.74, -44220.62, -83178.37, -81451.48, 0, 21:47:12.535
11, -44030.90, -41060.40, -69610.73, -122874.22, -68575.41, -44225.20, -83150.43, -81423.63, 0, 21:47:12.535
12, -44077.37, -41104.01, -69498.30, -122928.24, -68589.92, -44158.29, -83152.40, -81382.05, 0, 21:47:12.535
13, -44099.72, -41127.79, -69503.30, -122948.47, -68621.77, -44154.11, -83183.80, -81420.74, 0, 21:47:12.536
14, -44038.99, -41069.23, -69589.13, -122885.28, -68596.74, -44212.89, -83174.21, -81450.11, 0, 21:47:12.536
15, -44008.82, -41038.34, -69615.53, -122852.47, -68555.44, -44218.28, -83122.11, -81412.70, 0, 21:47:12.536
16, -44034.37, -41055.97, -69500.89, -122884.34, -68553.96, -44151.96, -83117.89, -81373.24, 0, 21:47:12.536
17, -44056.23, -41076.74, -69466.52, -122904.23, -68590.62, -44130.32, -83160.80, -81401.88, 0, 21:47:12.536
18, -44038.14, -41066.84, -69547.88, -122875.67, -68588.29, -44186.47, -83162.03, -81433.41, 0, 21:47:12.536
19, -44015.70, -41050.56, -69618.10, -122849.27, -68574.95, -44225.14, -83147.05, -81428.36, 0, 21:47:12.536
20, -44025.20, -41057.88, -69522.80, -122871.36, -68556.53, -44166.02, -83122.29, -81370.56, 0, 21:47:12.536
21, -44082.89, -41108.23, -69459.61, -122929.72, -68602.69, -44138.82, -83167.04, -81386.14, 0, 21:47:12.537
22, -44066.60, -41098.35, -69529.99, -122902.90, -68617.30, -44190.38, -83184.85, -81435.76, 0, 21:47:12.537
23, -44030.10, -41070.52, -69619.29, -122862.48, -68605.70, -44237.12, -83173.81, -81445.48, 0, 21:47:12.537
24, -44032.78, -41065.72, -69554.83, -122873.68, -68571.73, -44179.92, -83130.02, -81385.20, 0, 21:47:12.537
25, -44063.63, -41085.59, -69466.98, -122908.35, -68585.07, -44115.61, -83137.73, -81370.54, 0, 21:47:12.537
26, -44057.75, -41085.25, -69514.05, -122890.58, -68592.61, -44155.73, -83161.79, -81411.13, 0, 21:47:12.537
27, -44019.77, -41055.66, -69608.80, -122847.91, -68574.34, -44218.70, -83145.23, -81424.70, 0, 21:47:12.537
28, -44024.00, -41058.23, -69566.47, -122863.45, -68560.78, -44192.32, -83123.66, -81385.91, 0, 21:47:12.537
29, -44072.23, -41102.02, -69475.88, -122914.97, -68588.65, -44135.89, -83149.47, -81376.20, 0, 21:47:12.538
30, -44086.42, -41119.09, -69511.20, -122925.72, -68628.62, -44162.08, -83196.01, -81432.01, 0, 21:47:12.538
31, -44032.53, -41074.93, -69604.67, -122870.87, -68596.23, -44218.39, -83172.65, -81450.70, 0, 21:47:12.538
32, -44019.48, -41061.76, -69586.21, -122864.77, -68559.52, -44198.61, -83126.00, -81404.09, 0, 21:47:12.538
33, -44066.82, -41092.47, -69482.32, -122914.95, -68577.45, -44132.69, -83138.18, -81376.93, 0, 21:47:12.538
34, -44078.46, -41112.19, -69499.98, -122922.12, -68611.38, -44141.14, -83175.94, -81413.08, 0, 21:47:12.538
35, -44041.07, -41081.88, -69591.38, -122878.45, -68601.23, -44210.34, -83166.75, -81438.34, 0, 21:47:12.538
36, -44024.04, -41063.19, -69615.71, -122862.33, -68576.70, -44217.05, -83138.34, -81408.67, 0, 21:47:12.538
37, -44057.23, -41088.25, -69499.10, -122905.76, -68578.34, -44146.91, -83136.39, -81376.33, 0, 21:47:12.539
38, -44073.19, -41092.29, -69485.18, -122919.64, -68607.72, -44132.80, -83173.45, -81404.11, 0, 21:47:12.539
39, -44047.46, -41076.89, -69567.14, -122884.84, -68604.70, -44196.97, -83172.11, -81442.24, 0, 21:47:12.539
40, -44022.45, -41057.49, -69615.27, -122859.06, -68581.99, -44217.92, -83142.01, -81430.69, 0, 21:47:12.539
41, -44047.73, -41075.71, -69522.39, -122890.52, -68568.02, -44154.86, -83128.15, -81377.18, 0, 21:47:12.539
42, -44077.97, -41106.06, -69476.10, -122921.63, -68608.01, -44126.16, -83163.46, -81394.01, 0, 21:47:12.540
43, -44042.52, -41077.43, -69544.12, -122872.25, -68607.67, -44175.14, -83161.96, -81429.88, 0, 21:47:12.540
44, -44014.54, -41049.47, -69603.24, -122842.75, -68587.16, -44208.33, -83132.59, -81405.48, 0, 21:47:12.540
45, -44040.13, -41068.29, -69529.10, -122877.34, -68580.20, -44164.77, -83116.34, -81365.80, 0, 21:47:12.540
46, -44076.07, -41098.80, -69476.80, -122915.01, -68611.43, -44126.66, -83147.91, -81377.76, 0, 21:47:12.540
47, -44054.86, -41079.49, -69539.29, -122885.84, -68628.50, -44169.32, -83172.38, -81423.80, 0, 21:47:12.540
48, -44013.98, -41042.38, -69604.58, -122840.47, -68587.76, -44209.87, -83140.80, -81417.10, 0, 21:47:12.541
49, -44032.58, -41053.25, -69548.12, -122868.34, -68575.75, -44177.19, -83119.14, -81379.99, 0, 21:47:12.541
50, -44072.30, -41091.45, -69461.44, -122916.80, -68608.37, -44123.04, -83145.76, -81378.48, 0, 21:47:12.541
51, -44074.20, -41094.93, -69509.92, -122909.38, -68627.20, -44157.93, -83165.97, -81423.91, 0, 21:47:12.541
52, -44038.19, -41066.01, -69616.38, -122868.70, -68622.42, -44225.14, -83162.66, -81443.98, 0, 21:47:12.541
53, -44031.28, -41067.33, -69591.06, -122869.52, -68596.18, -44194.61, -83132.84, -81390.32, 0, 21:47:12.541
54, -44083.36, -41106.00, -69484.84, -122925.45, -68618.76, -44135.84, -83154.84, -81373.76, 0, 21:47:12.541
55, -44090.29, -41109.89, -69509.52, -122925.25, -68648.33, -44158.57, -83187.38, -81428.32, 0, 21:47:12.542
56, -44030.32, -41063.91, -69600.31, -122863.80, -68609.33, -44214.90, -83149.25, -81450.52, 0, 21:47:12.542
57, -44017.45, -41046.86, -69596.63, -122856.23, -68579.24, -44201.18, -83116.39, -81399.38, 0, 21:47:12.542
58, -44073.05, -41094.73, -69482.20, -122914.98, -68601.88, -44138.05, -83122.83, -81361.40, 0, 21:47:12.542
59, -44093.53, -41117.30, -69491.08, -122928.66, -68636.57, -44146.73, -83159.80, -81408.27, 0, 21:47:12.542
60, -44051.11, -41078.75, -69587.21, -122875.23, -68633.20, -44209.04, -83163.82, -81439.67, 0, 21:47:12.542
61, -44028.75, -41054.72, -69620.52, -122857.59, -68611.20, -44221.94, -83134.20, -81412.72, 0, 21:47:12.542
62, -44073.88, -41091.58, -69505.01, -122911.81, -68616.75, -44149.99, -83134.25, -81369.66, 0, 21:47:12.542
63, -44098.16, -41117.95, -69494.16, -122938.48, -68647.77, -44137.63, -83171.98, -81409.34, 0, 21:47:12.543
64, -44046.59, -41082.13, -69572.33, -122884.68, -68625.30, -44196.15, -83158.50, -81434.53, 0, 21:47:12.543
65, -44012.57, -41047.46, -69618.20, -122853.61, -68603.80, -44218.43, -83132.30, -81408.16, 0, 21:47:12.543
66, -44050.13, -41079.69, -69528.77, -122890.27, -68599.06, -44161.59, -83111.85, -81363.66, 0, 21:47:12.543
67, -44078.73, -41107.20, -69479.75, -122921.31, -68628.95, -44129.92, -83137.49, -81380.87, 0, 21:47:12.543
68, -44060.70, -41097.28, -69552.55, -122895.66, -68640.62, -44183.30, -83163.71, -81426.09, 0, 21:47:12.543
69, -44037.27, -41074.44, -69626.06, -122864.34, -68618.89, -44222.90, -83139.48, -81420.25, 0, 21:47:12.543
70, -44061.52, -41090.66, -69555.14, -122890.53, -68607.02, -44175.92, -83122.11, -81380.09, 0, 21:47:12.543
71, -44092.17, -41118.63, -69478.52, -122926.30, -68634.94, -44126.81, -83158.03, -81391.59, 0, 21:47:12.543
72, -44052.47, -41087.13, -69533.64, -122892.10, -68643.61, -44168.83, -83171.77, -81434.29, 0, 21:47:12.544
73, -44013.51, -41051.61, -69624.54, -122850.75, -68627.12, -44227.60, -83155.88, -81446.16, 0, 21:47:12.544
74, -44039.33, -41074.39, -69569.13, -122881.64, -68609.10, -44192.62, -83128.91, -81398.21, 0, 21:47:12.544
75, -44086.38, -41107.89, -69478.98, -122933.30, -68640.84, -44136.54, -83156.58, -81380.76, 0, 21:47:12.544
76, -44078.91, -41113.68, -69522.57, -122918.99, -68664.34, -44166.87, -83185.45, -81428.59, 0, 21:47:12.544
77, -44027.53, -41068.96, -69618.40, -122862.55, -68638.31, -44223.39, -83168.98, -81441.38, 0, 21:47:12.544
78, -44020.38, -41058.75, -69593.52, -122862.77, -68616.81, -44202.54, -83142.36, -81396.13, 0, 21:47:12.544
79, -44083.59, -41111.20, -69492.02, -122931.39, -68655.98, -44155.13, -83163.15, -81391.17, 0, 21:47:12.544
80, -44087.16, -41114.82, -69510.46, -122929.90, -68673.66, -44169.48, -83182.15, -81433.93, 0, 21:47:12.545
81, -44027.62, -41058.86, -69598.16, -122863.29, -68651.23, -44222.30, -83166.19, -81441.46, 0, 21:47:12.545
82, -44006.58, -41034.61, -69608.18, -122849.52, -68625.15, -44216.58, -83135.57, -81405.48, 0, 21:47:12.545
83, -44053.70, -41078.79, -69492.11, -122903.01, -68634.07, -44150.39, -83139.50, -81378.32, 0, 21:47:12.545
84, -44060.29, -41090.08, -69489.20, -122906.70, -68665.25, -44144.29, -83179.16, -81409.61, 0, 21:47:12.545
85, -44023.57, -41062.21, -69577.42, -122861.48, -68640.77, -44202.96, -83156.13, -81433.15, 0, 21:47:12.545
86, -44023.12, -41058.28, -69619.52, -122864.90, -68625.48, -44223.66, -83137.98, -81422.20, 0, 21:47:12.546
87, -44071.63, -41095.67, -69529.66, -122922.43, -68644.15, -44173.95, -83145.52, -81397.95, 0, 21:47:12.546
88, -44087.68, -41113.89, -69499.26, -122935.48, -68670.01, -44153.57, -83170.93, -81416.12, 0, 21:47:12.546
89, -44050.35, -41085.12, -69579.84, -122888.63, -68667.64, -44209.87, -83176.27, -81454.60, 0, 21:47:12.546
90, -44009.55, -41048.29, -69635.23, -122852.02, -68640.10, -44235.60, -83147.81, -81432.74, 0, 21:47:13.008
91, -44037.11, -41064.78, -69536.45, -122885.10, -68629.51, -44177.24, -83127.21, -81384.24, 0, 21:47:13.008
92, -44084.32, -41101.91, -69488.11, -122933.52, -68676.98, -44151.00, -83180.36, -81415.42, 0, 21:47:13.009
93, -44071.65, -41098.38, -69560.10, -122913.96, -68689.16, -44210.00, -83207.77, -81460.23, 0, 21:47:13.009
94, -44025.52, -41056.11, -69625.28, -122865.21, -68659.13, -44245.54, -83174.28, -81451.07, 0, 21:47:13.009
95, -44031.28, -41062.46, -69548.10, -122878.98, -68630.00, -44194.85, -83131.21, -81392.11, 0, 21:47:13.009
96, -44079.02, -41102.67, -69484.51, -122925.41, -68664.13, -44149.01, -83161.80, -81392.20, 0, 21:47:13.010
97, -44067.11, -41095.11, -69540.39, -122908.08, -68677.48, -44194.32, -83178.48, -81447.09, 0, 21:47:13.010
98, -44030.66, -41079.96, -69626.80, -122865.32, -68663.06, -44248.38, -83168.76, -81455.86, 0, 21:47:13.010
99, -44025.56, -41070.34, -69573.06, -122869.16, -68623.92, -44201.09, -83123.19, -81386.74, 0, 21:47:13.010
100, -44063.73, -41095.80, -69471.59, -122917.13, -68642.05, -44136.49, -83140.04, -81366.72, 0, 21:47:13.011
101, -44073.66, -41105.73, -69521.73, -122915.91, -68673.81, -44174.02, -83174.46, -81425.15, 0, 21:47:13.011
102, -44040.40, -41084.58, -69620.90, -122873.32, -68663.66, -44240.23, -83160.24, -81451.50, 0, 21:47:13.011
103, -44023.97, -41068.67, -69611.02, -122867.38, -68641.89, -44220.53, -83130.63, -81410.68, 0, 21:47:13.012
104, -44061.79, -41098.80, -69489.72, -122915.21, -68642.85, -44147.78, -83130.70, -81376.38, 0, 21:47:13.012
105, -44064.29, -41100.32, -69500.67, -122918.92, -68670.05, -44161.93, -83164.76, -81418.93, 0, 21:47:13.012
106, -44024.53, -41069.50, -69600.18, -122870.46, -68653.91, -44231.73, -83160.78, -81449.33, 0, 21:47:13.012
107, -44013.67, -41052.09, -69609.45, -122861.55, -68628.03, -44229.50, -83131.41, -81418.48, 0, 21:47:13.012
108, -44071.34, -41097.05, -69503.28, -122917.47, -68638.61, -44168.95, -83134.85, -81390.77, 0, 21:47:13.012
109, -44088.97, -41116.52, -69498.48, -122931.17, -68680.36, -44166.69, -83177.68, -81424.90, 0, 21:47:13.012
110, -44035.26, -41070.99, -69581.83, -122872.38, -68662.32, -44221.74, -83167.95, -81450.70, 0, 21:47:13.013
111, -44020.62, -41058.12, -69615.53, -122858.62, -68637.24, -44231.55, -83132.33, -81421.93, 0, 21:47:13.013
112, -44058.55, -41099.80, -69514.57, -122902.65, -68634.83, -44161.70, -83115.92, -81371.26, 0, 21:47:13.013
113, -44068.43, -41101.10, -69474.30, -122919.34, -68660.13, -44132.38, -83146.74, -81387.19, 0, 21:47:13.013
114, -44026.16, -41063.66, -69545.88, -122871.76, -68646.23, -44186.43, -83149.02, -81423.38, 0, 21:47:13.013
115, -43994.07, -41035.43, -69615.65, -122838.12, -68613.04, -44219.30, -83119.38, -81411.13, 0, 21:47:13.013
116, -44025.83, -41058.25, -69525.88, -122879.98, -68613.46, -44163.04, -83106.11, -81364.98, 0, 21:47:13.013
117, -44084.63, -41113.11, -69485.13, -122938.52, -68668.22, -44140.71, -83167.64, -81401.25, 0, 21:47:13.013
118, -44067.76, -41102.91, -69558.67, -122912.04, -68681.01, -44195.14, -83187.63, -81447.74, 0, 21:47:13.014
119, -44021.51, -41059.46, -69631.96, -122861.97, -68653.73, -44239.33, -83158.61, -81443.85, 0, 21:47:13.014
120, -44040.22, -41070.48, -69561.33, -122880.03, -68635.21, -44190.94, -83134.45, -81388.91, 0, 21:47:13.014
121, -44081.48, -41107.20, -69475.97, -122920.71, -68655.41, -44139.15, -83145.27, -81391.66, 0, 21:47:13.014
122, -44054.68, -41091.63, -69523.67, -122895.72, -68664.80, -44174.69, -83160.60, -81436.73, 0, 21:47:13.014
123, -44017.11, -41060.46, -69608.49, -122852.54, -68636.13, -44225.59, -83142.83, -81431.02, 0, 21:47:13.014
124, -44034.34, -41070.34, -69576.33, -122872.84, -68620.55, -44198.09, -83123.70, -81383.88, 0, 21:47:13.014
125, -44065.75, -41095.29, -69483.52, -122913.73, -68647.41, -44135.60, -83138.54, -81369.20, 0, 21:47:13.014
126, -44063.16, -41100.25, -69515.04, -122906.13, -68671.87, -44157.37, -83170.93, -81416.54, 0, 21:47:13.015
127, -44028.29, -41068.36, -69599.69, -122861.77, -68651.81, -44210.14, -83160.31, -81436.16, 0, 21:47:13.015
128, -44018.07, -41048.51, -69591.53, -122855.51, -68619.27, -44192.44, -83126.60, -81394.01, 0, 21:47:13.015
129, -44051.80, -41079.87, -69486.74, -122900.17, -68629.94, -44131.21, -83131.66, -81369.27, 0, 21:47:13.015
130, -44055.18, -41097.23, -69498.86, -122900.86, -68659.44, -44135.93, -83158.90, -81397.56, 0, 21:47:13.015
131, -44018.43, -41064.20, -69582.97, -122857.59, -68649.34, -44202.43, -83150.81, -81429.37, 0, 21:47:13.015
132, -44011.01, -41055.04, -69605.90, -122849.25, -68631.30, -44208.82, -83128.68, -81404.83, 0, 21:47:13.015
133, -44057.79, -41095.22, -69499.33, -122902.85, -68642.79, -44146.75, -83138.27, -81375.34, 0, 21:47:13.015
134, -44073.32, -41110.91, -69480.09, -122918.16, -68671.73, -44139.71, -83165.12, -81410.23, 0, 21:47:13.015
135, -44025.98, -41069.25, -69560.19, -122863.42, -68661.47, -44197.82, -83160.87, -81441.20, 0, 21:47:13.015
136, -44002.31, -41049.74, -69606.41, -122839.51, -68634.70, -44211.50, -83132.66, -81410.68, 0, 21:47:13.015
137, -44045.00, -41085.19, -69508.88, -122889.75, -68636.10, -44150.95, -83124.37, -81364.28, 0, 21:47:13.016
138, -44083.50, -41110.24, -69478.36, -122930.97, -68683.91, -44135.75, -83178.82, -81401.98, 0, 21:47:13.016
139, -44054.32, -41087.76, -69549.98, -122890.34, -68683.76, -44189.78, -83183.16, -81442.52, 0, 21:47:13.016
140, -44012.82, -41054.92, -69615.24, -122845.01, -68649.89, -44216.20, -83143.01, -81422.57, 0, 21:47:13.016
141, -44028.62, -41065.96, -69525.39, -122873.16, -68624.77, -44158.71, -83113.82, -81367.52, 0, 21:47:13.016
142, -44080.07, -41111.16, -69476.84, -122923.30, -68668.27, -44131.93, -83158.59, -81387.95, 0, 21:47:13.016
143, -44054.55, -41091.49, -69542.33, -122889.75, -68679.17, -44173.39, -83182.28, -81430.91, 0, 21:47:13.016
144, -44007.66, -41048.80, -69609.25, -122841.59, -68649.91, -44207.66, -83153.80, -81422.33, 0, 21:47:13.016
145, -44031.64, -41076.78, -69556.81, -122873.86, -68644.82, -44174.62, -83139.03, -81385.74, 0, 21:47:13.016
146, -44070.46, -41110.76, -69478.07, -122916.28, -68665.05, -44126.41, -83152.42, -81384.35, 0, 21:47:13.016
147, -44059.06, -41095.78, -69528.16, -122891.41, -68672.47, -44153.66, -83169.99, -81421.57, 0, 21:47:13.017
148, -44013.67, -41052.82, -69612.47, -122846.03, -68654.27, -44205.89, -83158.52, -81434.27, 0, 21:47:13.017
149, -44026.07, -41065.00, -69579.10, -122859.98, -68642.18, -44190.05, -83141.87, -81401.77, 0, 21:47:13.017
150, -44072.54, -41105.48, -69474.45, -122908.33, -68668.49, -44127.82, -83159.70, -81383.21, 0, 21:47:13.017
151, -44061.57, -41098.24, -69511.95, -122892.16, -68696.14, -44147.80, -83183.16, -81414.30, 0, 21:47:13.017
152, -44023.57, -41069.41, -69596.45, -122849.97, -68681.77, -44213.96, -83174.68, -81429.39, 0, 21:47:13.017
153, -44011.79, -41055.86, -69586.07, -122846.57, -68647.70, -44201.69, -83136.73, -81381.89, 0, 21:47:13.017
154, -44053.59, -41087.22, -69482.34, -122898.98, -68659.62, -44137.72, -83144.35, -81358.88, 0, 21:47:13.017
155, -44059.27, -41098.78, -69491.93, -122903.90, -68685.95, -44138.14, -83174.73, -81393.18, 0, 21:47:13.017
156, -44010.74, -41057.45, -69573.55, -122846.73, -68661.63, -44199.28, -83160.09, -81418.46, 0, 21:47:13.017
157, -44000.17, -41041.18, -69595.98, -122827.62, -68624.37, -44203.28, -83119.88, -81384.78, 0, 21:47:13.018
158, -44062.86, -41089.25, -69490.03, -122891.27, -68644.46, -44142.95, -83126.94, -81355.14, 0, 21:47:13.018
159, -44078.76, -41105.48, -69477.31, -122908.95, -68679.06, -44130.55, -83167.71, -81384.76, 0, 21:47:13.018
160, -44045.21, -41080.47, -69561.98, -122874.55, -68676.45, -44195.75, -83181.45, -81427.78, 0, 21:47:13.018
161, -44019.66, -41062.07, -69620.65, -122850.95, -68654.48, -44226.97, -83155.15, -81417.57, 0, 21:47:13.018
162, -44050.59, -41088.68, -69520.83, -122889.48, -68642.70, -44164.50, -83124.48, -81369.89, 0, 21:47:13.018
163, -44071.63, -41106.67, -69476.62, -122910.43, -68665.70, -44132.85, -83147.23, -81378.45, 0, 21:47:13.018
164, -44041.63, -41081.77, -69540.84, -122871.58, -68666.21, -44183.81, -83160.58, -81420.74, 0, 21:47:13.018
165, -44016.11, -41057.92, -69610.77, -122841.74, -68652.27, -44221.14, -83144.77, -81415.69, 0, 21:47:13.018
166, -44038.77, -41078.41, -69531.49, -122873.50, -68645.91, -44168.81, -83129.40, -81368.82, 0, 21:47:13.018
167, -44073.75, -41112.72, -69466.34, -122914.16, -68681.52, -44126.72, -83163.06, -81381.88, 0, 21:47:13.019
168, -44048.04, -41089.72, -69518.48, -122880.88, -68682.04, -44163.22, -83165.72, -81417.16, 0, 21:47:13.019
169, -44003.57, -41052.24, -69606.91, -122833.45, -68656.94, -44209.02, -83149.31, -81418.66, 0, 21:47:13.019
170, -44018.50, -41065.74, -69545.53, -122855.45, -68630.07, -44166.17, -83105.48, -81358.13, 0, 21:47:13.019
171, -44073.17, -41114.42, -69455.48, -122917.02, -68662.92, -44117.29, -83129.64, -81357.27, 0, 21:47:13.019
172, -44063.58, -41107.83, -69514.84, -122899.66, -68686.35, -44148.20, -83171.80, -81411.87, 0, 21:47:13.019
173, -44023.05, -41070.73, -69609.68, -122852.09, -68669.50, -44212.62, -83163.84, -81431.72, 0, 21:47:13.019
174, -44039.39, -41079.78, -69588.45, -122869.13, -68650.38, -44203.90, -83138.14, -81395.64, 0, 21:47:13.019
175, -44081.19, -41116.84, -69482.05, -122918.54, -68668.40, -44143.42, -83152.27, -81379.55, 0, 21:47:13.019
176, -44067.47, -41114.98, -69506.46, -122906.41, -68683.82, -44153.75, -83169.27, -81413.56, 0, 21:47:13.019
177, -44017.60, -41071.29, -69596.53, -122843.44, -68648.04, -44203.19, -83145.49, -81416.72, 0, 21:47:13.019
178, -44017.89, -41062.07, -69591.44, -122843.55, -68620.37, -44195.79, -83106.60, -81379.88, 0, 21:47:13.020
179, -44055.04, -41090.39, -69474.61, -122889.59, -68645.42, -44125.80, -83121.11, -81344.86, 0, 21:47:13.020
180, -44083.83, -41120.05, -69498.08, -122915.30, -68704.37, -44141.59, -83185.14, -81402.28, 0, 21:47:13.020
181, -44046.68, -41089.88, -69588.17, -122871.60, -68697.88, -44209.47, -83181.81, -81438.84, 0, 21:47:13.020
182, -44025.02, -41065.52, -69626.11, -122851.38, -68667.10, -44220.38, -83141.58, -81411.24, 0, 21:47:13.020
183, -44060.90, -41098.31, -69518.08, -122899.56, -68663.64, -44155.56, -83126.73, -81368.26, 0, 21:47:13.020
184, -44085.71, -41122.16, -69503.73, -122923.99, -68705.91, -44141.95, -83176.63, -81401.52, 0, 21:47:13.020
185, -44051.66, -41097.55, -69580.13, -122884.45, -68703.63, -44199.19, -83184.79, -81440.68, 0, 21:47:13.020
186, -44025.49, -41067.62, -69636.27, -122853.54, -68678.17, -44224.80, -83156.89, -81421.28, 0, 21:47:13.020
187, -44048.98, -41084.34, -69537.44, -122893.95, -68667.15, -44168.43, -83139.86, -81378.85, 0, 21:47:13.020
188, -44084.32, -41114.11, -69490.14, -122925.88, -68702.35, -44138.61, -83176.25, -81397.32, 0, 21:47:13.021
189, -44078.36, -41115.83, -69557.51, -122898.09, -68709.35, -44190.74, -83188.97, -81440.84, 0, 21:47:13.021
190, -44051.96, -41097.32, -69630.17, -122865.91, -68676.18, -44224.89, -83160.20, -81428.23, 0, 21:47:13.021
191, -44080.03, -41123.16, -69560.64, -122896.41, -68660.82, -44178.33, -83139.70, -81369.89, 0, 21:47:13.021
192, -44126.23, -41166.68, -69491.77, -122937.23, -68692.97, -44144.31, -83162.16, -81389.36, 0, 21:47:13.021
193, -44115.28, -41153.52, -69549.55, -122908.75, -68702.06, -44186.63, -83170.08, -81433.66, 0, 21:47:13.021
194, -44081.86, -41125.93, -69637.73, -122864.45, -68683.35, -44230.99, -83152.82, -81429.97, 0, 21:47:13.021
195, -44119.97, -41164.13, -69587.05, -122904.30, -68680.85, -44205.96, -83147.39, -81399.20, 0, 21:47:13.021
196, -44171.16, -41208.46, -69506.48, -122955.87, -68716.21, -44157.84, -83180.00, -81403.59, 0, 21:47:13.021
197, -44149.97, -41186.78, -69561.35, -122931.44, -68729.51, -44185.22, -83203.16, -81437.02, 0, 21:47:13.021
198, -44112.20, -41157.81, -69643.30, -122887.07, -68709.17, -44241.63, -83185.66, -81446.63, 0, 21:47:13.021
199, -44129.20, -41170.04, -69625.39, -122903.30, -68694.59, -44227.57, -83156.40, -81416.96, 0, 21:47:13.022
200, -44173.39, -41206.31, -69528.79, -122951.73, -68710.53, -44165.77, -83173.32, -81399.59, 0, 21:47:13.022
201, -44173.08, -41203.00, -69546.71, -122946.98, -68728.82, -44172.10, -83200.03, -81430.46, 0, 21:47:13.022
202, -44123.44, -41153.11, -69629.84, -122892.91, -68708.97, -44226.25, -83179.96, -81446.73, 0, 21:47:13.022
203, -44108.84, -41134.18, -69636.43, -122887.36, -68684.09, -44222.99, -83150.12, -81408.67, 0, 21:47:13.022
204, -44153.57, -41180.81, -69525.57, -122948.20, -68703.56, -44163.11, -83165.09, -81385.36, 0, 21:47:13.022
205, -44179.12, -41209.55, -69528.54, -122975.72, -68741.71, -44166.91, -83209.80, -81434.53, 0, 21:47:13.022
206, -44128.20, -41165.41, -69627.49, -122916.06, -68726.65, -44225.16, -83198.87, -81462.63, 0, 21:47:13.022
207, -44103.10, -41139.82, -69664.04, -122894.38, -68691.06, -44241.03, -83166.26, -81430.48, 0, 21:47:13.022
208, -44132.33, -41167.69, -69552.19, -122936.00, -68693.81, -44182.45, -83165.27, -81396.36, 0, 21:47:13.022
209, -44151.55, -41184.92, -69524.00, -122953.86, -68729.63, -44165.88, -83202.60, -81429.46, 0, 21:47:13.023
210, -44111.32, -41149.98, -69599.73, -122903.74, -68717.69, -44216.80, -83199.09, -81462.63, 0, 21:47:13.488
211, -44087.68, -41125.44, -69654.25, -122878.35, -68690.40, -44240.96, -83173.27, -81445.69, 0, 21:47:13.488
212, -44109.09, -41141.43, -69559.21, -122908.88, -68687.34, -44179.52, -83158.41, -81385.07, 0, 21:47:13.488
213, -44144.34, -41174.32, -69506.30, -122946.17, -68728.26, -44148.74, -83194.91, -81407.66, 0, 21:47:13.488
214, -44121.78, -41162.68, -69583.64, -122918.32, -68730.20, -44201.85, -83202.82, -81455.05, 0, 21:47:13.489
215, -44104.95, -41146.97, -69662.47, -122898.38, -68720.91, -44249.30, -83191.88, -81454.74, 0, 21:47:13.489
216, -44125.96, -41152.96, -69593.45, -122921.13, -68705.57, -44203.64, -83162.44, -81411.02, 0, 21:47:13.489
217, -44156.81, -41180.32, -69520.85, -122954.75, -68735.81, -44152.11, -83189.93, -81411.63, 0, 21:47:13.489
218, -44135.11, -41168.34, -69578.41, -122927.02, -68750.92, -44188.08, -83216.03, -81455.59, 0, 21:47:13.489
219, -44103.14, -41145.78, -69657.16, -122894.24, -68734.45, -44241.48, -83206.47, -81467.48, 0, 21:47:13.489
220, -44106.76, -41149.43, -69620.41, -122904.51, -68707.02, -44214.63, -83174.30, -81421.01, 0, 21:47:13.489
221, -44148.36, -41183.67, -69527.02, -122951.87, -68730.36, -44158.64, -83185.59, -81400.52, 0, 21:47:13.490
222, -44153.05, -41187.91, -69557.93, -122952.65, -68763.04, -44185.29, -83225.35, -81451.79, 0, 21:47:13.490
223, -44094.38, -41139.55, -69651.84, -122892.81, -68736.77, -44238.97, -83205.28, -81463.10, 0, 21:47:13.490
224, -44084.59, -41132.82, -69631.09, -122895.01, -68712.59, -44227.48, -83172.11, -81422.15, 0, 21:47:13.490
225, -44133.68, -41174.06, -69520.16, -122944.31, -68730.70, -44164.95, -83188.27, -81407.53, 0, 21:47:13.490
226, -44139.26, -41178.89, -69538.82, -122943.42, -68757.20, -44172.14, -83219.90, -81445.33, 0, 21:47:13.490
227, -44095.59, -41141.65, -69621.84, -122894.71, -68740.91, -44232.92, -83205.06, -81467.81, 0, 21:47:13.490
228, -44094.13, -41134.34, -69631.63, -122891.92, -68720.68, -44231.20, -83176.72, -81434.53, 0, 21:47:13.490
229, -44130.21, -41158.93, -69536.34, -122934.92, -68729.84, -44171.29, -83178.70, -81402.21, 0, 21:47:13.490
230, -44151.00, -41186.93, -69534.62, -122956.85, -68763.82, -44172.21, -83217.80, -81443.02, 0, 21:47:13.491
231, -44110.77, -41156.71, -69620.12, -122911.52, -68755.38, -44234.01, -83214.40, -81475.62, 0, 21:47:13.491
232, -44089.69, -41132.15, -69654.38, -122888.86, -68723.23, -44247.04, -83177.41, -81442.80, 0, 21:47:13.491
233, -44135.17, -41167.08, -69548.77, -122939.42, -68722.27, -44194.49, -83170.77, -81413.19, 0, 21:47:13.491
234, -44170.75, -41198.15, -69521.99, -122972.95, -68760.13, -44174.51, -83218.11, -81447.92, 0, 21:47:13.491
235, -44141.95, -41175.42, -69599.53, -122935.24, -68755.28, -44227.82, -83219.97, -81482.21, 0, 21:47:13.491
236, -44103.66, -41142.12, -69664.51, -122897.87, -68724.39, -44256.54, -83187.38, -81461.63, 0, 21:47:13.491
237, -44126.61, -41167.08, -69574.09, -122935.08, -68714.58, -44201.78, -83168.05, -81407.84, 0, 21:47:13.492
238, -44161.41, -41193.73, -69517.30, -122972.30, -68750.30, -44163.74, -83197.44, -81423.02, 0, 21:47:13.492
239, -44129.43, -41169.50, -69578.95, -122934.68, -68757.14, -44205.25, -83208.75, -81459.32, 0, 21:47:13.492
240, -44085.57, -41135.34, -69666.23, -122889.93, -68730.34, -44250.37, -83186.35, -81452.41, 0, 21:47:13.492
241, -44109.85, -41147.26, -69603.35, -122921.00, -68719.38, -44217.23, -83170.08, -81415.69, 0, 21:47:13.492
242, -44150.04, -41178.98, -69534.84, -122963.49, -68748.22, -44171.89, -83201.39, -81425.63, 0, 21:47:13.492
243, -44148.29, -41186.46, -69582.81, -122955.63, -68767.20, -44212.06, -83226.65, -81477.20, 0, 21:47:13.492
244, -44114.56, -41156.87, -69675.05, -122918.07, -68763.62, -44267.76, -83225.42, -81492.18, 0, 21:47:13.492
245, -44108.24, -41147.48, -69638.45, -122921.11, -68728.91, -44233.50, -83176.90, -81436.77, 0, 21:47:13.492
246, -44151.46, -41183.47, -69539.72, -122967.34, -68747.34, -44173.17, -83182.93, -81416.30, 0, 21:47:13.493
247, -44154.98, -41192.25, -69575.70, -122964.70, -68772.59, -44200.95, -83217.69, -81464.02, 0, 21:47:13.493
248, -44114.72, -41159.44, -69662.49, -122920.60, -68757.52, -44264.50, -83212.41, -81490.03, 0, 21:47:13.493
249, -44108.68, -41154.05, -69654.27, -122921.29, -68737.96, -44248.52, -83186.20, -81452.37, 0, 21:47:13.493
250, -44154.86, -41192.83, -69543.67, -122973.86, -68752.96, -44185.24, -83196.88, -81429.68, 0, 21:47:13.493
251, -44161.99, -41199.20, -69559.59, -122975.47, -68783.09, -44193.15, -83231.26, -81471.03, 0, 21:47:13.493
252, -44112.15, -41157.14, -69649.35, -122921.47, -68764.00, -44255.65, -83221.33, -81494.84, 0, 21:47:13.493
253, -44093.98, -41137.73, -69654.56, -122907.95, -68732.26, -44255.09, -83185.70, -81454.31, 0, 21:47:13.493
254, -44133.92, -41172.65, -69535.88, -122955.89, -68737.22, -44188.73, -83182.88, -81416.83, 0, 21:47:13.493
255, -44156.20, -41194.42, -69528.36, -122974.47, -68764.24, -44179.65, -83218.09, -81445.82, 0, 21:47:13.494
0, -44121.43, -41167.80, -69623.38, -122930.32, -68752.31, -44244.11, -83218.88, -81488.24, 0, 21:47:13.494
1, -44101.29, -41149.16, -69674.81, -122910.47, -68735.44, -44263.52, -83193.39, -81473.67, 0, 21:47:13.494
2, -44126.43, -41172.52, -69571.79, -122944.56, -68735.23, -44200.89, -83183.83, -81429.88, 0, 21:47:13.494
3, -44155.49, -41199.72, -69540.21, -122968.19, -68767.35, -44177.42, -83217.40, -81446.40, 0, 21:47:13.494
4, -44128.33, -41184.25, -69608.76, -122932.27, -68767.87, -44227.64, -83230.45, -81485.49, 0, 21:47:13.494
5, -44099.99, -41154.75, -69673.13, -122902.91, -68746.01, -44263.45, -83208.81, -81477.36, 0, 21:47:13.494
6, -44120.42, -41162.32, -69592.51, -122927.77, -68731.81, -44215.04, -83183.16, -81422.80, 0, 21:47:13.494
7, -44155.33, -41190.89, -69531.55, -122965.23, -68761.72, -44173.97, -83210.49, -81431.94, 0, 21:47:13.494
8, -44129.32, -41171.35, -69594.44, -122937.85, -68769.30, -44221.38, -83230.54, -81476.71, 0, 21:47:13.494
9, -44091.25, -41142.50, -69670.38, -122899.88, -68738.36, -44270.33, -83205.35, -81479.59, 0, 21:47:13.494
10, -44103.77, -41156.91, -69607.15, -122919.66, -68713.91, -44228.49, -83173.01, -81433.10, 0, 21:47:13.495
11, -44150.68, -41194.09, -69524.52, -122968.59, -68756.89, -44178.20, -83208.21, -81437.13, 0, 21:47:13.495
12, -44145.41, -41189.59, -69579.39, -122953.86, -68784.12, -44211.91, -83244.46, -81486.50, 0, 21:47:13.495
13, -44098.49, -41151.55, -69669.96, -122901.48, -68754.50, -44261.62, -83211.01, -81483.55, 0, 21:47:13.495
14, -44104.04, -41155.15, -69636.08, -122913.05, -68726.11, -44236.58, -83175.24, -81439.85, 0, 21:47:13.495
15, -44146.95, -41195.89, -69531.52, -122962.80, -68741.09, -44175.34, -83187.24, -81422.26, 0, 21:47:13.495
16, -44145.57, -41198.80, -69558.42, -122956.43, -68768.52, -44197.94, -83216.70, -81466.23, 0, 21:47:13.495
17, -44106.16, -41164.87, -69652.55, -122911.23, -68760.27, -44261.44, -83215.23, -81491.64, 0, 21:47:13.495
18, -44101.91, -41154.93, -69652.28, -122907.23, -68737.24, -44240.49, -83182.69, -81437.80, 0, 21:47:13.495
19, -44139.17, -41189.44, -69540.77, -122954.38, -68749.25, -44175.02, -83187.89, -81409.90, 0, 21:47:13.495
20, -44150.77, -41203.96, -69543.25, -122970.51, -68784.41, -44184.23, -83235.21, -81454.94, 0, 21:47:13.496
21, -44107.52, -41162.99, -69636.86, -122920.20, -68771.42, -44251.89, -83233.49, -81488.96, 0, 21:47:13.496
22, -44095.34, -41150.36, -69662.95, -122907.95, -68743.55, -44260.43, -83198.11, -81460.17, 0, 21:47:13.496
23, -44140.25, -41184.45, -69563.37, -122954.82, -68750.50, -44200.39, -83194.95, -81427.49, 0, 21:47:13.496
24, -44160.05, -41201.84, -69538.87, -122970.73, -68777.59, -44188.79, -83222.11, -81454.34, 0, 21:47:13.496
25, -44118.03, -41171.31, -69614.13, -122925.36, -68771.64, -44251.16, -83225.98, -81491.87, 0, 21:47:13.496
26, -44087.45, -41141.49, -69663.70, -122896.08, -68735.70, -44269.17, -83194.04, -81470.48, 0, 21:47:13.496
27, -44115.50, -41166.41, -69563.01, -122935.02, -68729.76, -44211.88, -83181.92, -81428.19, 0, 21:47:13.496
28, -44141.57, -41192.07, -69520.59, -122961.62, -68757.80, -44182.85, -83206.11, -81439.05, 0, 21:47:13.496
29, -44112.11, -41166.55, -69596.31, -122921.20, -68758.57, -44233.61, -83208.68, -81477.31, 0, 21:47:13.496
30, -44082.73, -41140.75, -69663.55, -122891.74, -68737.80, -44269.93, -83187.52, -81471.13, 0, 21:47:13.497
31, -44113.45, -41163.69, -69584.38, -122928.55, -68733.24, -44223.57, -83176.74, -81428.43, 0, 21:47:13.497
32, -44158.13, -41200.88, -69517.09, -122972.30, -68773.88, -44187.74, -83217.46, -81444.08, 0, 21:47:13.497
33, -44139.60, -41188.59, -69585.36, -122946.86, -68790.04, -44235.96, -83241.29, -81488.29, 0, 21:47:13.497
34, -44092.21, -41144.96, -69664.40, -122897.73, -68760.94, -44279.83, -83209.98, -81481.96, 0, 21:47:13.497
35, -44110.43, -41162.28, -69604.65, -122924.30, -68743.05, -44241.30, -83182.22, -81439.54, 0, 21:47:13.497
36, -44152.43, -41199.25, -69530.40, -122974.17, -68778.70, -44195.01, -83219.09, -81441.73, 0, 21:47:13.497
37, -44141.00, -41193.64, -69582.66, -122958.59, -68801.20, -44232.11, -83251.20, -81494.37, 0, 21:47:13.497
38, -44098.79, -41158.28, -69665.63, -122907.32, -68769.43, -44284.46, -83224.20, -81494.10, 0, 21:47:13.497
39, -44102.09, -41159.26, -69635.36, -122921.31, -68753.43, -44259.83, -83203.54, -81446.09, 0, 21:47:13.498
40, -44128.69, -41185.86, -69529.39, -122964.59, -68757.34, -44192.23, -83188.85, -81417.50, 0, 21:47:13.498
41, -44140.20, -41192.68, -69548.86, -122965.01, -68781.61, -44207.88, -83219.92, -81462.59, 0, 21:47:13.498
42, -44110.34, -41162.90, -69641.48, -122918.66, -68766.23, -44266.69, -83207.47, -81487.13, 0, 21:47:13.498
43, -44107.52, -41157.43, -69654.96, -122919.64, -68751.62, -44266.40, -83185.57, -81459.68, 0, 21:47:13.498
44, -44148.85, -41197.59, -69547.16, -122969.19, -68768.45, -44211.39, -83194.87, -81438.42, 0, 21:47:13.498
45, -44152.05, -41206.09, -69549.59, -122972.27, -68790.15, -44214.14, -83223.23, -81475.01, 0, 21:47:13.498
46, -44104.48, -41166.46, -69636.37, -122919.28, -68771.11, -44270.27, -83211.61, -81494.21, 0, 21:47:13.498
47, -44095.79, -41157.52, -69661.16, -122911.84, -68751.46, -44274.76, -83185.97, -81462.54, 0, 21:47:13.498
48, -44132.02, -41188.95, -69556.88, -122954.08, -68748.04, -44208.33, -83176.41, -81417.92, 0, 21:47:13.498
49, -44164.96, -41219.16, -69540.03, -122984.63, -68789.34, -44196.01, -83222.41, -81453.95, 0, 21:47:13.499
50, -44128.98, -41189.04, -69627.23, -122940.65, -68784.67, -44251.40, -83231.99, -81496.63, 0, 21:47:13.499
51, -44100.23, -41162.90, -69686.68, -122911.70, -68759.20, -44278.04, -83198.98, -81474.68, 0, 21:47:13.499
52, -44125.67, -41188.68, -69597.97, -122944.34, -68753.34, -44224.51, -83181.45, -81425.95, 0, 21:47:13.499
53, -44169.97, -41226.65, -69545.75, -122986.00, -68788.92, -44195.75, -83221.89, -81455.03, 0, 21:47:13.499
54, -44150.17, -41210.45, -69610.33, -122958.98, -68792.86, -44245.46, -83245.47, -81501.16, 0, 21:47:13.499
55, -44109.89, -41170.21, -69688.91, -122917.36, -68765.61, -44288.41, -83218.83, -81491.75, 0, 21:47:13.499
56, -44127.01, -41175.29, -69612.23, -122943.62, -68749.13, -44245.30, -83188.48, -81443.92, 0, 21:47:13.499
57, -44159.09, -41202.22, -69539.83, -122979.67, -68780.67, -44192.95, -83216.34, -81440.77, 0, 21:47:13.499
58, -44138.75, -41188.27, -69594.88, -122955.18, -68793.62, -44226.50, -83235.26, -81479.98, 0, 21:47:13.499
59, -44099.25, -41156.46, -69678.45, -122910.88, -68772.90, -44280.32, -83217.30, -81484.87, 0, 21:47:13.500
60, -44112.69, -41169.14, -69635.49, -122927.86, -68754.74, -44252.05, -83192.16, -81445.48, 0, 21:47:13.500
61, -44159.38, -41208.32, -69544.41, -122973.62, -68774.28, -44193.60, -83199.65, -81434.47, 0, 21:47:13.500
62, -44162.89, -41212.41, -69588.63, -122967.54, -68805.51, -44216.46, -83235.59, -81473.24, 0, 21:47:13.500
63, -44128.24, -41183.54, -69675.68, -122930.52, -68792.05, -44278.02, -83226.92, -81490.75, 0, 21:47:13.500
64, -44126.39, -41182.24, -69654.56, -122937.18, -68769.03, -44263.14, -83199.49, -81452.73, 0, 21:47:13.500
65, -44160.03, -41207.25, -69550.38, -122978.02, -68776.90, -44196.44, -83205.26, -81429.05, 0, 21:47:13.500
66, -44162.51, -41209.51, -69568.04, -122976.32, -68799.05, -44209.09, -83240.22, -81470.02, 0, 21:47:13.500
67, -44112.42, -41168.61, -69657.71, -122920.76, -68776.18, -44268.86, -83228.84, -81492.47, 0, 21:47:13.500
68, -44097.66, -41147.66, -69673.49, -122910.74, -68749.74, -44269.59, -83199.20, -81462.56, 0, 21:47:13.500
69, -44152.32, -41189.28, -69568.88, -122973.70, -68772.56, -44218.66, -83213.46, -81448.73, 0, 21:47:13.500
70, -44175.16, -41217.80, -69571.52, -122994.72, -68812.77, -44223.06, -83254.05, -81490.08, 0, 21:47:13.501
71, -44118.95, -41168.83, -69656.73, -122933.27, -68796.74, -44277.29, -83243.75, -81509.08, 0, 21:47:13.501
72, -44088.81, -41135.23, -69685.05, -122906.52, -68764.38, -44280.73, -83203.54, -81468.64, 0, 21:47:13.501
73, -44125.23, -41160.40, -69576.33, -122948.88, -68761.63, -44215.23, -83192.32, -81422.69, 0, 21:47:13.501
74, -44152.00, -41187.76, -69552.91, -122970.27, -68795.20, -44195.61, -83226.54, -81448.55, 0, 21:47:13.501
75, -44125.98, -41176.74, -69628.90, -122936.42, -68793.77, -44253.86, -83231.21, -81488.35, 0, 21:47:13.972
77, -44134.37, -41177.01, -69598.81, -122949.19, -68759.28, -44234.46, -83192.07, -81431.45, 10, 21:47:13.973
78, -44166.46, -41206.47, -69543.29, -122987.81, -68799.45, -44200.08, -83229.83, -81454.05, 0, 21:47:13.973
79, -44127.71, -41179.46, -69608.07, -122944.96, -68802.04, -44244.34, -83240.93, -81493.92, 0, 21:47:13.973
80, -44092.05, -41147.06, -69679.30, -122903.41, -68771.73, -44278.65, -83213.46, -81477.78, 0, 21:47:13.973
81, -44111.05, -41157.03, -69607.71, -122927.08, -68739.66, -44232.49, -83174.55, -81424.74, 0, 21:47:13.973
82, -44163.07, -41201.91, -69526.06, -122981.91, -68774.26, -44185.31, -83211.79, -81434.17, 0, 21:47:13.973
83, -44139.46, -41190.55, -69598.59, -122950.51, -68797.15, -44224.91, -83238.20, -81481.80, 0, 21:47:13.973
84, -44092.35, -41155.44, -69682.08, -122900.66, -68770.70, -44277.04, -83214.23, -81488.20, 0, 21:47:13.974
85, -44111.32, -41171.33, -69627.23, -122926.21, -68750.81, -44245.66, -83188.70, -81443.92, 0, 21:47:13.974
86, -44154.44, -41207.05, -69544.79, -122973.88, -68776.70, -44191.27, -83207.31, -81438.22, 0, 21:47:13.974
87, -44148.29, -41203.56, -69581.11, -122966.27, -68802.83, -44222.37, -83240.80, -81495.59, 0, 21:47:13.974
88, -44098.85, -41161.21, -69670.85, -122910.83, -68786.42, -44278.78, -83229.71, -81504.43, 0, 21:47:13.974
89, -44088.77, -41151.21, -69651.63, -122904.04, -68755.80, -44256.54, -83188.59, -81447.74, 0, 21:47:13.974
90, -44130.99, -41183.73, -69531.09, -122954.75, -68766.10, -44189.15, -83191.73, -81425.34, 0, 21:47:13.974
91, -44129.54, -41180.47, -69547.09, -122951.84, -68787.67, -44193.40, -83219.03, -81463.32, 0, 21:47:13.974
92, -44089.42, -41151.10, -69648.70, -122905.89, -68773.34, -44255.00, -83216.26, -81486.26, 0, 21:47:13.974
93, -44092.66, -41155.82, -69668.09, -122912.44, -68759.77, -44264.95, -83202.29, -81463.52, 0, 21:47:13.974
94, -44142.26, -41190.75, -69560.39, -122961.57, -68772.13, -44206.70, -83204.97, -81437.88, 100, 21:47:13.974
95, -44162.96, -41203.23, -69547.83, -122973.13, -68800.26, -44195.39, -83238.54, -81456.46, 0, 21:47:13.975
96, -44115.01, -41165.36, -69630.91, -122919.66, -68787.00, -44251.51, -83231.55, -81485.56, 0, 21:47:13.975
97, -44093.53, -41147.79, -69678.43, -122901.42, -68754.55, -44270.47, -83195.67, -81469.96, 0, 21:47:13.975
98, -44127.62, -41178.75, -69576.64, -122947.04, -68751.70, -44215.01, -83185.50, -81433.84, 0, 21:47:13.975
99, -44167.11, -41220.53, -69539.11, -122988.05, -68802.83, -44198.05, -83232.06, -81467.13, 0, 21:47:13.975
100, -44134.01, -41192.77, -69621.48, -122948.54, -68804.99, -44256.81, -83243.05, -81505.72, 0, 21:47:13.975
101, -44096.28, -41162.68, -69679.88, -122912.59, -68771.42, -44284.75, -83205.93, -81483.37, 0, 21:47:13.975
102, -44119.35, -41181.55, -69595.20, -122940.49, -68758.12, -44225.52, -83185.41, -81430.51, 0, 21:47:13.975
103, -44147.93, -41204.25, -69535.65, -122973.17, -68786.27, -44189.22, -83215.25, -81448.55, 0, 21:47:13.975
104, -44126.34, -41187.18, -69598.50, -122948.78, -68796.34, -44237.66, -83231.55, -81497.63, 0, 21:47:13.976
105, -44088.61, -41152.67, -69676.63, -122910.20, -68773.77, -44277.08, -83209.30, -81486.57, 0, 21:47:13.976
106, -44100.97, -41163.55, -69611.65, -122928.29, -68749.41, -44228.91, -83170.52, -81428.48, 0, 21:47:13.976
107, -44149.25, -41204.01, -69531.94, -122975.25, -68779.47, -44183.59, -83200.86, -81438.11, 0, 21:47:13.976
108, -44144.09, -41195.85, -69582.30, -122963.18, -68796.45, -44219.93, -83231.39, -81481.80, 0, 21:47:13.976
109, -44087.61, -41145.78, -69680.76, -122904.44, -68760.94, -44271.45, -83200.48, -81484.17, 0, 21:47:13.976
110, -44098.61, -41158.10, -69644.05, -122922.77, -68746.21, -44248.83, -83179.65, -81450.45, 0, 21:47:13.976
111, -44143.29, -41199.29, -69533.57, -122972.01, -68767.87, -44189.62, -83190.48, -81437.08, 0, 21:47:13.976
112, -44139.62, -41200.48, -69562.05, -122962.58, -68789.81, -44208.57, -83215.14, -81479.02, 0, 21:47:13.976
113, -44104.71, -41167.24, -69658.45, -122917.20, -68775.69, -44270.91, -83213.51, -81505.59, 0, 21:47:13.976
114, -44098.47, -41159.91, -69648.62, -122914.49, -68747.66, -44252.65, -83178.13, -81456.55, 0, 21:47:13.976
115, -44142.59, -41201.50, -69542.29, -122969.33, -68770.15, -44189.20, -83194.69, -81432.45, 0, 21:47:13.977
116, -44156.34, -41220.39, -69546.38, -122979.72, -68801.28, -44197.22, -83226.92, -81474.05, 0, 21:47:13.977
117, -44111.93, -41183.89, -69639.18, -122929.61, -68795.11, -44261.91, -83222.54, -81506.55, 0, 21:47:13.977
118, -44095.18, -41169.36, -69669.98, -122917.38, -68766.48, -44266.71, -83193.37, -81473.98, 0, 21:47:13.977
119, -44139.35, -41208.19, -69566.05, -122966.95, -68772.43, -44204.20, -83197.46, -81443.65, 0, 21:47:13.977
120, -44158.57, -41224.28, -69553.66, -122985.87, -68803.34, -44193.84, -83231.27, -81476.40, 0, 21:47:13.977
121, -44127.98, -41199.88, -69633.75, -122943.66, -68797.93, -44256.88, -83231.21, -81511.58, 0, 21:47:13.977
122, -44099.54, -41169.36, -69682.12, -122913.16, -68767.73, -44274.96, -83201.77, -81486.45, 0, 21:47:13.977
123, -44127.30, -41188.12, -69578.32, -122951.20, -68754.61, -44207.14, -83180.43, -81429.57, 0, 21:47:13.978
124, -44153.84, -41215.41, -69543.92, -122976.32, -68776.23, -44180.21, -83206.91, -81452.75, 0, 21:47:13.978
125, -44120.64, -41191.11, -69624.25, -122937.45, -68769.86, -44234.59, -83206.09, -81494.39, 0, 21:47:13.978
126, -44094.31, -41172.00, -69686.26, -122912.62, -68760.52, -44271.56, -83190.28, -81487.66, 0, 21:47:13.978
127, -44126.23, -41193.64, -69602.48, -122954.02, -68762.14, -44223.80, -83184.23, -81447.72, 0, 21:47:13.978
128, -44159.82, -41220.73, -69545.57, -122992.05, -68799.65, -44184.64, -83216.15, -81464.08, 0, 21:47:13.978
129, -44136.74, -41202.63, -69611.76, -122955.78, -68802.42, -44227.53, -83229.76, -81498.39, 0, 21:47:13.978
130, -44104.93, -41177.61, -69687.64, -122918.36, -68780.56, -44271.11, -83211.20, -81490.93, 0, 21:47:13.978
131, -44113.09, -41184.12, -69625.73, -122936.91, -68757.74, -44233.14, -83184.45, -81445.82, 0, 21:47:13.978
132, -44154.71, -41218.31, -69542.24, -122980.57, -68778.87, -44183.81, -83205.62, -81444.41, 0, 21:47:13.978
133, -44141.25, -41208.70, -69591.20, -122963.40, -68791.98, -44216.02, -83225.63, -81494.95, 0, 21:47:13.979
134, -44092.79, -41159.57, -69681.78, -122907.92, -68769.12, -44269.11, -83203.85, -81493.77, 0, 21:47:13.979
135, -44092.03, -41154.75, -69642.02, -122910.80, -68745.78, -44237.70, -83166.73, -81429.08, 0, 21:47:13.979
136, -44127.55, -41187.69, -69527.34, -122951.45, -68759.71, -44175.74, -83175.02, -81413.86, 0, 21:47:13.979
137, -44136.29, -41199.89, -69559.45, -122954.77, -68790.48, -44203.23, -83216.08, -81467.44, 0, 21:47:13.979
138, -44097.62, -41166.19, -69658.96, -122908.91, -68783.76, -44263.92, -83215.63, -81495.53, 0, 21:47:13.979
139, -44108.44, -41175.73, -69661.91, -122924.06, -68770.48, -44261.86, -83198.20, -81472.24, 0, 21:47:13.979
140, -44150.53, -41209.17, -69548.55, -122975.80, -68781.66, -44199.61, -83207.92, -81447.18, 0, 21:47:13.979
141, -44158.11, -41212.28, -69556.10, -122979.31, -68800.19, -44200.95, -83232.08, -81478.27, 0, 21:47:13.979
142, -44122.03, -41182.21, -69648.97, -122933.52, -68791.72, -44266.53, -83222.13, -81512.14, 0, 21:47:13.979
143, -44113.27, -41180.92, -69676.55, -122929.90, -68773.66, -44279.30, -83196.12, -81485.43, 0, 21:47:13.980
144, -44160.03, -41222.58, -69573.98, -122984.73, -68787.96, -44221.54, -83207.20, -81455.95, 0, 21:47:13.980
145, -44183.27, -41237.80, -69561.91, -123003.45, -68824.30, -44208.78, -83251.33, -81489.48, 0, 21:47:13.980
146, -44135.89, -41193.86, -69642.83, -122952.94, -68813.17, -44261.28, -83248.87, -81515.52, 0, 21:47:13.980
147, -44104.26, -41167.02, -69690.44, -122922.66, -68775.91, -44281.93, -83201.88, -81485.65, 0, 21:47:13.980
148, -44128.20, -41189.70, -69597.01, -122956.41, -68763.89, -44223.39, -83180.09, -81440.12, 0, 21:47:13.980
149, -44161.59, -41220.57, -69552.41, -122987.88, -68792.72, -44187.03, -83213.75, -81459.52, 0, 21:47:13.980
150, -44129.41, -41195.70, -69623.29, -122947.95, -68792.52, -44238.86, -83227.09, -81498.16, 0, 21:47:13.980
151, -44094.04, -41168.02, -69691.87, -122915.01, -68766.39, -44281.91, -83201.73, -81493.77, 0, 21:47:13.980
152, -44107.23, -41180.94, -69613.26, -122937.97, -68754.16, -44227.55, -83174.77, -81444.95, 0, 21:47:13.981
153, -44151.45, -41213.51, -69537.57, -122982.18, -68789.15, -44185.39, -83207.41, -81451.74, 0, 21:47:13.981
154, -44127.35, -41194.18, -69596.49, -122950.80, -68790.82, -44223.89, -83217.80, -81485.83, 0, 21:47:13.981
155, -44102.92, -41171.60, -69674.85, -122921.05, -68782.40, -44278.74, -83210.94, -81493.50, 0, 21:47:13.981
156, -44121.67, -41188.34, -69631.47, -122943.04, -68773.72, -44246.64, -83198.27, -81449.35, 0, 21:47:13.981
157, -44160.36, -41222.61, -69548.34, -122984.08, -68787.47, -44188.79, -83209.57, -81436.25, 0, 21:47:13.981
158, -44154.11, -41212.91, -69591.06, -122973.59, -68811.05, -44225.07, -83234.43, -81493.34, 0, 21:47:13.982
159, -44103.03, -41172.52, -69684.38, -122918.59, -68785.97, -44281.00, -83218.13, -81504.02, 0, 21:47:13.982
160, -44104.01, -41177.14, -69658.61, -122922.77, -68757.12, -44254.55, -83184.63, -81452.03, 0, 21:47:13.982
161, -44163.67, -41227.72, -69550.45, -122985.24, -68788.70, -44199.66, -83206.29, -81446.87, 0, 21:47:13.982
162, -44163.71, -41233.31, -69577.16, -122980.27, -68811.70, -44217.34, -83234.23, -81490.37, 0, 21:47:13.982
163, -44112.86, -41186.30, -69665.47, -122923.80, -68788.85, -44274.82, -83217.64, -81502.51, 0, 21:47:13.982
164, -44103.19, -41173.01, -69662.31, -122918.72, -68756.16, -44262.98, -83188.45, -81463.61, 0, 21:47:13.982
165, -44145.12, -41210.63, -69549.71, -122968.92, -68768.98, -44198.27, -83195.02, -81435.43, 0, 21:47:13.983
166, -44158.02, -41224.80, -69557.46, -122982.18, -68803.07, -44203.52, -83236.42, -81482.74, 0, 21:47:13.983
167, -44124.51, -41195.98, -69649.30, -122943.55, -68796.05, -44268.39, -83234.74, -81519.91, 0, 21:47:13.983
168, -44110.38, -41181.81, -69679.23, -122929.94, -68778.93, -44281.24, -83208.37, -81490.26, 0, 21:47:13.983
169, -44142.84, -41207.54, -69581.56, -122969.15, -68786.02, -44224.13, -83204.88, -81453.80, 0, 21:47:13.983
170, -44160.32, -41225.54, -69574.36, -122987.09, -68817.94, -44208.62, -83242.90, -81482.86, 0, 21:47:13.983
171, -44121.83, -41190.40, -69640.97, -122942.21, -68801.08, -44256.16, -83236.35, -81503.42, 0, 21:47:13.983
172, -44100.53, -41175.91, -69689.92, -122923.02, -68775.45, -44287.90, -83199.47, -81489.96, 0, 21:47:13.984
173, -44132.42, -41208.25, -69596.06, -122961.66, -68774.17, -44231.29, -83186.73, -81446.31, 0, 21:47:13.984
174, -44168.86, -41234.05, -69539.38, -122995.81, -68801.86, -44191.57, -83221.76, -81460.75, 0, 21:47:13.984
175, -44137.50, -41206.85, -69618.40, -122957.10, -68799.88, -44243.15, -83234.30, -81516.12, 0, 21:47:13.984
176, -44095.12, -41174.46, -69689.92, -122913.49, -68770.41, -44281.80, -83203.23, -81502.77, 0, 21:47:13.984
177, -44121.20, -41199.54, -69612.98, -122944.56, -68762.08, -44236.16, -83185.19, -81458.83, 0, 21:47:13.984
178, -44162.11, -41234.14, -69550.06, -122986.98, -68797.64, -44190.63, -83219.90, -81460.02, 0, 21:47:13.984
179, -44148.34, -41222.45, -69604.94, -122967.09, -68813.28, -44232.45, -83237.54, -81498.30, 0, 21:47:13.984
180, -44114.14, -41189.86, -69683.86, -122927.51, -68797.46, -44284.57, -83226.65, -81506.39, 0, 21:47:13.985
181, -44125.85, -41200.05, -69642.02, -122948.43, -68785.62, -44251.07, -83204.90, -81459.74, 0, 21:47:13.985
182, -44163.52, -41236.44, -69549.26, -122994.54, -68809.38, -44185.48, -83226.13, -81443.70, 0, 21:47:13.985
183, -44159.54, -41235.50, -69589.78, -122983.27, -68828.77, -44216.20, -83249.05, -81490.08, 0, 21:47:13.985
184, -44105.94, -41182.11, -69681.83, -122920.64, -68796.61, -44278.87, -83219.27, -81506.46, 0, 21:47:13.985
185, -44097.58, -41168.54, -69654.88, -122914.95, -68761.23, -44247.94, -83177.23, -81448.03, 0, 21:47:13.985
186, -44152.81, -41220.37, -69543.83, -122979.95, -68786.10, -44189.64, -83194.80, -81435.54, 0, 21:47:13.985
187, -44168.97, -41233.82, -69571.59, -122995.21, -68820.82, -44212.82, -83239.37, -81498.64, 0, 21:47:13.985
188, -44121.36, -41186.46, -69659.70, -122941.16, -68801.53, -44267.41, -83225.91, -81512.45, 0, 21:47:13.985
189, -44121.71, -41190.82, -69681.88, -122941.77, -68785.50, -44268.28, -83203.05, -81486.21, 0, 21:47:13.985
190, -44171.09, -41243.10, -69579.03, -122997.66, -68798.35, -44209.04, -83212.66, -81466.00, 0, 21:47:13.986
191, -44187.79, -41257.32, -69575.26, -123009.73, -68821.73, -44202.16, -83242.27, -81489.79, 0, 21:47:13.986
192, -44138.01, -41211.65, -69664.28, -122951.58, -68816.02, -44264.23, -83237.94, -81518.33, 0, 21:47:13.986
193, -44106.79, -41182.44, -69700.60, -122925.13, -68786.62, -44278.29, -83198.66, -81490.13, 0, 21:47:13.986
194, -44141.12, -41216.08, -69589.94, -122971.94, -68780.20, -44215.91, -83183.98, -81446.96, 0, 21:47:13.986
195, -44169.44, -41244.27, -69563.61, -123000.69, -68815.95, -44195.68, -83221.06, -81471.13, 0, 21:47:13.986
196, -44139.31, -41218.25, -69635.25, -122963.67, -68820.33, -44253.57, -83230.49, -81514.89, 0, 21:47:14.452
197, -44106.94, -41184.32, -69694.95, -122928.38, -68790.35, -44281.75, -83203.43, -81503.40, 0, 21:47:14.453
198, -44133.32, -41204.86, -69603.91, -122960.97, -68772.45, -44225.83, -83179.27, -81457.78, 0, 21:47:14.453
199, -44167.22, -41231.86, -69553.20, -122993.66, -68803.30, -44189.15, -83214.67, -81470.45, 0, 21:47:14.453
200, -44142.39, -41214.96, -69617.84, -122962.17, -68804.99, -44230.66, -83221.38, -81500.83, 0, 21:47:14.453
201, -44107.34, -41187.85, -69695.77, -122921.94, -68784.63, -44270.80, -83201.33, -81484.98, 0, 21:47:14.453
202, -44122.05, -41195.80, -69631.52, -122948.80, -68768.70, -44231.53, -83180.83, -81448.91, 0, 21:47:14.453
203, -44166.93, -41242.66, -69565.82, -123001.78, -68802.78, -44195.48, -83211.77, -81470.02, 0, 21:47:14.453
204, -44147.09, -41225.82, -69617.34, -122978.27, -68813.80, -44226.64, -83230.63, -81513.32, 0, 21:47:14.453
205, -44109.98, -41189.46, -69695.17, -122933.52, -68786.75, -44260.66, -83207.56, -81500.31, 0, 21:47:14.453
206, -44124.80, -41197.88, -69660.41, -122953.05, -68775.16, -44236.25, -83187.29, -81458.78, 0, 21:47:14.453
207, -44170.78, -41240.51, -69566.02, -123003.97, -68800.50, -44189.64, -83212.46, -81454.09, 0, 21:47:14.454
208, -44160.95, -41236.64, -69602.91, -122989.73, -68818.63, -44212.22, -83233.24, -81490.03, 0, 21:47:14.454
209, -44117.43, -41198.60, -69688.89, -122941.88, -68798.16, -44270.69, -83214.34, -81505.21, 0, 21:47:14.454
210, -44125.88, -41207.88, -69675.30, -122951.06, -68784.70, -44258.60, -83196.01, -81475.03, 0, 21:47:14.454
211, -44162.39, -41242.88, -69570.12, -122994.90, -68795.29, -44191.45, -83206.06, -81445.98, 0, 21:47:14.455
212, -44173.73, -41253.63, -69587.15, -123004.91, -68823.52, -44202.12, -83243.15, -81488.94, 0, 21:47:14.455
213, -44136.80, -41216.97, -69682.43, -122959.58, -68810.54, -44269.98, -83230.09, -81518.59, 0, 21:47:14.455
214, -44121.61, -41200.66, -69697.19, -122944.54, -68782.02, -44267.47, -83191.78, -81482.74, 0, 21:47:14.455
215, -44155.22, -41226.20, -69576.42, -122983.81, -68782.30, -44192.21, -83184.96, -81432.50, 0, 21:47:14.455
216, -44180.23, -41247.28, -69562.45, -123005.65, -68816.37, -44185.42, -83223.95, -81462.88, 0, 21:47:14.455
217, -44137.72, -41208.88, -69657.11, -122955.87, -68805.95, -44252.74, -83225.66, -81506.80, 0, 21:47:14.456
218, -44118.79, -41194.38, -69704.05, -122939.04, -68784.97, -44275.27, -83202.82, -81493.72, 0, 21:47:14.456
219, -44155.82, -41223.07, -69603.87, -122983.27, -68790.77, -44214.36, -83198.35, -81457.02, 0, 21:47:14.456
220, -44189.93, -41254.70, -69573.69, -123014.32, -68829.31, -44193.69, -83236.46, -81484.42, 0, 21:47:14.456
221, -44160.52, -41234.41, -69644.03, -122976.59, -68830.49, -44248.85, -83249.20, -81529.33, 0, 21:47:14.456
222, -44110.70, -41192.23, -69714.38, -122927.02, -68788.70, -44272.37, -83204.08, -81496.05, 0, 21:47:14.456
223, -44136.63, -41216.14, -69614.33, -122964.67, -68762.88, -44209.56, -83174.98, -81431.85, 0, 21:47:14.456
224, -44172.70, -41246.93, -69552.81, -123001.24, -68797.30, -44167.52, -83212.91, -81446.49, 0, 21:47:14.456
225, -44149.90, -41231.23, -69628.95, -122970.78, -68818.91, -44221.56, -83236.77, -81494.50, 0, 21:47:14.456
226, -44111.37, -41195.07, -69706.93, -122928.78, -68796.84, -44270.96, -83210.22, -81491.35, 0, 21:47:14.457
227, -44133.83, -41208.08, -69639.72, -122954.26, -68785.84, -44226.75, -83191.67, -81445.38, 0, 21:47:14.457
228, -44181.51, -41245.88, -69562.90, -123001.40, -68815.61, -44173.33, -83219.41, -81444.68, 0, 21:47:14.457
229, -44174.89, -41245.27, -69615.16, -122989.11, -68833.34, -44216.75, -83245.43, -81496.54, 0, 21:47:14.457
230, -44128.04, -41203.70, -69706.35, -122940.98, -68800.90, -44274.94, -83225.11, -81513.21, 0, 21:47:14.457
231, -44136.58, -41211.32, -69671.15, -122957.57, -68777.92, -44249.41, -83196.30, -81469.34, 0, 21:47:14.457
232, -44184.39, -41253.70, -69570.30, -123010.88, -68802.94, -44193.78, -83213.62, -81455.25, 0, 21:47:14.457
233, -44178.31, -41254.43, -69596.34, -122999.12, -68816.26, -44205.67, -83228.88, -81488.55, 0, 21:47:14.457
234, -44133.61, -41216.55, -69689.85, -122948.05, -68804.63, -44268.86, -83218.58, -81507.58, 0, 21:47:14.457
235, -44130.19, -41211.59, -69682.09, -122947.63, -68777.92, -44260.45, -83186.30, -81465.89, 0, 21:47:14.457
236, -44174.31, -41253.18, -69579.44, -122998.70, -68792.41, -44198.23, -83197.93, -81443.88, 0, 21:47:14.458
237, -44178.09, -41261.16, -69590.16, -123003.75, -68816.91, -44200.62, -83230.49, -81478.97, 0, 21:47:14.458
238, -44135.08, -41224.53, -69673.27, -122958.98, -68806.53, -44260.45, -83225.78, -81505.50, 0, 21:47:14.458
239, -44115.73, -41210.80, -69699.48, -122942.68, -68776.88, -44261.50, -83192.81, -81470.95, 0, 21:47:14.458
240, -44154.95, -41242.63, -69591.98, -122987.20, -68784.81, -44196.57, -83188.12, -81428.90, 0, 21:47:14.458
241, -44179.29, -41257.32, -69583.59, -123006.20, -68819.95, -44189.24, -83226.29, -81464.04, 0, 21:47:14.458
242, -44149.54, -41231.55, -69667.41, -122970.40, -68818.31, -44255.18, -83238.07, -81510.57, 0, 21:47:14.458
243, -44120.60, -41206.29, -69713.75, -122940.55, -68791.31, -44272.14, -83205.17, -81484.33, 0, 21:47:14.458
244, -44145.63, -41224.66, -69611.16, -122975.52, -68783.49, -44207.66, -83193.26, -81435.34, 0, 21:47:14.458
245, -44178.36, -41255.21, -69571.63, -123011.80, -68814.42, -44183.52, -83229.66, -81459.34, 0, 21:47:14.458
246, -44152.76, -41234.14, -69638.40, -122977.59, -68816.33, -44239.91, -83238.90, -81504.05, 0, 21:47:14.458
247, -44123.10, -41208.37, -69704.49, -122942.44, -68794.22, -44274.20, -83211.36, -81491.24, 0, 21:47:14.459
248, -44130.19, -41214.45, -69630.17, -122958.26, -68775.82, -44218.03, -83188.54, -81441.35, 0, 21:47:14.459
249, -44155.73, -41237.02, -69554.02, -122990.16, -68794.95, -44164.68, -83201.46, -81432.81, 0, 21:47:14.459
250, -44135.20, -41223.66, -69604.16, -122961.45, -68803.20, -44206.25, -83214.78, -81466.98, 0, 21:47:14.459
251, -44111.19, -41206.07, -69694.41, -122932.11, -68788.79, -44264.43, -83199.38, -81481.92, 0, 21:47:14.459
252, -44131.64, -41225.64, -69641.80, -122962.33, -68774.44, -44227.42, -83176.45, -81439.72, 0, 21:47:14.459
253, -44185.13, -41268.38, -69568.57, -123018.70, -68817.53, -44177.86, -83217.58, -81445.44, 0, 21:47:14.459
254, -44175.56, -41255.69, -69629.80, -122998.41, -68841.54, -44214.99, -83250.39, -81494.10, 0, 21:47:14.459
255, -44123.55, -41215.52, -69708.31, -122945.25, -68807.18, -44271.74, -83217.62, -81501.68, 0, 21:47:14.459
0, -44123.55, -41216.86, -69672.22, -122952.92, -68782.30, -44249.59, -83189.63, -81457.42, 0, 21:47:14.459
1, -44170.44, -41254.03, -69573.87, -123002.45, -68800.26, -44191.48, -83200.84, -81447.83, 0, 21:47:14.460
2, -44174.15, -41262.77, -69595.57, -123003.55, -68824.44, -44208.22, -83238.03, -81496.85, 0, 21:47:14.460
3, -44122.10, -41221.06, -69686.41, -122950.21, -68801.91, -44261.53, -83222.05, -81503.66, 0, 21:47:14.460
4, -44111.57, -41211.25, -69682.01, -122952.27, -68776.61, -44252.92, -83188.98, -81461.65, 0, 21:47:14.460
5, -44166.17, -41257.07, -69574.48, -123008.10, -68800.50, -44196.35, -83204.88, -81446.27, 0, 21:47:14.460
6, -44170.64, -41259.91, -69589.34, -123006.36, -68823.86, -44201.54, -83233.00, -81478.68, 0, 21:47:14.460
7, -44130.95, -41230.05, -69666.97, -122964.19, -68811.23, -44261.73, -83229.98, -81508.20, 0, 21:47:14.461
8, -44120.15, -41218.29, -69696.09, -122954.15, -68788.03, -44268.77, -83201.98, -81483.70, 0, 21:47:14.461
9, -44157.05, -41249.29, -69585.54, -122997.20, -68789.88, -44203.10, -83196.72, -81444.93, 0, 21:47:14.461
10, -44178.69, -41273.10, -69578.67, -123016.09, -68824.17, -44190.54, -83231.99, -81474.81, 0, 21:47:14.461
11, -44142.05, -41244.13, -69667.50, -122970.04, -68816.03, -44252.45, -83234.67, -81516.70, 0, 21:47:14.462
12, -44118.88, -41217.69, -69711.80, -122944.23, -68787.58, -44274.16, -83204.68, -81494.05, 0, 21:47:14.462
13, -44147.36, -41240.29, -69616.77, -122980.84, -68782.71, -44212.69, -83193.23, -81447.45, 0, 21:47:14.462
14, -44172.68, -41267.40, -69570.77, -123008.51, -68812.80, -44182.36, -83226.34, -81455.70, 0, 21:47:14.462
15, -44148.52, -41250.75, -69642.04, -122974.42, -68814.67, -44243.58, -83232.10, -81499.42, 0, 21:47:14.462
16, -44120.42, -41222.88, -69716.34, -122946.37, -68788.66, -44286.27, -83211.32, -81492.76, 0, 21:47:14.462
17, -44144.94, -41240.29, -69648.52, -122976.77, -68775.33, -44243.64, -83194.06, -81459.27, 0, 21:47:14.462
18, -44177.98, -41272.92, -69583.46, -123013.73, -68808.13, -44196.97, -83223.01, -81463.66, 0, 21:47:14.462
19, -44162.06, -41259.53, -69633.28, -122994.00, -68827.32, -44233.52, -83245.05, -81498.37, 0, 21:47:14.462
20, -44119.26, -41219.27, -69715.02, -122947.78, -68804.30, -44281.00, -83220.66, -81496.23, 0, 21:47:14.462
21, -44126.68, -41223.97, -69659.23, -122966.82, -68781.34, -44242.04, -83190.28, -81446.83, 0, 21:47:14.463
22, -44173.39, -41266.86, -69569.60, -123024.47, -68816.02, -44189.55, -83225.42, -81451.19, 0, 21:47:14.463
23, -44171.07, -41270.46, -69617.50, -123013.47, -68844.89, -44225.05, -83255.26, -81504.78, 0, 21:47:14.463
24, -44128.46, -41235.05, -69708.92, -122962.84, -68820.23, -44283.10, -83240.27, -81523.38, 0, 21:47:14.463
25, -44125.23, -41222.67, -69693.61, -122956.74, -68785.16, -44257.28, -83206.76, -81474.90, 0, 21:47:14.463
26, -44180.97, -41266.39, -69585.45, -123011.80, -68807.49, -44196.86, -83212.16, -81448.01, 0, 21:47:14.463
27, -44185.42, -41272.41, -69609.74, -123010.70, -68831.86, -44212.35, -83241.98, -81490.48, 0, 21:47:14.463
28, -44141.07, -41236.06, -69699.22, -122961.39, -68818.63, -44274.38, -83239.59, -81515.00, 0, 21:47:14.463
29, -44127.91, -41228.66, -69701.55, -122951.16, -68791.36, -44268.93, -83201.93, -81478.34, 0, 21:47:14.463
30, -44176.23, -41265.21, -69583.91, -123004.38, -68796.68, -44204.53, -83189.30, -81442.06, 0, 21:47:14.463
31, -44207.93, -41291.34, -69591.70, -123031.10, -68849.38, -44217.61, -83250.08, -81496.52, 0, 21:47:14.464
32, -44146.19, -41237.65, -69689.88, -122966.84, -68826.96, -44276.12, -83239.28, -81518.91, 0, 21:47:14.464
33, -44128.91, -41222.23, -69711.73, -122954.28, -68793.68, -44285.18, -83205.55, -81488.94, 0, 21:47:14.464
34, -44162.66, -41251.26, -69604.20, -123000.98, -68792.16, -44220.55, -83196.16, -81452.62, 0, 21:47:14.464
35, -44186.04, -41277.10, -69581.58, -123026.73, -68836.76, -44203.97, -83237.45, -81485.88, 0, 21:47:14.464
36, -44157.59, -41256.02, -69670.56, -122991.45, -68844.06, -44262.51, -83250.88, -81514.93, 0, 21:47:14.464
37, -44124.53, -41220.01, -69735.02, -122957.61, -68821.80, -44290.52, -83220.33, -81499.46, 0, 21:47:14.464
38, -44154.42, -41244.15, -69637.13, -122996.93, -68813.46, -44234.21, -83202.33, -81457.06, 0, 21:47:14.464
39, -44184.75, -41273.84, -69584.64, -123031.69, -68842.72, -44204.35, -83244.24, -81488.96, 0, 21:47:14.464
40, -44161.88, -41256.87, -69653.69, -123000.53, -68848.55, -44258.17, -83262.99, -81537.95, 0, 21:47:14.465
41, -44125.34, -41212.95, -69733.41, -122951.17, -68822.98, -44294.94, -83233.52, -81520.12, 0, 21:47:14.465
42, -44137.09, -41214.45, -69658.18, -122967.34, -68795.80, -44242.35, -83195.58, -81460.62, 0, 21:47:14.465
43, -44178.76, -41252.87, -69584.73, -123014.14, -68834.30, -44199.14, -83233.80, -81472.75, 0, 21:47:14.465
44, -44171.65, -41252.29, -69637.55, -123001.80, -68854.28, -44241.03, -83263.58, -81525.15, 0, 21:47:14.465
45, -44133.32, -41218.47, -69719.88, -122961.93, -68834.95, -44294.27, -83246.21, -81530.82, 0, 21:47:14.465
46, -44135.11, -41216.30, -69680.69, -122972.48, -68805.08, -44258.96, -83212.68, -81478.79, 0, 21:47:14.465
47, -44179.16, -41256.49, -69582.90, -123024.76, -68833.47, -44203.41, -83233.96, -81467.50, 0, 21:47:14.465
48, -44165.79, -41247.62, -69612.72, -123007.26, -68851.13, -44229.92, -83255.59, -81508.56, 0, 21:47:14.465
49, -44115.23, -41203.38, -69701.48, -122943.35, -68815.25, -44282.29, -83222.41, -81518.58, 0, 21:47:14.465
50, -44113.38, -41201.39, -69682.73, -122947.42, -68789.08, -44260.97, -83188.66, -81473.18, 0, 21:47:14.466
51, -44169.79, -41247.55, -69585.47, -123009.52, -68815.01, -44206.38, -83217.46, -81464.98, 0, 21:47:14.466
52, -44192.73, -41270.91, -69609.79, -123024.13, -68856.60, -44224.15, -83257.01, -81507.84, 0, 21:47:14.466
53, -44154.28, -41241.07, -69697.45, -122976.37, -68850.37, -44284.26, -83256.05, -81526.66, 0, 21:47:14.466
54, -44142.17, -41229.91, -69709.57, -122968.70, -68820.20, -44285.02, -83222.56, -81494.77, 0, 21:47:14.466
55, -44176.01, -41259.06, -69600.80, -123009.73, -68824.44, -44218.54, -83213.33, -81464.44, 0, 21:47:14.466
56, -44187.00, -41272.76, -69595.59, -123020.53, -68848.27, -44208.04, -83242.16, -81494.59, 0, 21:47:14.466
57, -44151.73, -41241.22, -69679.98, -122976.30, -68840.82, -44272.57, -83247.37, -81529.69, 0, 21:47:14.466
58, -44116.55, -41209.48, -69712.34, -122942.34, -68804.63, -44285.38, -83203.96, -81497.19, 0, 21:47:14.466
59, -44144.45, -41236.38, -69593.61, -122983.43, -68794.55, -44216.62, -83189.50, -81444.61, 0, 21:47:14.466
60, -44172.12, -41258.88, -69562.23, -123013.54, -68827.79, -44191.99, -83229.83, -81472.59, 0, 21:47:14.940
61, -44139.17, -41229.85, -69641.17, -122972.30, -68830.09, -44249.95, -83234.32, -81509.81, 0, 21:47:14.940
62, -44118.81, -41207.92, -69715.42, -122949.81, -68817.69, -44293.04, -83219.54, -81510.02, 0, 21:47:14.941
63, -44135.46, -41221.80, -69625.19, -122976.19, -68804.19, -44235.46, -83199.09, -81462.34, 0, 21:47:14.941
64, -44166.51, -41248.96, -69568.77, -123007.50, -68834.14, -44198.70, -83229.71, -81475.52, 0, 21:47:14.941
65, -44137.23, -41223.61, -69626.13, -122969.28, -68832.26, -44239.24, -83237.54, -81509.61, 0, 21:47:14.941
66, -44103.01, -41190.51, -69699.62, -122929.70, -68811.25, -44282.45, -83215.56, -81506.73, 0, 21:47:14.941
67, -44131.80, -41217.06, -69628.97, -122965.32, -68807.41, -44243.53, -83198.47, -81464.64, 0, 21:47:14.941
68, -44171.32, -41259.53, -69559.92, -123014.01, -68840.91, -44202.34, -83230.98, -81476.17, 0, 21:47:14.941
69, -44158.75, -41247.33, -69612.98, -122995.92, -68861.38, -44242.97, -83266.10, -81527.45, 0, 21:47:14.941
70, -44109.76, -41205.02, -69701.97, -122945.81, -68836.87, -44298.36, -83244.27, -81533.69, 0, 21:47:14.941
