%OpenBCI Raw EEG Data
%
%Sample Rate = 250.0 Hz
%First Column = SampleIndex
%5 Columns before Timestamp are Frequency Power factors DELTA THETA ALPHA BETA GAMMA
%Last Column = Timestamp 
%Other Columns = EEG data in microvolts followed by Accel Data (in G) interleaved with Aux Data
0.000000, 0.000000, 0.000000, 0.000000, 0.000000, 0.000000, 0.000000, 0.000000, 0, 1, 1, 0, 1,0.0,0.0,0.0,0.0,0.0, 11:58:38.442
50208.320313, 32243.328125, 85805.531250, 66990.273438, 83226.359375, 59692.320313, 63653.117188, 85481.156250, 0, 1, 1, 0, 1,0.0,0.0,0.0,0.0,0.0, 11:58:38.918
50116.117188, 32162.548828, 85900.500000, 67238.265625, 83131.742188, 59834.925781, 63654.996094, 85414.281250, 0, 1, 1, 0, 1,0.0,0.0,0.0,0.0,0.0, 11:58:38.918
50276.468750, 32300.013672, 85783.507813, 67001.875000, 83190.929688, 59585.679688, 63547.863281, 85390.679688, 0, 1, 1, 0, 1,0.0,0.0,0.0,0.0,0.0, 11:58:38.918
50393.703125, 32412.240234, 85672.937500, 66714.500000, 83306.515625, 59400.945313, 63530.339844, 85460.039063, 0, 1, 1, 0, 1,0.0,0.0,0.0,0.0,0.0, 11:58:38.918
50226.089844, 32266.150391, 85771.554688, 66911.421875, 83261.585938, 59629.265625, 63641.539063, 85490.390625, 0, 1, 1, 0, 1,0.0,0.0,0.0,0.0,0.0, 11:58:38.918
50122.710938, 32153.855469, 85906.515625, 67230.445313, 83148.796875, 59839.550781, 63675.781250, 85427.937500, 0, 1, 1, 0, 1,0.0,0.0,0.0,0.0,0.0, 11:58:38.918
50240.035156, 32276.566406, 85820.726563, 67070.812500, 83190.242188, 59642.812500, 63581.234375, 85395.460938, 0, 1, 1, 0, 1,0.0,0.0,0.0,0.0,0.0, 11:58:38.918
50391.535156, 32415.548828, 85679.976563, 66729.703125, 83307.046875, 59397.078125, 63530.785156, 85450.914063, 0, 1, 1, 0, 1,0.0,0.0,0.0,0.0,0.0, 11:58:38.918
50265.070313, 32299.878906, 85759.328125, 66855.226563, 83287.937500, 59570.234375, 63631.324219, 85488.695313, 0, 1, 1, 0, 1,0.0,0.0,0.0,0.0,0.0, 11:58:38.918
50124.031250, 32158.458984, 85908.546875, 67208.164063, 83177.296875, 59826.699219, 63689.414063, 85437.593750, 0, 1, 1, 0, 1,0.0,0.0,0.0,0.0,0.0, 11:58:38.919
50215.964844, 32242.859375, 85864.718750, 67141.171875, 83175.914063, 59698.175781, 63604.031250, 85390.476563, 0, 1, 1, 0, 1,0.0,0.0,0.0,0.0,0.0, 11:58:38.919
50382.105469, 32397.265625, 85708.679688, 66777.132813, 83290.578125, 59414.042969, 63526.160156, 85430.484375, 0, 1, 1, 0, 1,0.0,0.0,0.0,0.0,0.0, 11:58:38.919
50311.449219, 32329.607422, 85745.960938, 66807.507813, 83307.812500, 59519.117188, 63612.414063, 85488.289063, 0, 1, 1, 0, 1,0.0,0.0,0.0,0.0,0.0, 11:58:38.919
50119.605469, 32153.207031, 85901.796875, 67168.937500, 83175.890625, 59799.453125, 63682.597656, 85439.296875, 0, 1, 1, 0, 1,0.0,0.0,0.0,0.0,0.0, 11:58:38.919
50169.179688, 32201.621094, 85891.406250, 67194.304688, 83146.273438, 59741.046875, 63612.257813, 85380.171875, 0, 1, 1, 0, 1,0.0,0.0,0.0,0.0,0.0, 11:58:38.919
50354.769531, 32384.279297, 85717.710938, 66821.632813, 83265.921875, 59443.277344, 63523.921875, 85419.179688, 0, 1, 1, 0, 1,0.0,0.0,0.0,0.0,0.0, 11:58:38.919
50325.710938, 32355.958984, 85706.796875, 66749.437500, 83307.945313, 59465.359375, 63584.609375, 85485.765625, 0, 1, 1, 0, 1,0.0,0.0,0.0,0.0,0.0, 11:58:38.919
50149.511719, 32180.207031, 85861.382813, 67096.406250, 83198.757813, 59756.292969, 63675.511719, 85460.640625, 0, 1, 1, 0, 1,0.0,0.0,0.0,0.0,0.0, 11:58:38.919
50163.707031, 32189.796875, 85889.992188, 67213.031250, 83152.062500, 59778.128906, 63636.664063, 85399.664063, 0, 1, 1, 0, 1,0.0,0.0,0.0,0.0,0.0, 11:58:38.920
50349.382813, 32368.587891, 85739.523438, 66878.648438, 83260.265625, 59489.433594, 63545.046875, 85417.257813, 0, 1, 1, 0, 1,0.0,0.0,0.0,0.0,0.0, 11:58:38.920
50374.394531, 32394.136719, 85690.531250, 66718.812500, 83337.359375, 59436.414063, 63580.652344, 85492.203125, 0, 1, 1, 0, 1,0.0,0.0,0.0,0.0,0.0, 11:58:38.920
50198.328125, 32219.724609, 85833.421875, 67032.343750, 83242.140625, 59722.808594, 63679.468750, 85483.437500, 0, 1, 1, 0, 1,0.0,0.0,0.0,0.0,0.0, 11:58:38.920
50149.980469, 32172.898438, 85903.000000, 67237.085938, 83150.187500, 59813.980469, 63654.234375, 85404.109375, 0, 1, 1, 0, 1,0.0,0.0,0.0,0.0,0.0, 11:58:38.920
50328.996094, 32337.966797, 85765.718750, 66950.023438, 83246.140625, 59548.039063, 63557.539063, 85412.179688, 0, 1, 1, 0, 1,0.0,0.0,0.0,0.0,0.0, 11:58:38.920
50388.652344, 32405.490234, 85679.015625, 66704.242188, 83343.976563, 59417.347656, 63566.078125, 85488.203125, 0, 1, 1, 0, 1,0.0,0.0,0.0,0.0,0.0, 11:58:38.920
50224.457031, 32241.742188, 85804.921875, 66960.078125, 83260.781250, 59674.394531, 63663.218750, 85494.343750, 0, 1, 1, 0, 1,0.0,0.0,0.0,0.0,0.0, 11:58:38.920
50138.468750, 32160.626953, 85914.984375, 67240.484375, 83160.828125, 59840.578125, 63672.207031, 85428.343750, 0, 1, 1, 0, 1,0.0,0.0,0.0,0.0,0.0, 11:58:38.920
50286.082031, 32296.861328, 85818.359375, 67035.000000, 83220.773438, 59616.078125, 63579.175781, 85407.156250, 0, 1, 1, 0, 1,0.0,0.0,0.0,0.0,0.0, 11:58:38.921
50395.066406, 32399.121094, 85694.148438, 66720.875000, 83323.429688, 59408.230469, 63546.589844, 85465.734375, 0, 1, 1, 0, 1,0.0,0.0,0.0,0.0,0.0, 11:58:38.921
50263.976563, 32279.875000, 85782.843750, 66897.515625, 83284.585938, 59617.843750, 63646.925781, 85499.796875, 0, 1, 1, 0, 1,0.0,0.0,0.0,0.0,0.0, 11:58:38.921
50131.832031, 32145.853516, 85917.734375, 67233.351563, 83160.492188, 59835.640625, 63677.925781, 85427.851563, 0, 1, 1, 0, 1,0.0,0.0,0.0,0.0,0.0, 11:58:38.921
50248.351563, 32256.001953, 85833.242188, 67097.007813, 83196.367188, 59656.691406, 63590.195313, 85391.687500, 0, 1, 1, 0, 1,0.0,0.0,0.0,0.0,0.0, 11:58:38.921
50386.953125, 32392.257813, 85688.515625, 66742.351563, 83304.882813, 59396.203125, 63533.511719, 85434.554688, 0, 1, 1, 0, 1,0.0,0.0,0.0,0.0,0.0, 11:58:38.921
50313.214844, 32326.343750, 85749.734375, 66833.414063, 83303.875000, 59545.625000, 63624.863281, 85485.296875, 0, 1, 1, 0, 1,0.0,0.0,0.0,0.0,0.0, 11:58:38.921
50147.500000, 32167.556641, 85900.390625, 67191.109375, 83189.296875, 59803.609375, 63683.941406, 85434.421875, 0, 1, 1, 0, 1,0.0,0.0,0.0,0.0,0.0, 11:58:38.921
50229.777344, 32238.166016, 85873.921875, 67160.687500, 83186.726563, 59699.226563, 63615.500000, 85382.679688, 0, 1, 1, 0, 1,0.0,0.0,0.0,0.0,0.0, 11:58:38.922
50385.835938, 32396.974609, 85726.406250, 66797.203125, 83304.968750, 59415.496094, 63545.628906, 85424.523438, 0, 1, 1, 0, 1,0.0,0.0,0.0,0.0,0.0, 11:58:38.922
50332.347656, 32352.427734, 85743.281250, 66787.750000, 83326.898438, 59492.652344, 63616.480469, 85490.789063, 0, 1, 1, 0, 1,0.0,0.0,0.0,0.0,0.0, 11:58:38.922
50150.875000, 32169.724609, 85904.101563, 67153.960938, 83197.835938, 59776.988281, 63687.851563, 85449.421875, 0, 1, 1, 0, 1,0.0,0.0,0.0,0.0,0.0, 11:58:38.922
50178.167969, 32191.830078, 85908.632813, 67210.218750, 83163.929688, 59743.574219, 63627.414063, 85385.828125, 0, 1, 1, 0, 1,0.0,0.0,0.0,0.0,0.0, 11:58:38.922
50355.171875, 32361.882813, 85765.164063, 66860.617188, 83276.226563, 59455.660156, 63543.347656, 85410.015625, 0, 1, 1, 0, 1,0.0,0.0,0.0,0.0,0.0, 11:58:38.922
50365.207031, 32376.052734, 85743.296875, 66758.710938, 83335.750000, 59454.273438, 63595.984375, 85487.257813, 0, 1, 1, 0, 1,0.0,0.0,0.0,0.0,0.0, 11:58:38.922
50197.300781, 32210.316406, 85882.460938, 67091.351563, 83240.148438, 59742.656250, 63688.566406, 85478.585938, 0, 1, 1, 0, 1,0.0,0.0,0.0,0.0,0.0, 11:58:38.922
50181.207031, 32191.785156, 85919.406250, 67238.718750, 83178.820313, 59786.289063, 63658.300781, 85409.343750, 0, 1, 1, 0, 1,0.0,0.0,0.0,0.0,0.0, 11:58:38.923
50356.019531, 32355.869141, 85767.820313, 66912.781250, 83282.867188, 59507.472656, 63573.632813, 85425.187500, 0, 1, 1, 0, 1,0.0,0.0,0.0,0.0,0.0, 11:58:38.923
50402.644531, 32402.585938, 85710.937500, 66718.835938, 83364.445313, 59426.582031, 63599.429688, 85499.265625, 0, 1, 1, 0, 1,0.0,0.0,0.0,0.0,0.0, 11:58:38.923
50228.191406, 32235.148438, 85859.015625, 67022.773438, 83268.601563, 59699.003906, 63691.917969, 85491.617188, 0, 1, 1, 0, 1,0.0,0.0,0.0,0.0,0.0, 11:58:38.923
50153.355469, 32165.007813, 85940.375000, 67255.390625, 83173.718750, 59810.605469, 63673.859375, 85415.601563, 0, 1, 1, 0, 1,0.0,0.0,0.0,0.0,0.0, 11:58:38.923
50320.792969, 32319.324219, 85798.773438, 66984.171875, 83256.601563, 59553.582031, 63580.808594, 85413.523438, 0, 1, 1, 0, 1,0.0,0.0,0.0,0.0,0.0, 11:58:38.923
50411.453125, 32409.603516, 85703.085938, 66718.476563, 83357.164063, 59397.882813, 63577.613281, 85483.484375, 0, 1, 1, 0, 1,0.0,0.0,0.0,0.0,0.0, 11:58:38.923
50264.914063, 32273.638672, 85817.796875, 66947.742188, 83294.960938, 59634.230469, 63671.378906, 85501.078125, 0, 1, 1, 0, 1,0.0,0.0,0.0,0.0,0.0, 11:58:38.923
50139.945313, 32147.150391, 85943.125000, 67253.265625, 83181.367188, 59818.609375, 63682.910156, 85426.757813, 0, 1, 1, 0, 1,0.0,0.0,0.0,0.0,0.0, 11:58:38.930
50267.214844, 32273.146484, 85850.476563, 67066.921875, 83222.429688, 59607.675781, 63584.652344, 85396.398438, 0, 1, 1, 0, 1,0.0,0.0,0.0,0.0,0.0, 11:58:38.930
50412.703125, 32416.332031, 85703.515625, 66718.257813, 83349.179688, 59385.207031, 63558.277344, 85470.898438, 0, 1, 1, 0, 1,0.0,0.0,0.0,0.0,0.0, 11:58:38.930
50292.117188, 32301.308594, 85790.085938, 66869.914063, 83315.296875, 59578.953125, 63654.433594, 85506.078125, 0, 1, 1, 0, 1,0.0,0.0,0.0,0.0,0.0, 11:58:38.930
50143.433594, 32157.431641, 85936.796875, 67220.585938, 83190.351563, 59815.500000, 63688.812500, 85439.515625, 0, 1, 1, 0, 1,0.0,0.0,0.0,0.0,0.0, 11:58:38.930
50250.718750, 32262.462891, 85862.726563, 67116.656250, 83214.359375, 59667.355469, 63605.574219, 85404.851563, 0, 1, 1, 0, 1,0.0,0.0,0.0,0.0,0.0, 11:58:38.930
50400.453125, 32402.451172, 85716.320313, 66753.617188, 83338.546875, 59408.765625, 63559.976563, 85460.437500, 0, 1, 1, 0, 1,0.0,0.0,0.0,0.0,0.0, 11:58:38.930
50316.769531, 32328.533203, 85769.632813, 66815.734375, 83334.968750, 59532.617188, 63640.800781, 85507.531250, 0, 1, 1, 0, 1,0.0,0.0,0.0,0.0,0.0, 11:58:38.931
50147.613281, 32160.896484, 85931.992188, 67191.289063, 83206.671875, 59801.800781, 63693.171875, 85453.312500, 0, 1, 1, 0, 1,0.0,0.0,0.0,0.0,0.0, 11:58:38.931
50195.242188, 32197.128906, 85917.218750, 67193.164063, 83181.742188, 59717.578125, 63616.125000, 85386.343750, 0, 1, 1, 0, 1,0.0,0.0,0.0,0.0,0.0, 11:58:38.931
50406.980469, 32408.597656, 85736.687500, 66809.117188, 83327.320313, 59428.437500, 63557.117188, 85445.554688, 0, 1, 1, 0, 1,0.0,0.0,0.0,0.0,0.0, 11:58:38.931
50365.699219, 32364.408203, 85745.335938, 66770.757813, 83361.945313, 59479.843750, 63630.250000, 85508.585938, 0, 1, 1, 0, 1,0.0,0.0,0.0,0.0,0.0, 11:58:38.931
50178.636719, 32183.023438, 85898.648438, 67125.015625, 83232.726563, 59759.109375, 63696.277344, 85464.906250, 0, 1, 1, 0, 1,0.0,0.0,0.0,0.0,0.0, 11:58:38.931
50173.429688, 32179.984375, 85925.195313, 67220.007813, 83177.898438, 59749.609375, 63640.488281, 85389.921875, 0, 1, 1, 0, 1,0.0,0.0,0.0,0.0,0.0, 11:58:38.932
50363.218750, 32366.083984, 85780.382813, 66873.820313, 83297.414063, 59464.890625, 63560.894531, 85416.046875, 0, 1, 1, 0, 1,0.0,0.0,0.0,0.0,0.0, 11:58:38.932
50395.023438, 32398.160156, 85739.703125, 66730.054688, 83376.945313, 59437.445313, 63611.988281, 85500.585938, 0, 1, 1, 0, 1,0.0,0.0,0.0,0.0,0.0, 11:58:38.932
50210.265625, 32214.136719, 85902.828125, 67072.890625, 83273.187500, 59725.894531, 63702.269531, 85482.429688, 0, 1, 1, 0, 1,0.0,0.0,0.0,0.0,0.0, 11:58:38.932
50168.398438, 32170.283203, 85953.984375, 67247.726563, 83196.453125, 59788.300781, 63667.355469, 85409.007813, 0, 1, 1, 0, 1,0.0,0.0,0.0,0.0,0.0, 11:58:38.932
50359.015625, 32356.808594, 85803.468750, 66931.648438, 83306.671875, 59521.800781, 63586.285156, 85430.085938, 0, 1, 1, 0, 1,0.0,0.0,0.0,0.0,0.0, 11:58:38.933
50421.867188, 32421.406250, 85733.218750, 66712.601563, 83400.882813, 59425.820313, 63608.679688, 85510.195313, 0, 1, 1, 0, 1,0.0,0.0,0.0,0.0,0.0, 11:58:38.933
50248.148438, 32254.773438, 85861.476563, 66990.007813, 83312.414063, 59681.257813, 63695.921875, 85506.281250, 0, 1, 1, 0, 1,0.0,0.0,0.0,0.0,0.0, 11:58:38.933
50170.925781, 32173.480469, 85960.312500, 67252.976563, 83215.789063, 59819.343750, 63688.523438, 85434.445313, 0, 1, 1, 0, 1,0.0,0.0,0.0,0.0,0.0, 11:58:38.933
50333.800781, 32339.621094, 85851.726563, 67024.765625, 83292.273438, 59590.062500, 63603.539063, 85430.843750, 0, 1, 1, 0, 1,0.0,0.0,0.0,0.0,0.0, 11:58:38.933
50432.105469, 32436.648438, 85730.468750, 66721.898438, 83399.343750, 59407.625000, 63592.746094, 85499.796875, 0, 1, 1, 0, 1,0.0,0.0,0.0,0.0,0.0, 11:58:38.933
50270.660156, 32273.570313, 85845.250000, 66929.835938, 83328.351563, 59624.863281, 63682.820313, 85507.843750, 0, 1, 1, 0, 1,0.0,0.0,0.0,0.0,0.0, 11:58:38.933
50168.757813, 32176.654297, 85973.320313, 67254.046875, 83221.062500, 59826.027344, 63702.132813, 85446.937500, 0, 1, 1, 0, 1,0.0,0.0,0.0,0.0,0.0, 11:58:38.933
50279.351563, 32282.757813, 85892.921875, 67098.257813, 83252.578125, 59635.480469, 63609.976563, 85411.289063, 0, 1, 1, 0, 1,0.0,0.0,0.0,0.0,0.0, 11:58:38.933
50421.601563, 32420.355469, 85749.718750, 66743.335938, 83374.578125, 59399.980469, 63572.425781, 85474.296875, 0, 1, 1, 0, 1,0.0,0.0,0.0,0.0,0.0, 11:58:38.934
50322.937500, 32335.552734, 85823.140625, 66865.304688, 83352.046875, 59566.679688, 63663.824219, 85513.906250, 0, 1, 1, 0, 1,0.0,0.0,0.0,0.0,0.0, 11:58:38.934
50170.656250, 32192.367188, 85990.312500, 67248.976563, 83226.226563, 59816.820313, 63708.503906, 85452.304688, 0, 1, 1, 0, 1,0.0,0.0,0.0,0.0,0.0, 11:58:38.934
50248.238281, 32252.404297, 85931.140625, 67169.468750, 83230.382813, 59685.035156, 63621.199219, 85404.539063, 0, 1, 1, 0, 1,0.0,0.0,0.0,0.0,0.0, 11:58:38.934
50421.488281, 32402.585938, 85746.320313, 66762.914063, 83365.570313, 59404.476563, 63564.558594, 85462.226563, 0, 1, 1, 0, 1,0.0,0.0,0.0,0.0,0.0, 11:58:38.934
50358.210938, 32339.732422, 85788.382813, 66786.320313, 83379.242188, 59508.945313, 63650.636719, 85519.265625, 0, 1, 1, 0, 1,0.0,0.0,0.0,0.0,0.0, 11:58:38.934
50206.710938, 32204.482422, 85964.960938, 67174.921875, 83265.429688, 59791.070313, 63719.835938, 85477.226563, 0, 1, 1, 0, 1,0.0,0.0,0.0,0.0,0.0, 11:58:38.934
50243.636719, 32237.003906, 85949.140625, 67199.648438, 83245.492188, 59744.066406, 63657.027344, 85425.968750, 0, 1, 1, 0, 1,0.0,0.0,0.0,0.0,0.0, 11:58:38.934
50400.699219, 32385.128906, 85794.218750, 66829.968750, 83341.984375, 59452.976563, 63573.968750, 85444.789063, 0, 1, 1, 0, 1,0.0,0.0,0.0,0.0,0.0, 11:58:38.934
50385.390625, 32375.427734, 85786.257813, 66756.320313, 83388.742188, 59483.152344, 63635.792969, 85516.851563, 0, 1, 1, 0, 1,0.0,0.0,0.0,0.0,0.0, 11:58:38.935
50183.261719, 32180.587891, 85950.367188, 67120.453125, 83253.632813, 59755.351563, 63700.925781, 85465.890625, 0, 1, 1, 0, 1,0.0,0.0,0.0,0.0,0.0, 11:58:38.935
50191.265625, 32183.582031, 85985.835938, 67254.203125, 83199.468750, 59770.082031, 63653.945313, 85399.218750, 0, 1, 1, 0, 1,0.0,0.0,0.0,0.0,0.0, 11:58:38.935
50382.261719, 32374.824219, 85826.851563, 66905.382813, 83322.273438, 59504.117188, 63581.992188, 85439.117188, 0, 1, 1, 0, 1,0.0,0.0,0.0,0.0,0.0, 11:58:38.935
50404.902344, 32395.208984, 85784.671875, 66736.562500, 83389.929688, 59449.425781, 63620.976563, 85506.531250, 0, 1, 1, 0, 1,0.0,0.0,0.0,0.0,0.0, 11:58:38.935
50241.398438, 32240.423828, 85932.304688, 67059.453125, 83293.773438, 59724.484375, 63709.199219, 85490.750000, 0, 1, 1, 0, 1,0.0,0.0,0.0,0.0,0.0, 11:58:38.935
50190.082031, 32185.750000, 86006.406250, 67273.812500, 83213.593750, 59819.257813, 63692.523438, 85422.593750, 0, 1, 1, 0, 1,0.0,0.0,0.0,0.0,0.0, 11:58:38.935
50382.417969, 32377.550781, 85871.195313, 66982.054688, 83308.570313, 59562.187500, 63611.765625, 85438.734375, 0, 1, 1, 0, 1,0.0,0.0,0.0,0.0,0.0, 11:58:38.935
50433.335938, 32422.455078, 85783.710938, 66726.500000, 83392.609375, 59423.652344, 63613.597656, 85501.429688, 0, 1, 1, 0, 1,0.0,0.0,0.0,0.0,0.0, 11:58:38.935
50273.898438, 32279.785156, 85898.804688, 66984.914063, 83312.210938, 59663.421875, 63693.910156, 85501.500000, 0, 1, 1, 0, 1,0.0,0.0,0.0,0.0,0.0, 11:58:38.936
50175.753906, 32174.955078, 86007.632813, 67282.859375, 83211.632813, 59827.906250, 63698.222656, 85432.078125, 0, 1, 1, 0, 1,0.0,0.0,0.0,0.0,0.0, 11:58:38.936
50314.757813, 32300.974609, 85901.906250, 67058.382813, 83256.312500, 59599.671875, 63601.039063, 85404.250000, 0, 1, 1, 0, 1,0.0,0.0,0.0,0.0,0.0, 11:58:38.936
50437.468750, 32420.488281, 85766.320313, 66721.765625, 83375.132813, 59399.402344, 63587.761719, 85476.507813, 0, 1, 1, 0, 1,0.0,0.0,0.0,0.0,0.0, 11:58:38.936
50307.671875, 32308.060547, 85866.257813, 66903.867188, 83326.562500, 59603.917969, 63677.792969, 85503.820313, 0, 1, 1, 0, 1,0.0,0.0,0.0,0.0,0.0, 11:58:38.936
50171.437500, 32173.189453, 86007.429688, 67255.617188, 83202.000000, 59822.296875, 63700.703125, 85435.648438, 0, 1, 1, 0, 1,0.0,0.0,0.0,0.0,0.0, 11:58:38.936
50272.246094, 32260.271484, 85919.367188, 67110.976563, 83222.851563, 59646.566406, 63608.035156, 85393.179688, 0, 1, 1, 0, 1,0.0,0.0,0.0,0.0,0.0, 11:58:38.936
50441.246094, 32425.808594, 85774.976563, 66743.046875, 83361.859375, 59406.910156, 63580.898438, 85465.132813, 0, 1, 1, 0, 1,0.0,0.0,0.0,0.0,0.0, 11:58:38.936
50346.988281, 32337.988281, 85844.820313, 66844.945313, 83342.835938, 59558.835938, 63666.394531, 85506.867188, 0, 1, 1, 0, 1,0.0,0.0,0.0,0.0,0.0, 11:58:38.936
50177.027344, 32164.785156, 86003.429688, 67223.804688, 83211.945313, 59816.148438, 63707.519531, 85445.953125, 0, 1, 1, 0, 1,0.0,0.0,0.0,0.0,0.0, 11:58:38.937
50255.281250, 32234.701172, 85960.601563, 67183.171875, 83222.828125, 59710.648438, 63641.582031, 85405.656250, 0, 1, 1, 0, 1,0.0,0.0,0.0,0.0,0.0, 11:58:38.937
50426.046875, 32406.988281, 85801.210938, 66801.000000, 83347.281250, 59435.207031, 63587.402344, 85454.492188, 0, 1, 1, 0, 1,0.0,0.0,0.0,0.0,0.0, 11:58:38.937
50393.054688, 32394.716797, 85825.132813, 66795.835938, 83381.523438, 59521.507813, 63668.136719, 85525.703125, 0, 1, 1, 0, 1,0.0,0.0,0.0,0.0,0.0, 11:58:38.937
50206.441406, 32207.767578, 85978.976563, 67168.242188, 83250.093750, 59795.585938, 63724.687500, 85480.171875, 0, 1, 1, 0, 1,0.0,0.0,0.0,0.0,0.0, 11:58:38.937
50209.593750, 32197.619141, 85985.054688, 67224.906250, 83204.429688, 59757.207031, 63661.832031, 85408.562500, 0, 1, 1, 0, 1,0.0,0.0,0.0,0.0,0.0, 11:58:38.937
50391.691406, 32384.300781, 85830.156250, 66858.445313, 83331.437500, 59474.546875, 63594.085938, 85443.875000, 0, 1, 1, 0, 1,0.0,0.0,0.0,0.0,0.0, 11:58:38.937
50403.003906, 32389.957031, 85804.789063, 66746.421875, 83387.203125, 59479.824219, 63649.429688, 85519.828125, 0, 1, 1, 0, 1,0.0,0.0,0.0,0.0,0.0, 11:58:38.937
50220.613281, 32210.673828, 85976.023438, 67112.539063, 83270.148438, 59766.484375, 63728.777344, 85490.812500, 0, 1, 1, 0, 1,0.0,0.0,0.0,0.0,0.0, 11:58:38.937
50192.652344, 32189.796875, 86025.179688, 67276.109375, 83196.070313, 59802.828125, 63685.750000, 85414.101563, 0, 1, 1, 0, 1,0.0,0.0,0.0,0.0,0.0, 11:58:38.938
50382.820313, 32373.617188, 85875.039063, 66944.656250, 83298.804688, 59525.554688, 63604.726563, 85430.960938, 0, 1, 1, 0, 1,0.0,0.0,0.0,0.0,0.0, 11:58:38.938
50445.359375, 32435.039063, 85791.335938, 66719.593750, 83395.898438, 59441.644531, 63635.390625, 85515.046875, 0, 1, 1, 0, 1,0.0,0.0,0.0,0.0,0.0, 11:58:38.938
50272.601563, 32266.328125, 85936.687500, 67029.835938, 83299.273438, 59712.394531, 63726.742188, 85504.562500, 0, 1, 1, 0, 1,0.0,0.0,0.0,0.0,0.0, 11:58:38.938
50195.554688, 32195.898438, 86020.726563, 67278.281250, 83197.367188, 59824.261719, 63703.429688, 85424.695313, 0, 1, 1, 0, 1,0.0,0.0,0.0,0.0,0.0, 11:58:38.938
50340.531250, 32336.892578, 85891.960938, 67005.656250, 83275.531250, 59573.789063, 63612.859375, 85419.109375, 0, 1, 1, 0, 1,0.0,0.0,0.0,0.0,0.0, 11:58:38.938
50438.652344, 32431.753906, 85780.984375, 66706.585938, 83384.164063, 59416.945313, 63617.621094, 85498.390625, 0, 1, 1, 0, 1,0.0,0.0,0.0,0.0,0.0, 11:58:39.397
50283.824219, 32283.292969, 85899.851563, 66948.281250, 83312.234375, 59658.167969, 63709.777344, 85511.671875, 0, 1, 1, 0, 1,0.0,0.0,0.0,0.0,0.0, 11:58:39.397
50168.621094, 32174.351563, 86029.601563, 67274.320313, 83192.812500, 59839.015625, 63713.175781, 85434.554688, 0, 1, 1, 0, 1,0.0,0.0,0.0,0.0,0.0, 11:58:39.397
50298.800781, 32295.050781, 85924.390625, 67073.265625, 83246.718750, 59630.519531, 63622.136719, 85411.156250, 0, 1, 1, 0, 1,0.0,0.0,0.0,0.0,0.0, 11:58:39.398
50429.914063, 32419.638672, 85779.507813, 66716.359375, 83365.742188, 59414.464844, 63597.035156, 85476.578125, 0, 1, 1, 0, 1,0.0,0.0,0.0,0.0,0.0, 11:58:39.398
50299.605469, 32298.068359, 85867.148438, 66877.757813, 83323.750000, 59600.500000, 63685.460938, 85506.390625, 0, 1, 1, 0, 1,0.0,0.0,0.0,0.0,0.0, 11:58:39.398
50146.406250, 32150.703125, 86020.843750, 67252.304688, 83194.195313, 59826.878906, 63710.828125, 85433.484375, 0, 1, 1, 0, 1,0.0,0.0,0.0,0.0,0.0, 11:58:39.398
50261.292969, 32258.974609, 85950.343750, 67146.984375, 83225.242188, 59677.792969, 63633.042969, 85397.718750, 0, 1, 1, 0, 1,0.0,0.0,0.0,0.0,0.0, 11:58:39.405
50435.390625, 32423.484375, 85790.734375, 66761.125000, 83365.453125, 59424.433594, 63594.867188, 85466.296875, 0, 1, 1, 0, 1,0.0,0.0,0.0,0.0,0.0, 11:58:39.405
50359.886719, 32352.003906, 85834.804688, 66813.968750, 83362.367188, 59548.039063, 63672.675781, 85517.523438, 0, 1, 1, 0, 1,0.0,0.0,0.0,0.0,0.0, 11:58:39.405
50198.507813, 32191.070313, 86002.757813, 67205.632813, 83224.617188, 59810.742188, 63719.167969, 85458.359375, 0, 1, 1, 0, 1,0.0,0.0,0.0,0.0,0.0, 11:58:39.405
50253.156250, 32246.570313, 85985.234375, 67210.062500, 83216.593750, 59736.957031, 63656.671875, 85412.117188, 0, 1, 1, 0, 1,0.0,0.0,0.0,0.0,0.0, 11:58:39.406
50407.519531, 32406.162109, 85826.359375, 66829.523438, 83342.093750, 59458.296875, 63594.109375, 85455.656250, 0, 1, 1, 0, 1,0.0,0.0,0.0,0.0,0.0, 11:58:39.406
50380.226563, 32379.697266, 85822.070313, 66776.351563, 83373.500000, 59502.933594, 63658.035156, 85515.000000, 0, 1, 1, 0, 1,0.0,0.0,0.0,0.0,0.0, 11:58:39.406
50207.625000, 32210.292969, 85984.187500, 67153.734375, 83250.476563, 59783.269531, 63726.230469, 85475.953125, 0, 1, 1, 0, 1,0.0,0.0,0.0,0.0,0.0, 11:58:39.406
50198.261719, 32210.292969, 86010.406250, 67262.453125, 83197.929688, 59777.750000, 63671.914063, 85407.687500, 0, 1, 1, 0, 1,0.0,0.0,0.0,0.0,0.0, 11:58:39.406
50376.628906, 32377.775391, 85849.937500, 66899.531250, 83304.437500, 59494.441406, 63594.867188, 85432.429688, 0, 1, 1, 0, 1,0.0,0.0,0.0,0.0,0.0, 11:58:39.407
50407.382813, 32402.964844, 85801.437500, 66742.218750, 83370.148438, 59456.597656, 63633.066406, 85502.437500, 0, 1, 1, 0, 1,0.0,0.0,0.0,0.0,0.0, 11:58:39.407
50240.664063, 32241.429688, 85962.617188, 67095.062500, 83276.695313, 59739.953125, 63722.273438, 85489.023438, 0, 1, 1, 0, 1,0.0,0.0,0.0,0.0,0.0, 11:58:39.407
50183.285156, 32197.105469, 86012.546875, 67277.945313, 83199.070313, 59804.773438, 63687.359375, 85417.906250, 0, 1, 1, 0, 1,0.0,0.0,0.0,0.0,0.0, 11:58:39.407
50355.058594, 32355.914063, 85878.796875, 66971.476563, 83288.210938, 59538.316406, 63600.523438, 85416.406250, 0, 1, 1, 0, 1,0.0,0.0,0.0,0.0,0.0, 11:58:39.407
50436.218750, 32429.853516, 85796.070313, 66732.046875, 83375.265625, 59429.195313, 63614.515625, 85493.046875, 0, 1, 1, 0, 1,0.0,0.0,0.0,0.0,0.0, 11:58:39.407
50268.558594, 32266.171875, 85939.750000, 67025.570313, 83291.265625, 59691.160156, 63705.777344, 85495.398438, 0, 1, 1, 0, 1,0.0,0.0,0.0,0.0,0.0, 11:58:39.407
50170.878906, 32174.195313, 86033.718750, 67297.750000, 83202.289063, 59823.949219, 63699.363281, 85420.203125, 0, 1, 1, 0, 1,0.0,0.0,0.0,0.0,0.0, 11:58:39.407
50326.894531, 32327.349609, 85906.000000, 67047.789063, 83270.351563, 59590.351563, 63611.988281, 85413.031250, 0, 1, 1, 0, 1,0.0,0.0,0.0,0.0,0.0, 11:58:39.408
50446.140625, 32441.410156, 85798.421875, 66744.031250, 83366.148438, 59416.769531, 63605.039063, 85481.609375, 0, 1, 1, 0, 1,0.0,0.0,0.0,0.0,0.0, 11:58:39.408
50300.898438, 32297.308594, 85908.234375, 66960.523438, 83313.062500, 59635.347656, 63693.574219, 85496.226563, 0, 1, 1, 0, 1,0.0,0.0,0.0,0.0,0.0, 11:58:39.408
50161.804688, 32174.552734, 86029.226563, 67290.859375, 83212.234375, 59828.109375, 63712.503906, 85427.757813, 0, 1, 1, 0, 1,0.0,0.0,0.0,0.0,0.0, 11:58:39.408
50283.085938, 32290.246094, 85940.132813, 67130.062500, 83248.804688, 59646.925781, 63635.347656, 85404.265625, 0, 1, 1, 0, 1,0.0,0.0,0.0,0.0,0.0, 11:58:39.408
50440.910156, 32435.710938, 85795.804688, 66765.617188, 83354.320313, 59420.410156, 63596.031250, 85472.773438, 0, 1, 1, 0, 1,0.0,0.0,0.0,0.0,0.0, 11:58:39.408
50319.699219, 32327.349609, 85869.070313, 66890.546875, 83327.125000, 59581.457031, 63675.601563, 85505.906250, 0, 1, 1, 0, 1,0.0,0.0,0.0,0.0,0.0, 11:58:39.408
50168.890625, 32178.330078, 86018.140625, 67262.476563, 83221.867188, 59823.636719, 63721.738281, 85444.906250, 0, 1, 1, 0, 1,0.0,0.0,0.0,0.0,0.0, 11:58:39.409
50247.925781, 32254.146484, 85963.687500, 67194.703125, 83218.203125, 59697.125000, 63643.214844, 85398.320313, 0, 1, 1, 0, 1,0.0,0.0,0.0,0.0,0.0, 11:58:39.409
50414.042969, 32414.990234, 85808.835938, 66815.976563, 83345.117188, 59430.312500, 63594.128906, 85454.539063, 0, 1, 1, 0, 1,0.0,0.0,0.0,0.0,0.0, 11:58:39.409
50355.550781, 32358.082031, 85846.546875, 66843.828125, 83353.992188, 59527.230469, 63668.023438, 85505.570313, 0, 1, 1, 0, 1,0.0,0.0,0.0,0.0,0.0, 11:58:39.409
50197.523438, 32202.894531, 85998.468750, 67220.476563, 83224.015625, 59794.378906, 63723.949219, 85459.234375, 0, 1, 1, 0, 1,0.0,0.0,0.0,0.0,0.0, 11:58:39.409
50239.769531, 32234.521484, 85998.710938, 67261.960938, 83201.148438, 59743.953125, 63666.238281, 85399.593750, 0, 1, 1, 0, 1,0.0,0.0,0.0,0.0,0.0, 11:58:39.409
50408.144531, 32401.781250, 85840.554688, 66885.648438, 83327.656250, 59461.316406, 63597.750000, 85433.859375, 0, 1, 1, 0, 1,0.0,0.0,0.0,0.0,0.0, 11:58:39.409
50393.683594, 32392.416016, 85825.484375, 66800.289063, 83385.460938, 59486.417969, 63660.113281, 85504.296875, 0, 1, 1, 0, 1,0.0,0.0,0.0,0.0,0.0, 11:58:39.409
50206.890625, 32214.136719, 85981.617188, 67166.921875, 83270.210938, 59768.539063, 63731.390625, 85465.890625, 0, 1, 1, 0, 1,0.0,0.0,0.0,0.0,0.0, 11:58:39.409
50195.714844, 32200.792969, 86006.265625, 67296.921875, 83175.625000, 59784.007813, 63680.007813, 85392.289063, 0, 1, 1, 0, 1,0.0,0.0,0.0,0.0,0.0, 11:58:39.410
50413.843750, 32385.865234, 85865.203125, 66957.796875, 83290.171875, 59508.097656, 63603.832031, 85416.515625, 0, 1, 1, 0, 1,0.0,0.0,0.0,0.0,0.0, 11:58:39.410
50440.105469, 32427.708984, 85807.250000, 66771.117188, 83404.773438, 59455.480469, 63655.398438, 85508.296875, 0, 1, 1, 0, 1,0.0,0.0,0.0,0.0,0.0, 11:58:39.410
50219.136719, 32241.003906, 85930.429688, 67081.921875, 83269.210938, 59720.753906, 63727.234375, 85484.601563, 0, 1, 1, 0, 1,0.0,0.0,0.0,0.0,0.0, 11:58:39.410
50183.261719, 32198.378906, 86004.234375, 67302.242188, 83190.101563, 59811.566406, 63702.671875, 85413.703125, 0, 1, 1, 0, 1,0.0,0.0,0.0,0.0,0.0, 11:58:39.410
50374.707031, 32369.214844, 85885.835938, 67023.468750, 83311.453125, 59569.566406, 63637.292969, 85434.867188, 0, 1, 1, 0, 1,0.0,0.0,0.0,0.0,0.0, 11:58:39.410
50441.917969, 32434.816406, 85798.757813, 66765.171875, 83381.007813, 59437.554688, 63645.406250, 85505.054688, 0, 1, 1, 0, 1,0.0,0.0,0.0,0.0,0.0, 11:58:39.410
50250.964844, 32262.462891, 85921.265625, 67029.953125, 83280.164063, 59677.078125, 63715.792969, 85494.773438, 0, 1, 1, 0, 1,0.0,0.0,0.0,0.0,0.0, 11:58:39.410
50148.574219, 32163.421875, 86028.773438, 67326.046875, 83165.273438, 59828.441406, 63701.933594, 85409.835938, 0, 1, 1, 0, 1,0.0,0.0,0.0,0.0,0.0, 11:58:39.410
50318.582031, 32330.232422, 85907.789063, 67094.078125, 83241.851563, 59609.484375, 63618.203125, 85412.851563, 0, 1, 1, 0, 1,0.0,0.0,0.0,0.0,0.0, 11:58:39.411
50453.292969, 32449.724609, 85777.429688, 66756.117188, 83368.468750, 59417.328125, 63615.453125, 85489.632813, 0, 1, 1, 0, 1,0.0,0.0,0.0,0.0,0.0, 11:58:39.411
50296.878906, 32304.953125, 85884.656250, 66947.476563, 83302.937500, 59618.761719, 63703.074219, 85502.773438, 0, 1, 1, 0, 1,0.0,0.0,0.0,0.0,0.0, 11:58:39.411
50131.855469, 32165.589844, 86027.460938, 67306.328125, 83192.476563, 59833.449219, 63731.234375, 85430.289063, 0, 1, 1, 0, 1,0.0,0.0,0.0,0.0,0.0, 11:58:39.411
50265.070313, 32278.130859, 85942.164063, 67172.445313, 83219.273438, 59665.187500, 63647.617188, 85399.062500, 0, 1, 1, 0, 1,0.0,0.0,0.0,0.0,0.0, 11:58:39.411
50429.156250, 32436.314453, 85788.539063, 66794.562500, 83364.117188, 59420.812500, 63615.589844, 85470.875000, 0, 1, 1, 0, 1,0.0,0.0,0.0,0.0,0.0, 11:58:39.411
50360.265625, 32352.250000, 85845.445313, 66877.289063, 83334.695313, 59561.429688, 63694.847656, 85512.359375, 0, 1, 1, 0, 1,0.0,0.0,0.0,0.0,0.0, 11:58:39.411
50195.019531, 32193.820313, 86008.976563, 67262.585938, 83206.914063, 59816.933594, 63736.691406, 85452.148438, 0, 1, 1, 0, 1,0.0,0.0,0.0,0.0,0.0, 11:58:39.411
50214.289063, 32236.892578, 85963.195313, 67225.242188, 83187.265625, 59713.554688, 63660.066406, 85401.250000, 0, 1, 1, 0, 1,0.0,0.0,0.0,0.0,0.0, 11:58:39.412
50405.910156, 32408.933594, 85803.000000, 66839.851563, 83309.398438, 59440.304688, 63599.046875, 85448.054688, 0, 1, 1, 0, 1,0.0,0.0,0.0,0.0,0.0, 11:58:39.412
50365.675781, 32371.962891, 85829.132813, 66833.726563, 83350.281250, 59516.679688, 63674.753906, 85513.476563, 0, 1, 1, 0, 1,0.0,0.0,0.0,0.0,0.0, 11:58:39.412
50173.226563, 32201.195313, 85977.789063, 67208.875000, 83211.359375, 59789.191406, 63732.398438, 85466.382813, 0, 1, 1, 0, 1,0.0,0.0,0.0,0.0,0.0, 11:58:39.412
50218.355469, 32227.392578, 85985.835938, 67281.031250, 83165.968750, 59759.687500, 63670.304688, 85398.570313, 0, 1, 1, 0, 1,0.0,0.0,0.0,0.0,0.0, 11:58:39.412
50396.632813, 32404.753906, 85820.500000, 66908.718750, 83297.101563, 59477.230469, 63606.179688, 85440.570313, 0, 1, 1, 0, 1,0.0,0.0,0.0,0.0,0.0, 11:58:39.412
50372.804688, 32392.906250, 85804.882813, 66801.718750, 83352.601563, 59474.949219, 63665.835938, 85510.257813, 0, 1, 1, 0, 1,0.0,0.0,0.0,0.0,0.0, 11:58:39.412
50213.929688, 32230.857422, 85963.554688, 67161.109375, 83226.960938, 59744.398438, 63732.578125, 85469.960938, 0, 1, 1, 0, 1,0.0,0.0,0.0,0.0,0.0, 11:58:39.412
50183.261719, 32210.359375, 86008.437500, 67323.382813, 83159.796875, 59780.656250, 63689.503906, 85394.968750, 0, 1, 1, 0, 1,0.0,0.0,0.0,0.0,0.0, 11:58:39.412
50383.960938, 32387.900391, 85852.734375, 66985.289063, 83284.476563, 59512.613281, 63615.207031, 85421.859375, 0, 1, 1, 0, 1,0.0,0.0,0.0,0.0,0.0, 11:58:39.413
50450.835938, 32450.037109, 85788.179688, 66775.656250, 83375.265625, 59441.601563, 63658.300781, 85506.710938, 0, 1, 1, 0, 1,0.0,0.0,0.0,0.0,0.0, 11:58:39.413
50251.996094, 32277.347656, 85923.570313, 67081.023438, 83267.039063, 59705.218750, 63737.269531, 85489.406250, 0, 1, 1, 0, 1,0.0,0.0,0.0,0.0,0.0, 11:58:39.413
50178.882813, 32213.646484, 86015.343750, 67337.578125, 83166.320313, 59824.687500, 63708.347656, 85413.367188, 0, 1, 1, 0, 1,0.0,0.0,0.0,0.0,0.0, 11:58:39.413
50343.949219, 32375.427734, 85885.125000, 67064.257813, 83251.125000, 59581.187500, 63624.328125, 85413.429688, 0, 1, 1, 0, 1,0.0,0.0,0.0,0.0,0.0, 11:58:39.413
50454.972656, 32474.847656, 85783.156250, 66778.000000, 83366.460938, 59434.515625, 63635.906250, 85494.992188, 0, 1, 1, 0, 1,0.0,0.0,0.0,0.0,0.0, 11:58:39.413
50289.054688, 32331.304688, 85898.445313, 67017.101563, 83293.351563, 59665.429688, 63722.050781, 85501.968750, 0, 1, 1, 0, 1,0.0,0.0,0.0,0.0,0.0, 11:58:39.413
50198.953125, 32233.962891, 86007.070313, 67328.367188, 83185.789063, 59841.855469, 63724.082031, 85430.242188, 0, 1, 1, 0, 1,0.0,0.0,0.0,0.0,0.0, 11:58:39.413
50318.289063, 32362.507813, 85904.812500, 67134.828125, 83234.359375, 59644.308594, 63642.433594, 85416.742188, 0, 1, 1, 0, 1,0.0,0.0,0.0,0.0,0.0, 11:58:39.413
50432.375000, 32467.650391, 85792.656250, 66801.492188, 83358.054688, 59439.031250, 63629.312500, 85483.617188, 0, 1, 1, 0, 1,0.0,0.0,0.0,0.0,0.0, 11:58:39.413
50311.785156, 32346.548828, 85885.476563, 66962.601563, 83308.835938, 59617.933594, 63708.683594, 85505.257813, 0, 1, 1, 0, 1,0.0,0.0,0.0,0.0,0.0, 11:58:39.414
50159.457031, 32195.921875, 86023.703125, 67325.351563, 83176.742188, 59837.875000, 63730.363281, 85438.289063, 0, 1, 1, 0, 1,0.0,0.0,0.0,0.0,0.0, 11:58:39.414
50269.339844, 32292.167969, 85958.414063, 67229.710938, 83204.187500, 59690.175781, 63655.351563, 85404.937500, 0, 1, 1, 0, 1,0.0,0.0,0.0,0.0,0.0, 11:58:39.414
50424.796875, 32454.216797, 85793.726563, 66842.687500, 83337.265625, 59432.906250, 63615.675781, 85469.539063, 0, 1, 1, 0, 1,0.0,0.0,0.0,0.0,0.0, 11:58:39.414
50356.847656, 32382.736328, 85837.335938, 66893.742188, 83347.929688, 59558.164063, 63701.484375, 85524.882813, 0, 1, 1, 0, 1,0.0,0.0,0.0,0.0,0.0, 11:58:39.414
50190.570313, 32219.523438, 85993.570313, 67276.000000, 83222.851563, 59823.011719, 63752.089844, 85470.164063, 0, 1, 1, 0, 1,0.0,0.0,0.0,0.0,0.0, 11:58:39.414
50239.074219, 32257.992188, 85968.406250, 67276.671875, 83192.718750, 59739.773438, 63676.050781, 85404.804688, 0, 1, 1, 0, 1,0.0,0.0,0.0,0.0,0.0, 11:58:39.414
50425.132813, 32438.212891, 85813.195313, 66894.500000, 83323.429688, 59462.367188, 63614.605469, 85448.523438, 0, 1, 1, 0, 1,0.0,0.0,0.0,0.0,0.0, 11:58:39.415
50387.511719, 32410.900391, 85810.218750, 66840.070313, 83360.070313, 59509.238281, 63680.050781, 85515.398438, 0, 1, 1, 0, 1,0.0,0.0,0.0,0.0,0.0, 11:58:39.415
50198.730469, 32235.974609, 85968.960938, 67216.273438, 83234.539063, 59786.777344, 63744.312500, 85473.601563, 0, 1, 1, 0, 1,0.0,0.0,0.0,0.0,0.0, 11:58:39.415
50227.320313, 32251.644531, 85992.320313, 67320.812500, 83193.656250, 59786.710938, 63693.773438, 85412.984375, 0, 1, 1, 0, 1,0.0,0.0,0.0,0.0,0.0, 11:58:39.415
50401.082031, 32424.019531, 85834.671875, 66955.250000, 83316.304688, 59510.757813, 63624.664063, 85446.695313, 0, 1, 1, 0, 1,0.0,0.0,0.0,0.0,0.0, 11:58:39.415
50414.515625, 32441.521484, 85797.992188, 66806.968750, 83385.906250, 59483.464844, 63674.617188, 85523.406250, 0, 1, 1, 0, 1,0.0,0.0,0.0,0.0,0.0, 11:58:39.415
50232.324219, 32266.888672, 85934.789063, 67136.523438, 83280.742188, 59753.074219, 63750.347656, 85506.351563, 0, 1, 1, 0, 1,0.0,0.0,0.0,0.0,0.0, 11:58:39.415
50185.722656, 32215.367188, 85995.335938, 67328.281250, 83195.312500, 59819.167969, 63715.859375, 85427.960938, 0, 1, 1, 0, 1,0.0,0.0,0.0,0.0,0.0, 11:58:39.415
50371.664063, 32390.515625, 85864.085938, 67020.476563, 83311.718750, 59562.703125, 63648.871094, 85445.734375, 0, 1, 1, 0, 1,0.0,0.0,0.0,0.0,0.0, 11:58:39.415
50436.152344, 32451.289063, 85792.500000, 66787.882813, 83389.640625, 59459.796875, 63670.214844, 85522.421875, 0, 1, 1, 0, 1,0.0,0.0,0.0,0.0,0.0, 11:58:39.416
50253.089844, 32283.740234, 85931.367188, 67078.164063, 83293.195313, 59707.968750, 63743.507813, 85508.273438, 0, 1, 1, 0, 1,0.0,0.0,0.0,0.0,0.0, 11:58:39.416
50168.109375, 32197.261719, 86023.812500, 67350.140625, 83186.953125, 59835.773438, 63725.335938, 85427.070313, 0, 1, 1, 0, 1,0.0,0.0,0.0,0.0,0.0, 11:58:39.416
50326.000000, 32343.888672, 85903.695313, 67106.351563, 83272.671875, 59606.648438, 63645.539063, 85422.304688, 0, 1, 1, 0, 1,0.0,0.0,0.0,0.0,0.0, 11:58:39.416
50429.355469, 32449.835938, 85785.921875, 66792.796875, 83374.125000, 59430.246094, 63638.992188, 85493.070313, 0, 1, 1, 0, 1,0.0,0.0,0.0,0.0,0.0, 11:58:39.416
50299.402344, 32314.988281, 85889.570313, 66999.265625, 83319.546875, 59642.992188, 63725.535156, 85508.515625, 0, 1, 1, 0, 1,0.0,0.0,0.0,0.0,0.0, 11:58:39.416
50164.175781, 32194.535156, 86014.289063, 67328.570313, 83206.421875, 59838.234375, 63740.871094, 85442.312500, 0, 1, 1, 0, 1,0.0,0.0,0.0,0.0,0.0, 11:58:39.416
50292.050781, 32316.464844, 85931.234375, 67166.273438, 83242.382813, 59658.835938, 63654.011719, 85420.179688, 0, 1, 1, 0, 1,0.0,0.0,0.0,0.0,0.0, 11:58:39.416
50444.734375, 32455.648438, 85790.148438, 66800.000000, 83384.320313, 59432.078125, 63631.726563, 85494.859375, 0, 1, 1, 0, 1,0.0,0.0,0.0,0.0,0.0, 11:58:39.417
50341.691406, 32354.796875, 85871.085938, 66921.812500, 83360.382813, 59595.628906, 63720.285156, 85530.468750, 0, 1, 1, 0, 1,0.0,0.0,0.0,0.0,0.0, 11:58:39.417
50169.179688, 32202.894531, 86022.968750, 67296.898438, 83230.046875, 59836.265625, 63752.625000, 85464.890625, 0, 1, 1, 0, 1,0.0,0.0,0.0,0.0,0.0, 11:58:39.417
50260.128906, 32290.736328, 85964.406250, 67228.257813, 83235.546875, 59714.449219, 63677.347656, 85425.656250, 0, 1, 1, 0, 1,0.0,0.0,0.0,0.0,0.0, 11:58:39.417
50428.015625, 32450.955078, 85805.859375, 66842.109375, 83364.429688, 59453.605469, 63632.195313, 85485.875000, 0, 1, 1, 0, 1,0.0,0.0,0.0,0.0,0.0, 11:58:39.417
50361.941406, 32385.576172, 85852.351563, 66873.960938, 83364.359375, 59553.406250, 63703.632813, 85532.609375, 0, 1, 1, 0, 1,0.0,0.0,0.0,0.0,0.0, 11:58:39.417
50187.351563, 32215.658203, 86022.539063, 67266.367188, 83228.664063, 59821.558594, 63748.113281, 85470.046875, 0, 1, 1, 0, 1,0.0,0.0,0.0,0.0,0.0, 11:58:39.417
50231.675781, 32259.289063, 85999.921875, 67293.187500, 83205.617188, 59763.535156, 63682.261719, 85415.937500, 0, 1, 1, 0, 1,0.0,0.0,0.0,0.0,0.0, 11:58:39.417
50394.734375, 32418.343750, 85834.585938, 66915.640625, 83334.718750, 59482.617188, 63624.929688, 85456.773438, 0, 1, 1, 0, 1,0.0,0.0,0.0,0.0,0.0, 11:58:39.417
50396.902344, 32410.408203, 85825.085938, 66835.421875, 83378.421875, 59498.843750, 63682.933594, 85523.335938, 0, 1, 1, 0, 1,0.0,0.0,0.0,0.0,0.0, 11:58:39.418
50212.812500, 32238.746094, 85984.679688, 67203.734375, 83258.007813, 59772.050781, 63748.378906, 85485.429688, 0, 1, 1, 0, 1,0.0,0.0,0.0,0.0,0.0, 11:58:39.418
50232.773438, 32246.345703, 86008.234375, 67329.062500, 83210.890625, 59787.828125, 63700.234375, 85422.242188, 0, 1, 1, 0, 1,0.0,0.0,0.0,0.0,0.0, 11:58:39.418
50421.039063, 32417.716797, 85856.445313, 66978.992188, 83328.890625, 59516.703125, 63635.972656, 85451.187500, 0, 1, 1, 0, 1,0.0,0.0,0.0,0.0,0.0, 11:58:39.418
50409.597656, 32433.072266, 85819.562500, 66811.843750, 83388.406250, 59462.613281, 63676.855469, 85514.421875, 0, 1, 1, 0, 1,0.0,0.0,0.0,0.0,0.0, 11:58:39.418
50250.003906, 32280.566406, 85962.593750, 67136.210938, 83299.453125, 59728.820313, 63758.437500, 85502.750000, 0, 1, 1, 0, 1,0.0,0.0,0.0,0.0,0.0, 11:58:39.418
50206.843750, 32232.130859, 86029.601563, 67353.265625, 83217.796875, 59819.703125, 63732.285156, 85432.031250, 0, 1, 1, 0, 1,0.0,0.0,0.0,0.0,0.0, 11:58:39.418
50364.535156, 32388.503906, 85895.093750, 67060.546875, 83305.687500, 59569.765625, 63654.101563, 85440.789063, 0, 1, 1, 0, 1,0.0,0.0,0.0,0.0,0.0, 11:58:39.418
50430.562500, 32445.857422, 85812.031250, 66803.976563, 83403.429688, 59443.726563, 63670.929688, 85515.179688, 0, 1, 1, 0, 1,0.0,0.0,0.0,0.0,0.0, 11:58:39.418
50280.113281, 32302.136719, 85932.460938, 67061.960938, 83315.875000, 59681.679688, 63746.570313, 85516.500000, 0, 1, 1, 0, 1,0.0,0.0,0.0,0.0,0.0, 11:58:39.419
50183.507813, 32210.091797, 86034.523438, 67352.914063, 83206.039063, 59835.750000, 63741.449219, 85446.109375, 0, 1, 1, 0, 1,0.0,0.0,0.0,0.0,0.0, 11:58:39.419
50322.132813, 32344.203125, 85922.585938, 67131.382813, 83270.367188, 59621.644531, 63662.437500, 85436.390625, 0, 1, 1, 0, 1,0.0,0.0,0.0,0.0,0.0, 11:58:39.876
50449.652344, 32459.134766, 85805.882813, 66802.609375, 83385.054688, 59428.839844, 63651.261719, 85505.117188, 0, 1, 1, 0, 1,0.0,0.0,0.0,0.0,0.0, 11:58:39.877
50319.675781, 32348.248047, 85899.960938, 66980.554688, 83343.195313, 59626.292969, 63737.425781, 85531.742188, 0, 1, 1, 0, 1,0.0,0.0,0.0,0.0,0.0, 11:58:39.877
50180.984375, 32211.656250, 86030.054688, 67325.757813, 83218.023438, 59837.046875, 63749.652344, 85459.187500, 0, 1, 1, 0, 1,0.0,0.0,0.0,0.0,0.0, 11:58:39.877
50292.609375, 32307.724609, 85946.968750, 67189.210938, 83255.640625, 59671.937500, 63672.363281, 85430.109375, 0, 1, 1, 0, 1,0.0,0.0,0.0,0.0,0.0, 11:58:39.877
50457.406250, 32467.136719, 85804.453125, 66821.523438, 83386.531250, 59433.734375, 63645.183594, 85498.257813, 0, 1, 1, 0, 1,0.0,0.0,0.0,0.0,0.0, 11:58:39.877
50347.546875, 32376.277344, 85865.140625, 66907.820313, 83373.703125, 59575.218750, 63724.574219, 85538.960938, 0, 1, 1, 0, 1,0.0,0.0,0.0,0.0,0.0, 11:58:39.877
50187.554688, 32215.210938, 86027.859375, 67296.273438, 83239.320313, 59829.179688, 63762.171875, 85473.781250, 0, 1, 1, 0, 1,0.0,0.0,0.0,0.0,0.0, 11:58:39.877
50225.128906, 32252.806641, 85995.453125, 67269.250000, 83232.750000, 59727.703125, 63688.812500, 85421.187500, 0, 1, 1, 0, 1,0.0,0.0,0.0,0.0,0.0, 11:58:39.877
50402.019531, 32426.724609, 85827.250000, 66877.734375, 83357.343750, 59447.949219, 63631.101563, 85471.617188, 0, 1, 1, 0, 1,0.0,0.0,0.0,0.0,0.0, 11:58:39.877
50375.667969, 32391.900391, 85855.664063, 66872.531250, 83370.617188, 59520.054688, 63695.964844, 85523.203125, 0, 1, 1, 0, 1,0.0,0.0,0.0,0.0,0.0, 11:58:39.878
50199.355469, 32221.246094, 86007.382813, 67244.125000, 83243.484375, 59783.582031, 63746.187500, 85469.398438, 0, 1, 1, 0, 1,0.0,0.0,0.0,0.0,0.0, 11:58:39.878
50219.027344, 32238.142578, 85995.453125, 67297.546875, 83221.976563, 59752.113281, 63694.937500, 85417.210938, 0, 1, 1, 0, 1,0.0,0.0,0.0,0.0,0.0, 11:58:39.878
50397.503906, 32401.511719, 85832.640625, 66926.484375, 83342.546875, 59474.437500, 63631.750000, 85455.007813, 0, 1, 1, 0, 1,0.0,0.0,0.0,0.0,0.0, 11:58:39.879
50406.355469, 32403.076172, 85812.078125, 66814.210938, 83397.484375, 59472.714844, 63685.437500, 85522.109375, 0, 1, 1, 0, 1,0.0,0.0,0.0,0.0,0.0, 11:58:39.880
50228.101563, 32238.412109, 85962.820313, 67161.671875, 83286.929688, 59748.066406, 63756.917969, 85496.445313, 0, 1, 1, 0, 1,0.0,0.0,0.0,0.0,0.0, 11:58:39.880
50188.089844, 32203.966797, 86012.257813, 67327.320313, 83214.156250, 59789.394531, 63716.929688, 85424.632813, 0, 1, 1, 0, 1,0.0,0.0,0.0,0.0,0.0, 11:58:39.880
50357.562500, 32364.699219, 85864.515625, 66997.429688, 83317.132813, 59518.269531, 63640.578125, 85444.703125, 0, 1, 1, 0, 1,0.0,0.0,0.0,0.0,0.0, 11:58:39.880
50413.730469, 32415.929688, 85807.742188, 66793.851563, 83401.507813, 59439.164063, 63675.042969, 85518.796875, 0, 1, 1, 0, 1,0.0,0.0,0.0,0.0,0.0, 11:58:39.881
50258.878906, 32261.500000, 85936.125000, 67087.843750, 83312.234375, 59697.910156, 63752.625000, 85514.328125, 0, 1, 1, 0, 1,0.0,0.0,0.0,0.0,0.0, 11:58:39.881
50180.468750, 32187.046875, 86017.085938, 67329.976563, 83217.195313, 59811.277344, 63730.812500, 85440.906250, 0, 1, 1, 0, 1,0.0,0.0,0.0,0.0,0.0, 11:58:39.881
50346.296875, 32337.697266, 85876.429688, 67052.101563, 83305.796875, 59567.507813, 63650.277344, 85446.828125, 0, 1, 1, 0, 1,0.0,0.0,0.0,0.0,0.0, 11:58:39.881
50446.187500, 32441.275391, 85768.492188, 66762.421875, 83427.859375, 59421.933594, 63668.160156, 85534.359375, 0, 1, 1, 0, 1,0.0,0.0,0.0,0.0,0.0, 11:58:39.881
50280.671875, 32286.625000, 85906.984375, 67021.632813, 83348.804688, 59659.976563, 63760.539063, 85538.000000, 0, 1, 1, 0, 1,0.0,0.0,0.0,0.0,0.0, 11:58:39.881
50167.683594, 32177.503906, 86019.320313, 67332.976563, 83227.765625, 59830.566406, 63754.750000, 85458.875000, 0, 1, 1, 0, 1,0.0,0.0,0.0,0.0,0.0, 11:58:39.881
50306.800781, 32310.585938, 85923.656250, 67146.203125, 83280.898438, 59633.023438, 63671.265625, 85441.437500, 0, 1, 1, 0, 1,0.0,0.0,0.0,0.0,0.0, 11:58:39.881
50440.710938, 32438.839844, 85796.093750, 66805.921875, 83405.460938, 59421.460938, 63654.769531, 85511.375000, 0, 1, 1, 0, 1,0.0,0.0,0.0,0.0,0.0, 11:58:39.881
50310.066406, 32310.294922, 85883.359375, 66958.562500, 83365.609375, 59601.328125, 63738.546875, 85535.585938, 0, 1, 1, 0, 1,0.0,0.0,0.0,0.0,0.0, 11:58:39.882
50163.257813, 32163.466797, 86037.406250, 67326.335938, 83230.765625, 59828.351563, 63758.839844, 85457.218750, 0, 1, 1, 0, 1,0.0,0.0,0.0,0.0,0.0, 11:58:39.882
50251.726563, 32254.794922, 85968.695313, 67222.554688, 83248.328125, 59677.859375, 63672.117188, 85415.195313, 0, 1, 1, 0, 1,0.0,0.0,0.0,0.0,0.0, 11:58:39.882
50432.105469, 32431.820313, 85808.367188, 66839.179688, 83393.507813, 59423.941406, 63639.750000, 85488.179688, 0, 1, 1, 0, 1,0.0,0.0,0.0,0.0,0.0, 11:58:39.882
50346.386719, 32346.302734, 85850.742188, 66891.664063, 83390.375000, 59546.832031, 63721.824219, 85538.023438, 0, 1, 1, 0, 1,0.0,0.0,0.0,0.0,0.0, 11:58:39.882
50169.742188, 32174.216797, 85999.203125, 67264.867188, 83259.398438, 59805.085938, 63765.144531, 85480.507813, 0, 1, 1, 0, 1,0.0,0.0,0.0,0.0,0.0, 11:58:39.882
50209.371094, 32214.048828, 85988.921875, 67278.476563, 83237.710938, 59730.496094, 63695.609375, 85419.601563, 0, 1, 1, 0, 1,0.0,0.0,0.0,0.0,0.0, 11:58:39.883
50404.031250, 32399.970703, 85823.070313, 66890.898438, 83372.515625, 59448.621094, 63636.957031, 85468.914063, 0, 1, 1, 0, 1,0.0,0.0,0.0,0.0,0.0, 11:58:39.883
50371.687500, 32366.083984, 85827.429688, 66841.976563, 83409.132813, 59497.906250, 63706.539063, 85533.062500, 0, 1, 1, 0, 1,0.0,0.0,0.0,0.0,0.0, 11:58:39.883
50190.863281, 32194.646484, 85989.328125, 67219.203125, 83281.164063, 59775.714844, 63772.140625, 85492.421875, 0, 1, 1, 0, 1,0.0,0.0,0.0,0.0,0.0, 11:58:39.883
50192.023438, 32194.289063, 86005.148438, 67313.820313, 83226.625000, 59764.808594, 63716.550781, 85425.523438, 0, 1, 1, 0, 1,0.0,0.0,0.0,0.0,0.0, 11:58:39.884
50378.820313, 32371.226563, 85837.851563, 66945.726563, 83344.312500, 59482.347656, 63643.394531, 85457.710938, 0, 1, 1, 0, 1,0.0,0.0,0.0,0.0,0.0, 11:58:39.884
50403.429688, 32400.730469, 85809.843750, 66811.578125, 83414.718750, 59461.160156, 63699.718750, 85537.929688, 0, 1, 1, 0, 1,0.0,0.0,0.0,0.0,0.0, 11:58:39.884
50222.175781, 32223.771484, 85962.171875, 67151.476563, 83302.890625, 59735.480469, 63774.417969, 85517.343750, 0, 1, 1, 0, 1,0.0,0.0,0.0,0.0,0.0, 11:58:39.884
50174.324219, 32174.820313, 86010.226563, 67328.031250, 83225.445313, 59799.093750, 63734.410156, 85447.296875, 0, 1, 1, 0, 1,0.0,0.0,0.0,0.0,0.0, 11:58:39.884
50358.054688, 32352.292969, 85872.757813, 67019.265625, 83328.953125, 59540.796875, 63657.320313, 85465.734375, 0, 1, 1, 0, 1,0.0,0.0,0.0,0.0,0.0, 11:58:39.884
50415.230469, 32413.917969, 85799.539063, 66786.671875, 83421.867188, 59435.343750, 63681.281250, 85538.132813, 0, 1, 1, 0, 1,0.0,0.0,0.0,0.0,0.0, 11:58:39.884
50241.554688, 32245.519531, 85944.218750, 67081.781250, 83331.125000, 59690.199219, 63763.535156, 85527.562500, 0, 1, 1, 0, 1,0.0,0.0,0.0,0.0,0.0, 11:58:39.884
50157.335938, 32161.789063, 86035.929688, 67348.109375, 83230.140625, 59821.582031, 63748.113281, 85452.390625, 0, 1, 1, 0, 1,0.0,0.0,0.0,0.0,0.0, 11:58:39.885
50336.640625, 32337.810547, 85905.617188, 67095.265625, 83326.359375, 59591.558594, 63674.574219, 85461.578125, 0, 1, 1, 0, 1,0.0,0.0,0.0,0.0,0.0, 11:58:39.885
50449.023438, 32452.072266, 85795.421875, 66792.953125, 83446.476563, 59419.183594, 63682.398438, 85538.695313, 0, 1, 1, 0, 1,0.0,0.0,0.0,0.0,0.0, 11:58:39.885
50282.593750, 32271.894531, 85906.062500, 67007.265625, 83370.195313, 59636.554688, 63761.386719, 85544.125000, 0, 1, 1, 0, 1,0.0,0.0,0.0,0.0,0.0, 11:58:39.885
50157.269531, 32156.023438, 86032.015625, 67337.265625, 83245.757813, 59827.191406, 63765.972656, 85465.218750, 0, 1, 1, 0, 1,0.0,0.0,0.0,0.0,0.0, 11:58:39.885
50292.429688, 32283.517578, 85940.687500, 67176.289063, 83299.226563, 59646.140625, 63687.070313, 85445.554688, 0, 1, 1, 0, 1,0.0,0.0,0.0,0.0,0.0, 11:58:39.886
50433.492188, 32419.908203, 85805.101563, 66820.914063, 83422.250000, 59415.539063, 63657.007813, 85509.812500, 0, 1, 1, 0, 1,0.0,0.0,0.0,0.0,0.0, 11:58:39.886
50342.542969, 32338.279297, 85862.656250, 66929.164063, 83410.718750, 59573.386719, 63745.765625, 85559.031250, 0, 1, 1, 0, 1,0.0,0.0,0.0,0.0,0.0, 11:58:39.887
50183.351563, 32195.988281, 86028.304688, 67315.250000, 83284.875000, 59826.765625, 63790.511719, 85496.335938, 0, 1, 1, 0, 1,0.0,0.0,0.0,0.0,0.0, 11:58:39.887
50261.628906, 32267.580078, 85979.914063, 67254.320313, 83288.851563, 59704.906250, 63711.230469, 85448.031250, 0, 1, 1, 0, 1,0.0,0.0,0.0,0.0,0.0, 11:58:39.887
50429.871094, 32421.449219, 85805.976563, 66856.882813, 83411.765625, 59431.722656, 63651.484375, 85500.132813, 0, 1, 1, 0, 1,0.0,0.0,0.0,0.0,0.0, 11:58:39.887
50371.957031, 32363.023438, 85830.984375, 66868.835938, 83422.984375, 59521.976563, 63727.972656, 85552.218750, 0, 1, 1, 0, 1,0.0,0.0,0.0,0.0,0.0, 11:58:39.888
50202.015625, 32207.386719, 85995.539063, 67255.859375, 83299.828125, 59798.000000, 63789.863281, 85504.250000, 0, 1, 1, 0, 1,0.0,0.0,0.0,0.0,0.0, 11:58:39.888
50248.640625, 32251.263672, 85994.867188, 67300.562500, 83278.976563, 59750.078125, 63729.136719, 85448.460938, 0, 1, 1, 0, 1,0.0,0.0,0.0,0.0,0.0, 11:58:39.889
50437.828125, 32423.259766, 85823.296875, 66916.468750, 83413.218750, 59469.785156, 63662.617188, 85494.773438, 0, 1, 1, 0, 1,0.0,0.0,0.0,0.0,0.0, 11:58:39.889
50399.917969, 32386.513672, 85809.640625, 66825.210938, 83447.218750, 59485.074219, 63716.417969, 85552.351563, 0, 1, 1, 0, 1,0.0,0.0,0.0,0.0,0.0, 11:58:39.890
50212.699219, 32215.544922, 85984.765625, 67205.632813, 83321.218750, 59770.171875, 63784.476563, 85514.750000, 0, 1, 1, 0, 1,0.0,0.0,0.0,0.0,0.0, 11:58:39.890
50208.074219, 32216.216797, 86023.187500, 67338.515625, 83263.531250, 59786.710938, 63740.042969, 85445.328125, 0, 1, 1, 0, 1,0.0,0.0,0.0,0.0,0.0, 11:58:39.890
50392.273438, 32384.300781, 85868.203125, 66991.171875, 83377.812500, 59508.367188, 63667.152344, 85470.203125, 0, 1, 1, 0, 1,0.0,0.0,0.0,0.0,0.0, 11:58:39.891
50414.894531, 32398.382813, 85828.460938, 66824.226563, 83448.468750, 59455.480469, 63705.644531, 85537.953125, 0, 1, 1, 0, 1,0.0,0.0,0.0,0.0,0.0, 11:58:39.891
50221.039063, 32203.476563, 85965.273438, 67139.765625, 83332.242188, 59719.054688, 63769.679688, 85509.679688, 0, 1, 1, 0, 1,0.0,0.0,0.0,0.0,0.0, 11:58:39.891
50176.625000, 32164.851563, 86028.085938, 67351.617188, 83256.601563, 59807.230469, 63747.597656, 85444.500000, 0, 1, 1, 0, 1,0.0,0.0,0.0,0.0,0.0, 11:58:39.891
50343.570313, 32337.519531, 85900.453125, 67069.671875, 83350.882813, 59555.238281, 63670.460938, 85454.492188, 0, 1, 1, 0, 1,0.0,0.0,0.0,0.0,0.0, 11:58:39.891
50421.152344, 32417.068359, 85812.031250, 66809.164063, 83448.023438, 59431.027344, 63682.398438, 85534.578125, 0, 1, 1, 0, 1,0.0,0.0,0.0,0.0,0.0, 11:58:39.892
50271.171875, 32266.150391, 85929.515625, 67057.398438, 83373.437500, 59679.246094, 63769.925781, 85544.125000, 0, 1, 1, 0, 1,0.0,0.0,0.0,0.0,0.0, 11:58:39.892
50172.757813, 32184.521484, 86033.070313, 67344.578125, 83261.609375, 59824.015625, 63765.210938, 85462.945313, 0, 1, 1, 0, 1,0.0,0.0,0.0,0.0,0.0, 11:58:39.892
50319.652344, 32303.835938, 85911.140625, 67116.343750, 83329.156250, 59602.019531, 63679.714844, 85458.070313, 0, 1, 1, 0, 1,0.0,0.0,0.0,0.0,0.0, 11:58:39.892
50456.421875, 32440.292969, 85774.304688, 66769.445313, 83458.039063, 59401.906250, 63673.167969, 85541.734375, 0, 1, 1, 0, 1,0.0,0.0,0.0,0.0,0.0, 11:58:39.892
50323.519531, 32319.078125, 85891.625000, 66964.843750, 83403.875000, 59609.058594, 63766.773438, 85562.140625, 0, 1, 1, 0, 1,0.0,0.0,0.0,0.0,0.0, 11:58:39.892
50183.195313, 32179.873047, 86026.007813, 67311.921875, 83281.140625, 59832.265625, 63784.835938, 85492.695313, 0, 1, 1, 0, 1,0.0,0.0,0.0,0.0,0.0, 11:58:39.892
50290.617188, 32293.105469, 85952.710938, 67179.101563, 83309.953125, 59669.523438, 63702.445313, 85453.242188, 0, 1, 1, 0, 1,0.0,0.0,0.0,0.0,0.0, 11:58:39.893
50449.761719, 32445.277344, 85812.390625, 66810.296875, 83439.820313, 59433.332031, 63672.316406, 85519.445313, 0, 1, 1, 0, 1,0.0,0.0,0.0,0.0,0.0, 11:58:39.893
50356.265625, 32342.906250, 85886.062500, 66909.140625, 83418.804688, 59583.312500, 63755.488281, 85557.531250, 0, 1, 1, 0, 1,0.0,0.0,0.0,0.0,0.0, 11:58:39.893
50186.257813, 32178.486328, 86027.367188, 67270.679688, 83286.554688, 59830.230469, 63788.300781, 85494.234375, 0, 1, 1, 0, 1,0.0,0.0,0.0,0.0,0.0, 11:58:39.893
50248.351563, 32238.947266, 85987.757813, 67234.085938, 83281.367188, 59728.621094, 63716.953125, 85442.828125, 0, 1, 1, 0, 1,0.0,0.0,0.0,0.0,0.0, 11:58:39.893
50426.585938, 32410.296875, 85831.296875, 66847.382813, 83410.335938, 59456.621094, 63664.003906, 85493.562500, 0, 1, 1, 0, 1,0.0,0.0,0.0,0.0,0.0, 11:58:39.894
50378.015625, 32368.945313, 85858.765625, 66839.625000, 83428.265625, 59537.378906, 63734.050781, 85551.273438, 0, 1, 1, 0, 1,0.0,0.0,0.0,0.0,0.0, 11:58:39.894
50194.015625, 32185.996094, 86011.945313, 67212.187500, 83292.585938, 59819.882813, 63788.031250, 85506.726563, 0, 1, 1, 0, 1,0.0,0.0,0.0,0.0,0.0, 11:58:39.894
50204.406250, 32192.501953, 86023.703125, 67286.015625, 83244.460938, 59790.265625, 63720.617188, 85431.492188, 0, 1, 1, 0, 1,0.0,0.0,0.0,0.0,0.0, 11:58:39.894
50397.882813, 32384.771484, 85872.562500, 66920.179688, 83362.210938, 59500.878906, 63643.593750, 85460.039063, 0, 1, 1, 0, 1,0.0,0.0,0.0,0.0,0.0, 11:58:39.894
50401.484375, 32396.437500, 85841.468750, 66798.703125, 83429.671875, 59492.652344, 63702.312500, 85538.648438, 0, 1, 1, 0, 1,0.0,0.0,0.0,0.0,0.0, 11:58:39.894
50227.183594, 32237.226563, 85990.328125, 67150.765625, 83317.820313, 59777.011719, 63780.679688, 85517.640625, 0, 1, 1, 0, 1,0.0,0.0,0.0,0.0,0.0, 11:58:39.895
50194.437500, 32192.367188, 86030.859375, 67305.812500, 83248.578125, 59822.722656, 63740.890625, 85446.226563, 0, 1, 1, 0, 1,0.0,0.0,0.0,0.0,0.0, 11:58:39.895
50359.484375, 32361.882813, 85889.234375, 66981.898438, 83345.312500, 59554.210938, 63662.550781, 85459.703125, 0, 1, 1, 0, 1,0.0,0.0,0.0,0.0,0.0, 11:58:39.895
50428.574219, 32423.082031, 85821.507813, 66772.171875, 83440.000000, 59475.554688, 63694.914063, 85543.320313, 0, 1, 1, 0, 1,0.0,0.0,0.0,0.0,0.0, 11:58:39.895
50259.726563, 32263.087891, 85956.335938, 67073.421875, 83354.703125, 59745.808594, 63790.019531, 85540.882813, 0, 1, 1, 0, 1,0.0,0.0,0.0,0.0,0.0, 11:58:39.895
50165.449219, 32171.646484, 86051.218750, 67327.117188, 83239.390625, 59861.277344, 63763.445313, 85449.976563, 0, 1, 1, 0, 1,0.0,0.0,0.0,0.0,0.0, 11:58:39.895
50338.363281, 32333.070313, 85919.921875, 67056.210938, 83312.976563, 59616.683594, 63670.171875, 85447.718750, 0, 1, 1, 0, 1,0.0,0.0,0.0,0.0,0.0, 11:58:39.895
50428.351563, 32419.595703, 85822.226563, 66768.953125, 83417.687500, 59460.824219, 63670.929688, 85520.210938, 0, 1, 1, 0, 1,0.0,0.0,0.0,0.0,0.0, 11:58:39.896
50281.296875, 32272.833984, 85947.015625, 67011.218750, 83350.632813, 59688.656250, 63759.691406, 85527.625000, 0, 1, 1, 0, 1,0.0,0.0,0.0,0.0,0.0, 11:58:39.896
50181.964844, 32173.859375, 86047.867188, 67314.085938, 83243.015625, 59862.574219, 63764.875000, 85461.687500, 0, 1, 1, 0, 1,0.0,0.0,0.0,0.0,0.0, 11:58:39.896
50311.695313, 32301.779297, 85943.234375, 67121.257813, 83293.054688, 59665.117188, 63681.234375, 85446.625000, 0, 1, 1, 0, 1,0.0,0.0,0.0,0.0,0.0, 11:58:39.896
50441.179688, 32433.519531, 85826.093750, 66789.109375, 83415.679688, 59457.648438, 63667.554688, 85515.242188, 0, 1, 1, 0, 1,0.0,0.0,0.0,0.0,0.0, 11:58:39.896
50336.910156, 32335.574219, 85908.617188, 66941.484375, 83377.570313, 59641.359375, 63753.183594, 85547.703125, 0, 1, 1, 0, 1,0.0,0.0,0.0,0.0,0.0, 11:58:39.896
50193.613281, 32194.132813, 86044.851563, 67296.851563, 83250.835938, 59866.507813, 63780.722656, 85478.210938, 0, 1, 1, 0, 1,0.0,0.0,0.0,0.0,0.0, 11:58:39.897
50273.074219, 32273.324219, 85993.773438, 67208.765625, 83265.742188, 59720.996094, 63700.054688, 85430.976563, 0, 1, 1, 0, 1,0.0,0.0,0.0,0.0,0.0, 11:58:39.897
50459.128906, 32447.199219, 85840.664063, 66830.976563, 83398.648438, 59461.070313, 63654.324219, 85494.882813, 0, 1, 1, 0, 1,0.0,0.0,0.0,0.0,0.0, 11:58:39.897
50389.546875, 32381.841797, 85893.546875, 66893.648438, 83396.500000, 59586.621094, 63737.585938, 85547.054688, 0, 1, 1, 0, 1,0.0,0.0,0.0,0.0,0.0, 11:58:39.897
50223.832031, 32215.121094, 86042.273438, 67267.039063, 83253.921875, 59850.011719, 63780.187500, 85488.531250, 0, 1, 1, 0, 1,0.0,0.0,0.0,0.0,0.0, 11:58:39.897
50306.957031, 32283.271484, 86009.148438, 67256.554688, 83242.835938, 59760.984375, 63711.164063, 85437.953125, 0, 1, 1, 0, 1,0.0,0.0,0.0,0.0,0.0, 11:58:39.897
50476.226563, 32461.125000, 85861.562500, 66886.273438, 83387.960938, 59487.019531, 63663.734375, 85488.203125, 0, 1, 1, 0, 1,0.0,0.0,0.0,0.0,0.0, 11:58:39.898
50458.054688, 32443.712891, 85863.085938, 66836.343750, 83412.593750, 59530.539063, 63723.859375, 85548.750000, 0, 1, 1, 0, 1,0.0,0.0,0.0,0.0,0.0, 11:58:39.898
50289.769531, 32280.812500, 86020.593750, 67208.007813, 83302.757813, 59813.578125, 63789.105469, 85511.734375, 0, 1, 1, 0, 1,0.0,0.0,0.0,0.0,0.0, 11:58:39.898
50286.484375, 32276.253906, 86055.914063, 67326.242188, 83225.531250, 59811.859375, 63731.078125, 85431.468750, 0, 1, 1, 0, 1,0.0,0.0,0.0,0.0,0.0, 11:58:39.898
50484.386719, 32462.644531, 85913.304688, 66981.046875, 83341.960938, 59529.734375, 63653.921875, 85457.218750, 0, 1, 1, 0, 1,0.0,0.0,0.0,0.0,0.0, 11:58:39.898
50526.609375, 32497.937500, 85870.281250, 66830.414063, 83411.882813, 59494.148438, 63697.574219, 85533.195313, 0, 1, 1, 0, 1,0.0,0.0,0.0,0.0,0.0, 11:58:39.898
50342.316406, 32322.275391, 86030.031250, 67180.109375, 83286.929688, 59769.925781, 63769.835938, 85501.273438, 0, 1, 1, 0, 1,0.0,0.0,0.0,0.0,0.0, 11:58:39.899
50320.121094, 32310.763672, 86080.390625, 67368.218750, 83217.421875, 59835.886719, 63735.082031, 85433.703125, 0, 1, 1, 0, 1,0.0,0.0,0.0,0.0,0.0, 11:58:39.899
50500.679688, 32477.195313, 85937.695313, 67054.273438, 83327.523438, 59572.960938, 63659.488281, 85451.367188, 0, 1, 1, 0, 1,0.0,0.0,0.0,0.0,0.0, 11:58:39.899
50590.847656, 32553.167969, 85860.804688, 66816.601563, 83426.429688, 59468.246094, 63688.433594, 85534.601563, 0, 1, 1, 0, 1,0.0,0.0,0.0,0.0,0.0, 11:58:39.899
50392.585938, 32381.976563, 85993.617188, 67103.375000, 83327.789063, 59722.449219, 63773.371094, 85523.156250, 0, 1, 1, 0, 1,0.0,0.0,0.0,0.0,0.0, 11:58:39.900
50313.796875, 32300.302734, 86083.671875, 67373.632813, 83207.296875, 59852.269531, 63750.234375, 85442.242188, 0, 1, 1, 0, 1,0.0,0.0,0.0,0.0,0.0, 11:58:39.900
50489.906250, 32457.951172, 85965.765625, 67128.234375, 83287.828125, 59619.187500, 63664.316406, 85438.039063, 0, 1, 1, 0, 1,0.0,0.0,0.0,0.0,0.0, 11:58:39.900
50589.820313, 32564.859375, 85860.046875, 66824.156250, 83405.289063, 59445.378906, 63664.808594, 85514.125000, 0, 1, 1, 0, 1,0.0,0.0,0.0,0.0,0.0, 11:58:39.900
50438.363281, 32427.396484, 85962.390625, 67032.031250, 83349.632813, 59660.535156, 63756.785156, 85537.015625, 0, 1, 1, 0, 1,0.0,0.0,0.0,0.0,0.0, 11:58:39.900
50304.921875, 32296.392578, 86085.218750, 67361.648438, 83217.890625, 59852.203125, 63762.527344, 85458.828125, 0, 1, 1, 0, 1,0.0,0.0,0.0,0.0,0.0, 11:58:40.356
50432.351563, 32406.585938, 86008.992188, 67208.656250, 83273.367188, 59669.812500, 63679.804688, 85429.171875, 0, 1, 1, 0, 1,0.0,0.0,0.0,0.0,0.0, 11:58:40.357
50569.902344, 32544.853516, 85859.929688, 66841.679688, 83392.570313, 59433.777344, 63650.636719, 85501.812500, 0, 1, 1, 0, 1,0.0,0.0,0.0,0.0,0.0, 11:58:40.357
50438.164063, 32430.748047, 85925.601563, 66953.437500, 83354.210938, 59592.945313, 63733.000000, 85539.585938, 0, 1, 1, 0, 1,0.0,0.0,0.0,0.0,0.0, 11:58:40.357
50276.714844, 32270.105469, 86071.359375, 67318.781250, 83226.250000, 59834.769531, 63766.640625, 85471.812500, 0, 1, 1, 0, 1,0.0,0.0,0.0,0.0,0.0, 11:58:40.357
50334.070313, 32335.976563, 86017.757813, 67254.828125, 83251.437500, 59712.394531, 63697.214844, 85430.960938, 0, 1, 1, 0, 1,0.0,0.0,0.0,0.0,0.0, 11:58:40.357
50519.523438, 32506.923828, 85840.242188, 66858.671875, 83380.945313, 59437.734375, 63642.476563, 85490.367188, 0, 1, 1, 0, 1,0.0,0.0,0.0,0.0,0.0, 11:58:40.357
50444.218750, 32441.746094, 85873.187500, 66875.921875, 83393.351563, 59534.964844, 63726.164063, 85554.117188, 0, 1, 1, 0, 1,0.0,0.0,0.0,0.0,0.0, 11:58:40.357
50259.593750, 32260.785156, 86027.968750, 67253.359375, 83255.593750, 59802.695313, 63786.312500, 85502.054688, 0, 1, 1, 0, 1,0.0,0.0,0.0,0.0,0.0, 11:58:40.357
50273.386719, 32284.970703, 86000.656250, 67274.187500, 83225.687500, 59741.160156, 63715.277344, 85433.820313, 0, 1, 1, 0, 1,0.0,0.0,0.0,0.0,0.0, 11:58:40.358
50443.796875, 32448.763672, 85842.296875, 66899.820313, 83331.343750, 59459.527344, 63644.378906, 85468.195313, 0, 1, 1, 0, 1,0.0,0.0,0.0,0.0,0.0, 11:58:40.358
50441.269531, 32443.085938, 85836.664063, 66821.789063, 83380.742188, 59487.535156, 63710.089844, 85544.726563, 0, 1, 1, 0, 1,0.0,0.0,0.0,0.0,0.0, 11:58:40.358
50254.140625, 32258.283203, 85990.757813, 67180.000000, 83250.570313, 59761.566406, 63772.855469, 85503.039063, 0, 1, 1, 0, 1,0.0,0.0,0.0,0.0,0.0, 11:58:40.358
50215.269531, 32226.921875, 86030.609375, 67315.921875, 83196.226563, 59779.605469, 63728.195313, 85427.937500, 0, 1, 1, 0, 1,0.0,0.0,0.0,0.0,0.0, 11:58:40.358
50384.429688, 32398.046875, 85861.742188, 66960.750000, 83297.281250, 59495.894531, 63645.472656, 85450.132813, 0, 1, 1, 0, 1,0.0,0.0,0.0,0.0,0.0, 11:58:40.358
50430.539063, 32436.335938, 85807.359375, 66778.250000, 83377.523438, 59438.562500, 63683.066406, 85527.937500, 0, 1, 1, 0, 1,0.0,0.0,0.0,0.0,0.0, 11:58:40.358
50259.863281, 32263.646484, 85953.140625, 67099.734375, 83274.664063, 59709.308594, 63763.398438, 85510.664063, 0, 1, 1, 0, 1,0.0,0.0,0.0,0.0,0.0, 11:58:40.359
50190.058594, 32204.257813, 86023.906250, 67320.750000, 83196.695313, 59803.500000, 63738.031250, 85438.531250, 0, 1, 1, 0, 1,0.0,0.0,0.0,0.0,0.0, 11:58:40.359
50354.140625, 32368.386719, 85876.562500, 67023.289063, 83289.593750, 59552.285156, 63661.410156, 85453.265625, 0, 1, 1, 0, 1,0.0,0.0,0.0,0.0,0.0, 11:58:40.359
50431.390625, 32439.242188, 85794.218750, 66770.695313, 83375.734375, 59425.710938, 63677.480469, 85522.710938, 0, 1, 1, 0, 1,0.0,0.0,0.0,0.0,0.0, 11:58:40.360
50279.734375, 32295.296875, 85909.460938, 67027.648438, 83313.039063, 59665.027344, 63761.632813, 85528.414063, 0, 1, 1, 0, 1,0.0,0.0,0.0,0.0,0.0, 11:58:40.360
50173.519531, 32189.886719, 86017.984375, 67332.484375, 83196.812500, 59824.777344, 63755.531250, 85449.109375, 0, 1, 1, 0, 1,0.0,0.0,0.0,0.0,0.0, 11:58:40.360
50331.902344, 32338.212891, 85914.109375, 67123.492188, 83253.804688, 59607.339844, 63668.292969, 85435.335938, 0, 1, 1, 0, 1,0.0,0.0,0.0,0.0,0.0, 11:58:40.360
50437.984375, 32445.724609, 85798.664063, 66800.015625, 83371.335938, 59410.351563, 63655.128906, 85502.859375, 0, 1, 1, 0, 1,0.0,0.0,0.0,0.0,0.0, 11:58:40.360
50312.566406, 32320.599609, 85892.140625, 66977.828125, 83312.414063, 59606.000000, 63734.410156, 85526.804688, 0, 1, 1, 0, 1,0.0,0.0,0.0,0.0,0.0, 11:58:40.360
50163.281250, 32188.142578, 86014.625000, 67319.851563, 83192.007813, 59821.132813, 63756.160156, 85464.398438, 0, 1, 1, 0, 1,0.0,0.0,0.0,0.0,0.0, 11:58:40.360
50279.152344, 32298.537109, 85940.734375, 67194.507813, 83234.789063, 59669.746094, 63683.066406, 85437.484375, 0, 1, 1, 0, 1,0.0,0.0,0.0,0.0,0.0, 11:58:40.360
50427.566406, 32442.013672, 85806.195313, 66835.000000, 83368.179688, 59428.906250, 63648.937500, 85494.031250, 0, 1, 1, 0, 1,0.0,0.0,0.0,0.0,0.0, 11:58:40.361
50344.753906, 32356.919922, 85870.078125, 66926.773438, 83356.578125, 59574.796875, 63735.460938, 85543.500000, 0, 1, 1, 0, 1,0.0,0.0,0.0,0.0,0.0, 11:58:40.361
50176.558594, 32191.740234, 86016.351563, 67298.734375, 83215.742188, 59825.828125, 63772.164063, 85482.320313, 0, 1, 1, 0, 1,0.0,0.0,0.0,0.0,0.0, 11:58:40.361
50242.761719, 32258.527344, 85976.812500, 67265.492188, 83214.695313, 59729.378906, 63702.312500, 85435.781250, 0, 1, 1, 0, 1,0.0,0.0,0.0,0.0,0.0, 11:58:40.361
50415.496094, 32429.876953, 85818.562500, 66882.812500, 83345.515625, 59456.128906, 63650.097656, 85488.914063, 0, 1, 1, 0, 1,0.0,0.0,0.0,0.0,0.0, 11:58:40.361
50380.742188, 32383.273438, 85836.664063, 66869.195313, 83361.117188, 59524.460938, 63719.433594, 85545.937500, 0, 1, 1, 0, 1,0.0,0.0,0.0,0.0,0.0, 11:58:40.362
50201.570313, 32220.060547, 85988.968750, 67238.250000, 83242.007813, 59794.980469, 63778.933594, 85500.585938, 0, 1, 1, 0, 1,0.0,0.0,0.0,0.0,0.0, 11:58:40.362
50222.222656, 32244.044922, 86007.031250, 67314.195313, 83202.820313, 59771.378906, 63724.218750, 85435.000000, 0, 1, 1, 0, 1,0.0,0.0,0.0,0.0,0.0, 11:58:40.362
50393.300781, 32409.783203, 85845.539063, 66944.320313, 83323.812500, 59483.847656, 63652.222656, 85465.554688, 0, 1, 1, 0, 1,0.0,0.0,0.0,0.0,0.0, 11:58:40.362
50401.347656, 32413.939453, 85826.828125, 66834.328125, 83386.507813, 59477.117188, 63706.941406, 85539.585938, 0, 1, 1, 0, 1,0.0,0.0,0.0,0.0,0.0, 11:58:40.362
50214.847656, 32232.443359, 85967.867188, 67176.671875, 83274.390625, 59753.273438, 63783.160156, 85515.914063, 0, 1, 1, 0, 1,0.0,0.0,0.0,0.0,0.0, 11:58:40.362
50180.691406, 32206.828125, 86008.015625, 67335.898438, 83210.867188, 59798.917969, 63748.894531, 85450.312500, 0, 1, 1, 0, 1,0.0,0.0,0.0,0.0,0.0, 11:58:40.362
50367.015625, 32374.914063, 85868.937500, 67016.609375, 83307.562500, 59529.265625, 63667.644531, 85465.375000, 0, 1, 1, 0, 1,0.0,0.0,0.0,0.0,0.0, 11:58:40.363
50414.402344, 32423.259766, 85816.164063, 66820.289063, 83394.062500, 59446.785156, 63699.093750, 85540.148438, 0, 1, 1, 0, 1,0.0,0.0,0.0,0.0,0.0, 11:58:40.363
50255.144531, 32271.269531, 85939.328125, 67112.359375, 83311.070313, 59706.023438, 63784.703125, 85539.320313, 0, 1, 1, 0, 1,0.0,0.0,0.0,0.0,0.0, 11:58:40.363
50174.613281, 32196.949219, 86007.742188, 67349.695313, 83215.187500, 59818.183594, 63768.855469, 85464.257813, 0, 1, 1, 0, 1,0.0,0.0,0.0,0.0,0.0, 11:58:40.363
50351.011719, 32356.875000, 85883.984375, 67085.226563, 83300.414063, 59574.683594, 63686.531250, 85462.046875, 0, 1, 1, 0, 1,0.0,0.0,0.0,0.0,0.0, 11:58:40.363
50450.703125, 32446.328125, 85789.367188, 66804.781250, 83391.023438, 59420.078125, 63685.414063, 85533.015625, 0, 1, 1, 0, 1,0.0,0.0,0.0,0.0,0.0, 11:58:40.363
50269.339844, 32295.050781, 85899.179688, 67037.171875, 83328.281250, 59645.671875, 63769.457031, 85539.515625, 0, 1, 1, 0, 1,0.0,0.0,0.0,0.0,0.0, 11:58:40.363
50167.328125, 32193.283203, 86016.796875, 67350.203125, 83220.281250, 59822.722656, 63776.945313, 85468.039063, 0, 1, 1, 0, 1,0.0,0.0,0.0,0.0,0.0, 11:58:40.363
50293.097656, 32315.501953, 85927.164063, 67170.296875, 83272.046875, 59621.128906, 63696.570313, 85444.906250, 0, 1, 1, 0, 1,0.0,0.0,0.0,0.0,0.0, 11:58:40.363
50418.960938, 32434.660156, 85799.914063, 66831.156250, 83374.062500, 59401.792969, 63665.187500, 85505.164063, 0, 1, 1, 0, 1,0.0,0.0,0.0,0.0,0.0, 11:58:40.364
50295.492188, 32305.623047, 85883.203125, 66977.539063, 83338.343750, 59577.722656, 63744.871094, 85529.195313, 0, 1, 1, 0, 1,0.0,0.0,0.0,0.0,0.0, 11:58:40.364
50148.617188, 32168.003906, 86020.484375, 67330.960938, 83213.664063, 59805.128906, 63770.777344, 85463.929688, 0, 1, 1, 0, 1,0.0,0.0,0.0,0.0,0.0, 11:58:40.364
50265.515625, 32280.701172, 85953.945313, 67228.390625, 83249.492188, 59663.980469, 63700.277344, 85439.023438, 0, 1, 1, 0, 1,0.0,0.0,0.0,0.0,0.0, 11:58:40.364
50417.800781, 32433.474609, 85806.468750, 66854.554688, 83379.265625, 59405.882813, 63660.046875, 85498.304688, 0, 1, 1, 0, 1,0.0,0.0,0.0,0.0,0.0, 11:58:40.364
50342.316406, 32355.914063, 85853.515625, 66911.484375, 83376.070313, 59525.128906, 63739.929688, 85546.539063, 0, 1, 1, 0, 1,0.0,0.0,0.0,0.0,0.0, 11:58:40.364
50176.066406, 32199.363281, 86006.421875, 67288.671875, 83253.070313, 59788.679688, 63790.691406, 85497.320313, 0, 1, 1, 0, 1,0.0,0.0,0.0,0.0,0.0, 11:58:40.364
50216.902344, 32234.164063, 85985.617188, 67292.203125, 83224.125000, 59710.984375, 63719.949219, 85440.679688, 0, 1, 1, 0, 1,0.0,0.0,0.0,0.0,0.0, 11:58:40.364
50405.195313, 32420.355469, 85831.117188, 66915.843750, 83354.882813, 59432.480469, 63659.824219, 85489.093750, 0, 1, 1, 0, 1,0.0,0.0,0.0,0.0,0.0, 11:58:40.365
50371.578125, 32391.431641, 85832.687500, 66861.796875, 83387.937500, 59480.023438, 63724.507813, 85554.960938, 0, 1, 1, 0, 1,0.0,0.0,0.0,0.0,0.0, 11:58:40.365
50198.238281, 32209.421875, 85996.257813, 67234.468750, 83258.859375, 59761.746094, 63790.781250, 85509.765625, 0, 1, 1, 0, 1,0.0,0.0,0.0,0.0,0.0, 11:58:40.365
50201.660156, 32220.195313, 86014.468750, 67334.828125, 83213.578125, 59757.363281, 63734.679688, 85446.625000, 0, 1, 1, 0, 1,0.0,0.0,0.0,0.0,0.0, 11:58:40.365
50374.257813, 32394.806641, 85862.078125, 66981.960938, 83332.062500, 59478.949219, 63664.718750, 85477.406250, 0, 1, 1, 0, 1,0.0,0.0,0.0,0.0,0.0, 11:58:40.365
50385.367188, 32400.126953, 85820.796875, 66833.390625, 83392.054688, 59441.511719, 63704.210938, 85541.710938, 0, 1, 1, 0, 1,0.0,0.0,0.0,0.0,0.0, 11:58:40.365
50210.285156, 32223.212891, 85972.046875, 67171.523438, 83281.007813, 59717.464844, 63780.789063, 85517.859375, 0, 1, 1, 0, 1,0.0,0.0,0.0,0.0,0.0, 11:58:40.365
50135.496094, 32165.031250, 86026.382813, 67357.851563, 83197.304688, 59783.851563, 63742.679688, 85441.195313, 0, 1, 1, 0, 1,0.0,0.0,0.0,0.0,0.0, 11:58:40.365
50321.843750, 32339.173828, 85894.664063, 67055.656250, 83295.515625, 59524.636719, 63661.429688, 85451.859375, 0, 1, 1, 0, 1,0.0,0.0,0.0,0.0,0.0, 11:58:40.365
50414.113281, 32422.925781, 85812.296875, 66814.859375, 83394.804688, 59416.632813, 63683.179688, 85533.281250, 0, 1, 1, 0, 1,0.0,0.0,0.0,0.0,0.0, 11:58:40.366
50254.253906, 32263.982422, 85935.679688, 67087.640625, 83314.070313, 59671.019531, 63772.609375, 85534.335938, 0, 1, 1, 0, 1,0.0,0.0,0.0,0.0,0.0, 11:58:40.366
50149.734375, 32170.394531, 86037.000000, 67360.468750, 83210.000000, 59813.957031, 63763.980469, 85458.742188, 0, 1, 1, 0, 1,0.0,0.0,0.0,0.0,0.0, 11:58:40.366
50298.843750, 32319.861328, 85922.429688, 67123.445313, 83280.632813, 59583.000000, 63676.652344, 85450.984375, 0, 1, 1, 0, 1,0.0,0.0,0.0,0.0,0.0, 11:58:40.366
50425.464844, 32436.404297, 85806.710938, 66815.109375, 83399.406250, 59410.218750, 63676.519531, 85533.195313, 0, 1, 1, 0, 1,0.0,0.0,0.0,0.0,0.0, 11:58:40.366
50268.511719, 32289.240234, 85919.007813, 67031.601563, 83344.289063, 59632.128906, 63765.972656, 85546.203125, 0, 1, 1, 0, 1,0.0,0.0,0.0,0.0,0.0, 11:58:40.366
50147.367188, 32171.445313, 86047.664063, 67365.789063, 83213.843750, 59832.085938, 63775.492188, 85470.203125, 0, 1, 1, 0, 1,0.0,0.0,0.0,0.0,0.0, 11:58:40.366
50273.386719, 32291.384766, 85949.203125, 67199.890625, 83255.414063, 59647.640625, 63690.085938, 85443.453125, 0, 1, 1, 0, 1,0.0,0.0,0.0,0.0,0.0, 11:58:40.366
50402.710938, 32414.208984, 85801.953125, 66838.125000, 83378.125000, 59410.464844, 63658.480469, 85505.632813, 0, 1, 1, 0, 1,0.0,0.0,0.0,0.0,0.0, 11:58:40.367
50300.921875, 32324.107422, 85881.125000, 66963.726563, 83357.164063, 59577.542969, 63749.093750, 85544.343750, 0, 1, 1, 0, 1,0.0,0.0,0.0,0.0,0.0, 11:58:40.367
50160.375000, 32186.085938, 86022.609375, 67324.593750, 83230.312500, 59818.875000, 63783.070313, 85483.460938, 0, 1, 1, 0, 1,0.0,0.0,0.0,0.0,0.0, 11:58:40.367
50236.707031, 32253.230469, 85979.445313, 67261.023438, 83233.960938, 59696.410156, 63703.855469, 85435.945313, 0, 1, 1, 0, 1,0.0,0.0,0.0,0.0,0.0, 11:58:40.367
50419.410156, 32428.916016, 85828.328125, 66886.656250, 83368.023438, 59428.300781, 63656.402344, 85493.945313, 0, 1, 1, 0, 1,0.0,0.0,0.0,0.0,0.0, 11:58:40.367
50354.902344, 32367.939453, 85852.531250, 66901.007813, 83386.554688, 59522.449219, 63734.097656, 85554.179688, 0, 1, 1, 0, 1,0.0,0.0,0.0,0.0,0.0, 11:58:40.371
50166.835938, 32183.851563, 86016.906250, 67282.148438, 83254.078125, 59795.988281, 63792.546875, 85498.703125, 0, 1, 1, 0, 1,0.0,0.0,0.0,0.0,0.0, 11:58:40.371
50198.351563, 32210.337891, 86012.882813, 67316.367188, 83224.281250, 59740.085938, 63730.386719, 85437.906250, 0, 1, 1, 0, 1,0.0,0.0,0.0,0.0,0.0, 11:58:40.371
50386.843750, 32401.154297, 85853.000000, 66938.484375, 83349.789063, 59456.488281, 63663.980469, 85485.585938, 0, 1, 1, 0, 1,0.0,0.0,0.0,0.0,0.0, 11:58:40.371
50372.312500, 32388.593750, 85829.687500, 66845.546875, 83392.164063, 59477.585938, 63713.578125, 85556.414063, 0, 1, 1, 0, 1,0.0,0.0,0.0,0.0,0.0, 11:58:40.372
50196.472656, 32218.003906, 85990.914063, 67209.882813, 83269.562500, 59762.683594, 63784.074219, 85519.046875, 0, 1, 1, 0, 1,0.0,0.0,0.0,0.0,0.0, 11:58:40.372
50176.312500, 32199.384766, 86017.265625, 67333.843750, 83215.031250, 59779.960938, 63734.746094, 85447.921875, 0, 1, 1, 0, 1,0.0,0.0,0.0,0.0,0.0, 11:58:40.372
50352.980469, 32367.492188, 85876.468750, 67001.382813, 83318.132813, 59503.785156, 63658.257813, 85466.273438, 0, 1, 1, 0, 1,0.0,0.0,0.0,0.0,0.0, 11:58:40.372
50390.015625, 32404.126953, 85823.367188, 66825.453125, 83391.718750, 59443.500000, 63692.121094, 85542.179688, 0, 1, 1, 0, 1,0.0,0.0,0.0,0.0,0.0, 11:58:40.372
50216.968750, 32240.625000, 85958.414063, 67138.109375, 83299.695313, 59714.070313, 63776.699219, 85532.835938, 0, 1, 1, 0, 1,0.0,0.0,0.0,0.0,0.0, 11:58:40.372
50171.304688, 32196.568359, 86026.117188, 67353.382813, 83217.085938, 59805.753906, 63752.113281, 85459.679688, 0, 1, 1, 0, 1,0.0,0.0,0.0,0.0,0.0, 11:58:40.372
50329.265625, 32350.751953, 85891.851563, 67067.476563, 83301.867188, 59550.386719, 63667.578125, 85462.382813, 0, 1, 1, 0, 1,0.0,0.0,0.0,0.0,0.0, 11:58:40.372
50415.742188, 32426.523438, 85810.601563, 66816.718750, 83401.218750, 59420.523438, 63681.035156, 85534.914063, 0, 1, 1, 0, 1,0.0,0.0,0.0,0.0,0.0, 11:58:40.373
50250.878906, 32271.312500, 85937.898438, 67078.164063, 83322.492188, 59664.984375, 63768.988281, 85536.812500, 0, 1, 1, 0, 1,0.0,0.0,0.0,0.0,0.0, 11:58:40.373
50129.953125, 32161.833984, 86051.195313, 67373.500000, 83204.765625, 59822.542969, 63761.812500, 85453.132813, 0, 1, 1, 0, 1,0.0,0.0,0.0,0.0,0.0, 11:58:40.374
50295.558594, 32322.521484, 85938.789063, 67155.164063, 83276.828125, 59602.980469, 63677.792969, 85446.335938, 0, 1, 1, 0, 1,0.0,0.0,0.0,0.0,0.0, 11:58:40.374
50426.136719, 32444.941406, 85809.570313, 66824.781250, 83403.382813, 59406.507813, 63669.144531, 85525.664063, 0, 1, 1, 0, 1,0.0,0.0,0.0,0.0,0.0, 11:58:40.374
50281.902344, 32301.443359, 85893.859375, 66997.656250, 83356.468750, 59603.742188, 63759.800781, 85545.867188, 0, 1, 1, 0, 1,0.0,0.0,0.0,0.0,0.0, 11:58:40.374
50145.937500, 32172.228516, 86027.968750, 67344.015625, 83235.632813, 59825.156250, 63785.683594, 85479.101563, 0, 1, 1, 0, 1,0.0,0.0,0.0,0.0,0.0, 11:58:40.374
50272.355469, 32295.363281, 85952.203125, 67215.585938, 83275.601563, 59666.347656, 63707.699219, 85453.781250, 0, 1, 1, 0, 1,0.0,0.0,0.0,0.0,0.0, 11:58:40.374
50425.464844, 32437.566406, 85804.703125, 66853.773438, 83398.578125, 59421.531250, 63672.207031, 85517.593750, 0, 1, 1, 0, 1,0.0,0.0,0.0,0.0,0.0, 11:58:40.374
50317.867188, 32336.804688, 85866.484375, 66942.289063, 83381.125000, 59563.441406, 63754.390625, 85557.265625, 0, 1, 1, 0, 1,0.0,0.0,0.0,0.0,0.0, 11:58:40.374
50154.585938, 32183.380859, 86026.656250, 67320.296875, 83251.234375, 59821.671875, 63797.664063, 85496.960938, 0, 1, 1, 0, 1,0.0,0.0,0.0,0.0,0.0, 11:58:40.374
50227.363281, 32250.369141, 85987.179688, 67282.656250, 83254.320313, 59718.808594, 63727.593750, 85451.429688, 0, 1, 1, 0, 1,0.0,0.0,0.0,0.0,0.0, 11:58:40.375
50404.476563, 32420.623047, 85839.234375, 66909.945313, 83386.625000, 59445.824219, 63679.312500, 85503.820313, 0, 1, 1, 0, 1,0.0,0.0,0.0,0.0,0.0, 11:58:40.375
50349.738281, 32367.335938, 85860.960938, 66898.570313, 83402.984375, 59519.093750, 63749.207031, 85561.671875, 0, 1, 1, 0, 1,0.0,0.0,0.0,0.0,0.0, 11:58:40.375
50166.656250, 32191.583984, 86010.445313, 67262.992188, 83272.781250, 59791.718750, 63802.539063, 85515.960938, 0, 1, 1, 0, 1,0.0,0.0,0.0,0.0,0.0, 11:58:40.375
50196.921875, 32222.699219, 86008.460938, 67322.398438, 83246.812500, 59762.996094, 63748.156250, 85461.109375, 0, 1, 1, 0, 1,0.0,0.0,0.0,0.0,0.0, 11:58:40.375
50377.968750, 32397.265625, 85861.179688, 66963.054688, 83365.210938, 59481.921875, 63680.921875, 85492.781250, 0, 1, 1, 0, 1,0.0,0.0,0.0,0.0,0.0, 11:58:40.375
50372.382813, 32387.431641, 85845.601563, 66857.218750, 83408.859375, 59474.570313, 63725.132813, 85553.531250, 0, 1, 1, 0, 1,0.0,0.0,0.0,0.0,0.0, 11:58:40.375
50192.605469, 32214.337891, 85995.695313, 67203.179688, 83294.937500, 59751.664063, 63795.988281, 85522.734375, 0, 1, 1, 0, 1,0.0,0.0,0.0,0.0,0.0, 11:58:40.375
50181.765625, 32209.109375, 86026.320313, 67352.265625, 83238.875000, 59795.382813, 63756.382813, 85459.859375, 0, 1, 1, 0, 1,0.0,0.0,0.0,0.0,0.0, 11:58:40.376
50357.988281, 32370.890625, 85873.835938, 67019.218750, 83345.671875, 59520.367188, 63673.078125, 85479.484375, 0, 1, 1, 0, 1,0.0,0.0,0.0,0.0,0.0, 11:58:40.376
50399.539063, 32412.441406, 85815.203125, 66817.500000, 83433.156250, 59439.410156, 63706.335938, 85556.570313, 0, 1, 1, 0, 1,0.0,0.0,0.0,0.0,0.0, 11:58:40.376
50237.398438, 32264.718750, 85963.148438, 67127.742188, 83348.000000, 59710.671875, 63797.574219, 85553.960938, 0, 1, 1, 0, 1,0.0,0.0,0.0,0.0,0.0, 11:58:40.376
50157.648438, 32174.306641, 86040.664063, 67363.101563, 83253.226563, 59824.687500, 63779.160156, 85480.156250, 0, 1, 1, 0, 1,0.0,0.0,0.0,0.0,0.0, 11:58:40.376
50321.933594, 32334.613281, 85906.554688, 67090.125000, 83331.882813, 59577.523438, 63690.800781, 85476.132813, 0, 1, 1, 0, 1,0.0,0.0,0.0,0.0,0.0, 11:58:40.376
50433.648438, 32448.853516, 85806.648438, 66810.750000, 83449.539063, 59427.988281, 63701.621094, 85561.085938, 0, 1, 1, 0, 1,0.0,0.0,0.0,0.0,0.0, 11:58:40.376
50263.953125, 32276.341797, 85919.742188, 67042.734375, 83371.359375, 59658.480469, 63787.003906, 85565.046875, 0, 1, 1, 0, 1,0.0,0.0,0.0,0.0,0.0, 11:58:40.376
50152.687500, 32171.982422, 86031.171875, 67348.265625, 83252.710938, 59832.289063, 63789.574219, 85488.671875, 0, 1, 1, 0, 1,0.0,0.0,0.0,0.0,0.0, 11:58:40.376
50280.761719, 32296.839844, 85945.984375, 67171.507813, 83307.789063, 59630.382813, 63709.355469, 85462.203125, 0, 1, 1, 0, 1,0.0,0.0,0.0,0.0,0.0, 11:58:40.377
50420.929688, 32431.462891, 85820.882813, 66835.828125, 83427.125000, 59410.644531, 63682.531250, 85525.414063, 0, 1, 1, 0, 1,0.0,0.0,0.0,0.0,0.0, 11:58:40.377
50315.250000, 32329.337891, 85894.445313, 66981.562500, 83404.953125, 59592.164063, 63775.179688, 85566.367188, 0, 1, 1, 0, 1,0.07096283,0.15688868,0.06063116,0.10771036,0.053008985, 11:58:40.836
50165.605469, 32186.779297, 86034.117188, 67336.687500, 83279.109375, 59822.339844, 63808.281250, 85501.164063, 0, 1, 1, 0, 1,0.07096283,0.15688868,0.06063116,0.10771036,0.053008985, 11:58:40.836
50257.785156, 32275.179688, 85976.632813, 67242.445313, 83298.398438, 59676.429688, 63730.500000, 85458.781250, 0, 1, 1, 0, 1,0.07096283,0.15688868,0.06063116,0.10771036,0.053008985, 11:58:40.836
50419.812500, 32426.478516, 85829.218750, 66873.312500, 83427.640625, 59414.890625, 63684.296875, 85515.695313, 0, 1, 1, 0, 1,0.07096283,0.15688868,0.06063116,0.10771036,0.053008985, 11:58:40.836
50354.164063, 32364.632813, 85867.265625, 66923.781250, 83433.648438, 59531.632813, 63762.617188, 85572.218750, 0, 1, 1, 0, 1,0.07096283,0.15688868,0.06063116,0.10771036,0.053008985, 11:58:40.836
50184.449219, 32200.345703, 86020.015625, 67295.445313, 83312.078125, 59795.785156, 63817.066406, 85521.101563, 0, 1, 1, 0, 1,0.07096283,0.15688868,0.06063116,0.10771036,0.053008985, 11:58:40.836
50239.878906, 32252.605469, 85994.242188, 67289.164063, 83302.554688, 59715.367188, 63750.234375, 85469.070313, 0, 1, 1, 0, 1,0.07096283,0.15688868,0.06063116,0.10771036,0.053008985, 11:58:40.837
50428.753906, 32434.212891, 85830.070313, 66903.507813, 83437.875000, 59433.421875, 63690.199219, 85522.148438, 0, 1, 1, 0, 1,0.07096283,0.15688868,0.06063116,0.10771036,0.053008985, 11:58:40.837
50384.851563, 32392.191406, 85840.171875, 66858.109375, 83470.710938, 59484.785156, 63761.566406, 85587.867188, 0, 1, 1, 0, 1,0.07096283,0.15688868,0.06063116,0.10771036,0.053008985, 11:58:40.837
50193.210938, 32205.554688, 86009.625000, 67233.843750, 83338.523438, 59767.667969, 63827.082031, 85541.640625, 0, 1, 1, 0, 1,0.07096283,0.15688868,0.06063116,0.10771036,0.053008985, 11:58:40.837
50196.988281, 32208.482422, 86025.914063, 67325.664063, 83289.234375, 59758.257813, 63771.582031, 85474.679688, 0, 1, 1, 0, 1,0.07096283,0.15688868,0.06063116,0.10771036,0.053008985, 11:58:40.837
50382.214844, 32386.402344, 85874.148438, 66973.851563, 83406.898438, 59474.257813, 63694.578125, 85506.687500, 0, 1, 1, 0, 1,0.07096283,0.15688868,0.06063116,0.10771036,0.053008985, 11:58:40.837
50394.597656, 32402.472656, 85841.914063, 66836.585938, 83473.882813, 59449.402344, 63738.992188, 85583.195313, 0, 1, 1, 0, 1,0.07096283,0.15688868,0.06063116,0.10771036,0.053008985, 11:58:40.837
50211.226563, 32226.966797, 85994.445313, 67174.835938, 83363.687500, 59729.179688, 63818.406250, 85558.320313, 0, 1, 1, 0, 1,0.07096283,0.15688868,0.06063116,0.10771036,0.053008985, 11:58:40.838
50182.300781, 32199.050781, 86041.117188, 67352.039063, 83290.734375, 59793.730469, 63783.875000, 85489.898438, 0, 1, 1, 0, 1,0.07096283,0.15688868,0.06063116,0.10771036,0.053008985, 11:58:40.838
50357.964844, 32371.337891, 85889.570313, 67034.687500, 83395.515625, 59529.265625, 63704.972656, 85509.656250, 0, 1, 1, 0, 1,0.07096283,0.15688868,0.06063116,0.10771036,0.053008985, 11:58:40.838
50412.437500, 32426.835938, 85819.476563, 66811.015625, 83481.171875, 59425.484375, 63727.750000, 85582.437500, 0, 1, 1, 0, 1,0.07096283,0.15688868,0.06063116,0.10771036,0.053008985, 11:58:40.838
50245.937500, 32272.140625, 85947.234375, 67089.945313, 83391.960938, 59681.703125, 63811.343750, 85580.648438, 0, 1, 1, 0, 1,0.07096283,0.15688868,0.06063116,0.10771036,0.053008985, 11:58:40.838
50152.531250, 32181.705078, 86051.039063, 67364.734375, 83282.484375, 59821.625000, 63802.203125, 85501.250000, 0, 1, 1, 0, 1,0.07096283,0.15688868,0.06063116,0.10771036,0.053008985, 11:58:40.838
50311.292969, 32332.087891, 85932.195313, 67121.210938, 83358.523438, 59589.769531, 63716.417969, 85493.695313, 0, 1, 1, 0, 1,0.07096283,0.15688868,0.06063116,0.10771036,0.053008985, 11:58:40.839
50421.109375, 32434.882813, 85824.148438, 66817.789063, 83468.789063, 59411.558594, 63710.023438, 85565.718750, 0, 1, 1, 0, 1,0.07096283,0.15688868,0.06063116,0.10771036,0.053008985, 11:58:40.839
50279.488281, 32300.460938, 85929.531250, 67025.679688, 83411.140625, 59628.082031, 63796.167969, 85585.585938, 0, 1, 1, 0, 1,0.07096283,0.15688868,0.06063116,0.10771036,0.053008985, 11:58:40.839
50152.707031, 32179.783203, 86057.117188, 67354.546875, 83297.640625, 59827.636719, 63814.585938, 85516.117188, 0, 1, 1, 0, 1,0.07096283,0.15688868,0.06063116,0.10771036,0.053008985, 11:58:40.839
50265.113281, 32287.406250, 85971.445313, 67196.804688, 83337.937500, 59641.046875, 63730.453125, 85484.132813, 0, 1, 1, 0, 1,0.07096283,0.15688868,0.06063116,0.10771036,0.053008985, 11:58:40.840
50416.906250, 32433.363281, 85821.554688, 66835.695313, 83467.109375, 59404.585938, 63698.582031, 85550.562500, 0, 1, 1, 0, 1,0.07096283,0.15688868,0.06063116,0.10771036,0.053008985, 11:58:40.840
50302.777344, 32322.990234, 85894.781250, 66956.460938, 83443.257813, 59570.683594, 63788.054688, 85585.539063, 0, 1, 1, 0, 1,0.07096283,0.15688868,0.06063116,0.10771036,0.053008985, 11:58:40.840
50145.554688, 32167.937500, 86047.976563, 67326.515625, 83309.953125, 59815.746094, 63823.527344, 85520.054688, 0, 1, 1, 0, 1,0.07096283,0.15688868,0.06063116,0.10771036,0.053008985, 11:58:40.840
50237.085938, 32253.542969, 85992.500000, 67256.820313, 83319.476563, 59687.558594, 63740.937500, 85477.671875, 0, 1, 1, 0, 1,0.07096283,0.15688868,0.06063116,0.10771036,0.053008985, 11:58:40.840
50403.539063, 32412.398438, 85843.281250, 66885.046875, 83447.062500, 59419.183594, 63688.074219, 85527.851563, 0, 1, 1, 0, 1,0.07096283,0.15688868,0.06063116,0.10771036,0.053008985, 11:58:40.840
50344.867188, 32356.517578, 85874.773438, 66906.953125, 83457.367188, 59517.015625, 63766.531250, 85583.843750, 0, 1, 1, 0, 1,0.07096283,0.15688868,0.06063116,0.10771036,0.053008985, 11:58:40.841
50166.566406, 32189.484375, 86030.164063, 67281.632813, 83329.359375, 59789.484375, 63825.156250, 85535.273438, 0, 1, 1, 0, 1,0.07096283,0.15688868,0.06063116,0.10771036,0.053008985, 11:58:40.841
50205.437500, 32226.878906, 86016.617188, 67306.796875, 83306.265625, 59735.390625, 63762.460938, 85477.226563, 0, 1, 1, 0, 1,0.07096283,0.15688868,0.06063116,0.10771036,0.053008985, 11:58:40.841
50383.535156, 32397.890625, 85857.984375, 66930.171875, 83425.890625, 59447.390625, 63691.269531, 85511.781250, 0, 1, 1, 0, 1,0.07096283,0.15688868,0.06063116,0.10771036,0.053008985, 11:58:40.841
50362.414063, 32381.105469, 85862.148438, 66861.062500, 83468.406250, 59475.015625, 63751.531250, 85578.007813, 0, 1, 1, 0, 1,0.07096283,0.15688868,0.06063116,0.10771036,0.053008985, 11:58:40.841
50183.085938, 32210.449219, 86016.328125, 67218.507813, 83350.609375, 59759.039063, 63823.125000, 85545.171875, 0, 1, 1, 0, 1,0.07096283,0.15688868,0.06063116,0.10771036,0.053008985, 11:58:40.842
50173.160156, 32201.351563, 86043.531250, 67343.609375, 83296.429688, 59780.253906, 63781.570313, 85477.335938, 0, 1, 1, 0, 1,0.07096283,0.15688868,0.06063116,0.10771036,0.053008985, 11:58:40.842
50370.503906, 32387.789063, 85880.359375, 66993.000000, 83413.132813, 59494.730469, 63702.714844, 85508.585938, 0, 1, 1, 0, 1,0.07096283,0.15688868,0.06063116,0.10771036,0.053008985, 11:58:40.842
50397.281250, 32416.800781, 85831.273438, 66819.531250, 83490.179688, 59441.800781, 63745.363281, 85588.203125, 0, 1, 1, 0, 1,0.07096283,0.15688868,0.06063116,0.10771036,0.053008985, 11:58:40.842
50188.761719, 32223.257813, 85992.679688, 67153.445313, 83374.460938, 59717.601563, 63825.425781, 85561.312500, 0, 1, 1, 0, 1,0.07096283,0.15688868,0.06063116,0.10771036,0.053008985, 11:58:40.842
50149.488281, 32183.091797, 86053.585938, 67359.234375, 83294.195313, 59804.636719, 63798.156250, 85490.593750, 0, 1, 1, 0, 1,0.07096283,0.15688868,0.06063116,0.10771036,0.053008985, 11:58:40.842
50319.250000, 32346.416016, 85913.914063, 67066.875000, 83384.164063, 59545.132813, 63709.621094, 85497.742188, 0, 1, 1, 0, 1,0.07096283,0.15688868,0.06063116,0.10771036,0.053008985, 11:58:40.843
50401.640625, 32425.025391, 85827.320313, 66811.039063, 83478.664063, 59411.695313, 63717.691406, 85570.093750, 0, 1, 1, 0, 1,0.07096283,0.15688868,0.06063116,0.10771036,0.053008985, 11:58:40.843
50245.492188, 32270.798828, 85958.500000, 67078.250000, 83402.398438, 59659.777344, 63811.433594, 85576.195313, 0, 1, 1, 0, 1,0.07096283,0.15688868,0.06063116,0.10771036,0.053008985, 11:58:40.843
50147.253906, 32177.212891, 86067.085938, 67368.625000, 83298.820313, 59823.011719, 63810.359375, 85506.015625, 0, 1, 1, 0, 1,0.07096283,0.15688868,0.06063116,0.10771036,0.053008985, 11:58:40.843
50288.003906, 32308.304688, 85956.070313, 67148.304688, 83358.500000, 59603.562500, 63721.625000, 85489.718750, 0, 1, 1, 0, 1,0.07096283,0.15688868,0.06063116,0.10771036,0.053008985, 11:58:40.843
50417.085938, 32428.066406, 85832.375000, 66821.476563, 83479.937500, 59403.738281, 63707.117188, 85562.851563, 0, 1, 1, 0, 1,0.07096283,0.15688868,0.06063116,0.10771036,0.053008985, 11:58:40.844
50285.589844, 32302.314453, 85923.812500, 66994.140625, 83434.968750, 59607.273438, 63798.089844, 85591.781250, 0, 1, 1, 0, 1,0.07096283,0.15688868,0.06063116,0.10771036,0.053008985, 11:58:40.844
50144.371094, 32169.992188, 86058.750000, 67336.484375, 83310.781250, 59825.179688, 63823.546875, 85521.101563, 0, 1, 1, 0, 1,0.07096283,0.15688868,0.06063116,0.10771036,0.053008985, 11:58:40.844
50243.078125, 32262.349609, 85987.742188, 67211.671875, 83337.023438, 59661.074219, 63744.312500, 85484.062500, 0, 1, 1, 0, 1,0.07096283,0.15688868,0.06063116,0.10771036,0.053008985, 11:58:40.844
50396.921875, 32411.191406, 85844.914063, 66849.437500, 83454.906250, 59412.207031, 63699.542969, 85539.835938, 0, 1, 1, 0, 1,0.07096283,0.15688868,0.06063116,0.10771036,0.053008985, 11:58:40.844
50310.578125, 32330.658203, 85898.914063, 66932.609375, 83448.445313, 59556.535156, 63786.312500, 85592.109375, 0, 1, 1, 0, 1,0.07096283,0.15688868,0.06063116,0.10771036,0.053008985, 11:58:40.845
50130.757813, 32158.080078, 86059.468750, 67311.132813, 83309.796875, 59814.359375, 63828.554688, 85525.570313, 0, 1, 1, 0, 1,0.07096283,0.15688868,0.06063116,0.10771036,0.053008985, 11:58:40.845
50210.597656, 32231.593750, 86014.718750, 67267.726563, 83306.000000, 59707.566406, 63747.394531, 85479.078125, 0, 1, 1, 0, 1,0.07096283,0.15688868,0.06063116,0.10771036,0.053008985, 11:58:40.845
50391.023438, 32407.167969, 85859.062500, 66888.953125, 83443.328125, 59434.718750, 63697.304688, 85535.789063, 0, 1, 1, 0, 1,0.07096283,0.15688868,0.06063116,0.10771036,0.053008985, 11:58:40.845
50342.855469, 32365.347656, 85875.195313, 66876.078125, 83466.593750, 59508.230469, 63771.023438, 85598.773438, 0, 1, 1, 0, 1,0.07096283,0.15688868,0.06063116,0.10771036,0.053008985, 11:58:40.845
50156.308594, 32189.662109, 86029.562500, 67245.914063, 83335.617188, 59788.097656, 63831.417969, 85553.890625, 0, 1, 1, 0, 1,0.07096283,0.15688868,0.06063116,0.10771036,0.053008985, 11:58:40.846
50162.746094, 32199.519531, 86043.398438, 67316.054688, 83295.093750, 59760.718750, 63774.128906, 85486.500000, 0, 1, 1, 0, 1,0.07096283,0.15688868,0.06063116,0.10771036,0.053008985, 11:58:40.846
50353.203125, 32381.685547, 85885.679688, 66948.140625, 83417.601563, 59472.781250, 63698.804688, 85523.289063, 0, 1, 1, 0, 1,0.07096283,0.15688868,0.06063116,0.10771036,0.053008985, 11:58:40.846
50342.250000, 32367.828125, 85871.531250, 66842.890625, 83470.734375, 59470.589844, 63756.023438, 85590.281250, 0, 1, 1, 0, 1,0.07096283,0.15688868,0.06063116,0.10771036,0.053008985, 11:58:40.846
50165.046875, 32195.474609, 86027.656250, 67193.234375, 83358.835938, 59750.546875, 63835.261719, 85560.281250, 0, 1, 1, 0, 1,0.07096283,0.15688868,0.06063116,0.10771036,0.053008985, 11:58:40.846
50144.503906, 32174.552734, 86074.640625, 67353.000000, 83287.937500, 59795.988281, 63794.378906, 85489.093750, 0, 1, 1, 0, 1,0.07096283,0.15688868,0.06063116,0.10771036,0.053008985, 11:58:40.846
50338.027344, 32356.183594, 85929.203125, 67026.757813, 83385.281250, 59520.925781, 63702.714844, 85506.304688, 0, 1, 1, 0, 1,0.07096283,0.15688868,0.06063116,0.10771036,0.053008985, 11:58:40.847
50385.570313, 32402.673828, 85865.046875, 66824.335938, 83473.007813, 59434.000000, 63729.113281, 85582.437500, 0, 1, 1, 0, 1,0.07096283,0.15688868,0.06063116,0.10771036,0.053008985, 11:58:40.847
50225.886719, 32248.960938, 85988.210938, 67111.851563, 83388.054688, 59697.417969, 63815.011719, 85581.898438, 0, 1, 1, 0, 1,0.07096283,0.15688868,0.06063116,0.10771036,0.053008985, 11:58:40.847
50147.500000, 32170.775391, 86078.445313, 67356.468750, 83293.125000, 59818.585938, 63805.199219, 85506.726563, 0, 1, 1, 0, 1,0.07096283,0.15688868,0.06063116,0.10771036,0.053008985, 11:58:40.847
50313.640625, 32325.650391, 85959.640625, 67095.757813, 83372.093750, 59570.414063, 63718.449219, 85499.578125, 0, 1, 1, 0, 1,0.07096283,0.15688868,0.06063116,0.10771036,0.053008985, 11:58:40.848
50408.234375, 32418.365234, 85856.062500, 66809.671875, 83477.750000, 59412.589844, 63719.523438, 85575.507813, 0, 1, 1, 0, 1,0.07096283,0.15688868,0.06063116,0.10771036,0.053008985, 11:58:40.848
50250.230469, 32267.291016, 85975.554688, 67044.906250, 83404.968750, 59648.511719, 63808.191406, 85585.679688, 0, 1, 1, 0, 1,0.07096283,0.15688868,0.06063116,0.10771036,0.053008985, 11:58:40.848
50140.078125, 32162.392578, 86090.039063, 67351.101563, 83291.226563, 59829.558594, 63812.687500, 85515.914063, 0, 1, 1, 0, 1,0.07096283,0.15688868,0.06063116,0.10771036,0.053008985, 11:58:40.848
50274.972656, 32295.900391, 85988.429688, 67156.414063, 83347.617188, 59625.578125, 63729.203125, 85498.328125, 0, 1, 1, 0, 1,0.07096283,0.15688868,0.06063116,0.10771036,0.053008985, 11:58:40.849
50405.125000, 32425.271484, 85858.929688, 66817.453125, 83469.835938, 59412.812500, 63711.945313, 85568.710938, 0, 1, 1, 0, 1,0.07096283,0.15688868,0.06063116,0.10771036,0.053008985, 11:58:40.849
50284.917969, 32309.468750, 85926.718750, 66954.695313, 83433.445313, 59595.136719, 63795.093750, 85604.515625, 0, 1, 1, 0, 1,0.07096283,0.15688868,0.06063116,0.10771036,0.053008985, 11:58:40.849
50123.785156, 32157.609375, 86072.851563, 67311.468750, 83300.343750, 59827.593750, 63820.753906, 85529.257813, 0, 1, 1, 0, 1,0.07096283,0.15688868,0.06063116,0.10771036,0.053008985, 11:58:40.849
50217.527344, 32244.492188, 86018.632813, 67220.429688, 83314.335938, 59678.441406, 63734.140625, 85478.562500, 0, 1, 1, 0, 1,0.07096283,0.15688868,0.06063116,0.10771036,0.053008985, 11:58:40.850
50393.750000, 32415.593750, 85863.460938, 66844.187500, 83449.164063, 59415.496094, 63690.265625, 85540.484375, 0, 1, 1, 0, 1,0.07096283,0.15688868,0.06063116,0.10771036,0.053008985, 11:58:40.850
50305.324219, 32333.562500, 85915.453125, 66902.773438, 83434.273438, 59535.925781, 63768.832031, 85583.640625, 0, 1, 1, 0, 1,0.07096283,0.15688868,0.06063116,0.10771036,0.053008985, 11:58:40.850
50144.617188, 32175.960938, 86063.179688, 67268.710938, 83305.578125, 59798.289063, 63815.101563, 85529.351563, 0, 1, 1, 0, 1,0.07096283,0.15688868,0.06063116,0.10771036,0.053008985, 11:58:40.850
50206.507813, 32232.755859, 86032.914063, 67260.578125, 83299.695313, 59720.148438, 63744.914063, 85478.789063, 0, 1, 1, 0, 1,0.07096283,0.15688868,0.06063116,0.10771036,0.053008985, 11:58:40.850
50374.550781, 32396.437500, 85880.875000, 66890.968750, 83418.851563, 59441.199219, 63682.578125, 85518.554688, 0, 1, 1, 0, 1,0.07096283,0.15688868,0.06063116,0.10771036,0.053008985, 11:58:40.850
50335.054688, 32352.003906, 85892.789063, 66855.007813, 83443.554688, 59489.882813, 63743.843750, 85577.335938, 0, 1, 1, 0, 1,0.07096283,0.15688868,0.06063116,0.10771036,0.053008985, 11:58:40.851
50160.039063, 32184.164063, 86037.429688, 67215.937500, 83323.835938, 59768.585938, 63807.546875, 85542.468750, 0, 1, 1, 0, 1,0.07096283,0.15688868,0.06063116,0.10771036,0.053008985, 11:58:40.851
50160.085938, 32181.458984, 86059.398438, 67316.210938, 83273.273438, 59763.914063, 63756.851563, 85470.562500, 0, 1, 1, 0, 1,0.07096283,0.15688868,0.06063116,0.10771036,0.053008985, 11:58:40.851
50347.570313, 32363.402344, 85898.085938, 66954.718750, 83392.968750, 59471.976563, 63679.000000, 85497.742188, 0, 1, 1, 0, 1,0.07096283,0.15688868,0.06063116,0.10771036,0.053008985, 11:58:40.851
50369.007813, 32388.414063, 85858.437500, 66810.679688, 83466.195313, 59444.531250, 63728.664063, 85577.023438, 0, 1, 1, 0, 1,0.07096283,0.15688868,0.06063116,0.10771036,0.053008985, 11:58:40.852
50193.613281, 32220.328125, 86006.492188, 67145.687500, 83361.875000, 59726.562500, 63810.117188, 85558.140625, 0, 1, 1, 0, 1,0.07096283,0.15688868,0.06063116,0.10771036,0.053008985, 11:58:40.852
50151.078125, 32179.716797, 86060.562500, 67328.078125, 83288.679688, 59795.785156, 63785.371094, 85489.898438, 0, 1, 1, 0, 1,0.07096283,0.15688868,0.06063116,0.10771036,0.053008985, 11:58:40.852
50316.234375, 32338.056641, 85926.585938, 67020.007813, 83369.632813, 59525.957031, 63692.925781, 85494.656250, 0, 1, 1, 0, 1,0.07096283,0.15688868,0.06063116,0.10771036,0.053008985, 11:58:40.852
50384.382813, 32405.646484, 85844.937500, 66783.968750, 83466.531250, 59414.937500, 63712.773438, 85573.359375, 0, 1, 1, 0, 1,0.07096283,0.15688868,0.06063116,0.10771036,0.053008985, 11:58:40.852
50206.285156, 32236.019531, 85978.796875, 67066.898438, 83382.820313, 59675.066406, 63806.425781, 85572.843750, 0, 1, 1, 0, 1,0.07096283,0.15688868,0.06063116,0.10771036,0.053008985, 11:58:40.852
50105.703125, 32139.683594, 86084.898438, 67344.531250, 83266.414063, 59813.554688, 63793.687500, 85488.515625, 0, 1, 1, 0, 1,0.07096283,0.15688868,0.06063116,0.10771036,0.053008985, 11:58:40.853
50277.722656, 32304.683594, 85953.250000, 67094.257813, 83343.929688, 59573.273438, 63698.402344, 85484.179688, 0, 1, 1, 0, 1,0.07096283,0.15688868,0.06063116,0.10771036,0.053008985, 11:58:40.853
50386.753906, 32412.843750, 85839.773438, 66790.187500, 83460.203125, 59397.902344, 63696.078125, 85562.609375, 0, 1, 1, 0, 1,0.07096283,0.15688868,0.06063116,0.10771036,0.053008985, 11:58:40.853
50242.675781, 32271.939453, 85953.335938, 67007.085938, 83400.007813, 59622.359375, 63786.601563, 85579.726563, 0, 1, 1, 0, 1,0.07096283,0.15688868,0.06063116,0.10771036,0.053008985, 11:58:40.853
50120.902344, 32151.843750, 86067.828125, 67322.648438, 83287.085938, 59817.312500, 63802.828125, 85511.046875, 0, 1, 1, 0, 1,0.07096283,0.15688868,0.06063116,0.10771036,0.053008985, 11:58:40.853
50223.562500, 32250.861328, 86000.031250, 67177.023438, 83311.695313, 59631.703125, 63714.136719, 85470.429688, 0, 1, 1, 0, 1,0.07096283,0.15688868,0.06063116,0.10771036,0.053008985, 11:58:40.854
50388.453125, 32409.714844, 85861.789063, 66822.906250, 83449.609375, 59400.542969, 63686.511719, 85548.570313, 0, 1, 1, 0, 1,0.07096283,0.15688868,0.06063116,0.10771036,0.053008985, 11:58:40.854
50272.269531, 32297.128906, 85942.031250, 66950.828125, 83429.578125, 59573.117188, 63781.570313, 85589.718750, 0, 1, 1, 0, 1,0.07096283,0.15688868,0.06063116,0.10771036,0.053008985, 11:58:40.854
50115.089844, 32142.076172, 86091.023438, 67314.734375, 83291.539063, 59814.093750, 63815.792969, 85518.375000, 0, 1, 1, 0, 1,0.07096283,0.15688868,0.06063116,0.10771036,0.053008985, 11:58:40.854
50227.230469, 32247.419922, 86031.437500, 67239.140625, 83309.773438, 59685.457031, 63742.167969, 85476.781250, 0, 1, 1, 0, 1,0.07096283,0.15688868,0.06063116,0.10771036,0.053008985, 11:58:40.854
50404.656250, 32417.181641, 85881.882813, 66865.328125, 83431.976563, 59420.726563, 63686.019531, 85530.648438, 0, 1, 1, 0, 1,0.07096283,0.15688868,0.06063116,0.10771036,0.053008985, 11:58:40.854
50356.421875, 32374.287109, 85920.687500, 66892.132813, 83441.539063, 59522.625000, 63761.878906, 85588.648438, 0, 1, 1, 0, 1,0.07096283,0.15688868,0.06063116,0.10771036,0.053008985, 11:58:40.855
50189.542969, 32218.562500, 86084.367188, 67270.968750, 83314.984375, 59799.964844, 63821.558594, 85540.500000, 0, 1, 1, 0, 1,0.07096283,0.15688868,0.06063116,0.10771036,0.053008985, 11:58:40.855
50237.289063, 32265.390625, 86079.914063, 67304.429688, 83287.046875, 59745.921875, 63755.800781, 85480.156250, 0, 1, 1, 0, 1,0.07096283,0.15688868,0.06063116,0.10771036,0.053008985, 11:58:40.855
50437.894531, 32452.072266, 85916.679688, 66927.984375, 83414.335938, 59458.632813, 63688.367188, 85521.640625, 0, 1, 1, 0, 1,0.07096283,0.15688868,0.06063116,0.10771036,0.053008985, 11:58:40.855
50421.601563, 32438.705078, 85918.984375, 66862.851563, 83459.156250, 59485.433594, 63751.375000, 85589.093750, 0, 1, 1, 0, 1,0.07096283,0.15688868,0.06063116,0.10771036,0.053008985, 11:58:40.855
50233.644531, 32266.552734, 86082.351563, 67229.843750, 83332.687500, 59767.535156, 63813.894531, 85549.218750, 0, 1, 1, 0, 1,0.07096283,0.15688868,0.06063116,0.10771036,0.053008985, 11:58:40.855
50236.750000, 32269.300781, 86100.523438, 67346.765625, 83284.656250, 59782.867188, 63767.937500, 85486.523438, 0, 1, 1, 0, 1,0.07096283,0.15688868,0.06063116,0.10771036,0.053008985, 11:58:40.856
50407.832031, 32431.375000, 85947.726563, 67002.835938, 83393.460938, 59500.027344, 63688.769531, 85503.039063, 0, 1, 1, 0, 1,0.07096283,0.15688868,0.06063116,0.10771036,0.053008985, 11:58:40.856
50441.000000, 32465.326172, 85900.906250, 66832.140625, 83471.554688, 59444.664063, 63731.281250, 85579.593750, 0, 1, 1, 0, 1,0.07096283,0.15688868,0.06063116,0.10771036,0.053008985, 11:58:40.856
50263.574219, 32294.513672, 86038.789063, 67147.078125, 83374.125000, 59717.621094, 63815.414063, 85567.171875, 0, 1, 1, 0, 1,0.07096283,0.15688868,0.06063116,0.10771036,0.053008985, 11:58:40.856
50212.121094, 32243.976563, 86099.812500, 67352.781250, 83294.375000, 59809.375000, 63792.367188, 85500.585938, 0, 1, 1, 0, 1,0.07096283,0.15688868,0.06063116,0.10771036,0.053008985, 11:58:40.856
50370.906250, 32395.701172, 85967.351563, 67066.046875, 83379.070313, 59553.582031, 63708.460938, 85502.437500, 0, 1, 1, 0, 1,0.07096283,0.15688868,0.06063116,0.10771036,0.053008985, 11:58:40.856
50436.441406, 32460.207031, 85883.781250, 66815.664063, 83472.835938, 59422.355469, 63722.363281, 85572.421875, 0, 1, 1, 0, 1,0.07096283,0.15688868,0.06063116,0.10771036,0.053008985, 11:58:40.857
50281.320313, 32307.613281, 86006.421875, 67075.101563, 83400.234375, 59670.148438, 63815.011719, 85583.843750, 0, 1, 1, 0, 1,0.07096283,0.15688868,0.06063116,0.10771036,0.053008985, 11:58:40.857
50186.460938, 32214.652344, 86107.835938, 67358.609375, 83294.937500, 59827.546875, 63814.562500, 85515.000000, 0, 1, 1, 0, 1,0.07096283,0.15688868,0.06063116,0.10771036,0.053008985, 11:58:40.857
50324.414063, 32344.851563, 86003.187500, 67142.890625, 83360.093750, 59609.058594, 63734.097656, 85500.585938, 0, 1, 1, 0, 1,0.07096283,0.15688868,0.06063116,0.10771036,0.053008985, 11:58:40.857
50461.320313, 32478.849609, 85880.117188, 66817.789063, 83483.960938, 59414.601563, 63722.117188, 85577.828125, 0, 1, 1, 0, 1,0.07096283,0.15688868,0.06063116,0.10771036,0.053008985, 11:58:40.857
50329.332031, 32351.757813, 85969.632813, 66989.226563, 83445.140625, 59619.363281, 63814.875000, 85606.976563, 0, 1, 1, 0, 1,0.07096283,0.15688868,0.06063116,0.10771036,0.053008985, 11:58:40.858
50185.542969, 32212.238281, 86115.187500, 67341.828125, 83321.757813, 59839.371094, 63842.859375, 85534.242188, 0, 1, 1, 0, 1,0.07096283,0.15688868,0.06063116,0.10771036,0.053008985, 11:58:40.858
50293.703125, 32317.402344, 86040.000000, 67214.218750, 83349.203125, 59672.250000, 63754.882813, 85498.234375, 0, 1, 1, 0, 1,0.07096283,0.15688868,0.06063116,0.10771036,0.053008985, 11:58:40.858
50436.238281, 32453.726563, 85902.710938, 66858.445313, 83469.726563, 59421.261719, 63716.707031, 85549.507813, 0, 1, 1, 0, 1,0.07096283,0.15688868,0.06063116,0.10771036,0.053008985, 11:58:40.858
50357.761719, 32378.712891, 85962.015625, 66948.523438, 83474.796875, 59570.281250, 63817.246094, 85607.781250, 0, 1, 1, 0, 1,0.032398283,0.078398935,0.014752574,0.0309038,0.018095767, 11:58:41.316
50184.402344, 32214.697266, 86115.031250, 67322.382813, 83324.039063, 59824.332031, 63847.175781, 85545.218750, 0, 1, 1, 0, 1,0.032398283,0.078398935,0.014752574,0.0309038,0.018095767, 11:58:41.317
50268.445313, 32294.246094, 86064.718750, 67277.226563, 83322.539063, 59720.593750, 63766.082031, 85501.585938, 0, 1, 1, 0, 1,0.032398283,0.078398935,0.014752574,0.0309038,0.018095767, 11:58:41.317
50445.828125, 32463.269531, 85912.281250, 66901.648438, 83455.328125, 59452.085938, 63714.136719, 85553.804688, 0, 1, 1, 0, 1,0.032398283,0.078398935,0.014752574,0.0309038,0.018095767, 11:58:41.317
50391.582031, 32414.007813, 85937.070313, 66896.039063, 83474.195313, 59530.582031, 63787.093750, 85610.328125, 0, 1, 1, 0, 1,0.032398283,0.078398935,0.014752574,0.0309038,0.018095767, 11:58:41.317
50203.515625, 32233.136719, 86098.023438, 67272.445313, 83340.710938, 59805.195313, 63846.437500, 85555.945313, 0, 1, 1, 0, 1,0.032398283,0.078398935,0.014752574,0.0309038,0.018095767, 11:58:41.318
50237.867188, 32268.496094, 86091.140625, 67328.773438, 83307.117188, 59770.550781, 63787.203125, 85497.789063, 0, 1, 1, 0, 1,0.032398283,0.078398935,0.014752574,0.0309038,0.018095767, 11:58:41.318
50416.437500, 32442.013672, 85932.843750, 66964.484375, 83428.218750, 59490.039063, 63717.781250, 85535.515625, 0, 1, 1, 0, 1,0.032398283,0.078398935,0.014752574,0.0309038,0.018095767, 11:58:41.318
50403.496094, 32430.859375, 85922.562500, 66862.781250, 83473.750000, 59490.953125, 63764.675781, 85599.218750, 0, 1, 1, 0, 1,0.032398283,0.078398935,0.014752574,0.0309038,0.018095767, 11:58:41.318
50221.507813, 32251.576172, 86076.476563, 67212.210938, 83356.890625, 59770.820313, 63838.078125, 85566.031250, 0, 1, 1, 0, 1,0.032398283,0.078398935,0.014752574,0.0309038,0.018095767, 11:58:41.318
50195.691406, 32225.939453, 86116.710938, 67368.671875, 83296.476563, 59811.074219, 63803.230469, 85495.601563, 0, 1, 1, 0, 1,0.032398283,0.078398935,0.014752574,0.0309038,0.018095767, 11:58:41.318
50382.195313, 32400.349609, 85957.812500, 67036.320313, 83403.835938, 59535.234375, 63720.730469, 85520.453125, 0, 1, 1, 0, 1,0.032398283,0.078398935,0.014752574,0.0309038,0.018095767, 11:58:41.318
50434.988281, 32447.892578, 85894.445313, 66833.750000, 83490.890625, 59458.589844, 63750.234375, 85602.796875, 0, 1, 1, 0, 1,0.032398283,0.078398935,0.014752574,0.0309038,0.018095767, 11:58:41.319
50250.386719, 32274.822266, 86044.023438, 67142.718750, 83398.960938, 59727.078125, 63841.429688, 85590.906250, 0, 1, 1, 0, 1,0.032398283,0.078398935,0.014752574,0.0309038,0.018095767, 11:58:41.319
50176.378906, 32202.873047, 86129.695313, 67386.414063, 83281.390625, 59835.929688, 63804.773438, 85503.937500, 0, 1, 1, 0, 1,0.032398283,0.078398935,0.014752574,0.0309038,0.018095767, 11:58:41.319
50346.812500, 32364.675781, 85994.828125, 67111.289063, 83371.039063, 59589.996094, 63719.480469, 85506.976563, 0, 1, 1, 0, 1,0.032398283,0.078398935,0.014752574,0.0309038,0.018095767, 11:58:41.319
50453.742188, 32468.902344, 85889.078125, 66824.625000, 83492.460938, 59439.859375, 63732.019531, 85592.273438, 0, 1, 1, 0, 1,0.032398283,0.078398935,0.014752574,0.0309038,0.018095767, 11:58:41.319
50290.417969, 32312.484375, 86003.382813, 67058.851563, 83418.320313, 59665.187500, 63818.742188, 85598.906250, 0, 1, 1, 0, 1,0.032398283,0.078398935,0.014752574,0.0309038,0.018095767, 11:58:41.320
50173.273438, 32196.568359, 86119.679688, 67369.046875, 83298.179688, 59832.937500, 63820.308594, 85517.835938, 0, 1, 1, 0, 1,0.032398283,0.078398935,0.014752574,0.0309038,0.018095767, 11:58:41.320
50318.914063, 32337.093750, 86024.281250, 67183.015625, 83364.156250, 59634.050781, 63747.308594, 85506.171875, 0, 1, 1, 0, 1,0.032398283,0.078398935,0.014752574,0.0309038,0.018095767, 11:58:41.320
50456.066406, 32463.873047, 85906.218750, 66853.882813, 83486.085938, 59427.160156, 63731.929688, 85579.687500, 0, 1, 1, 0, 1,0.032398283,0.078398935,0.014752574,0.0309038,0.018095767, 11:58:41.320
50338.183594, 32352.740234, 85995.429688, 67008.828125, 83441.070313, 59606.332031, 63808.015625, 85600.382813, 0, 1, 1, 0, 1,0.032398283,0.078398935,0.014752574,0.0309038,0.018095767, 11:58:41.321
50193.230469, 32223.302734, 86124.460938, 67353.937500, 83327.500000, 59831.281250, 63837.964844, 85542.132813, 0, 1, 1, 0, 1,0.032398283,0.078398935,0.014752574,0.0309038,0.018095767, 11:58:41.321
50280.828125, 32303.232422, 86064.851563, 67256.484375, 83332.640625, 59687.113281, 63752.402344, 85497.250000, 0, 1, 1, 0, 1,0.032398283,0.078398935,0.014752574,0.0309038,0.018095767, 11:58:41.321
50447.148438, 32455.134766, 85919.031250, 66886.835938, 83461.765625, 59429.285156, 63713.667969, 85551.789063, 0, 1, 1, 0, 1,0.032398283,0.078398935,0.014752574,0.0309038,0.018095767, 11:58:41.321
50365.675781, 32378.601563, 85966.367188, 66944.500000, 83466.593750, 59551.640625, 63798.605469, 85604.429688, 0, 1, 1, 0, 1,0.032398283,0.078398935,0.014752574,0.0309038,0.018095767, 11:58:41.321
50195.871094, 32218.607422, 86114.875000, 67315.789063, 83332.554688, 59810.003906, 63840.042969, 85547.523438, 0, 1, 1, 0, 1,0.032398283,0.078398935,0.014752574,0.0309038,0.018095767, 11:58:41.321
50254.453125, 32275.046875, 86088.101563, 67311.093750, 83325.312500, 59733.960938, 63773.929688, 85499.554688, 0, 1, 1, 0, 1,0.032398283,0.078398935,0.014752574,0.0309038,0.018095767, 11:58:41.321
50429.871094, 32439.085938, 85941.289063, 66939.492188, 83445.789063, 59458.855469, 63712.996094, 85539.500000, 0, 1, 1, 0, 1,0.032398283,0.078398935,0.014752574,0.0309038,0.018095767, 11:58:41.321
50409.015625, 32417.425781, 85937.109375, 66883.906250, 83481.570313, 59502.824219, 63774.128906, 85604.453125, 0, 1, 1, 0, 1,0.032398283,0.078398935,0.014752574,0.0309038,0.018095767, 11:58:41.322
50237.734375, 32255.734375, 86089.304688, 67249.421875, 83373.210938, 59785.730469, 63848.359375, 85578.968750, 0, 1, 1, 0, 1,0.032398283,0.078398935,0.014752574,0.0309038,0.018095767, 11:58:41.322
50223.070313, 32244.357422, 86115.476563, 67354.343750, 83311.007813, 59779.960938, 63788.433594, 85506.546875, 0, 1, 1, 0, 1,0.032398283,0.078398935,0.014752574,0.0309038,0.018095767, 11:58:41.322
50411.519531, 32419.908203, 85958.679688, 66998.773438, 83434.117188, 59499.558594, 63720.058594, 85542.539063, 0, 1, 1, 0, 1,0.032398283,0.078398935,0.014752574,0.0309038,0.018095767, 11:58:41.322
50429.355469, 32438.683594, 85918.468750, 66853.351563, 83506.093750, 59474.414063, 63773.234375, 85623.695313, 0, 1, 1, 0, 1,0.032398283,0.078398935,0.014752574,0.0309038,0.018095767, 11:58:41.322
50231.164063, 32252.203125, 86063.687500, 67188.250000, 83391.539063, 59746.253906, 63847.488281, 85590.015625, 0, 1, 1, 0, 1,0.032398283,0.078398935,0.014752574,0.0309038,0.018095767, 11:58:41.322
50195.601563, 32219.837891, 86123.593750, 67380.046875, 83311.070313, 59811.074219, 63809.800781, 85512.273438, 0, 1, 1, 0, 1,0.032398283,0.078398935,0.014752574,0.0309038,0.018095767, 11:58:41.322
50382.082031, 32403.031250, 85975.000000, 67065.046875, 83400.367188, 59545.203125, 63724.238281, 85526.312500, 0, 1, 1, 0, 1,0.032398283,0.078398935,0.014752574,0.0309038,0.018095767, 11:58:41.322
50459.886719, 32482.380859, 85888.992188, 66824.718750, 83503.656250, 59442.941406, 63754.839844, 85613.015625, 0, 1, 1, 0, 1,0.032398283,0.078398935,0.014752574,0.0309038,0.018095767, 11:58:41.322
50274.078125, 32309.333984, 86028.421875, 67110.125000, 83410.046875, 59696.300781, 63837.832031, 85600.960938, 0, 1, 1, 0, 1,0.032398283,0.078398935,0.014752574,0.0309038,0.018095767, 11:58:41.323
50175.597656, 32216.148438, 86138.125000, 67391.937500, 83296.500000, 59830.320313, 63818.339844, 85512.562500, 0, 1, 1, 0, 1,0.032398283,0.078398935,0.014752574,0.0309038,0.018095767, 11:58:41.323
50336.058594, 32378.892578, 86020.242188, 67148.570313, 83372.164063, 59605.105469, 63733.718750, 85511.335938, 0, 1, 1, 0, 1,0.032398283,0.078398935,0.014752574,0.0309038,0.018095767, 11:58:41.323
50444.441406, 32488.974609, 85904.414063, 66839.445313, 83483.648438, 59435.453125, 63729.828125, 85585.992188, 0, 1, 1, 0, 1,0.032398283,0.078398935,0.014752574,0.0309038,0.018095767, 11:58:41.323
50299.917969, 32351.064453, 86010.539063, 67049.132813, 83423.500000, 59653.496094, 63816.128906, 85599.445313, 0, 1, 1, 0, 1,0.032398283,0.078398935,0.014752574,0.0309038,0.018095767, 11:58:41.323
50154.765625, 32220.574219, 86140.085938, 67380.937500, 83288.164063, 59846.437500, 63814.226563, 85517.304688, 0, 1, 1, 0, 1,0.032398283,0.078398935,0.014752574,0.0309038,0.018095767, 11:58:41.323
50270.121094, 32335.642578, 86053.968750, 67221.726563, 83328.734375, 59658.949219, 63731.726563, 85487.867188, 0, 1, 1, 0, 1,0.032398283,0.078398935,0.014752574,0.0309038,0.018095767, 11:58:41.323
50441.871094, 32504.285156, 85901.304688, 66856.054688, 83477.484375, 59435.589844, 63720.328125, 85575.195313, 0, 1, 1, 0, 1,0.032398283,0.078398935,0.014752574,0.0309038,0.018095767, 11:58:41.323
50332.593750, 32404.015625, 85965.812500, 66971.101563, 83451.710938, 59596.519531, 63804.886719, 85614.015625, 0, 1, 1, 0, 1,0.032398283,0.078398935,0.014752574,0.0309038,0.018095767, 11:58:41.323
50154.875000, 32234.500000, 86114.429688, 67342.359375, 83308.679688, 59831.863281, 63826.609375, 85537.929688, 0, 1, 1, 0, 1,0.032398283,0.078398935,0.014752574,0.0309038,0.018095767, 11:58:41.324
50251.703125, 32327.998047, 86060.203125, 67275.507813, 83329.085938, 59714.984375, 63756.226563, 85503.375000, 0, 1, 1, 0, 1,0.032398283,0.078398935,0.014752574,0.0309038,0.018095767, 11:58:41.324
50413.507813, 32486.449219, 85913.617188, 66901.429688, 83463.625000, 59459.214844, 63723.769531, 85565.671875, 0, 1, 1, 0, 1,0.032398283,0.078398935,0.014752574,0.0309038,0.018095767, 11:58:41.324
50345.535156, 32418.589844, 85945.453125, 66923.335938, 83461.906250, 59551.796875, 63791.273438, 85610.578125, 0, 1, 1, 0, 1,0.032398283,0.078398935,0.014752574,0.0309038,0.018095767, 11:58:41.324
50171.437500, 32254.794922, 86084.859375, 67287.804688, 83327.570313, 59811.164063, 63830.789063, 85555.234375, 0, 1, 1, 0, 1,0.032398283,0.078398935,0.014752574,0.0309038,0.018095767, 11:58:41.324
50204.789063, 32289.552734, 86066.304688, 67313.328125, 83305.593750, 59757.050781, 63768.542969, 85502.171875, 0, 1, 1, 0, 1,0.032398283,0.078398935,0.014752574,0.0309038,0.018095767, 11:58:41.324
50381.410156, 32462.845703, 85915.789063, 66947.164063, 83438.812500, 59487.019531, 63721.335938, 85553.757813, 0, 1, 1, 0, 1,0.032398283,0.078398935,0.014752574,0.0309038,0.018095767, 11:58:41.324
50367.441406, 32449.748047, 85906.710938, 66867.812500, 83479.937500, 59511.808594, 63781.011719, 85622.218750, 0, 1, 1, 0, 1,0.032398283,0.078398935,0.014752574,0.0309038,0.018095767, 11:58:41.324
50169.496094, 32259.244141, 86064.851563, 67230.445313, 83341.742188, 59781.101563, 63829.964844, 85570.679688, 0, 1, 1, 0, 1,0.032398283,0.078398935,0.014752574,0.0309038,0.018095767, 11:58:41.324
50155.769531, 32244.714844, 86097.734375, 67360.687500, 83281.320313, 59788.878906, 63777.863281, 85494.257813, 0, 1, 1, 0, 1,0.032398283,0.078398935,0.014752574,0.0309038,0.018095767, 11:58:41.325
50341.222656, 32420.242188, 85946.523438, 67015.671875, 83395.406250, 59517.105469, 63709.128906, 85522.890625, 0, 1, 1, 0, 1,0.032398283,0.078398935,0.014752574,0.0309038,0.018095767, 11:58:41.325
50358.410156, 32435.978516, 85909.351563, 66847.742188, 83465.101563, 59467.039063, 63749.898438, 85589.382813, 0, 1, 1, 0, 1,0.032398283,0.078398935,0.014752574,0.0309038,0.018095767, 11:58:41.325
50190.503906, 32277.035156, 86042.117188, 67160.820313, 83362.437500, 59721.578125, 63814.496094, 85566.031250, 0, 1, 1, 0, 1,0.032398283,0.078398935,0.014752574,0.0309038,0.018095767, 11:58:41.325
50138.515625, 32222.900391, 86101.351563, 67371.398438, 83284.007813, 59807.253906, 63787.250000, 85495.039063, 0, 1, 1, 0, 1,0.032398283,0.078398935,0.014752574,0.0309038,0.018095767, 11:58:41.325
50298.062500, 32378.109375, 85967.507813, 67081.742188, 83374.507813, 59560.132813, 63714.671875, 85504.250000, 0, 1, 1, 0, 1,0.032398283,0.078398935,0.014752574,0.0309038,0.018095767, 11:58:41.325
50378.640625, 32455.849609, 85883.851563, 66828.070313, 83476.609375, 59437.445313, 63737.250000, 85576.734375, 0, 1, 1, 0, 1,0.032398283,0.078398935,0.014752574,0.0309038,0.018095767, 11:58:41.325
50214.734375, 32295.744141, 86007.406250, 67092.382813, 83391.781250, 59672.761719, 63809.378906, 85572.843750, 0, 1, 1, 0, 1,0.032398283,0.078398935,0.014752574,0.0309038,0.018095767, 11:58:41.325
50123.628906, 32210.001953, 86106.695313, 67382.820313, 83280.585938, 59823.257813, 63789.058594, 85500.539063, 0, 1, 1, 0, 1,0.032398283,0.078398935,0.014752574,0.0309038,0.018095767, 11:58:41.325
50273.519531, 32352.382813, 85997.750000, 67165.250000, 83356.734375, 59622.269531, 63722.562500, 85501.882813, 0, 1, 1, 0, 1,0.032398283,0.078398935,0.014752574,0.0309038,0.018095767, 11:58:41.325
50397.972656, 32468.388672, 85884.765625, 66842.085938, 83481.484375, 59443.164063, 63731.390625, 85584.203125, 0, 1, 1, 0, 1,0.032398283,0.078398935,0.014752574,0.0309038,0.018095767, 11:58:41.326
50276.425781, 32350.841797, 85964.671875, 67008.562500, 83436.976563, 59631.523438, 63816.507813, 85612.250000, 0, 1, 1, 0, 1,0.032398283,0.078398935,0.014752574,0.0309038,0.018095767, 11:58:41.326
50135.742188, 32217.333984, 86096.257813, 67356.445313, 83306.046875, 59835.976563, 63826.410156, 85541.039063, 0, 1, 1, 0, 1,0.032398283,0.078398935,0.014752574,0.0309038,0.018095767, 11:58:41.326
50236.148438, 32314.207031, 86028.757813, 67234.562500, 83343.039063, 59681.570313, 63759.578125, 85515.695313, 0, 1, 1, 0, 1,0.032398283,0.078398935,0.014752574,0.0309038,0.018095767, 11:58:41.326
50392.855469, 32465.550781, 85897.484375, 66873.781250, 83476.296875, 59454.832031, 63743.550781, 85588.335938, 0, 1, 1, 0, 1,0.032398283,0.078398935,0.014752574,0.0309038,0.018095767, 11:58:41.326
50294.910156, 32371.851563, 85958.968750, 66963.406250, 83456.046875, 59592.339844, 63813.132813, 85621.195313, 0, 1, 1, 0, 1,0.032398283,0.078398935,0.014752574,0.0309038,0.018095767, 11:58:41.326
50145.511719, 32228.957031, 86087.429688, 67320.992188, 83336.351563, 59827.480469, 63834.726563, 85560.617188, 0, 1, 1, 0, 1,0.032398283,0.078398935,0.014752574,0.0309038,0.018095767, 11:58:41.326
50208.410156, 32288.480469, 86055.937500, 67292.226563, 83337.492188, 59736.800781, 63774.777344, 85516.515625, 0, 1, 1, 0, 1,0.032398283,0.078398935,0.014752574,0.0309038,0.018095767, 11:58:41.327
50379.734375, 32452.250000, 85912.796875, 66918.820313, 83465.726563, 59481.476563, 63737.425781, 85571.210938, 0, 1, 1, 0, 1,0.032398283,0.078398935,0.014752574,0.0309038,0.018095767, 11:58:41.327
50332.640625, 32408.441406, 85931.187500, 66905.992188, 83486.039063, 59551.953125, 63801.843750, 85628.367188, 0, 1, 1, 0, 1,0.032398283,0.078398935,0.014752574,0.0309038,0.018095767, 11:58:41.327
50146.539063, 32231.416016, 86079.828125, 67275.375000, 83354.726563, 59806.761719, 63842.324219, 85572.937500, 0, 1, 1, 0, 1,0.032398283,0.078398935,0.014752574,0.0309038,0.018095767, 11:58:41.327
50161.984375, 32243.552734, 86082.468750, 67341.312500, 83315.390625, 59772.675781, 63783.695313, 85506.843750, 0, 1, 1, 0, 1,0.032398283,0.078398935,0.014752574,0.0309038,0.018095767, 11:58:41.327
50360.355469, 32432.179688, 85928.062500, 66975.343750, 83446.320313, 59503.558594, 63732.824219, 85555.476563, 0, 1, 1, 0, 1,0.032398283,0.078398935,0.014752574,0.0309038,0.018095767, 11:58:41.327
50356.355469, 32426.658203, 85911.140625, 66865.062500, 83503.859375, 59501.949219, 63792.589844, 85625.593750, 0, 1, 1, 0, 1,0.032398283,0.078398935,0.014752574,0.0309038,0.018095767, 11:58:41.327
50161.539063, 32240.646484, 86062.507813, 67214.953125, 83372.609375, 59755.753906, 63839.328125, 85576.132813, 0, 1, 1, 0, 1,0.032398283,0.078398935,0.014752574,0.0309038,0.018095767, 11:58:41.327
50139.363281, 32219.681641, 86102.851563, 67374.484375, 83303.320313, 59789.191406, 63789.730469, 85505.343750, 0, 1, 1, 0, 1,0.032398283,0.078398935,0.014752574,0.0309038,0.018095767, 11:58:41.328
50326.539063, 32399.724609, 85954.281250, 67042.539063, 83419.968750, 59530.917969, 63733.316406, 85539.187500, 0, 1, 1, 0, 1,0.032398283,0.078398935,0.014752574,0.0309038,0.018095767, 11:58:41.328
50392.476563, 32458.888672, 85895.132813, 66838.664063, 83512.125000, 59456.890625, 63778.085938, 85623.585938, 0, 1, 1, 0, 1,0.032398283,0.078398935,0.014752574,0.0309038,0.018095767, 11:58:41.328
50215.515625, 32286.847656, 86034.609375, 67144.500000, 83403.367188, 59700.300781, 63838.882813, 85594.664063, 0, 1, 1, 0, 1,0.032398283,0.078398935,0.014752574,0.0309038,0.018095767, 11:58:41.328
50128.835938, 32204.212891, 86127.101563, 67401.820313, 83300.367188, 59802.222656, 63807.566406, 85507.468750, 0, 1, 1, 0, 1,0.032398283,0.078398935,0.014752574,0.0309038,0.018095767, 11:58:41.328
50289.433594, 32359.669922, 86005.507813, 67139.921875, 83386.554688, 59571.285156, 63738.210938, 85516.031250, 0, 1, 1, 0, 1,0.032398283,0.078398935,0.014752574,0.0309038,0.018095767, 11:58:41.328
50400.542969, 32467.091797, 85904.921875, 66849.976563, 83510.250000, 59432.460938, 63763.847656, 85607.312500, 0, 1, 1, 0, 1,0.032398283,0.078398935,0.014752574,0.0309038,0.018095767, 11:58:41.328
50246.070313, 32321.984375, 86013.468750, 67082.945313, 83436.062500, 59648.980469, 63834.882813, 85609.007813, 0, 1, 1, 0, 1,0.032398283,0.078398935,0.014752574,0.0309038,0.018095767, 11:58:41.328
50128.902344, 32204.593750, 86118.539063, 67394.867188, 83313.375000, 59809.535156, 63820.464844, 85526.960938, 0, 1, 1, 0, 1,0.032398283,0.078398935,0.014752574,0.0309038,0.018095767, 11:58:41.328
50251.257813, 32319.503906, 86029.156250, 67214.531250, 83365.343750, 59620.640625, 63750.570313, 85509.476563, 0, 1, 1, 0, 1,0.032398283,0.078398935,0.014752574,0.0309038,0.018095767, 11:58:41.329
50388.964844, 32455.447266, 85902.468750, 66867.921875, 83488.906250, 59419.316406, 63746.078125, 85585.093750, 0, 1, 1, 0, 1,0.032398283,0.078398935,0.014752574,0.0309038,0.018095767, 11:58:41.329
50276.425781, 32346.750000, 85987.804688, 67018.929688, 83446.343750, 59595.023438, 63818.453125, 85613.125000, 0, 1, 1, 0, 1,0.032398283,0.078398935,0.014752574,0.0309038,0.018095767, 11:58:41.329
50127.003906, 32204.816406, 86124.375000, 67378.882813, 83314.718750, 59809.375000, 63828.601563, 85545.171875, 0, 1, 1, 0, 1,0.032398283,0.078398935,0.014752574,0.0309038,0.018095767, 11:58:41.329
50211.718750, 32285.394531, 86065.882813, 67285.031250, 83339.234375, 59674.773438, 63764.472656, 85511.046875, 0, 1, 1, 0, 1,0.032398283,0.078398935,0.014752574,0.0309038,0.018095767, 11:58:41.329
50388.964844, 32453.814453, 85923.429688, 66909.453125, 83484.632813, 59439.300781, 63750.972656, 85584.359375, 0, 1, 1, 0, 1,0.032398283,0.078398935,0.014752574,0.0309038,0.018095767, 11:58:41.329
