%OpenBCI Raw EEG Data
%
%Sample Rate = 250.0 Hz
%First Column = SampleIndex
%5 Columns before Timestamp are Frequency Power factors DELTA THETA ALPHA BETA GAMMA
%Last Column = Timestamp 
%Other Columns = EEG data in microvolts followed by Accel Data (in G) interleaved with Aux Data
0.000000, 0.000000, 0.000000, 0.000000, 0.000000, 0.000000, 0.000000, 0.000000, 0.196, 0.156, 0.962,0.0,0.0,0.0,0.0,0.0, 13:11:44.766
61404.195313, 116107.718750, 187500.015625, 97005.851563, 133317.890625, 102688.445313, 90962.921875, 104373.703125, 0.000, 0.000, 0.000,0.0,0.0,0.0,0.0,0.0, 13:11:45.245
61558.714844, 116259.312500, 187500.015625, 96374.703125, 133467.937500, 102487.015625, 90932.125000, 104231.945313, 0.000, 0.000, 0.000,0.0,0.0,0.0,0.0,0.0, 13:11:45.246
61364.566406, 116064.179688, 187500.015625, 96850.531250, 133347.421875, 102839.945313, 90968.156250, 104411.273438, 0.000, 0.000, 0.000,0.0,0.0,0.0,0.0,0.0, 13:11:45.247
61192.972656, 115892.468750, 187500.015625, 97535.546875, 133184.046875, 103080.898438, 91000.789063, 104570.640625, 0.000, 0.000, 0.000,0.0,0.0,0.0,0.0,0.0, 13:11:45.247
61366.644531, 116064.179688, 187500.015625, 97154.914063, 133277.687500, 102764.914063, 90970.632813, 104417.507813, 0.000, 0.000, 0.000,0.0,0.0,0.0,0.0,0.0, 13:11:45.248
61562.714844, 116257.031250, 187500.015625, 96423.210938, 133451.796875, 102478.226563, 90935.210938, 104237.890625, 0.000, 0.000, 0.000,0.0,0.0,0.0,0.0,0.0, 13:11:45.248
61418.031250, 116109.125000, 187500.015625, 96710.429688, 133382.562500, 102764.554688, 90964.960938, 104375.734375, 0.176, 0.158, 0.962,0.0,0.0,0.0,0.0,0.0, 13:11:45.248
61197.664063, 115895.492188, 187500.015625, 97479.437500, 133190.953125, 103078.281250, 90998.437500, 104565.882813, 0.000, 0.000, 0.000,0.0,0.0,0.0,0.0,0.0, 13:11:45.249
61308.195313, 116012.390625, 187500.015625, 97294.148438, 133233.718750, 102839.273438, 90972.625000, 104459.976563, 0.000, 0.000, 0.000,0.0,0.0,0.0,0.0,0.0, 13:11:45.249
61539.871094, 116245.093750, 187500.015625, 96493.281250, 133428.953125, 102483.593750, 90929.109375, 104247.726563, 0.000, 0.000, 0.000,0.0,0.0,0.0,0.0,0.0, 13:11:45.250
61450.308594, 116153.203125, 187500.015625, 96574.867188, 133412.843750, 102680.757813, 90950.828125, 104327.101563, 0.000, 0.000, 0.000,0.0,0.0,0.0,0.0,0.0, 13:11:45.250
61215.035156, 115911.046875, 187500.015625, 97377.648438, 133217.265625, 103055.664063, 90991.445313, 104542.281250, 0.000, 0.000, 0.000,0.0,0.0,0.0,0.0,0.0, 13:11:45.250
61275.898438, 115972.492188, 187500.015625, 97410.242188, 133213.734375, 102918.085938, 90983.421875, 104497.015625, 0.000, 0.000, 0.000,0.0,0.0,0.0,0.0,0.0, 13:11:45.251
61515.730469, 116219.476563, 187500.015625, 96590.804688, 133408.953125, 102518.929688, 90931.945313, 104267.843750, 0.000, 0.000, 0.000,0.0,0.0,0.0,0.0,0.0, 13:11:45.251
61481.199219, 116185.078125, 187500.015625, 96469.835938, 133436.890625, 102616.632813, 90941.179688, 104290.843750, 0.000, 0.000, 0.000,0.0,0.0,0.0,0.0,0.0, 13:11:45.252
61242.617188, 115941.890625, 187500.015625, 97241.570313, 133248.265625, 103012.835938, 90982.750000, 104505.218750, 0.000, 0.000, 0.000,0.0,0.0,0.0,0.0,0.0, 13:11:45.253
61234.253906, 115932.054688, 187500.015625, 97475.640625, 133193.296875, 102975.132813, 90987.625000, 104514.789063, 0.172, 0.170, 0.972,0.0,0.0,0.0,0.0,0.0, 13:11:45.253
61479.656250, 116181.164063, 187500.015625, 96721.156250, 133370.640625, 102561.843750, 90939.656250, 104288.343750, 0.000, 0.000, 0.000,0.0,0.0,0.0,0.0,0.0, 13:11:45.254
61527.218750, 116230.007813, 187500.015625, 96386.062500, 133458.468750, 102552.015625, 90935.070313, 104255.101563, 0.000, 0.000, 0.000,0.0,0.0,0.0,0.0,0.0, 13:11:45.254
61290.292969, 115985.140625, 187500.015625, 97100.757813, 133287.156250, 102964.851563, 90985.140625, 104482.664063, 0.000, 0.000, 0.000,0.0,0.0,0.0,0.0,0.0, 13:11:45.255
61217.402344, 115912.054688, 187500.015625, 97531.367188, 133186.750000, 103035.546875, 91001.148438, 104556.851563, 0.000, 0.000, 0.000,0.0,0.0,0.0,0.0,0.0, 13:11:45.255
61440.003906, 116143.773438, 187500.015625, 96871.539063, 133340.421875, 102636.210938, 90952.195313, 104341.671875, 0.000, 0.000, 0.000,0.0,0.0,0.0,0.0,0.0, 13:11:45.255
61541.523438, 116244.023438, 187500.015625, 96367.578125, 133466.234375, 102515.687500, 90938.382813, 104243.703125, 0.000, 0.000, 0.000,0.0,0.0,0.0,0.0,0.0, 13:11:45.256
61337.699219, 116034.851563, 187500.015625, 96949.367188, 133323.718750, 102898.664063, 90974.992188, 104441.945313, 0.000, 0.000, 0.000,0.0,0.0,0.0,0.0,0.0, 13:11:45.256
61207.164063, 115903.492188, 187500.015625, 97540.867188, 133175.093750, 103068.960938, 90992.179688, 104559.039063, 0.000, 0.000, 0.000,0.0,0.0,0.0,0.0,0.0, 13:11:45.257
61407.035156, 116103.226563, 187500.015625, 97032.179688, 133305.000000, 102710.148438, 90958.296875, 104375.421875, 0.170, 0.162, 0.966,0.0,0.0,0.0,0.0,0.0, 13:11:45.258
61565.843750, 116261.742188, 187500.015625, 96386.617188, 133469.218750, 102493.226563, 90935.812500, 104232.484375, 0.000, 0.000, 0.000,0.0,0.0,0.0,0.0,0.0, 13:11:45.259
61392.996094, 116084.476563, 187500.015625, 96808.351563, 133364.312500, 102823.585938, 90967.867188, 104394.937500, 0.000, 0.000, 0.000,0.0,0.0,0.0,0.0,0.0, 13:11:45.259
61214.562500, 115901.320313, 187500.015625, 97527.070313, 133192.984375, 103090.625000, 91002.757813, 104567.804688, 0.000, 0.000, 0.000,0.0,0.0,0.0,0.0,0.0, 13:11:45.259
61380.593750, 116065.500000, 187500.015625, 97190.117188, 133274.484375, 102792.898438, 90970.750000, 104423.656250, 0.000, 0.000, 0.000,0.0,0.0,0.0,0.0,0.0, 13:11:45.260
61578.628906, 116270.125000, 187500.015625, 96429.984375, 133455.953125, 102486.250000, 90929.843750, 104229.398438, 0.000, 0.000, 0.000,0.0,0.0,0.0,0.0,0.0, 13:11:45.260
61440.292969, 116135.210938, 187500.015625, 96660.648438, 133402.718750, 102752.242188, 90958.679688, 104354.257813, 0.000, 0.000, 0.000,0.0,0.0,0.0,0.0,0.0, 13:11:45.260
61221.000000, 115911.539063, 187500.015625, 97457.851563, 133212.718750, 103086.062500, 91002.757813, 104553.546875, 0.000, 0.000, 0.000,0.0,0.0,0.0,0.0,0.0, 13:11:45.261
61325.203125, 116012.281250, 187500.015625, 97331.046875, 133241.968750, 102867.484375, 90982.570313, 104458.234375, 0.000, 0.000, 0.000,0.0,0.0,0.0,0.0,0.0, 13:11:45.261
61558.246094, 116250.882813, 187500.015625, 96512.390625, 133437.390625, 102494.945313, 90933.242188, 104239.929688, 0.000, 0.000, 0.000,0.0,0.0,0.0,0.0,0.0, 13:11:45.261
61492.687500, 116180.742188, 187500.015625, 96540.710938, 133436.640625, 102676.000000, 90953.203125, 104318.695313, 0.160, 0.168, 0.958,0.0,0.0,0.0,0.0,0.0, 13:11:45.261
61239.843750, 115928.796875, 187500.015625, 97347.117188, 133233.640625, 103056.468750, 90995.781250, 104537.453125, 0.000, 0.000, 0.000,0.0,0.0,0.0,0.0,0.0, 13:11:45.262
61278.734375, 115971.554688, 187500.015625, 97430.554688, 133218.734375, 102940.640625, 90988.468750, 104502.093750, 0.000, 0.000, 0.000,0.0,0.0,0.0,0.0,0.0, 13:11:45.262
61530.707031, 116219.054688, 187500.015625, 96653.031250, 133415.234375, 102547.117188, 90953.445313, 104281.882813, 0.000, 0.000, 0.000,0.0,0.0,0.0,0.0,0.0, 13:11:45.263
61526.660156, 116214.515625, 187500.015625, 96472.453125, 133460.609375, 102611.890625, 90960.468750, 104288.562500, 0.000, 0.000, 0.000,0.0,0.0,0.0,0.0,0.0, 13:11:45.263
61278.734375, 115963.218750, 187500.015625, 97242.578125, 133269.406250, 103013.601563, 91001.906250, 104508.687500, 0.000, 0.000, 0.000,0.0,0.0,0.0,0.0,0.0, 13:11:45.263
61263.023438, 115937.890625, 187500.015625, 97535.164063, 133210.578125, 103004.570313, 91008.476563, 104533.648438, 0.000, 0.000, 0.000,0.0,0.0,0.0,0.0,0.0, 13:11:45.264
61494.429688, 116184.453125, 187500.015625, 96800.085938, 133387.000000, 102592.757813, 90961.742188, 104309.640625, 0.000, 0.000, 0.000,0.0,0.0,0.0,0.0,0.0, 13:11:45.265
61541.523438, 116237.359375, 187500.015625, 96424.351563, 133468.921875, 102552.195313, 90950.562500, 104254.054688, 0.000, 0.000, 0.000,0.0,0.0,0.0,0.0,0.0, 13:11:45.265
61315.660156, 116005.148438, 187500.015625, 97101.765625, 133307.000000, 102954.343750, 90993.078125, 104469.679688, 0.158, 0.168, 0.958,0.0,0.0,0.0,0.0,0.0, 13:11:45.266
61238.636719, 115924.570313, 187500.015625, 97566.750000, 133202.734375, 103054.750000, 91009.414063, 104554.125000, 0.000, 0.000, 0.000,0.0,0.0,0.0,0.0,0.0, 13:11:45.266
61449.078125, 116139.640625, 187500.015625, 96962.039063, 133341.921875, 102667.281250, 90968.804688, 104350.945313, 0.000, 0.000, 0.000,0.0,0.0,0.0,2.9636642E-5,3.76337E-5, 13:11:45.266
61567.898438, 116263.039063, 187500.015625, 96397.148438, 133476.546875, 102508.585938, 90945.648438, 104234.695313, 0.000, 0.000, 0.000,5.7857396E-6,7.664006E-6,9.4205325E-6,2.9636642E-5,3.76337E-5, 13:11:45.273
61356.898438, 116047.484375, 187500.015625, 96944.851563, 133343.218750, 102885.812500, 90987.960938, 104431.390625, 0.000, 0.000, 0.000,5.7857396E-6,7.664006E-6,9.4205325E-6,2.9636642E-5,3.76337E-5, 13:11:45.274
61214.789063, 115900.765625, 187500.015625, 97576.960938, 133190.843750, 103084.765625, 91011.515625, 104569.546875, 0.000, 0.000, 0.000,5.7857396E-6,7.664006E-6,9.4205325E-6,2.9636642E-5,3.76337E-5, 13:11:45.274
61398.585938, 116088.789063, 187500.015625, 97106.187500, 133307.828125, 102741.375000, 90973.812500, 104396.414063, 0.000, 0.000, 0.000,5.7857396E-6,7.664006E-6,9.4205325E-6,2.9636642E-5,3.76337E-5, 13:11:45.275
61554.980469, 116252.578125, 187500.015625, 96423.117188, 133467.250000, 102490.210938, 90936.437500, 104233.312500, 0.000, 0.000, 0.000,5.7857396E-6,7.664006E-6,9.4205325E-6,2.9636642E-5,3.76337E-5, 13:11:45.275
61401.132813, 116090.460938, 187500.015625, 96790.851563, 133381.390625, 102807.828125, 90970.835938, 104392.812500, 0.000, 0.000, 0.000,5.7857396E-6,7.664006E-6,9.4205325E-6,2.9636642E-5,3.76337E-5, 13:11:45.276
61211.589844, 115891.757813, 187500.015625, 97522.578125, 133203.468750, 103090.843750, 91004.585938, 104568.765625, 0.000, 0.000, 0.000,5.7857396E-6,7.664006E-6,9.4205325E-6,2.9636642E-5,3.76337E-5, 13:11:45.276
61353.570313, 116038.273438, 187500.015625, 97255.945313, 133275.828125, 102821.796875, 90980.851563, 104444.687500, 0.164, 0.172, 0.958,5.7857396E-6,7.664006E-6,9.4205325E-6,2.9636642E-5,3.76337E-5, 13:11:45.276
61564.390625, 116252.851563, 187500.015625, 96485.953125, 133457.562500, 102497.585938, 90939.859375, 104245.757813, 0.000, 0.000, 0.000,5.7857396E-6,7.664006E-6,9.4205325E-6,2.9636642E-5,3.76337E-5, 13:11:45.277
61451.023438, 116139.859375, 187500.015625, 96661.101563, 133411.015625, 102735.945313, 90961.781250, 104351.617188, 0.000, 0.000, 0.000,5.7857396E-6,7.664006E-6,9.4205325E-6,2.9636642E-5,3.76337E-5, 13:11:45.277
61218.945313, 115908.226563, 187500.015625, 97455.500000, 133214.203125, 103083.312500, 90996.742188, 104553.898438, 0.000, 0.000, 0.000,5.7857396E-6,7.664006E-6,9.4205325E-6,2.9636642E-5,3.76337E-5, 13:11:45.278
61307.167969, 115995.335938, 187500.015625, 97389.406250, 133236.671875, 102897.750000, 90981.679688, 104480.296875, 0.000, 0.000, 0.000,5.7857396E-6,7.664006E-6,9.4205325E-6,2.9636642E-5,3.76337E-5, 13:11:45.279
61549.460938, 116239.437500, 187500.015625, 96567.203125, 133430.562500, 102514.796875, 90931.476563, 104255.570313, 0.000, 0.000, 0.000,5.7857396E-6,7.664006E-6,9.4205325E-6,2.9636642E-5,3.76337E-5, 13:11:45.279
61498.566406, 116182.460938, 187500.015625, 96530.031250, 133436.062500, 102656.687500, 90944.398438, 104304.054688, 0.000, 0.000, 0.000,5.7857396E-6,7.664006E-6,9.4205325E-6,2.9636642E-5,3.76337E-5, 13:11:45.280
61253.632813, 115934.625000, 187500.015625, 97337.929688, 133242.796875, 103046.992188, 90993.750000, 104525.914063, 0.000, 0.000, 0.000,5.7857396E-6,7.664006E-6,9.4205325E-6,2.9636642E-5,3.76337E-5, 13:11:45.280
61265.167969, 115949.625000, 187500.015625, 97478.882813, 133195.656250, 102952.468750, 90980.539063, 104500.257813, 0.000, 0.000, 0.000,5.7857396E-6,7.664006E-6,9.4205325E-6,2.9636642E-5,3.76337E-5, 13:11:45.280
61515.777344, 116209.781250, 187500.015625, 96691.382813, 133391.937500, 102548.343750, 90938.289063, 104274.367188, 0.000, 0.000, 0.000,5.7857396E-6,7.664006E-6,9.4205325E-6,2.9636642E-5,3.76337E-5, 13:11:45.281
61542.910156, 116232.843750, 187500.015625, 96437.132813, 133463.765625, 102582.546875, 90941.734375, 104264.382813, 0.160, 0.174, 0.968,5.7857396E-6,7.664006E-6,9.4205325E-6,2.9636642E-5,3.76337E-5, 13:11:45.281
61289.800781, 115975.015625, 187500.015625, 97192.421875, 133274.421875, 102992.812500, 90986.593750, 104487.851563, 0.000, 0.000, 0.000,5.7857396E-6,7.664006E-6,9.4205325E-6,2.9636642E-5,3.76337E-5, 13:11:45.281
61244.382813, 115930.914063, 187500.015625, 97532.304688, 133186.421875, 103008.617188, 90986.195313, 104523.281250, 0.000, 0.000, 0.000,5.7857396E-6,7.664006E-6,9.4205325E-6,2.9636642E-5,3.76337E-5, 13:11:45.282
61488.394531, 116174.796875, 187500.015625, 96820.914063, 133362.593750, 102607.625000, 90945.984375, 104310.070313, 0.000, 0.000, 0.000,5.7857396E-6,7.664006E-6,9.4205325E-6,2.9636642E-5,3.76337E-5, 13:11:45.282
61571.320313, 116257.945313, 187500.015625, 96371.289063, 133474.218750, 102531.179688, 90933.578125, 104240.484375, 0.000, 0.000, 0.000,5.7857396E-6,7.664006E-6,9.4205325E-6,2.9636642E-5,3.76337E-5, 13:11:45.282
61339.867188, 116018.554688, 187500.015625, 97026.953125, 133317.000000, 102936.578125, 90982.234375, 104458.171875, 0.000, 0.000, 0.000,5.7857396E-6,7.664006E-6,9.4205325E-6,2.9636642E-5,3.76337E-5, 13:11:45.282
61222.410156, 115903.312500, 187500.015625, 97553.898438, 133183.921875, 103057.898438, 90996.226563, 104552.984375, 0.000, 0.000, 0.000,5.7857396E-6,7.664006E-6,9.4205325E-6,2.9636642E-5,3.76337E-5, 13:11:45.283
61433.277344, 116117.937500, 187500.015625, 96976.210938, 133325.921875, 102679.351563, 90961.179688, 104361.945313, 0.000, 0.000, 0.000,5.7857396E-6,7.664006E-6,9.4205325E-6,2.9636642E-5,3.76337E-5, 13:11:45.283
61579.054688, 116265.812500, 187500.015625, 96355.796875, 133478.781250, 102495.734375, 90934.421875, 104230.695313, 0.000, 0.000, 0.000,5.7857396E-6,7.664006E-6,9.4205325E-6,2.9636642E-5,3.76337E-5, 13:11:45.283
61376.882813, 116060.515625, 187500.015625, 96856.632813, 133349.312500, 102858.546875, 90970.078125, 104413.507813, 0.168, 0.162, 0.974,5.7857396E-6,7.664006E-6,9.4205325E-6,2.9636642E-5,3.76337E-5, 13:11:45.283
61215.078125, 115896.695313, 187500.015625, 97520.320313, 133188.609375, 103078.437500, 90996.117188, 104561.570313, 0.000, 0.000, 0.000,5.7857396E-6,7.664006E-6,9.4205325E-6,2.9636642E-5,3.76337E-5, 13:11:45.284
61382.292969, 116068.937500, 187500.015625, 97114.835938, 133282.359375, 102756.664063, 90965.117188, 104407.921875, 0.000, 0.000, 0.000,5.7857396E-6,7.664006E-6,9.4205325E-6,2.9636642E-5,3.76337E-5, 13:11:45.284
61565.597656, 116256.937500, 187500.015625, 96395.046875, 133453.812500, 102481.601563, 90931.406250, 104234.609375, 0.000, 0.000, 0.000,5.7857396E-6,7.664006E-6,9.4205325E-6,2.9636642E-5,3.76337E-5, 13:11:45.284
61427.644531, 116113.398438, 187500.015625, 96702.453125, 133383.109375, 102777.226563, 90961.023438, 104376.070313, 0.000, 0.000, 0.000,5.7857396E-6,7.664006E-6,9.4205325E-6,2.9636642E-5,3.76337E-5, 13:11:45.285
61226.253906, 115910.757813, 187500.015625, 97458.835938, 133201.578125, 103084.367188, 90996.164063, 104563.265625, 0.000, 0.000, 0.000,5.7857396E-6,7.664006E-6,9.4205325E-6,2.9636642E-5,3.76337E-5, 13:11:45.286
61344.742188, 116033.242188, 187500.015625, 97254.585938, 133252.468750, 102838.335938, 90978.343750, 104452.804688, 0.000, 0.000, 0.000,5.7857396E-6,7.664006E-6,9.4205325E-6,2.9636642E-5,3.76337E-5, 13:11:45.286
61568.144531, 116258.484375, 187500.015625, 96466.015625, 133439.734375, 102496.085938, 90934.648438, 104250.210938, 0.000, 0.000, 0.000,5.7857396E-6,7.664006E-6,9.4205325E-6,2.9636642E-5,3.76337E-5, 13:11:45.286
61475.386719, 116169.210938, 187500.015625, 96565.320313, 133414.109375, 102703.867188, 90948.664063, 104334.226563, 0.000, 0.000, 0.000,5.7857396E-6,7.664006E-6,9.4205325E-6,2.9636642E-5,3.76337E-5, 13:11:45.287
61241.585938, 115930.757813, 187500.015625, 97358.742188, 133218.718750, 103064.875000, 90987.375000, 104539.929688, 0.000, 0.000, 0.000,5.7857396E-6,7.664006E-6,9.4205325E-6,2.9636642E-5,3.76337E-5, 13:11:45.287
61306.855469, 115990.554688, 187500.015625, 97348.640625, 133218.062500, 102904.093750, 90973.203125, 104479.695313, 0.172, 0.166, 0.970,5.7857396E-6,7.664006E-6,9.4205325E-6,2.9636642E-5,3.76337E-5, 13:11:45.287
61554.132813, 116236.218750, 187500.015625, 96534.546875, 133418.406250, 102516.632813, 90932.460938, 104261.117188, 0.000, 0.000, 0.000,5.7857396E-6,7.664006E-6,9.4205325E-6,2.9636642E-5,3.76337E-5, 13:11:45.288
61513.765625, 116195.742188, 187500.015625, 96437.203125, 133437.859375, 102629.906250, 90945.468750, 104296.273438, 0.000, 0.000, 0.000,5.7857396E-6,7.664006E-6,9.4205325E-6,2.9636642E-5,3.76337E-5, 13:11:45.288
61254.929688, 115938.179688, 187500.015625, 97224.203125, 133240.109375, 103025.242188, 90983.351563, 104516.554688, 0.000, 0.000, 0.000,5.7857396E-6,7.664006E-6,9.4205325E-6,2.9636642E-5,3.76337E-5, 13:11:45.288
61255.714844, 115942.203125, 187500.015625, 97438.718750, 133185.750000, 102975.445313, 90982.640625, 104520.710938, 0.000, 0.000, 0.000,5.7857396E-6,7.664006E-6,9.4205325E-6,2.9636642E-5,3.76337E-5, 13:11:45.289
61495.972656, 116186.687500, 187500.015625, 96675.359375, 133371.265625, 102566.500000, 90938.312500, 104295.226563, 0.000, 0.000, 0.000,5.7857396E-6,7.664006E-6,9.4205325E-6,2.9636642E-5,3.76337E-5, 13:11:45.289
61524.894531, 116215.210938, 187500.015625, 96370.820313, 133442.718750, 102566.023438, 90932.656250, 104262.343750, 0.000, 0.000, 0.000,5.7857396E-6,7.664006E-6,9.4205325E-6,2.9636642E-5,3.76337E-5, 13:11:45.289
61290.582031, 115974.437500, 187500.015625, 97094.859375, 133267.843750, 102974.171875, 90974.789063, 104483.718750, 0.000, 0.000, 0.000,5.7857396E-6,7.664006E-6,9.4205325E-6,2.9636642E-5,3.76337E-5, 13:11:45.290
61233.675781, 115916.835938, 187500.015625, 97489.859375, 133177.093750, 103024.640625, 90983.734375, 104544.445313, 0.000, 0.000, 0.000,5.7857396E-6,7.664006E-6,9.4205325E-6,2.9636642E-5,3.76337E-5, 13:11:45.290
61474.132813, 116162.101563, 187500.015625, 96812.820313, 133344.515625, 102625.195313, 90941.601563, 104332.507813, 0.164, 0.166, 0.968,5.7857396E-6,7.664006E-6,9.4205325E-6,2.9636642E-5,3.76337E-5, 13:11:45.291
61574.449219, 116261.609375, 187500.015625, 96324.546875, 133471.843750, 102523.023438, 90929.195313, 104245.781250, 0.000, 0.000, 0.000,5.7857396E-6,7.664006E-6,9.4205325E-6,2.9636642E-5,3.76337E-5, 13:11:45.291
61348.093750, 116030.671875, 187500.015625, 96948.765625, 133319.656250, 102918.070313, 90972.578125, 104451.398438, 0.000, 0.000, 0.000,5.7857396E-6,7.664006E-6,9.4205325E-6,2.9636642E-5,3.76337E-5, 13:11:45.292
61220.867188, 115903.335938, 187500.015625, 97522.265625, 133172.187500, 103070.414063, 90989.703125, 104562.125000, 0.000, 0.000, 0.000,5.7857396E-6,7.664006E-6,9.4205325E-6,2.9636642E-5,3.76337E-5, 13:11:45.292
61415.171875, 116100.585938, 187500.015625, 96986.632813, 133291.656250, 102703.046875, 90947.632813, 104371.601563, 0.000, 0.000, 0.000,5.7857396E-6,7.664006E-6,9.4205325E-6,2.9636642E-5,3.76337E-5, 13:11:45.292
61569.019531, 116255.867188, 187500.015625, 96338.007813, 133449.203125, 102491.148438, 90917.546875, 104225.242188, 0.000, 0.000, 0.000,5.7857396E-6,7.664006E-6,9.4205325E-6,2.9636642E-5,3.76337E-5, 13:11:45.293
61385.757813, 116068.492188, 187500.015625, 96783.679688, 133341.421875, 102837.351563, 90951.234375, 104398.914063, 0.000, 0.000, 0.000,5.7857396E-6,7.664006E-6,9.4205325E-6,2.9636642E-5,3.76337E-5, 13:11:45.293
61214.652344, 115892.203125, 187500.015625, 97483.132813, 133174.734375, 103087.046875, 90982.078125, 104560.453125, 0.000, 0.000, 0.000,5.7857396E-6,7.664006E-6,9.4205325E-6,2.9636642E-5,3.76337E-5, 13:11:45.294
61386.425781, 116061.695313, 187500.015625, 97123.757813, 133274.781250, 102785.187500, 90961.156250, 104421.023438, 0.000, 0.000, 0.000,5.7857396E-6,7.664006E-6,9.4205325E-6,2.9636642E-5,3.76337E-5, 13:11:45.294
61581.535156, 116259.578125, 187500.015625, 96374.390625, 133457.359375, 102490.320313, 90928.320313, 104238.742188, 0.000, 0.000, 0.000,5.7857396E-6,7.664006E-6,9.4205325E-6,2.9636642E-5,3.76337E-5, 13:11:45.295
61440.093750, 116118.742188, 187500.015625, 96635.929688, 133387.968750, 102764.156250, 90954.046875, 104366.234375, 0.158, 0.170, 0.970,5.7857396E-6,7.664006E-6,9.4205325E-6,2.9636642E-5,3.76337E-5, 13:11:45.295
61218.453125, 115894.062500, 187500.015625, 97427.648438, 133191.531250, 103086.375000, 90992.140625, 104559.203125, 0.000, 0.000, 0.000,5.7857396E-6,7.664006E-6,9.4205325E-6,2.9636642E-5,3.76337E-5, 13:11:45.295
61329.562500, 116008.703125, 187500.015625, 97261.960938, 133231.812500, 102852.953125, 90965.851563, 104455.554688, 0.000, 0.000, 0.000,5.7857396E-6,7.664006E-6,9.4205325E-6,2.9636642E-5,3.76337E-5, 13:11:45.296
61560.925781, 116242.812500, 187500.015625, 96449.382813, 133428.218750, 102495.796875, 90926.867188, 104246.054688, 0.000, 0.000, 0.000,5.7857396E-6,7.664006E-6,9.4205325E-6,2.9636642E-5,3.76337E-5, 13:11:45.296
61475.542969, 116156.890625, 187500.015625, 96505.601563, 133416.375000, 102684.156250, 90950.671875, 104325.179688, 0.000, 0.000, 0.000,5.7857396E-6,7.664006E-6,9.4205325E-6,2.9636642E-5,3.76337E-5, 13:11:45.297
61239.328125, 115918.960938, 187500.015625, 97311.804688, 133218.109375, 103057.695313, 90989.164063, 104540.265625, 0.000, 0.000, 0.000,5.7857396E-6,7.664006E-6,9.4205325E-6,2.9636642E-5,3.76337E-5, 13:11:45.298
61292.816406, 115970.164063, 187500.015625, 97360.687500, 133207.312500, 102926.875000, 90976.046875, 104499.140625, 0.000, 0.000, 0.000,5.7857396E-6,7.664006E-6,9.4205325E-6,2.9636642E-5,3.76337E-5, 13:11:45.299
61545.972656, 116223.453125, 187500.015625, 96548.960938, 133408.531250, 102533.882813, 90934.695313, 104277.609375, 0.000, 0.000, 0.000,5.7857396E-6,7.664006E-6,9.4205325E-6,2.9636642E-5,3.76337E-5, 13:11:45.300
61520.648438, 116203.046875, 187500.015625, 96399.312500, 133436.937500, 102612.476563, 90938.445313, 104283.539063, 0.000, 0.000, 0.000,5.7857396E-6,7.664006E-6,9.4205325E-6,2.9636642E-5,3.76337E-5, 13:11:45.300
61284.347656, 115957.695313, 187500.015625, 97168.484375, 133248.062500, 103011.742188, 90973.945313, 104502.406250, 0.000, 0.000, 0.000,5.7857396E-6,7.664006E-6,9.4205325E-6,2.9636642E-5,3.76337E-5, 13:11:45.301
61263.671875, 115939.414063, 187500.015625, 97424.703125, 133191.515625, 102985.187500, 90974.992188, 104519.234375, 0.156, 0.170, 0.966,5.7857396E-6,7.664006E-6,9.4205325E-6,2.9636642E-5,3.76337E-5, 13:11:45.301
61505.425781, 116189.546875, 187500.015625, 96677.367188, 133366.484375, 102581.851563, 90935.250000, 104303.875000, 0.000, 0.000, 0.000,5.7857396E-6,7.664006E-6,9.4205325E-6,2.9636642E-5,3.76337E-5, 13:11:45.301
61552.589844, 116235.367188, 187500.015625, 96332.078125, 133450.609375, 102557.601563, 90931.320313, 104262.882813, 0.000, 0.000, 0.000,5.7857396E-6,7.664006E-6,9.4205325E-6,2.9636642E-5,3.76337E-5, 13:11:45.302
61321.695313, 115997.703125, 187500.015625, 97028.492188, 133283.828125, 102958.609375, 90971.242188, 104477.054688, 0.000, 0.000, 0.000,5.7857396E-6,7.664006E-6,9.4205325E-6,2.9636642E-5,3.76337E-5, 13:11:45.302
61238.480469, 115915.804688, 187500.015625, 97487.554688, 133176.453125, 103039.390625, 90986.773438, 104549.921875, 0.000, 0.000, 0.000,5.7857396E-6,7.664006E-6,9.4205325E-6,2.9636642E-5,3.76337E-5, 13:11:45.303
61457.707031, 116139.234375, 187500.015625, 96855.023438, 133324.546875, 102645.156250, 90946.226563, 104342.945313, 0.000, 0.000, 0.000,5.7857396E-6,7.664006E-6,9.4205325E-6,2.9636642E-5,3.76337E-5, 13:11:45.303
61576.238281, 116258.054688, 187500.015625, 96296.476563, 133459.109375, 102503.015625, 90922.781250, 104234.226563, 0.000, 0.000, 0.000,5.7857396E-6,7.664006E-6,9.4205325E-6,2.9636642E-5,3.76337E-5, 13:11:45.303
61364.253906, 116043.812500, 187500.015625, 96852.695313, 133324.953125, 102882.546875, 90962.570313, 104429.890625, 0.000, 0.000, 0.000,5.7857396E-6,7.664006E-6,9.4205325E-6,2.9636642E-5,3.76337E-5, 13:11:45.304
61226.453125, 115902.531250, 187500.015625, 97458.226563, 133182.031250, 103069.570313, 90987.218750, 104559.468750, 0.000, 0.000, 0.000,0.0,0.0,0.0,0.0,0.0, 13:11:45.724
61411.414063, 116088.296875, 187500.015625, 96988.593750, 133292.640625, 102723.492188, 90957.156250, 104388.093750, 0.156, 0.174, 0.968,0.0,0.0,0.0,0.0,0.0, 13:11:45.724
61573.511719, 116254.703125, 187500.015625, 96308.257813, 133450.687500, 102479.148438, 90922.359375, 104226.937500, 0.000, 0.000, 0.000,0.0,0.0,0.0,0.0,0.0, 13:11:45.725
61407.972656, 116083.109375, 187500.015625, 96705.335938, 133362.390625, 102808.882813, 90962.632813, 104393.976563, 0.000, 0.000, 0.000,0.0,0.0,0.0,0.0,0.0, 13:11:45.725
61229.316406, 115898.242188, 187500.015625, 97429.101563, 133195.093750, 103087.406250, 90998.554688, 104570.796875, 0.000, 0.000, 0.000,0.0,0.0,0.0,0.0,0.0, 13:11:45.725
61369.082031, 116040.351563, 187500.015625, 97133.523438, 133266.171875, 102805.101563, 90972.867188, 104436.445313, 0.000, 0.000, 0.000,0.0,0.0,0.0,0.0,0.0, 13:11:45.725
61558.488281, 116240.179688, 187500.015625, 96368.250000, 133437.578125, 102480.757813, 90927.656250, 104233.289063, 0.000, 0.000, 0.000,0.0,0.0,0.0,0.0,0.0, 13:11:45.726
61432.984375, 116112.953125, 187500.015625, 96572.968750, 133381.640625, 102728.656250, 90951.437500, 104344.468750, 0.000, 0.000, 0.000,0.0,0.0,0.0,0.0,0.0, 13:11:45.726
61209.378906, 115884.960938, 187500.015625, 97365.406250, 133196.765625, 103064.851563, 90993.414063, 104546.148438, 0.000, 0.000, 0.000,0.0,0.0,0.0,0.0,0.0, 13:11:45.726
61303.679688, 115979.867188, 187500.015625, 97260.703125, 133227.906250, 102864.531250, 90975.218750, 104465.500000, 0.000, 0.000, 0.000,0.0,0.0,0.0,0.0,0.0, 13:11:45.727
61534.910156, 116213.000000, 187500.015625, 96453.562500, 133420.171875, 102496.515625, 90930.648438, 104251.054688, 0.000, 0.000, 0.000,0.0,0.0,0.0,0.0,0.0, 13:11:45.728
61472.121094, 116147.234375, 187500.015625, 96444.664063, 133422.343750, 102657.804688, 90949.710938, 104311.164063, 0.158, 0.166, 0.968,0.0,0.0,0.0,0.0,0.0, 13:11:45.728
61226.769531, 115896.632813, 187500.015625, 97255.210938, 133225.625000, 103049.671875, 90992.898438, 104534.273438, 0.000, 0.000, 0.000,0.0,0.0,0.0,0.0,0.0, 13:11:45.728
61246.414063, 115919.296875, 187500.015625, 97377.070313, 133182.953125, 102944.304688, 90978.992188, 104505.484375, 0.000, 0.000, 0.000,0.0,0.0,0.0,0.0,0.0, 13:11:45.728
61494.652344, 116169.453125, 187500.015625, 96582.156250, 133374.687500, 102540.343750, 90933.445313, 104279.179688, 0.000, 0.000, 0.000,0.0,0.0,0.0,0.0,0.0, 13:11:45.729
61501.136719, 116173.390625, 187500.015625, 96369.140625, 133429.734375, 102590.773438, 90937.242188, 104276.828125, 0.000, 0.000, 0.000,0.0,0.0,0.0,0.0,0.0, 13:11:45.729
61258.843750, 115930.468750, 187500.015625, 97130.554688, 133246.765625, 102997.101563, 90977.382813, 104496.796875, 0.000, 0.000, 0.000,0.0,0.0,0.0,0.0,0.0, 13:11:45.729
61225.828125, 115897.992188, 187500.015625, 97442.429688, 133166.765625, 102996.656250, 90975.867188, 104525.851563, 0.000, 0.000, 0.000,0.0,0.0,0.0,0.0,0.0, 13:11:45.729
61468.949219, 116143.953125, 187500.015625, 96713.468750, 133340.421875, 102588.359375, 90933.867188, 104306.781250, 0.000, 0.000, 0.000,0.0,0.0,0.0,0.0,0.0, 13:11:45.729
61536.675781, 116210.468750, 187500.015625, 96300.500000, 133444.921875, 102530.375000, 90926.265625, 104247.328125, 0.000, 0.000, 0.000,0.0,0.0,0.0,0.0,0.0, 13:11:45.730
61310.476563, 115979.796875, 187500.015625, 96958.156250, 133285.640625, 102931.187500, 90967.351563, 104460.921875, 0.166, 0.166, 0.964,0.0,0.0,0.0,0.0,0.0, 13:11:45.730
61215.859375, 115884.406250, 187500.015625, 97459.257813, 133169.140625, 103043.281250, 90986.257813, 104549.742188, 0.000, 0.000, 0.000,0.0,0.0,0.0,0.0,0.0, 13:11:45.730
61428.269531, 116101.976563, 187500.015625, 96857.640625, 133311.156250, 102657.710938, 90944.773438, 104347.953125, 0.000, 0.000, 0.000,0.0,0.0,0.0,0.0,0.0, 13:11:45.730
61556.902344, 116231.460938, 187500.015625, 96276.898438, 133452.562500, 102492.000000, 90922.804688, 104230.695313, 0.000, 0.000, 0.000,0.0,0.0,0.0,0.0,0.0, 13:11:45.730
61350.328125, 116019.046875, 187500.015625, 96817.406250, 133324.843750, 102861.156250, 90964.914063, 104421.781250, 0.000, 0.000, 0.000,0.0,0.0,0.0,0.0,0.0, 13:11:45.731
61197.578125, 115863.281250, 187500.015625, 97469.960938, 133172.843750, 103074.218750, 90994.281250, 104567.695313, 0.000, 0.000, 0.000,0.0,0.0,0.0,0.0,0.0, 13:11:45.731
61383.097656, 116051.507813, 187500.015625, 97027.015625, 133280.906250, 102740.664063, 90960.914063, 104404.343750, 0.000, 0.000, 0.000,0.0,0.0,0.0,0.0,0.0, 13:11:45.731
61569.421875, 116239.101563, 187500.015625, 96310.671875, 133456.515625, 102480.195313, 90930.109375, 104239.437500, 0.000, 0.000, 0.000,0.0,0.0,0.0,0.0,0.0, 13:11:45.731
61404.332031, 116072.742188, 187500.015625, 96651.062500, 133367.953125, 102786.546875, 90959.664063, 104386.289063, 0.000, 0.000, 0.000,0.0,0.0,0.0,0.0,0.0, 13:11:45.732
61205.085938, 115870.859375, 187500.015625, 97406.593750, 133186.531250, 103082.531250, 90995.671875, 104569.617188, 0.000, 0.000, 0.000,0.0,0.0,0.0,0.0,0.0, 13:11:45.732
61334.078125, 116001.015625, 187500.015625, 97173.890625, 133247.703125, 102819.164063, 90976.109375, 104450.546875, 0.166, 0.166, 0.964,0.0,0.0,0.0,0.0,0.0, 13:11:45.732
61544.207031, 116220.328125, 187500.015625, 96384.273438, 133440.015625, 102480.640625, 90937.820313, 104246.054688, 0.000, 0.000, 0.000,0.0,0.0,0.0,0.0,0.0, 13:11:45.732
61435.464844, 116106.734375, 187500.015625, 96540.781250, 133402.406250, 102712.226563, 90962.765625, 104350.437500, 0.000, 0.000, 0.000,0.0,0.0,0.0,0.0,0.0, 13:11:45.732
61206.832031, 115873.718750, 187500.015625, 97337.976563, 133206.125000, 103068.828125, 90995.757813, 104559.156250, 0.000, 0.000, 0.000,0.0,0.0,0.0,0.0,0.0, 13:11:45.733
61280.523438, 115947.750000, 187500.015625, 97299.796875, 133215.312500, 102895.156250, 90974.367188, 104493.507813, 0.000, 0.000, 0.000,0.0,0.0,0.0,0.0,0.0, 13:11:45.734
61522.167969, 116193.546875, 187500.015625, 96477.773438, 133410.453125, 102508.406250, 90927.093750, 104267.218750, 0.000, 0.000, 0.000,0.0,0.0,0.0,0.0,0.0, 13:11:45.734
61476.726563, 116149.468750, 187500.015625, 96412.187500, 133425.656250, 102640.007813, 90936.820313, 104309.039063, 0.000, 0.000, 0.000,0.0,0.0,0.0,0.0,0.0, 13:11:45.734
61234.078125, 115900.093750, 187500.015625, 97216.648438, 133233.625000, 103036.890625, 90978.656250, 104530.273438, 0.000, 0.000, 0.000,0.0,0.0,0.0,0.0,0.0, 13:11:45.734
61242.281250, 115908.210938, 187500.015625, 97389.523438, 133195.250000, 102960.804688, 90974.570313, 104517.226563, 0.000, 0.000, 0.000,0.0,0.0,0.0,0.0,0.0, 13:11:45.734
61493.132813, 116160.179688, 187500.015625, 96617.312500, 133376.593750, 102552.460938, 90928.968750, 104293.031250, 0.170, 0.172, 0.966,0.0,0.0,0.0,0.0,0.0, 13:11:45.735
61519.242188, 116189.148438, 187500.015625, 96334.671875, 133448.218750, 102573.109375, 90925.304688, 104275.734375, 0.000, 0.000, 0.000,0.0,0.0,0.0,0.0,0.0, 13:11:45.735
61275.339844, 115939.570313, 187500.015625, 97065.664063, 133271.578125, 102979.648438, 90968.265625, 104496.796875, 0.000, 0.000, 0.000,0.0,0.0,0.0,0.0,0.0, 13:11:45.735
61209.914063, 115871.953125, 187500.015625, 97450.296875, 133176.703125, 103012.523438, 90978.148438, 104545.656250, 0.000, 0.000, 0.000,0.0,0.0,0.0,0.0,0.0, 13:11:45.735
61438.105469, 116104.703125, 187500.015625, 96764.679688, 133340.734375, 102610.578125, 90938.937500, 104332.039063, 0.000, 0.000, 0.000,0.0,0.0,0.0,0.0,0.0, 13:11:45.736
61523.980469, 116190.312500, 187500.015625, 96297.281250, 133454.421875, 102519.312500, 90924.078125, 104251.437500, 0.000, 0.000, 0.000,0.0,0.0,0.0,0.0,0.0, 13:11:45.736
61298.003906, 115962.140625, 187500.015625, 96926.773438, 133305.359375, 102914.710938, 90968.578125, 104458.664063, 0.000, 0.000, 0.000,0.0,0.0,0.0,0.0,0.0, 13:11:45.736
61185.082031, 115851.750000, 187500.015625, 97471.929688, 133179.046875, 103054.343750, 90988.648438, 104564.070313, 0.000, 0.000, 0.000,0.0,0.0,0.0,0.0,0.0, 13:11:45.736
61394.785156, 116064.203125, 187500.015625, 96919.421875, 133314.937500, 102685.851563, 90955.546875, 104379.671875, 0.000, 0.000, 0.000,0.0,0.0,0.0,0.0,0.0, 13:11:45.737
61539.960938, 116207.539063, 187500.015625, 96293.835938, 133461.546875, 102489.382813, 90927.875000, 104246.718750, 0.000, 0.000, 0.000,0.0,0.0,0.0,0.0,0.0, 13:11:45.737
61345.789063, 116013.437500, 187500.015625, 96769.054688, 133340.562500, 102838.468750, 90961.828125, 104421.828125, 0.164, 0.172, 0.964,0.0,0.0,0.0,0.0,0.0, 13:11:45.738
61180.968750, 115848.437500, 187500.015625, 97443.031250, 133174.609375, 103068.671875, 90982.796875, 104569.187500, 0.000, 0.000, 0.000,0.0,0.0,0.0,0.0,0.0, 13:11:45.738
61353.457031, 116024.281250, 187500.015625, 97054.937500, 133272.500000, 102753.890625, 90953.515625, 104417.289063, 0.000, 0.000, 0.000,0.0,0.0,0.0,0.0,0.0, 13:11:45.738
61542.800781, 116223.632813, 187500.015625, 96320.679688, 133447.000000, 102472.398438, 90917.414063, 104238.117188, 0.000, 0.000, 0.000,0.0,0.0,0.0,0.0,0.0, 13:11:45.739
61402.675781, 116079.132813, 187500.015625, 96616.242188, 133373.125000, 102757.468750, 90943.812500, 104372.382813, 0.000, 0.000, 0.000,0.0,0.0,0.0,0.0,0.0, 13:11:45.739
61190.425781, 115864.156250, 187500.015625, 97392.515625, 133187.484375, 103074.640625, 90981.429688, 104566.015625, 0.000, 0.000, 0.000,0.0,0.0,0.0,0.0,0.0, 13:11:45.740
61296.660156, 115975.773438, 187500.015625, 97210.328125, 133228.109375, 102837.179688, 90957.492188, 104459.375000, 0.000, 0.000, 0.000,0.0,0.0,0.0,0.0,0.0, 13:11:45.740
61525.007813, 116207.539063, 187500.015625, 96405.062500, 133422.125000, 102481.382813, 90914.914063, 104246.523438, 0.000, 0.000, 0.000,0.0,0.0,0.0,0.0,0.0, 13:11:45.740
61448.183594, 116123.007813, 187500.015625, 96485.125000, 133405.171875, 102680.914063, 90934.492188, 104327.750000, 0.000, 0.000, 0.000,0.0,0.0,0.0,0.0,0.0, 13:11:45.740
61208.460938, 115878.460938, 187500.015625, 97284.843750, 133202.484375, 103045.312500, 90967.820313, 104533.203125, 0.000, 0.000, 0.000,0.0,0.0,0.0,0.0,0.0, 13:11:45.741
61258.105469, 115929.507813, 187500.015625, 97309.921875, 133192.515625, 102900.210938, 90953.539063, 104479.226563, 0.160, 0.176, 0.958,0.0,0.0,0.0,0.0,0.0, 13:11:45.741
61496.531250, 116172.023438, 187500.015625, 96515.164063, 133385.125000, 102508.695313, 90913.171875, 104255.062500, 0.000, 0.000, 0.000,0.0,0.0,0.0,0.0,0.0, 13:11:45.741
61468.859375, 116143.953125, 187500.015625, 96390.039063, 133416.984375, 102602.039063, 90917.414063, 104277.257813, 0.000, 0.000, 0.000,0.0,0.0,0.0,0.0,0.0, 13:11:45.741
61219.457031, 115891.976563, 187500.015625, 97180.289063, 133222.890625, 102998.804688, 90956.781250, 104499.226563, 0.000, 0.000, 0.000,0.0,0.0,0.0,0.0,0.0, 13:11:45.742
61214.406250, 115889.632813, 187500.015625, 97404.117188, 133171.515625, 102954.007813, 90954.609375, 104506.273438, 0.000, 0.000, 0.000,0.0,0.0,0.0,0.0,0.0, 13:11:45.742
61463.183594, 116139.796875, 187500.015625, 96649.453125, 133360.093750, 102551.187500, 90915.585938, 104284.007813, 0.000, 0.000, 0.000,0.0,0.0,0.0,0.0,0.0, 13:11:45.742
61506.500000, 116186.062500, 187500.015625, 96314.554688, 133447.218750, 102541.101563, 90912.898438, 104248.156250, 0.000, 0.000, 0.000,0.0,0.0,0.0,0.0,0.0, 13:11:45.742
61261.144531, 115942.226563, 187500.015625, 97027.015625, 133268.562500, 102950.992188, 90957.070313, 104471.851563, 0.000, 0.000, 0.000,0.0,0.0,0.0,0.0,0.0, 13:11:45.742
61194.132813, 115871.687500, 187500.015625, 97449.625000, 133169.703125, 103017.625000, 90968.710938, 104539.437500, 0.000, 0.000, 0.000,0.0,0.0,0.0,0.0,0.0, 13:11:45.743
61426.996094, 116104.945313, 187500.015625, 96799.835938, 133336.625000, 102630.062500, 90935.117188, 104337.984375, 0.162, 0.178, 0.962,0.0,0.0,0.0,0.0,0.0, 13:11:45.743
61526.972656, 116207.093750, 187500.015625, 96295.804688, 133460.187500, 102512.609375, 90920.210938, 104246.093750, 0.000, 0.000, 0.000,0.0,0.0,0.0,0.0,0.0, 13:11:45.743
61304.574219, 115980.757813, 187500.015625, 96894.718750, 133315.328125, 102896.007813, 90963.976563, 104445.695313, 0.000, 0.000, 0.000,0.0,0.0,0.0,0.0,0.0, 13:11:45.743
61173.703125, 115849.179688, 187500.015625, 97479.460938, 133176.312500, 103064.250000, 90988.000000, 104567.695313, 0.000, 0.000, 0.000,0.0,0.0,0.0,0.0,0.0, 13:11:45.744
61376.480469, 116056.375000, 187500.015625, 96959.226563, 133300.484375, 102704.046875, 90946.898438, 104382.578125, 0.000, 0.000, 0.000,0.0,0.0,0.0,0.0,0.0, 13:11:45.744
61541.414063, 116218.898438, 187500.015625, 96308.234375, 133463.140625, 102484.710938, 90922.757813, 104234.320313, 0.000, 0.000, 0.000,0.0,0.0,0.0,0.0,0.0, 13:11:45.744
61367.742188, 116041.960938, 187500.015625, 96738.257813, 133358.578125, 102817.710938, 90956.843750, 104398.218750, 0.000, 0.000, 0.000,0.0,0.0,0.0,0.0,0.0, 13:11:45.745
61193.957031, 115862.476563, 187500.015625, 97450.117188, 133189.812500, 103080.585938, 90987.664063, 104562.867188, 0.000, 0.000, 0.000,0.0,0.0,0.0,0.0,0.0, 13:11:45.745
61347.714844, 116015.765625, 187500.015625, 97121.570313, 133274.890625, 102790.062500, 90962.250000, 104427.054688, 0.000, 0.000, 0.000,0.0,0.0,0.0,0.0,0.0, 13:11:45.745
61539.511719, 116216.437500, 187500.015625, 96365.046875, 133449.125000, 102479.148438, 90920.632813, 104235.281250, 0.000, 0.000, 0.000,0.0,0.0,0.0,0.0,0.0, 13:11:45.746
61415.171875, 116088.359375, 187500.015625, 96614.898438, 133386.312500, 102742.359375, 90950.187500, 104358.125000, 0.166, 0.180, 0.962,0.0,0.0,0.0,0.0,0.0, 13:11:45.746
61203.433594, 115877.273438, 187500.015625, 97391.039063, 133191.062500, 103065.585938, 90976.226563, 104546.835938, 0.000, 0.000, 0.000,0.0,0.0,0.0,0.0,0.0, 13:11:45.746
61297.109375, 115975.640625, 187500.015625, 97259.726563, 133220.750000, 102852.687500, 90955.773438, 104456.429688, 0.000, 0.000, 0.000,0.0,0.0,0.0,0.0,0.0, 13:11:45.747
61526.394531, 116211.343750, 187500.015625, 96456.554688, 133409.890625, 102480.398438, 90912.968750, 104237.515625, 0.000, 0.000, 0.000,0.0,0.0,0.0,0.0,0.0, 13:11:45.747
61459.605469, 116140.843750, 187500.015625, 96478.796875, 133411.859375, 102652.039063, 90933.062500, 104307.656250, 0.000, 0.000, 0.000,0.0,0.0,0.0,0.0,0.0, 13:11:45.747
61220.375000, 115894.351563, 187500.015625, 97282.140625, 133210.296875, 103030.406250, 90969.945313, 104522.765625, 0.000, 0.000, 0.000,0.0,0.0,0.0,0.0,0.0, 13:11:45.748
61258.933594, 115933.625000, 187500.015625, 97361.062500, 133192.562500, 102911.695313, 90961.335938, 104488.273438, 0.000, 0.000, 0.000,0.0,0.0,0.0,0.0,0.0, 13:11:45.748
61504.421875, 116187.093750, 187500.015625, 96563.625000, 133394.406250, 102517.523438, 90921.976563, 104266.437500, 0.000, 0.000, 0.000,0.0,0.0,0.0,0.0,0.0, 13:11:45.748
61489.492188, 116176.140625, 187500.015625, 96386.593750, 133435.531250, 102584.531250, 90926.867188, 104275.781250, 0.000, 0.000, 0.000,0.0,0.0,0.0,0.0,0.0, 13:11:45.748
61242.750000, 115925.242188, 187500.015625, 97160.617188, 133244.375000, 102989.656250, 90968.843750, 104499.851563, 0.162, 0.182, 0.960,0.0,0.0,0.0,0.0,0.0, 13:11:45.749
61225.605469, 115901.929688, 187500.015625, 97454.023438, 133179.046875, 102982.062500, 90975.640625, 104524.843750, 0.000, 0.000, 0.000,0.0,0.0,0.0,0.0,0.0, 13:11:45.749
61466.781250, 116147.687500, 187500.015625, 96732.695313, 133361.328125, 102581.539063, 90941.085938, 104309.640625, 0.000, 0.000, 0.000,0.0,0.0,0.0,0.0,0.0, 13:11:45.749
61528.406250, 116213.601563, 187500.015625, 96347.570313, 133459.328125, 102539.046875, 90935.585938, 104255.484375, 0.000, 0.000, 0.000,0.0,0.0,0.0,0.0,0.0, 13:11:45.750
61290.449219, 115974.484375, 187500.015625, 97022.523438, 133287.890625, 102937.359375, 90970.296875, 104463.804688, 0.000, 0.000, 0.000,0.0,0.0,0.0,0.0,0.0, 13:11:45.750
61203.187500, 115883.890625, 187500.015625, 97502.218750, 133178.390625, 103040.351563, 90989.882813, 104552.875000, 0.000, 0.000, 0.000,0.0,0.0,0.0,0.0,0.0, 13:11:45.750
61421.718750, 116102.757813, 187500.015625, 96888.796875, 133324.578125, 102654.093750, 90952.531250, 104355.304688, 0.000, 0.000, 0.000,0.0,0.0,0.0,0.0,0.0, 13:11:45.751
61539.671875, 116224.062500, 187500.015625, 96327.187500, 133457.546875, 102497.515625, 90930.289063, 104243.460938, 0.000, 0.000, 0.000,0.0,0.0,0.0,0.0,0.0, 13:11:45.751
61340.851563, 116018.804688, 187500.015625, 96870.468750, 133331.968750, 102869.343750, 90972.062500, 104435.015625, 0.000, 0.000, 0.000,0.0,0.0,0.0,0.0,0.0, 13:11:45.751
61201.957031, 115875.242188, 187500.015625, 97499.242188, 133189.406250, 103068.625000, 91004.718750, 104572.210938, 0.000, 0.000, 0.000,0.0,0.0,0.0,0.0,0.0, 13:11:45.752
61378.335938, 116058.414063, 187500.015625, 97028.585938, 133297.343750, 102723.742188, 90964.937500, 104398.492188, 0.166, 0.184, 0.956,0.0,0.0,0.0,0.0,0.0, 13:11:45.752
61537.972656, 116221.445313, 187500.015625, 96338.742188, 133454.437500, 102476.421875, 90932.906250, 104236.328125, 0.000, 0.000, 0.000,0.0,0.0,0.0,0.0,0.0, 13:11:45.752
61370.890625, 116052.171875, 187500.015625, 96718.765625, 133359.515625, 102793.632813, 90965.382813, 104391.156250, 0.000, 0.000, 0.000,0.0,0.0,0.0,0.0,0.0, 13:11:45.753
61182.914063, 115862.429688, 187500.015625, 97456.843750, 133184.250000, 103073.859375, 90996.828125, 104565.679688, 0.000, 0.000, 0.000,0.0,0.0,0.0,0.0,0.0, 13:11:45.753
61319.394531, 116000.500000, 187500.015625, 97179.148438, 133255.109375, 102800.046875, 90970.546875, 104439.484375, 0.000, 0.000, 0.000,0.0,0.0,0.0,0.0,0.0, 13:11:45.753
61531.222656, 116216.796875, 187500.015625, 96401.531250, 133443.703125, 102476.445313, 90933.781250, 104242.429688, 0.000, 0.000, 0.000,0.0,0.0,0.0,0.0,0.0, 13:11:45.754
61421.652344, 116102.578125, 187500.015625, 96580.546875, 133402.046875, 102721.281250, 90960.218750, 104351.929688, 0.000, 0.000, 0.000,0.0,0.0,0.0,0.0,0.0, 13:11:45.754
61192.792969, 115867.929688, 187500.015625, 97382.656250, 133202.734375, 103067.398438, 90993.437500, 104554.726563, 0.000, 0.000, 0.000,0.0,0.0,0.0,0.0,0.0, 13:11:45.754
61270.667969, 115950.875000, 187500.015625, 97321.703125, 133218.156250, 102877.296875, 90976.671875, 104479.179688, 0.000, 0.000, 0.000,0.0,0.0,0.0,0.0,0.0, 13:11:45.754
61513.472656, 116199.492188, 187500.015625, 96515.429688, 133415.906250, 102498.101563, 90935.718750, 104261.250000, 0.166, 0.188, 0.960,0.0,0.0,0.0,0.0,0.0, 13:11:45.755
61475.429688, 116158.281250, 187500.015625, 96486.820313, 133434.906250, 102650.179688, 90955.343750, 104322.562500, 0.000, 0.000, 0.000,0.0,0.0,0.0,0.0,0.0, 13:11:45.755
61236.871094, 115919.585938, 187500.015625, 97270.585938, 133247.031250, 103041.468750, 90993.523438, 104543.843750, 0.000, 0.000, 0.000,0.0,0.0,0.0,0.0,0.0, 13:11:45.755
61247.578125, 115929.914063, 187500.015625, 97402.281250, 133203.578125, 102949.984375, 90976.382813, 104518.070313, 0.000, 0.000, 0.000,0.0,0.0,0.0,0.0,0.0, 13:11:45.756
61488.617188, 116175.179688, 187500.015625, 96622.007813, 133385.859375, 102544.703125, 90928.125000, 104290.148438, 0.000, 0.000, 0.000,0.0,0.0,0.0,0.0,0.0, 13:11:45.756
61497.515625, 116182.328125, 187500.015625, 96396.882813, 133443.281250, 102585.804688, 90932.570313, 104285.570313, 0.000, 0.000, 0.000,0.0,0.0,0.0,0.0,0.0, 13:11:45.756
61250.976563, 115931.476563, 187500.015625, 97140.546875, 133251.796875, 102984.789063, 90964.601563, 104497.460938, 0.000, 0.000, 0.000,0.0,0.0,0.0,0.0,0.0, 13:11:45.757
61204.574219, 115888.429688, 187500.015625, 97486.343750, 133176.703125, 103006.960938, 90975.484375, 104539.710938, 0.000, 0.000, 0.000,0.0,0.0,0.0,0.0,0.0, 13:11:45.757
61443.042969, 116128.125000, 187500.015625, 96798.296875, 133343.281250, 102606.218750, 90937.757813, 104326.203125, 0.000, 0.000, 0.000,0.0,0.0,0.0,0.0,0.0, 13:11:45.757
61532.136719, 116212.078125, 187500.015625, 96361.632813, 133460.296875, 102530.398438, 90929.710938, 104253.539063, 0.000, 0.000, 0.000,0.0,0.0,0.0,0.0,0.0, 13:11:45.758
61303.835938, 115982.148438, 187500.015625, 97016.226563, 133303.390625, 102929.914063, 90975.437500, 104466.976563, 0.158, 0.186, 0.962,0.0,0.0,0.0,0.0,0.0, 13:11:45.758
61194.917969, 115868.062500, 187500.015625, 97526.492188, 133170.281250, 103044.601563, 90983.867188, 104558.414063, 0.000, 0.000, 0.000,0.0,0.0,0.0,0.0,0.0, 13:11:45.759
61407.707031, 116086.085938, 187500.015625, 96947.937500, 133307.453125, 102666.382813, 90946.921875, 104366.125000, 0.000, 0.000, 0.000,0.0,0.0,0.0,0.0,0.0, 13:11:45.759
61545.683594, 116226.250000, 187500.015625, 96343.164063, 133453.921875, 102485.132813, 90923.984375, 104236.281250, 0.000, 0.000, 0.000,0.0,0.0,0.0,0.0,0.0, 13:11:45.759
61353.480469, 116030.742188, 187500.015625, 96843.625000, 133335.015625, 102847.750000, 90963.750000, 104420.242188, 0.000, 0.000, 0.000,0.0,0.0,0.0,0.0,0.0, 13:11:46.205
61201.980469, 115876.023438, 187500.015625, 97507.382813, 133181.718750, 103072.515625, 90995.539063, 104569.460938, 0.000, 0.000, 0.000,0.0,0.0,0.0,0.0,0.0, 13:11:46.205
61372.546875, 116046.812500, 187500.015625, 97104.289063, 133275.828125, 102747.812500, 90964.648438, 104409.890625, 0.000, 0.000, 0.000,0.0,0.0,0.0,0.0,0.0, 13:11:46.205
61556.097656, 116235.976563, 187500.015625, 96373.835938, 133447.750000, 102473.781250, 90928.546875, 104231.765625, 0.000, 0.000, 0.000,0.0,0.0,0.0,0.0,0.0, 13:11:46.206
61402.050781, 116082.437500, 187500.015625, 96692.257813, 133369.296875, 102773.968750, 90957.445313, 104372.117188, 0.000, 0.000, 0.000,0.0,0.0,0.0,0.0,0.0, 13:11:46.206
61196.054688, 115876.179688, 187500.015625, 97455.656250, 133179.328125, 103075.335938, 90987.468750, 104556.046875, 0.000, 0.000, 0.000,0.0,0.0,0.0,0.0,0.0, 13:11:46.206
61320.464844, 116000.031250, 187500.015625, 97242.023438, 133231.968750, 102822.734375, 90966.593750, 104444.578125, 0.168, 0.176, 0.958,0.0,0.0,0.0,0.0,0.0, 13:11:46.206
61542.777344, 116223.125000, 187500.015625, 96446.703125, 133420.781250, 102474.187500, 90924.320313, 104235.882813, 0.000, 0.000, 0.000,0.0,0.0,0.0,0.0,0.0, 13:11:46.207
61450.218750, 116126.632813, 187500.015625, 96557.679688, 133400.703125, 102691.062500, 90945.359375, 104331.546875, 0.000, 0.000, 0.000,0.0,0.0,0.0,0.0,0.0, 13:11:46.207
61221.226563, 115890.664063, 187500.015625, 97357.757813, 133212.234375, 103058.367188, 90987.914063, 104546.750000, 0.000, 0.000, 0.000,0.0,0.0,0.0,0.0,0.0, 13:11:46.207
61278.156250, 115954.945313, 187500.015625, 97335.335938, 133208.453125, 102892.320313, 90968.265625, 104480.093750, 0.000, 0.000, 0.000,0.0,0.0,0.0,0.0,0.0, 13:11:46.207
61513.207031, 116193.039063, 187500.015625, 96522.023438, 133397.281250, 102501.046875, 90922.242188, 104254.546875, 0.000, 0.000, 0.000,0.0,0.0,0.0,0.0,0.0, 13:11:46.207
61484.417969, 116160.734375, 187500.015625, 96431.367188, 133423.218750, 102618.976563, 90937.132813, 104290.195313, 0.000, 0.000, 0.000,0.0,0.0,0.0,0.0,0.0, 13:11:46.208
61246.035156, 115915.203125, 187500.015625, 97217.679688, 133232.187500, 103018.046875, 90972.828125, 104508.531250, 0.000, 0.000, 0.000,0.0,0.0,0.0,0.0,0.0, 13:11:46.208
61236.757813, 115909.281250, 187500.015625, 97428.703125, 133181.656250, 102962.125000, 90972.578125, 104508.593750, 0.000, 0.000, 0.000,0.0,0.0,0.0,0.0,0.0, 13:11:46.208
61483.476563, 116159.531250, 187500.015625, 96667.000000, 133364.875000, 102555.296875, 90931.343750, 104285.523438, 0.176, 0.186, 0.964,0.0,0.0,0.0,0.0,0.0, 13:11:46.208
61515.621094, 116189.257813, 187500.015625, 96365.320313, 133437.765625, 102561.578125, 90924.257813, 104257.851563, 0.000, 0.000, 0.000,0.0,0.0,0.0,0.0,0.0, 13:11:46.208
61280.343750, 115948.976563, 187500.015625, 97092.710938, 133266.171875, 102972.648438, 90967.617188, 104481.976563, 0.000, 0.000, 0.000,0.0,0.0,0.0,0.0,0.0, 13:11:46.209
61208.527344, 115878.343750, 187500.015625, 97493.835938, 133169.046875, 103021.710938, 90979.085938, 104540.156250, 0.000, 0.000, 0.000,0.0,0.0,0.0,0.0,0.0, 13:11:46.209
61438.507813, 116113.554688, 187500.015625, 96819.062500, 133336.375000, 102625.171875, 90943.343750, 104333.265625, 0.000, 0.000, 0.000,0.0,0.0,0.0,0.0,0.0, 13:11:46.209
61545.972656, 116220.953125, 187500.015625, 96322.312500, 133460.765625, 102521.906250, 90926.890625, 104246.968750, 0.000, 0.000, 0.000,0.0,0.0,0.0,0.0,0.0, 13:11:46.209
61340.316406, 116008.632813, 187500.015625, 96929.679688, 133309.843750, 102912.140625, 90964.687500, 104448.804688, 0.000, 0.000, 0.000,0.0,0.0,0.0,0.0,0.0, 13:11:46.210
61212.796875, 115883.109375, 187500.015625, 97503.718750, 133166.921875, 103063.843750, 90984.765625, 104554.773438, 0.000, 0.000, 0.000,0.0,0.0,0.0,0.0,0.0, 13:11:46.210
61418.234375, 116093.750000, 187500.015625, 96975.835938, 133293.140625, 102697.078125, 90947.546875, 104368.671875, 0.000, 0.000, 0.000,0.0,0.0,0.0,0.0,0.0, 13:11:46.210
61580.753906, 116259.914063, 187500.015625, 96335.007813, 133454.484375, 102485.851563, 90919.625000, 104227.703125, 0.000, 0.000, 0.000,0.0,0.0,0.0,0.0,0.0, 13:11:46.210
61396.597656, 116075.648438, 187500.015625, 96782.492188, 133343.218750, 102830.539063, 90949.398438, 104398.625000, 0.164, 0.184, 0.962,0.0,0.0,0.0,0.0,0.0, 13:11:46.210
61222.253906, 115896.140625, 187500.015625, 97482.328125, 133172.531250, 103077.390625, 90980.648438, 104556.921875, 0.000, 0.000, 0.000,0.0,0.0,0.0,0.0,0.0, 13:11:46.211
61378.289063, 116055.234375, 187500.015625, 97127.132813, 133260.984375, 102772.398438, 90954.875000, 104413.109375, 0.000, 0.000, 0.000,0.0,0.0,0.0,0.0,0.0, 13:11:46.211
61566.289063, 116243.687500, 187500.015625, 96384.117188, 133437.390625, 102478.140625, 90918.156250, 104232.195313, 0.000, 0.000, 0.000,0.0,0.0,0.0,0.0,0.0, 13:11:46.211
61424.738281, 116100.632813, 187500.015625, 96643.507813, 133373.687500, 102751.906250, 90945.062500, 104360.539063, 0.000, 0.000, 0.000,0.0,0.0,0.0,0.0,0.0, 13:11:46.211
61206.203125, 115883.351563, 187500.015625, 97425.531250, 133182.218750, 103075.937500, 90984.359375, 104555.781250, 0.000, 0.000, 0.000,0.0,0.0,0.0,0.0,0.0, 13:11:46.211
61323.238281, 115997.953125, 187500.015625, 97268.421875, 133229.609375, 102852.976563, 90970.234375, 104464.515625, 0.000, 0.000, 0.000,0.0,0.0,0.0,0.0,0.0, 13:11:46.212
61553.460938, 116230.367188, 187500.015625, 96458.148438, 133422.312500, 102491.328125, 90922.914063, 104250.609375, 0.000, 0.000, 0.000,0.0,0.0,0.0,0.0,0.0, 13:11:46.212
61472.234375, 116147.218750, 187500.015625, 96523.367188, 133411.453125, 102679.640625, 90943.257813, 104327.078125, 0.000, 0.000, 0.000,0.0,0.0,0.0,0.0,0.0, 13:11:46.212
61234.816406, 115907.179688, 187500.015625, 97335.164063, 133215.625000, 103052.710938, 90985.429688, 104539.085938, 0.162, 0.188, 0.956,0.0,0.0,0.0,0.0,0.0, 13:11:46.213
61276.613281, 115951.148438, 187500.015625, 97398.375000, 133198.671875, 102923.546875, 90979.132813, 104495.671875, 0.000, 0.000, 0.000,0.0,0.0,0.0,0.0,0.0, 13:11:46.213
61527.332031, 116203.343750, 187500.015625, 96591.648438, 133399.140625, 102526.953125, 90939.273438, 104272.585938, 0.000, 0.000, 0.000,0.0,0.0,0.0,0.0,0.0, 13:11:46.213
61510.097656, 116181.367188, 187500.015625, 96444.289063, 133435.187500, 102611.804688, 90946.898438, 104291.828125, 0.000, 0.000, 0.000,0.0,0.0,0.0,0.0,0.0, 13:11:46.213
61266.777344, 115938.781250, 187500.015625, 97223.132813, 133249.781250, 103015.679688, 90989.789063, 104518.031250, 0.000, 0.000, 0.000,0.0,0.0,0.0,0.0,0.0, 13:11:46.214
61258.796875, 115932.171875, 187500.015625, 97465.539063, 133192.046875, 102986.085938, 90989.007813, 104528.109375, 0.000, 0.000, 0.000,0.0,0.0,0.0,0.0,0.0, 13:11:46.214
61501.402344, 116178.820313, 187500.015625, 96713.734375, 133378.171875, 102579.906250, 90947.437500, 104306.468750, 0.000, 0.000, 0.000,0.0,0.0,0.0,0.0,0.0, 13:11:46.214
61544.789063, 116220.218750, 187500.015625, 96370.304688, 133462.796875, 102555.031250, 90945.132813, 104266.343750, 0.000, 0.000, 0.000,0.0,0.0,0.0,0.0,0.0, 13:11:46.214
61306.226563, 115976.312500, 187500.015625, 97066.562500, 133283.687500, 102956.828125, 90983.578125, 104480.742188, 0.000, 0.000, 0.000,0.0,0.0,0.0,0.0,0.0, 13:11:46.214
61241.429688, 115908.031250, 187500.015625, 97493.742188, 133188.031250, 103038.812500, 90996.046875, 104556.562500, 0.000, 0.000, 0.000,0.0,0.0,0.0,0.0,0.0, 13:11:46.214
61459.605469, 116129.757813, 187500.015625, 96862.664063, 133339.781250, 102654.359375, 90961.445313, 104358.078125, 0.164, 0.184, 0.954,0.0,0.0,0.0,0.0,0.0, 13:11:46.215
61561.464844, 116233.445313, 187500.015625, 96348.820313, 133463.796875, 102521.882813, 90944.414063, 104258.570313, 0.000, 0.000, 0.000,0.0,0.0,0.0,0.0,0.0, 13:11:46.215
61359.312500, 116024.523438, 187500.015625, 96911.390625, 133334.000000, 102896.562500, 90981.992188, 104451.554688, 0.000, 0.000, 0.000,0.0,0.0,0.0,0.0,0.0, 13:11:46.215
61223.972656, 115890.484375, 187500.015625, 97508.320313, 133189.656250, 103075.109375, 91001.617188, 104573.281250, 0.000, 0.000, 0.000,0.0,0.0,0.0,0.0,0.0, 13:11:46.215
61401.042969, 116073.523438, 187500.015625, 97024.984375, 133294.593750, 102720.546875, 90962.968750, 104394.468750, 0.000, 0.000, 0.000,0.0,0.0,0.0,0.0,0.0, 13:11:46.215
61565.820313, 116241.406250, 187500.015625, 96355.351563, 133458.125000, 102487.484375, 90937.421875, 104241.804688, 0.000, 0.000, 0.000,0.0,0.0,0.0,0.0,0.0, 13:11:46.215
61397.312500, 116072.585938, 187500.015625, 96753.703125, 133359.437500, 102812.921875, 90968.039063, 104401.148438, 0.000, 0.000, 0.000,0.0,0.0,0.0,0.0,0.0, 13:11:46.216
61219.347656, 115888.601563, 187500.015625, 97466.343750, 133190.531250, 103083.468750, 90995.890625, 104571.648438, 0.000, 0.000, 0.000,0.0,0.0,0.0,0.0,0.0, 13:11:46.216
61369.886719, 116035.750000, 187500.015625, 97175.390625, 133272.468750, 102809.390625, 90981.210938, 104446.617188, 0.000, 0.000, 0.000,0.0,0.0,0.0,0.0,0.0, 13:11:46.216
61568.773438, 116235.367188, 187500.015625, 96405.820313, 133448.312500, 102485.695313, 90938.000000, 104242.539063, 0.172, 0.178, 0.956,0.0,0.0,0.0,0.0,0.0, 13:11:46.216
61444.183594, 116116.835938, 187500.015625, 96614.945313, 133392.765625, 102740.390625, 90957.226563, 104357.250000, 0.000, 0.000, 0.000,0.0,0.0,0.0,0.0,0.0, 13:11:46.216
61225.828125, 115898.843750, 187500.015625, 97412.343750, 133203.140625, 103081.929688, 90995.554688, 104559.468750, 0.000, 0.000, 0.000,0.0,0.0,0.0,0.0,0.0, 13:11:46.217
61315.101563, 115987.914063, 187500.015625, 97312.476563, 133226.718750, 102876.250000, 90976.937500, 104472.992188, 0.000, 0.000, 0.000,0.0,0.0,0.0,0.0,0.0, 13:11:46.217
61549.035156, 116226.695313, 187500.015625, 96496.945313, 133420.437500, 102499.171875, 90930.960938, 104251.414063, 0.000, 0.000, 0.000,0.0,0.0,0.0,0.0,0.0, 13:11:46.217
61491.992188, 116170.546875, 187500.015625, 96481.367188, 133431.234375, 102659.835938, 90945.710938, 104310.875000, 0.000, 0.000, 0.000,0.0,0.0,0.0,0.0,0.0, 13:11:46.218
61246.058594, 115921.437500, 187500.015625, 97288.554688, 133235.765625, 103049.695313, 90991.195313, 104533.742188, 0.000, 0.000, 0.000,0.0,0.0,0.0,0.0,0.0, 13:11:46.218
61274.109375, 115947.773438, 187500.015625, 97395.914063, 133208.703125, 102946.679688, 90983.265625, 104508.304688, 0.000, 0.000, 0.000,0.0,0.0,0.0,0.0,0.0, 13:11:46.218
61514.167969, 116187.648438, 187500.015625, 96616.148438, 133394.640625, 102543.250000, 90943.367188, 104284.539063, 0.000, 0.000, 0.000,0.0,0.0,0.0,0.0,0.0, 13:11:46.218
61514.097656, 116188.070313, 187500.015625, 96406.156250, 133450.109375, 102592.312500, 90947.367188, 104285.234375, 0.000, 0.000, 0.000,0.0,0.0,0.0,0.0,0.0, 13:11:46.219
61265.660156, 115938.359375, 187500.015625, 97164.460938, 133259.125000, 102994.421875, 90983.375000, 104503.546875, 0.170, 0.178, 0.958,0.0,0.0,0.0,0.0,0.0, 13:11:46.219
61229.988281, 115901.304688, 187500.015625, 97485.679688, 133177.203125, 102997.039063, 90988.203125, 104534.390625, 0.000, 0.000, 0.000,0.0,0.0,0.0,0.0,0.0, 13:11:46.219
61480.324219, 116153.898438, 187500.015625, 96762.578125, 133355.218750, 102592.179688, 90946.671875, 104317.445313, 0.000, 0.000, 0.000,0.0,0.0,0.0,0.0,0.0, 13:11:46.219
61555.875000, 116227.835938, 187500.015625, 96354.031250, 133467.468750, 102540.656250, 90944.484375, 104262.750000, 0.000, 0.000, 0.000,0.0,0.0,0.0,0.0,0.0, 13:11:46.220
61318.902344, 115988.804688, 187500.015625, 97022.390625, 133299.031250, 102939.031250, 90983.976563, 104471.359375, 0.000, 0.000, 0.000,0.0,0.0,0.0,0.0,0.0, 13:11:46.220
61223.191406, 115892.828125, 187500.015625, 97516.546875, 133179.437500, 103048.062500, 90999.757813, 104559.132813, 0.000, 0.000, 0.000,0.0,0.0,0.0,0.0,0.0, 13:11:46.220
61443.894531, 116116.500000, 187500.015625, 96908.804688, 133328.625000, 102665.851563, 90961.625000, 104364.046875, 0.000, 0.000, 0.000,0.0,0.0,0.0,0.0,0.0, 13:11:46.220
61564.347656, 116240.265625, 187500.015625, 96336.570313, 133469.171875, 102503.398438, 90941.687500, 104250.859375, 0.000, 0.000, 0.000,0.0,0.0,0.0,0.0,0.0, 13:11:46.221
61359.136719, 116028.640625, 187500.015625, 96866.625000, 133336.250000, 102868.890625, 90975.867188, 104436.421875, 0.000, 0.000, 0.000,0.0,0.0,0.0,0.0,0.0, 13:11:46.221
61213.468750, 115878.460938, 187500.015625, 97503.625000, 133187.359375, 103072.984375, 91001.812500, 104575.000000, 0.000, 0.000, 0.000,0.0,0.0,0.0,0.0,0.0, 13:11:46.221
61388.527344, 116058.054688, 187500.015625, 97066.960938, 133291.921875, 102741.531250, 90971.148438, 104411.718750, 0.174, 0.186, 0.958,0.0,0.0,0.0,0.0,0.0, 13:11:46.221
61563.945313, 116237.492188, 187500.015625, 96360.867188, 133450.500000, 102481.179688, 90931.250000, 104243.640625, 0.000, 0.000, 0.000,0.0,0.0,0.0,0.0,0.0, 13:11:46.222
61407.214844, 116075.664063, 187500.015625, 96711.859375, 133365.953125, 102789.656250, 90964.039063, 104389.195313, 0.000, 0.000, 0.000,0.0,0.0,0.0,0.0,0.0, 13:11:46.222
61208.261719, 115872.335938, 187500.015625, 97457.492188, 133180.500000, 103077.101563, 90991.734375, 104562.039063, 0.000, 0.000, 0.000,0.0,0.0,0.0,0.0,0.0, 13:11:46.222
61342.171875, 116009.664063, 187500.015625, 97207.375000, 133243.656250, 102812.523438, 90967.257813, 104442.031250, 0.000, 0.000, 0.000,0.0,0.0,0.0,0.0,0.0, 13:11:46.222
61561.597656, 116235.015625, 187500.015625, 96411.515625, 133432.218750, 102474.164063, 90920.273438, 104235.343750, 0.000, 0.000, 0.000,0.0,0.0,0.0,0.0,0.0, 13:11:46.222
61464.078125, 116130.382813, 187500.015625, 96553.296875, 133404.500000, 102703.515625, 90944.218750, 104336.914063, 0.000, 0.000, 0.000,0.0,0.0,0.0,0.0,0.0, 13:11:46.223
61240.558594, 115901.726563, 187500.015625, 97351.992188, 133215.718750, 103063.351563, 90987.734375, 104550.031250, 0.000, 0.000, 0.000,0.0,0.0,0.0,0.0,0.0, 13:11:46.223
61314.097656, 115976.109375, 187500.015625, 97318.171875, 133225.796875, 102892.671875, 90977.500000, 104485.531250, 0.000, 0.000, 0.000,0.0,0.0,0.0,0.0,0.0, 13:11:46.223
61551.203125, 116217.039063, 187500.015625, 96514.046875, 133416.109375, 102510.304688, 90934.335938, 104266.007813, 0.180, 0.192, 0.960,0.0,0.0,0.0,0.0,0.0, 13:11:46.223
61503.640625, 116167.351563, 187500.015625, 96469.546875, 133431.109375, 102645.484375, 90949.085938, 104314.289063, 0.000, 0.000, 0.000,0.0,0.0,0.0,0.0,0.0, 13:11:46.224
61260.832031, 115920.593750, 187500.015625, 97268.101563, 133239.609375, 103034.523438, 90986.546875, 104530.476563, 0.000, 0.000, 0.000,0.0,0.0,0.0,0.0,0.0, 13:11:46.224
61279.382813, 115938.335938, 187500.015625, 97427.718750, 133205.078125, 102957.609375, 90982.460938, 104520.351563, 0.000, 0.000, 0.000,0.0,0.0,0.0,0.0,0.0, 13:11:46.224
61527.531250, 116191.625000, 187500.015625, 96643.843750, 133398.156250, 102554.289063, 90945.062500, 104300.031250, 0.000, 0.000, 0.000,0.0,0.0,0.0,0.0,0.0, 13:11:46.224
61543.468750, 116206.625000, 187500.015625, 96391.203125, 133455.625000, 102580.914063, 90945.203125, 104284.476563, 0.000, 0.000, 0.000,0.0,0.0,0.0,0.0,0.0, 13:11:46.225
61302.742188, 115962.882813, 187500.015625, 97136.921875, 133270.421875, 102984.828125, 90983.109375, 104502.109375, 0.000, 0.000, 0.000,0.0,0.0,0.0,0.0,0.0, 13:11:46.225
61247.933594, 115907.671875, 187500.015625, 97505.234375, 133178.343750, 103012.148438, 90984.937500, 104543.218750, 0.000, 0.000, 0.000,0.0,0.0,0.0,0.0,0.0, 13:11:46.225
61481.933594, 116147.281250, 187500.015625, 96810.812500, 133348.734375, 102612.500000, 90944.414063, 104329.937500, 0.000, 0.000, 0.000,0.0,0.0,0.0,0.0,0.0, 13:11:46.225
61573.042969, 116241.273438, 187500.015625, 96351.859375, 133467.000000, 102523.289063, 90933.757813, 104252.554688, 0.000, 0.000, 0.000,0.0,0.0,0.0,0.0,0.0, 13:11:46.225
61347.558594, 116016.929688, 187500.015625, 96971.406250, 133312.500000, 102913.101563, 90967.726563, 104454.929688, 0.174, 0.196, 0.954,0.0,0.0,0.0,0.0,0.0, 13:11:46.226
61233.273438, 115901.148438, 187500.015625, 97515.804688, 133188.593750, 103059.351563, 90990.882813, 104562.437500, 0.000, 0.000, 0.000,0.0,0.0,0.0,0.0,0.0, 13:11:46.226
61433.296875, 116105.773438, 187500.015625, 96965.750000, 133318.312500, 102689.765625, 90954.140625, 104374.125000, 0.000, 0.000, 0.000,0.0,0.0,0.0,0.0,0.0, 13:11:46.226
61569.753906, 116245.140625, 187500.015625, 96359.796875, 133460.859375, 102493.789063, 90928.953125, 104240.218750, 0.000, 0.000, 0.000,0.0,0.0,0.0,0.0,0.0, 13:11:46.226
61387.656250, 116056.843750, 187500.015625, 96831.484375, 133346.406250, 102843.031250, 90963.703125, 104414.070313, 0.000, 0.000, 0.000,0.0,0.0,0.0,0.0,0.0, 13:11:46.226
61226.542969, 115890.773438, 187500.015625, 97505.953125, 133181.718750, 103072.382813, 90988.585938, 104560.164063, 0.000, 0.000, 0.000,0.0,0.0,0.0,0.0,0.0, 13:11:46.226
61388.996094, 116055.484375, 187500.015625, 97126.460938, 133274.281250, 102758.500000, 90962.812500, 104408.281250, 0.000, 0.000, 0.000,0.0,0.0,0.0,0.0,0.0, 13:11:46.226
61581.601563, 116249.093750, 187500.015625, 96394.507813, 133449.187500, 102473.109375, 90929.843750, 104229.265625, 0.000, 0.000, 0.000,0.0,0.0,0.0,0.0,0.0, 13:11:46.227
61441.636719, 116108.164063, 187500.015625, 96683.070313, 133383.500000, 102761.781250, 90961.359375, 104370.507813, 0.000, 0.000, 0.000,0.0,0.0,0.0,0.0,0.0, 13:11:46.227
61238.769531, 115901.210938, 187500.015625, 97439.382813, 133202.468750, 103072.562500, 90993.234375, 104558.929688, 0.170, 0.200, 0.962,0.0,0.0,0.0,0.0,0.0, 13:11:46.227
61349.410156, 116013.531250, 187500.015625, 97248.617188, 133251.000000, 102835.656250, 90975.039063, 104456.718750, 0.000, 0.000, 0.000,0.0,0.0,0.0,0.0,0.0, 13:11:46.228
61570.179688, 116237.718750, 187500.015625, 96454.414063, 133436.671875, 102484.531250, 90932.906250, 104248.640625, 0.000, 0.000, 0.000,0.0,0.0,0.0,0.0,0.0, 13:11:46.228
61479.855469, 116146.343750, 187500.015625, 96551.507813, 133417.531250, 102690.343750, 90954.632813, 104338.539063, 0.000, 0.000, 0.000,0.0,0.0,0.0,0.0,0.0, 13:11:46.228
61240.289063, 115902.554688, 187500.015625, 97356.796875, 133217.437500, 103053.812500, 90990.710938, 104546.234375, 0.000, 0.000, 0.000,0.0,0.0,0.0,0.0,0.0, 13:11:46.229
61303.992188, 115964.960938, 187500.015625, 97363.210938, 133217.906250, 102902.937500, 90977.164063, 104491.226563, 0.000, 0.000, 0.000,0.0,0.0,0.0,0.0,0.0, 13:11:46.229
61542.441406, 116206.132813, 187500.015625, 96566.101563, 133407.640625, 102514.820313, 90935.835938, 104270.414063, 0.000, 0.000, 0.000,0.0,0.0,0.0,0.0,0.0, 13:11:46.229
61525.277344, 116187.312500, 187500.015625, 96441.156250, 133433.625000, 102611.625000, 90937.625000, 104289.906250, 0.000, 0.000, 0.000,0.0,0.0,0.0,0.0,0.0, 13:11:46.229
61291.074219, 115951.992188, 187500.015625, 97211.507813, 133247.734375, 103009.460938, 90975.773438, 104507.007813, 0.000, 0.000, 0.000,0.0,0.0,0.0,0.0,0.0, 13:11:46.230
61288.527344, 115945.984375, 187500.015625, 97446.140625, 133190.390625, 102968.289063, 90976.289063, 104513.828125, 0.000, 0.000, 0.000,0.0,0.0,0.0,0.0,0.0, 13:11:46.230
61538.285156, 116200.929688, 187500.015625, 96691.875000, 133373.296875, 102564.531250, 90934.984375, 104294.445313, 0.172, 0.196, 0.956,0.0,0.0,0.0,0.0,0.0, 13:11:46.230
61580.886719, 116244.421875, 187500.015625, 96379.687500, 133451.000000, 102557.468750, 90934.250000, 104260.539063, 0.000, 0.000, 0.000,0.0,0.0,0.0,0.0,0.0, 13:11:46.231
61358.734375, 116013.687500, 187500.015625, 97084.710938, 133276.093750, 102956.359375, 90968.734375, 104474.281250, 0.000, 0.000, 0.000,0.0,0.0,0.0,0.0,0.0, 13:11:46.231
61299.613281, 115955.125000, 187500.015625, 97502.640625, 133175.750000, 103022.140625, 90979.351563, 104539.640625, 0.000, 0.000, 0.000,0.0,0.0,0.0,0.0,0.0, 13:11:46.231
61532.339844, 116194.109375, 187500.015625, 96858.914063, 133337.250000, 102634.539063, 90948.085938, 104337.960938, 0.000, 0.000, 0.000,0.0,0.0,0.0,0.0,0.0, 13:11:46.231
61642.621094, 116302.875000, 187500.015625, 96361.656250, 133465.328125, 102516.320313, 90936.031250, 104246.523438, 0.000, 0.000, 0.000,0.0,0.0,0.0,0.0,0.0, 13:11:46.232
61443.781250, 116097.664063, 187500.015625, 96943.734375, 133331.281250, 102902.156250, 90974.750000, 104449.203125, 0.000, 0.000, 0.000,0.0,0.0,0.0,0.0,0.0, 13:11:46.232
61324.980469, 115976.539063, 187500.015625, 97537.960938, 133184.468750, 103070.125000, 90997.367188, 104568.992188, 0.000, 0.000, 0.000,0.0,0.0,0.0,0.0,0.0, 13:11:46.232
61535.488281, 116193.125000, 187500.015625, 97019.531250, 133312.890625, 102713.976563, 90964.757813, 104389.570313, 0.000, 0.000, 0.000,0.0,0.0,0.0,0.0,0.0, 13:11:46.233
61700.847656, 116358.414063, 187500.015625, 96367.773438, 133464.875000, 102493.296875, 90934.289063, 104241.312500, 0.176, 0.192, 0.956,0.0,0.0,0.0,0.0,0.0, 13:11:46.685
61528.359375, 116182.375000, 187500.015625, 96818.742188, 133351.328125, 102831.523438, 90969.164063, 104407.859375, 0.000, 0.000, 0.000,0.0,0.0,0.0,0.0,0.0, 13:11:46.685
61362.152344, 116014.242188, 187500.015625, 97521.125000, 133183.125000, 103082.531250, 90994.796875, 104568.585938, 0.000, 0.000, 0.000,0.0,0.0,0.0,0.0,0.0, 13:11:46.685
61518.972656, 116175.156250, 187500.015625, 97195.640625, 133272.921875, 102790.460938, 90976.398438, 104437.468750, 0.000, 0.000, 0.000,0.0,0.0,0.0,0.0,0.0, 13:11:46.686
61721.343750, 116380.882813, 187500.015625, 96447.726563, 133454.218750, 102488.265625, 90943.140625, 104251.859375, 0.000, 0.000, 0.000,0.0,0.0,0.0,0.0,0.0, 13:11:46.686
61594.296875, 116253.367188, 187500.015625, 96689.328125, 133395.859375, 102753.539063, 90968.828125, 104376.140625, 0.000, 0.000, 0.000,0.0,0.0,0.0,0.0,0.0, 13:11:46.686
61382.781250, 116038.406250, 187500.015625, 97468.937500, 133211.046875, 103083.312500, 91006.601563, 104574.781250, 0.000, 0.000, 0.000,0.0,0.0,0.0,0.0,0.0, 13:11:46.687
61470.492188, 116133.554688, 187500.015625, 97331.093750, 133245.562500, 102872.671875, 90990.195313, 104486.625000, 0.000, 0.000, 0.000,0.0,0.0,0.0,0.0,0.0, 13:11:46.687
61689.406250, 116358.726563, 187500.015625, 96525.625000, 133432.718750, 102506.437500, 90946.250000, 104269.210938, 0.000, 0.000, 0.000,0.0,0.0,0.0,0.0,0.0, 13:11:46.687
61621.769531, 116290.039063, 187500.015625, 96547.843750, 133433.359375, 102682.500000, 90963.257813, 104341.429688, 0.000, 0.000, 0.000,0.0,0.0,0.0,0.0,0.0, 13:11:46.688
61387.542969, 116047.664063, 187500.015625, 97350.695313, 133241.562500, 103066.531250, 91006.039063, 104560.273438, 0.182, 0.188, 0.954,0.0,0.0,0.0,0.0,0.0, 13:11:46.688
61427.597656, 116084.539063, 187500.015625, 97424.906250, 133217.750000, 102947.148438, 90991.195313, 104520.062500, 0.000, 0.000, 0.000,0.0,0.0,0.0,0.0,0.0, 13:11:46.689
61666.562500, 116326.765625, 187500.015625, 96627.187500, 133407.796875, 102548.171875, 90948.218750, 104295.648438, 0.000, 0.000, 0.000,0.0,0.0,0.0,0.0,0.0, 13:11:46.689
61641.437500, 116304.523438, 187500.015625, 96461.500000, 133450.453125, 102617.328125, 90955.750000, 104305.929688, 0.000, 0.000, 0.000,0.0,0.0,0.0,0.0,0.0, 13:11:46.689
61389.734375, 116051.039063, 187500.015625, 97227.671875, 133259.953125, 103018.000000, 90994.796875, 104525.445313, 0.000, 0.000, 0.000,0.0,0.0,0.0,0.0,0.0, 13:11:46.690
61358.644531, 116022.179688, 187500.015625, 97501.632813, 133188.703125, 103000.835938, 90991.984375, 104540.000000, 0.000, 0.000, 0.000,0.0,0.0,0.0,0.0,0.0, 13:11:46.690
61597.472656, 116265.945313, 187500.015625, 96762.398438, 133371.531250, 102593.585938, 90952.351563, 104318.648438, 0.000, 0.000, 0.000,0.0,0.0,0.0,0.0,0.0, 13:11:46.690
61649.171875, 116314.695313, 187500.015625, 96391.335938, 133467.515625, 102557.625000, 90949.265625, 104270.640625, 0.000, 0.000, 0.000,0.0,0.0,0.0,0.0,0.0, 13:11:46.690
61414.457031, 116077.234375, 187500.015625, 97061.929688, 133302.484375, 102957.742188, 90985.742188, 104482.757813, 0.000, 0.000, 0.000,0.0,0.0,0.0,0.0,0.0, 13:11:46.691
61313.000000, 115979.421875, 187500.015625, 97535.789063, 133186.984375, 103053.140625, 91000.320313, 104565.500000, 0.000, 0.000, 0.000,0.0,0.0,0.0,0.0,0.0, 13:11:46.691
61533.078125, 116199.492188, 187500.015625, 96909.648438, 133335.656250, 102661.046875, 90954.453125, 104358.210938, 0.178, 0.194, 0.960,0.0,0.0,0.0,0.0,0.0, 13:11:46.691
61646.914063, 116312.617188, 187500.015625, 96357.695313, 133471.625000, 102512.632813, 90934.289063, 104246.992188, 0.000, 0.000, 0.000,0.0,0.0,0.0,0.0,0.0, 13:11:46.691
61436.496094, 116102.757813, 187500.015625, 96910.343750, 133336.906250, 102886.328125, 90971.101563, 104440.265625, 0.000, 0.000, 0.000,0.0,0.0,0.0,0.0,0.0, 13:11:46.692
61290.828125, 115955.125000, 187500.015625, 97535.234375, 133188.093750, 103080.187500, 90997.750000, 104572.765625, 0.000, 0.000, 0.000,0.0,0.0,0.0,0.0,0.0, 13:11:46.692
61475.519531, 116140.578125, 187500.015625, 97064.796875, 133307.781250, 102738.585938, 90970.007813, 104404.796875, 0.000, 0.000, 0.000,0.0,0.0,0.0,0.0,0.0, 13:11:46.692
61638.621094, 116308.640625, 187500.015625, 96379.828125, 133472.296875, 102496.445313, 90940.953125, 104249.804688, 0.000, 0.000, 0.000,0.0,0.0,0.0,0.0,0.0, 13:11:46.692
61467.027344, 116130.250000, 187500.015625, 96765.437500, 133372.750000, 102813.617188, 90971.578125, 104408.257813, 0.000, 0.000, 0.000,0.0,0.0,0.0,0.0,0.0, 13:11:46.693
61274.445313, 115934.804688, 187500.015625, 97506.710938, 133193.437500, 103091.648438, 91005.148438, 104581.773438, 0.000, 0.000, 0.000,0.0,0.0,0.0,0.0,0.0, 13:11:46.693
61412.199219, 116080.046875, 187500.015625, 97222.734375, 133265.718750, 102815.046875, 90981.406250, 104451.617188, 0.000, 0.000, 0.000,0.0,0.0,0.0,0.0,0.0, 13:11:46.693
61619.445313, 116290.960938, 187500.015625, 96452.312500, 133451.796875, 102494.164063, 90942.226563, 104253.984375, 0.180, 0.198, 0.964,0.0,0.0,0.0,0.0,0.0, 13:11:46.693
61503.816406, 116172.203125, 187500.015625, 96637.515625, 133407.125000, 102734.804688, 90962.296875, 104361.210938, 0.000, 0.000, 0.000,0.0,0.0,0.0,0.0,0.0, 13:11:46.693
61278.535156, 115944.414063, 187500.015625, 97427.070313, 133211.234375, 103073.296875, 90992.898438, 104557.789063, 0.000, 0.000, 0.000,0.0,0.0,0.0,0.0,0.0, 13:11:46.694
61360.945313, 116028.664063, 187500.015625, 97345.351563, 133232.171875, 102884.875000, 90972.804688, 104482.578125, 0.000, 0.000, 0.000,0.0,0.0,0.0,0.0,0.0, 13:11:46.694
61597.628906, 116266.687500, 187500.015625, 96540.781250, 133428.687500, 102510.953125, 90934.960938, 104269.609375, 0.000, 0.000, 0.000,0.0,0.0,0.0,0.0,0.0, 13:11:46.694
61542.218750, 116205.171875, 187500.015625, 96518.226563, 133429.109375, 102657.781250, 90944.750000, 104323.726563, 0.000, 0.000, 0.000,0.0,0.0,0.0,0.0,0.0, 13:11:46.695
61303.992188, 115963.218750, 187500.015625, 97306.257813, 133233.875000, 103042.921875, 90976.937500, 104537.968750, 0.000, 0.000, 0.000,0.0,0.0,0.0,0.0,0.0, 13:11:46.695
61318.769531, 115980.023438, 187500.015625, 97441.398438, 133205.375000, 102953.875000, 90976.203125, 104521.648438, 0.000, 0.000, 0.000,0.0,0.0,0.0,0.0,0.0, 13:11:46.695
61553.683594, 116218.804688, 187500.015625, 96672.273438, 133387.703125, 102550.109375, 90938.359375, 104301.218750, 0.000, 0.000, 0.000,0.0,0.0,0.0,0.0,0.0, 13:11:46.695
61562.199219, 116228.757813, 187500.015625, 96440.687500, 133448.765625, 102589.789063, 90943.750000, 104295.937500, 0.000, 0.000, 0.000,0.0,0.0,0.0,0.0,0.0, 13:11:46.696
61319.011719, 115987.195313, 187500.015625, 97190.429688, 133270.421875, 102996.968750, 90985.859375, 104518.296875, 0.180, 0.206, 0.962,0.0,0.0,0.0,0.0,0.0, 13:11:46.696
61279.406250, 115948.085938, 187500.015625, 97526.890625, 133188.187500, 103010.781250, 90988.828125, 104553.210938, 0.000, 0.000, 0.000,0.0,0.0,0.0,0.0,0.0, 13:11:46.696
61520.359375, 116191.093750, 187500.015625, 96818.632813, 133358.062500, 102609.390625, 90948.148438, 104339.054688, 0.000, 0.000, 0.000,0.0,0.0,0.0,0.0,0.0, 13:11:46.696
61600.019531, 116271.000000, 187500.015625, 96389.125000, 133465.968750, 102540.281250, 90937.265625, 104272.093750, 0.000, 0.000, 0.000,0.0,0.0,0.0,0.0,0.0, 13:11:46.696
61371.988281, 116036.664063, 187500.015625, 97057.531250, 133308.500000, 102942.656250, 90980.250000, 104483.984375, 0.000, 0.000, 0.000,0.0,0.0,0.0,0.0,0.0, 13:11:46.696
61275.917969, 115936.210938, 187500.015625, 97569.140625, 133186.828125, 103060.757813, 90992.968750, 104576.968750, 0.000, 0.000, 0.000,0.0,0.0,0.0,0.0,0.0, 13:11:46.697
61494.250000, 116158.210938, 187500.015625, 96975.273438, 133336.437500, 102690.054688, 90955.656250, 104386.601563, 0.000, 0.000, 0.000,0.0,0.0,0.0,0.0,0.0, 13:11:46.697
61619.644531, 116287.898438, 187500.015625, 96393.726563, 133478.875000, 102522.125000, 90938.359375, 104270.078125, 0.000, 0.000, 0.000,0.0,0.0,0.0,0.0,0.0, 13:11:46.697
61408.914063, 116075.039063, 187500.015625, 96907.015625, 133353.078125, 102883.984375, 90980.562500, 104455.640625, 0.000, 0.000, 0.000,0.0,0.0,0.0,0.0,0.0, 13:11:46.697
61250.976563, 115916.570313, 187500.015625, 97557.406250, 133189.031250, 103095.140625, 90998.421875, 104593.195313, 0.166, 0.204, 0.962,0.0,0.0,0.0,0.0,0.0, 13:11:46.697
61419.039063, 116088.453125, 187500.015625, 97132.921875, 133290.062500, 102766.296875, 90964.195313, 104432.796875, 0.000, 0.000, 0.000,0.0,0.0,0.0,0.0,0.0, 13:11:46.697
61597.695313, 116268.671875, 187500.015625, 96415.859375, 133465.531250, 102495.328125, 90933.757813, 104260.539063, 0.000, 0.000, 0.000,0.0,0.0,0.0,0.0,0.0, 13:11:46.698
61444.699219, 116113.460938, 187500.015625, 96747.445313, 133383.562500, 102793.234375, 90966.765625, 104403.453125, 0.000, 0.000, 0.000,0.0,0.0,0.0,0.0,0.0, 13:11:46.698
61250.640625, 115912.945313, 187500.015625, 97496.070313, 133196.546875, 103089.234375, 90994.148438, 104580.765625, 0.000, 0.000, 0.000,0.0,0.0,0.0,0.0,0.0, 13:11:46.698
61374.222656, 116040.281250, 187500.015625, 97269.554688, 133252.734375, 102840.460938, 90974.859375, 104468.609375, 0.000, 0.000, 0.000,0.0,0.0,0.0,0.0,0.0, 13:11:46.699
61587.414063, 116254.726563, 187500.015625, 96488.476563, 133435.437500, 102502.703125, 90936.414063, 104268.179688, 0.000, 0.000, 0.000,0.0,0.0,0.0,0.0,0.0, 13:11:46.699
61481.464844, 116150.140625, 187500.015625, 96619.007813, 133402.343750, 102720.921875, 90956.531250, 104364.070313, 0.000, 0.000, 0.000,0.0,0.0,0.0,0.0,0.0, 13:11:46.699
61254.640625, 115921.750000, 187500.015625, 97412.851563, 133217.359375, 103080.632813, 90996.273438, 104573.507813, 0.000, 0.000, 0.000,0.0,0.0,0.0,0.0,0.0, 13:11:46.699
61325.273438, 115989.500000, 187500.015625, 97391.554688, 133227.437500, 102921.375000, 90984.851563, 104517.804688, 0.000, 0.000, 0.000,0.0,0.0,0.0,0.0,0.0, 13:11:46.700
61561.304688, 116227.703125, 187500.015625, 96582.625000, 133421.765625, 102534.195313, 90943.234375, 104297.351563, 0.170, 0.202, 0.958,0.0,0.0,0.0,0.0,0.8056707, 13:11:46.700
61524.269531, 116190.218750, 187500.015625, 96485.820313, 133443.734375, 102645.960938, 90946.429688, 104325.242188, 0.000, 0.000, 0.000,0.0,0.0,0.0,0.0,0.8056707, 13:11:46.700
61287.027344, 115949.718750, 187500.015625, 97271.882813, 133257.859375, 103045.718750, 90987.601563, 104551.195313, 0.000, 0.000, 0.000,0.0,0.0,0.0,0.0,0.8056707, 13:11:46.701
61288.144531, 115951.726563, 187500.015625, 97467.484375, 133211.906250, 102986.734375, 90990.062500, 104550.304688, 0.000, 0.000, 0.000,0.0,0.0,0.0,0.0,0.8056707, 13:11:46.702
61531.957031, 116199.250000, 187500.015625, 96699.812500, 133392.187500, 102577.781250, 90946.718750, 104326.476563, 0.000, 0.000, 0.000,0.0,0.0,0.0,0.0,0.8056707, 13:11:46.702
61563.472656, 116229.156250, 187500.015625, 96414.562500, 133461.484375, 102585.718750, 90942.671875, 104302.242188, 0.000, 0.000, 0.000,0.0,0.0,0.0,0.0,0.8056707, 13:11:46.702
61329.339844, 115993.460938, 187500.015625, 97128.179688, 133286.937500, 102987.562500, 90978.343750, 104515.125000, 0.000, 0.000, 0.000,0.0,0.0,0.0,0.0,0.8056707, 13:11:46.703
61269.550781, 115933.796875, 187500.015625, 97513.078125, 133191.500000, 103034.968750, 90988.625000, 104568.656250, 0.000, 0.000, 0.000,0.0,0.0,0.0,0.0,0.8056707, 13:11:46.703
61496.441406, 116163.820313, 187500.015625, 96839.289063, 133346.250000, 102636.164063, 90947.835938, 104357.429688, 0.000, 0.000, 0.000,0.0,0.0,0.0,0.0,0.8056707, 13:11:46.703
61588.195313, 116253.921875, 187500.015625, 96363.820313, 133460.187500, 102534.398438, 90932.304688, 104270.750000, 0.178, 0.202, 0.956,0.0,0.0,0.0,0.0,0.8056707, 13:11:46.703
61373.843750, 116032.750000, 187500.015625, 96973.843750, 133311.812500, 102919.320313, 90969.562500, 104470.843750, 0.000, 0.000, 0.000,0.0,0.0,0.0,0.0,0.8056707, 13:11:46.704
61257.902344, 115915.781250, 187500.015625, 97526.875000, 133179.875000, 103065.703125, 90988.718750, 104577.484375, 0.000, 0.000, 0.000,0.0,0.0,0.0,0.0,0.8056707, 13:11:46.704
61462.757813, 116123.859375, 187500.015625, 96979.656250, 133311.453125, 102698.976563, 90952.039063, 104389.101563, 0.000, 0.000, 0.000,0.0,0.0,0.0,0.0,0.8056707, 13:11:46.704
61608.714844, 116269.234375, 187500.015625, 96345.757813, 133465.484375, 102494.750000, 90928.523438, 104249.382813, 0.000, 0.000, 0.000,0.0,0.0,0.0,0.0,0.8056707, 13:11:46.705
61421.363281, 116077.343750, 187500.015625, 96812.937500, 133353.828125, 102843.007813, 90967.171875, 104424.039063, 0.000, 0.000, 0.000,0.0,0.0,0.0,0.0,0.8056707, 13:11:46.705
61246.324219, 115906.890625, 187500.015625, 97502.171875, 133185.718750, 103085.523438, 90992.515625, 104580.593750, 0.000, 0.000, 0.000,0.0,0.0,0.0,0.0,0.8056707, 13:11:46.705
61399.613281, 116063.242188, 187500.015625, 97150.890625, 133276.421875, 102781.562500, 90970.679688, 104436.375000, 0.000, 0.000, 0.000,0.0,0.0,0.0,0.0,0.8056707, 13:11:46.705
61594.453125, 116255.484375, 187500.015625, 96423.429688, 133449.875000, 102486.476563, 90936.148438, 104250.093750, 0.000, 0.000, 0.000,0.0,0.0,0.0,0.0,0.8056707, 13:11:46.706
61455.605469, 116115.296875, 187500.015625, 96698.312500, 133383.515625, 102764.109375, 90963.570313, 104382.328125, 0.000, 0.000, 0.000,0.0,0.0,0.0,0.0,0.8056707, 13:11:46.706
61243.867188, 115900.851563, 187500.015625, 97460.914063, 133194.875000, 103080.851563, 90990.531250, 104568.382813, 0.176, 0.198, 0.958,0.0,0.0,0.0,0.0,0.8056707, 13:11:46.706
61345.632813, 116006.312500, 187500.015625, 97288.242188, 133236.843750, 102853.109375, 90967.328125, 104470.015625, 0.000, 0.000, 0.000,0.0,0.0,0.0,0.0,0.8056707, 13:11:46.706
61568.125000, 116233.695313, 187500.015625, 96490.351563, 133425.109375, 102498.726563, 90927.812500, 104264.000000, 0.000, 0.000, 0.000,0.0,0.0,0.0,0.0,0.8056707, 13:11:46.707
61491.343750, 116153.382813, 187500.015625, 96554.773438, 133411.906250, 102688.695313, 90946.539063, 104343.687500, 0.000, 0.000, 0.000,0.0,0.0,0.0,0.0,0.8056707, 13:11:46.707
61252.027344, 115911.070313, 187500.015625, 97363.703125, 133213.796875, 103061.562500, 90983.578125, 104558.281250, 0.000, 0.000, 0.000,0.0,0.0,0.0,0.0,0.8056707, 13:11:46.707
61300.707031, 115962.992188, 187500.015625, 97407.046875, 133200.171875, 102924.351563, 90970.320313, 104511.273438, 0.000, 0.000, 0.000,0.0,0.0,0.0,0.0,0.8056707, 13:11:46.707
61552.320313, 116217.062500, 187500.015625, 96596.726563, 133398.640625, 102527.601563, 90926.046875, 104288.070313, 0.000, 0.000, 0.000,0.0,0.0,0.0,0.0,0.8056707, 13:11:46.708
61529.812500, 116194.445313, 187500.015625, 96460.984375, 133436.015625, 102617.367188, 90937.375000, 104311.031250, 0.000, 0.000, 0.000,0.0,0.0,0.0,0.0,0.8056707, 13:11:46.708
61294.406250, 115956.757813, 187500.015625, 97228.765625, 133250.750000, 103013.640625, 90975.195313, 104529.203125, 0.000, 0.000, 0.000,0.0,0.0,0.0,0.0,0.8056707, 13:11:46.708
61283.273438, 115943.343750, 187500.015625, 97476.000000, 133195.890625, 102986.929688, 90977.500000, 104544.406250, 0.000, 0.000, 0.000,0.0,0.0,0.0,0.0,0.8056707, 13:11:46.708
61520.761719, 116178.375000, 187500.015625, 96734.101563, 133376.859375, 102584.937500, 90939.765625, 104326.023438, 0.170, 0.192, 0.956,0.0,0.0,0.0,0.0,0.8056707, 13:11:46.709
61567.339844, 116227.101563, 187500.015625, 96387.851563, 133464.812500, 102564.953125, 90935.789063, 104282.570313, 0.000, 0.000, 0.000,0.0,0.0,0.0,0.0,0.8056707, 13:11:46.709
61322.902344, 115982.617188, 187500.015625, 97090.835938, 133290.531250, 102967.601563, 90975.125000, 104494.335938, 0.000, 0.000, 0.000,0.0,0.0,0.0,0.0,0.8056707, 13:11:46.709
61242.480469, 115905.164063, 187500.015625, 97524.906250, 133181.031250, 103039.125000, 90981.742188, 104561.929688, 0.000, 0.000, 0.000,0.0,0.0,0.0,0.0,0.8056707, 13:11:46.709
61464.480469, 116130.320313, 187500.015625, 96876.054688, 133338.046875, 102646.312500, 90941.421875, 104354.992188, 0.000, 0.000, 0.000,0.0,0.0,0.0,0.0,0.8056707, 13:11:46.710
61568.078125, 116236.578125, 187500.015625, 96356.218750, 133461.968750, 102515.156250, 90923.117188, 104252.195313, 0.000, 0.000, 0.000,0.0,0.0,0.0,0.0,0.8056707, 13:11:46.710
61359.917969, 116024.328125, 187500.015625, 96928.515625, 133322.234375, 102894.398438, 90959.835938, 104445.695313, 0.000, 0.000, 0.000,0.0,0.0,0.0,0.0,0.8056707, 13:11:46.710
61226.343750, 115884.984375, 187500.015625, 97531.921875, 133175.468750, 103070.039063, 90982.703125, 104568.476563, 0.000, 0.000, 0.000,0.0,0.0,0.0,0.0,0.8056707, 13:11:46.710
61415.328125, 116077.429688, 187500.015625, 97035.109375, 133294.328125, 102714.484375, 90946.453125, 104388.453125, 0.000, 0.000, 0.000,0.0,0.0,0.0,0.0,0.8056707, 13:11:46.711
61572.324219, 116239.210938, 187500.015625, 96368.671875, 133450.015625, 102479.304688, 90912.968750, 104232.234375, 0.170, 0.184, 0.956,0.0,0.0,0.0,0.0,0.8056707, 13:11:46.711
61402.386719, 116063.039063, 187500.015625, 96780.812500, 133346.750000, 102810.351563, 90945.421875, 104396.281250, 0.000, 0.000, 0.000,0.0,0.0,0.0,0.0,0.8056707, 13:11:46.711
61221.335938, 115877.453125, 187500.015625, 97500.812500, 133171.515625, 103074.125000, 90972.468750, 104561.054688, 0.000, 0.000, 0.000,0.0,0.0,0.0,0.0,0.8056707, 13:11:46.711
61366.199219, 116026.492188, 187500.015625, 97191.460938, 133249.625000, 102786.796875, 90949.382813, 104427.992188, 0.000, 0.000, 0.000,0.0,0.0,0.0,0.0,0.8056707, 13:11:46.712
61567.519531, 116232.601563, 187500.015625, 96428.820313, 133431.578125, 102477.046875, 90914.914063, 104240.085938, 0.000, 0.000, 0.000,0.0,0.0,0.0,0.0,0.8056707, 13:11:46.712
61447.000000, 116111.046875, 187500.015625, 96642.835938, 133384.046875, 102732.679688, 90941.335938, 104360.203125, 0.000, 0.000, 0.000,0.0,0.0,0.0,0.0,0.8056707, 13:11:46.712
61232.109375, 115889.476563, 187500.015625, 97439.656250, 133194.640625, 103075.601563, 90982.257813, 104566.578125, 0.000, 0.000, 0.000,0.0,0.0,0.0,0.0,0.8056707, 13:11:46.712
61332.269531, 115988.117188, 187500.015625, 97319.562500, 133226.031250, 102868.781250, 90963.484375, 104478.554688, 0.000, 0.000, 0.000,0.0,0.0,0.0,0.0,0.8056707, 13:11:46.713
61556.031250, 116219.546875, 187500.015625, 96515.585938, 133427.234375, 102502.773438, 90926.757813, 104265.164063, 0.000, 0.000, 0.000,0.0,0.0,0.0,0.0,0.8056707, 13:11:46.713
61483.703125, 116148.312500, 187500.015625, 96541.406250, 133423.750000, 102668.890625, 90948.820313, 104329.492188, 0.000, 0.000, 0.000,0.0,0.0,0.0,0.0,0.8056707, 13:11:46.713
61254.820313, 115912.093750, 187500.015625, 97330.132813, 133234.468750, 103048.062500, 90987.312500, 104545.656250, 0.158, 0.186, 0.960,0.0,0.0,0.0,0.0,0.8056707, 13:11:46.714
61291.207031, 115948.148438, 187500.015625, 97410.593750, 133216.921875, 102938.921875, 90978.773438, 104514.671875, 0.000, 0.000, 0.000,0.0,0.0,0.0,0.0,0.8056707, 13:11:46.714
61532.316406, 116190.484375, 187500.015625, 96629.203125, 133406.984375, 102544.031250, 90941.492188, 104298.289063, 0.000, 0.000, 0.000,0.0,0.0,0.0,0.0,0.8056707, 13:11:46.714
61525.164063, 116182.710938, 187500.015625, 96448.109375, 133447.515625, 102601.632813, 90948.664063, 104302.734375, 0.000, 0.000, 0.000,0.0,0.0,0.0,0.0,0.8056707, 13:11:46.714
61280.746094, 115935.546875, 187500.015625, 97208.429688, 133258.921875, 103003.164063, 90986.531250, 104521.890625, 0.000, 0.000, 0.000,0.0,0.0,0.0,0.0,0.8056707, 13:11:46.715
61251.398438, 115909.187500, 187500.015625, 97509.679688, 133184.812500, 102999.429688, 90987.578125, 104548.093750, 0.000, 0.000, 0.000,0.0,0.0,0.0,0.0,0.8056707, 13:11:46.715
61488.304688, 116150.101563, 187500.015625, 96780.703125, 133356.421875, 102590.617188, 90940.953125, 104324.617188, 0.000, 0.000, 0.000,0.0,0.0,0.0,0.0,0.8056707, 13:11:46.715
61549.460938, 116211.367188, 187500.015625, 96376.406250, 133459.156250, 102538.804688, 90929.617188, 104265.656250, 0.000, 0.000, 0.000,0.0,0.0,0.0,0.0,0.8056707, 13:11:46.715
61305.492188, 115969.359375, 187500.015625, 97061.867188, 133289.281250, 102938.718750, 90971.171875, 104478.664063, 0.000, 0.000, 0.000,0.0,0.0,0.0,0.0,0.8056707, 13:11:46.715
61220.464844, 115885.718750, 187500.015625, 97531.765625, 133174.500000, 103038.898438, 90979.781250, 104560.476563, 0.164, 0.192, 0.962,0.0,0.0,0.0,0.0,0.8056707, 13:11:46.715
61436.359375, 116103.609375, 187500.015625, 96920.984375, 133326.031250, 102660.328125, 90946.875000, 104365.898438, 0.000, 0.000, 0.000,0.0,0.0,0.0,0.0,0.8056707, 13:11:46.715
61557.058594, 116227.007813, 187500.015625, 96357.945313, 133460.046875, 102502.750000, 90926.648438, 104254.257813, 0.000, 0.000, 0.000,0.0,0.0,0.0,0.0,0.8056707, 13:11:46.716
61362.867188, 116033.179688, 187500.015625, 96875.343750, 133337.359375, 102870.234375, 90960.062500, 104445.898438, 0.000, 0.000, 0.000,0.0,0.0,0.0,0.0,0.8056707, 13:11:46.716
61208.820313, 115879.039063, 187500.015625, 97523.968750, 133184.468750, 103078.328125, 90988.046875, 104587.812500, 0.000, 0.000, 0.000,0.0,0.0,0.0,0.0,0.8056707, 13:11:46.716
61392.105469, 116064.156250, 187500.015625, 97079.882813, 133295.250000, 102744.171875, 90960.109375, 104423.234375, 0.000, 0.000, 0.000,0.042640142,0.13146032,0.060431756,0.064590596,0.030429447, 13:11:47.165
61570.359375, 116241.960938, 187500.015625, 96387.359375, 133462.500000, 102492.937500, 90930.695313, 104260.421875, 0.000, 0.000, 0.000,0.042640142,0.13146032,0.060431756,0.064590596,0.030429447, 13:11:47.165
61416.757813, 116083.085938, 187500.015625, 96752.140625, 133376.453125, 102806.375000, 90962.117188, 104415.679688, 0.000, 0.000, 0.000,0.042640142,0.13146032,0.060431756,0.064590596,0.030429447, 13:11:47.165
61227.191406, 115890.703125, 187500.015625, 97488.023438, 133194.468750, 103091.468750, 90990.375000, 104590.156250, 0.000, 0.000, 0.000,0.042640142,0.13146032,0.060431756,0.064590596,0.030429447, 13:11:47.165
61366.421875, 116031.523438, 187500.015625, 97222.929688, 133262.656250, 102825.242188, 90966.476563, 104467.671875, 0.000, 0.000, 0.000,0.042640142,0.13146032,0.060431756,0.064590596,0.030429447, 13:11:47.166
61582.472656, 116249.562500, 187500.015625, 96444.554688, 133452.031250, 102497.007813, 90930.406250, 104271.468750, 0.168, 0.192, 0.964,0.042640142,0.13146032,0.060431756,0.064590596,0.030429447, 13:11:47.166
61475.945313, 116138.429688, 187500.015625, 96600.976563, 133417.406250, 102726.531250, 90955.523438, 104373.570313, 0.000, 0.000, 0.000,0.042640142,0.13146032,0.060431756,0.064590596,0.030429447, 13:11:47.166
61240.179688, 115897.812500, 187500.015625, 97408.500000, 133217.437500, 103078.171875, 90992.765625, 104574.960938, 0.000, 0.000, 0.000,0.042640142,0.13146032,0.060431756,0.064590596,0.030429447, 13:11:47.166
61317.515625, 115974.210938, 187500.015625, 97350.718750, 133221.406250, 102889.773438, 90969.117188, 104492.882813, 0.000, 0.000, 0.000,0.042640142,0.13146032,0.060431756,0.064590596,0.030429447, 13:11:47.166
61554.468750, 116217.195313, 187500.015625, 96541.335938, 133416.625000, 102509.500000, 90925.015625, 104276.226563, 0.000, 0.000, 0.000,0.042640142,0.13146032,0.060431756,0.064590596,0.030429447, 13:11:47.167
61502.519531, 116169.031250, 187500.015625, 96491.695313, 133430.640625, 102645.976563, 90937.171875, 104323.546875, 0.000, 0.000, 0.000,0.042640142,0.13146032,0.060431756,0.064590596,0.030429447, 13:11:47.167
61262.039063, 115923.320313, 187500.015625, 97286.234375, 133239.640625, 103033.734375, 90978.007813, 104538.125000, 0.000, 0.000, 0.000,0.042640142,0.13146032,0.060431756,0.064590596,0.030429447, 13:11:47.167
61278.175781, 115937.976563, 187500.015625, 97445.804688, 133204.015625, 102955.125000, 90976.265625, 104524.953125, 0.000, 0.000, 0.000,0.042640142,0.13146032,0.060431756,0.064590596,0.030429447, 13:11:47.167
61529.187500, 116193.304688, 187500.015625, 96654.773438, 133395.000000, 102547.718750, 90931.968750, 104300.742188, 0.000, 0.000, 0.000,0.042640142,0.13146032,0.060431756,0.064590596,0.030429447, 13:11:47.167
61544.632813, 116208.007813, 187500.015625, 96399.023438, 133458.890625, 102580.000000, 90934.109375, 104289.703125, 0.172, 0.200, 0.962,0.042640142,0.13146032,0.060431756,0.064590596,0.030429447, 13:11:47.167
61305.000000, 115963.976563, 187500.015625, 97145.351563, 133277.343750, 102987.421875, 90976.179688, 104509.554688, 0.000, 0.000, 0.000,0.042640142,0.13146032,0.060431756,0.064590596,0.030429447, 13:11:47.168
61256.851563, 115917.171875, 187500.015625, 97504.992188, 133192.500000, 103013.757813, 90983.625000, 104553.546875, 0.000, 0.000, 0.000,0.042640142,0.13146032,0.060431756,0.064590596,0.030429447, 13:11:47.168
61485.019531, 116150.453125, 187500.015625, 96808.890625, 133359.781250, 102611.625000, 90944.125000, 104339.328125, 0.000, 0.000, 0.000,0.042640142,0.13146032,0.060431756,0.064590596,0.030429447, 13:11:47.168
61563.472656, 116229.984375, 187500.015625, 96359.125000, 133465.328125, 102524.296875, 90929.640625, 104264.492188, 0.000, 0.000, 0.000,0.042640142,0.13146032,0.060431756,0.064590596,0.030429447, 13:11:47.168
61342.730469, 116004.210938, 187500.015625, 96990.515625, 133307.609375, 102914.382813, 90963.148438, 104469.632813, 0.000, 0.000, 0.000,0.042640142,0.13146032,0.060431756,0.064590596,0.030429447, 13:11:47.168
61238.054688, 115898.101563, 187500.015625, 97517.171875, 133183.156250, 103047.101563, 90980.156250, 104567.851563, 0.000, 0.000, 0.000,0.042640142,0.13146032,0.060431756,0.064590596,0.030429447, 13:11:47.169
61440.136719, 116101.351563, 187500.015625, 96962.179688, 133318.984375, 102676.687500, 90950.250000, 104378.710938, 0.000, 0.000, 0.000,0.042640142,0.13146032,0.060431756,0.064590596,0.030429447, 13:11:47.169
61579.589844, 116241.093750, 187500.015625, 96352.312500, 133464.265625, 102485.585938, 90922.781250, 104246.679688, 0.000, 0.000, 0.000,0.042640142,0.13146032,0.060431756,0.064590596,0.030429447, 13:11:47.169
61387.296875, 116047.992188, 187500.015625, 96837.343750, 133342.343750, 102837.398438, 90953.984375, 104423.968750, 0.000, 0.000, 0.000,0.042640142,0.13146032,0.060431756,0.064590596,0.030429447, 13:11:47.169
61226.140625, 115887.132813, 187500.015625, 97511.023438, 133187.578125, 103069.726563, 90986.796875, 104576.476563, 0.168, 0.202, 0.958,0.042640142,0.13146032,0.060431756,0.064590596,0.030429447, 13:11:47.169
61389.265625, 116054.164063, 187500.015625, 97134.289063, 133282.515625, 102758.656250, 90964.195313, 104424.039063, 0.000, 0.000, 0.000,0.042640142,0.13146032,0.060431756,0.064590596,0.030429447, 13:11:47.169
61565.398438, 116229.734375, 187500.015625, 96404.726563, 133444.640625, 102475.054688, 90919.875000, 104242.718750, 0.000, 0.000, 0.000,0.042640142,0.13146032,0.060431756,0.064590596,0.030429447, 13:11:47.170
61421.316406, 116085.281250, 187500.015625, 96697.132813, 133374.546875, 102763.976563, 90945.804688, 104380.968750, 0.000, 0.000, 0.000,0.042640142,0.13146032,0.060431756,0.064590596,0.030429447, 13:11:47.170
61214.562500, 115877.007813, 187500.015625, 97462.968750, 133190.265625, 103072.093750, 90981.992188, 104567.890625, 0.000, 0.000, 0.000,0.042640142,0.13146032,0.060431756,0.064590596,0.030429447, 13:11:47.170
61336.066406, 116000.992188, 187500.015625, 97251.632813, 133243.812500, 102827.921875, 90957.898438, 104461.117188, 0.000, 0.000, 0.000,0.042640142,0.13146032,0.060431756,0.064590596,0.030429447, 13:11:47.170
61558.714844, 116223.726563, 187500.015625, 96467.156250, 133433.453125, 102485.671875, 90922.109375, 104260.312500, 0.000, 0.000, 0.000,0.042640142,0.13146032,0.060431756,0.064590596,0.030429447, 13:11:47.170
61471.496094, 116134.031250, 187500.015625, 96585.546875, 133410.265625, 102690.796875, 90948.773438, 104349.203125, 0.000, 0.000, 0.000,0.042640142,0.13146032,0.060431756,0.064590596,0.030429447, 13:11:47.171
61238.035156, 115898.796875, 187500.015625, 97395.796875, 133214.015625, 103055.375000, 90985.390625, 104557.078125, 0.000, 0.000, 0.000,0.042640142,0.13146032,0.060431756,0.064590596,0.030429447, 13:11:47.171
61301.199219, 115963.304688, 187500.015625, 97403.625000, 133213.421875, 102902.757813, 90968.195313, 104498.382813, 0.000, 0.000, 0.000,0.042640142,0.13146032,0.060431756,0.064590596,0.030429447, 13:11:47.171
61549.480469, 116215.921875, 187500.015625, 96587.804688, 133407.859375, 102507.960938, 90920.210938, 104273.320313, 0.170, 0.206, 0.962,0.042640142,0.13146032,0.060431756,0.064590596,0.030429447, 13:11:47.171
61516.042969, 116184.031250, 187500.015625, 96491.562500, 133437.734375, 102616.406250, 90934.515625, 104308.906250, 0.000, 0.000, 0.000,0.042640142,0.13146032,0.060431756,0.064590596,0.030429447, 13:11:47.171
61276.253906, 115942.335938, 187500.015625, 97278.210938, 133248.515625, 103010.718750, 90974.617188, 104527.171875, 0.000, 0.000, 0.000,0.042640142,0.13146032,0.060431756,0.064590596,0.030429447, 13:11:47.172
61288.570313, 115950.296875, 187500.015625, 97481.656250, 133204.281250, 102959.375000, 90972.625000, 104527.835938, 0.000, 0.000, 0.000,0.042640142,0.13146032,0.060431756,0.064590596,0.030429447, 13:11:47.172
61531.019531, 116196.101563, 187500.015625, 96718.789063, 133388.703125, 102553.312500, 90931.117188, 104306.468750, 0.000, 0.000, 0.000,0.042640142,0.13146032,0.060431756,0.064590596,0.030429447, 13:11:47.172
61559.339844, 116222.000000, 187500.015625, 96413.507813, 133461.171875, 102551.898438, 90927.828125, 104274.882813, 0.000, 0.000, 0.000,0.042640142,0.13146032,0.060431756,0.064590596,0.030429447, 13:11:47.172
61322.500000, 115981.031250, 187500.015625, 97128.515625, 133283.875000, 102953.429688, 90964.179688, 104489.687500, 0.000, 0.000, 0.000,0.042640142,0.13146032,0.060431756,0.064590596,0.030429447, 13:11:47.172
61256.562500, 115915.765625, 187500.015625, 97530.695313, 133188.437500, 103010.156250, 90972.023438, 104548.742188, 0.000, 0.000, 0.000,0.042640142,0.13146032,0.060431756,0.064590596,0.030429447, 13:11:47.173
61477.867188, 116141.335938, 187500.015625, 96877.843750, 133344.937500, 102617.460938, 90936.101563, 104341.937500, 0.000, 0.000, 0.000,0.042640142,0.13146032,0.060431756,0.064590596,0.030429447, 13:11:47.173
61572.035156, 116238.945313, 187500.015625, 96392.382813, 133465.453125, 102506.148438, 90924.882813, 104255.171875, 0.170, 0.202, 0.968,0.042640142,0.13146032,0.060431756,0.064590596,0.030429447, 13:11:47.173
61355.671875, 116019.609375, 187500.015625, 96988.257813, 133320.687500, 102888.515625, 90959.976563, 104454.281250, 0.000, 0.000, 0.000,0.042640142,0.13146032,0.060431756,0.064590596,0.030429447, 13:11:47.173
61231.281250, 115892.429688, 187500.015625, 97560.976563, 133181.234375, 103048.960938, 90978.976563, 104569.484375, 0.000, 0.000, 0.000,0.042640142,0.13146032,0.060431756,0.064590596,0.030429447, 13:11:47.173
61422.859375, 116093.859375, 187500.015625, 97029.390625, 133304.859375, 102688.445313, 90937.976563, 104383.070313, 0.000, 0.000, 0.000,0.042640142,0.13146032,0.060431756,0.064590596,0.030429447, 13:11:47.173
61565.976563, 116236.445313, 187500.015625, 96391.468750, 133456.062500, 102475.679688, 90913.507813, 104239.390625, 0.000, 0.000, 0.000,0.042640142,0.13146032,0.060431756,0.064590596,0.030429447, 13:11:47.174
61388.773438, 116055.257813, 187500.015625, 96831.375000, 133354.015625, 102811.921875, 90950.789063, 104409.664063, 0.000, 0.000, 0.000,0.042640142,0.13146032,0.060431756,0.064590596,0.030429447, 13:11:47.174
61217.605469, 115882.187500, 187500.015625, 97538.132813, 133187.265625, 103067.000000, 90980.648438, 104574.171875, 0.000, 0.000, 0.000,0.042640142,0.13146032,0.060431756,0.064590596,0.030429447, 13:11:47.174
61381.933594, 116048.734375, 187500.015625, 97180.843750, 133278.218750, 102769.453125, 90952.421875, 104432.375000, 0.000, 0.000, 0.000,0.042640142,0.13146032,0.060431756,0.064590596,0.030429447, 13:11:47.174
61579.031250, 116245.968750, 187500.015625, 96436.062500, 133458.500000, 102473.515625, 90920.679688, 104250.429688, 0.000, 0.000, 0.000,0.042640142,0.13146032,0.060431756,0.064590596,0.030429447, 13:11:47.174
61451.492188, 116114.578125, 187500.015625, 96698.203125, 133400.093750, 102744.125000, 90952.640625, 104378.039063, 0.000, 0.000, 0.000,0.042640142,0.13146032,0.060431756,0.064590596,0.030429447, 13:11:47.174
61239.777344, 115898.351563, 187500.015625, 97478.078125, 133212.718750, 103066.171875, 90989.164063, 104568.875000, 0.170, 0.200, 0.962,0.042640142,0.13146032,0.060431756,0.064590596,0.030429447, 13:11:47.175
61343.398438, 116002.710938, 187500.015625, 97333.257813, 133244.843750, 102847.476563, 90968.242188, 104476.429688, 0.000, 0.000, 0.000,0.042640142,0.13146032,0.060431756,0.064590596,0.030429447, 13:11:47.175
61576.238281, 116239.171875, 187500.015625, 96526.453125, 133439.546875, 102489.093750, 90925.218750, 104265.093750, 0.000, 0.000, 0.000,0.042640142,0.13146032,0.060431756,0.064590596,0.030429447, 13:11:47.175
61503.527344, 116163.085938, 187500.015625, 96574.640625, 133434.796875, 102672.312500, 90948.734375, 104342.476563, 0.000, 0.000, 0.000,0.042640142,0.13146032,0.060431756,0.064590596,0.030429447, 13:11:47.175
61261.144531, 115918.000000, 187500.015625, 97382.281250, 133236.265625, 103045.359375, 90989.101563, 104557.367188, 0.000, 0.000, 0.000,0.042640142,0.13146032,0.060431756,0.064590596,0.030429447, 13:11:47.175
61306.585938, 115964.734375, 187500.015625, 97432.476563, 133222.156250, 102915.789063, 90973.968750, 104512.773438, 0.000, 0.000, 0.000,0.042640142,0.13146032,0.060431756,0.064590596,0.030429447, 13:11:47.175
61550.644531, 116211.367188, 187500.015625, 96636.890625, 133412.156250, 102521.476563, 90932.054688, 104292.140625, 0.000, 0.000, 0.000,0.042640142,0.13146032,0.060431756,0.064590596,0.030429447, 13:11:47.176
61530.863281, 116193.234375, 187500.015625, 96479.492188, 133445.765625, 102594.437500, 90934.289063, 104301.664063, 0.000, 0.000, 0.000,0.042640142,0.13146032,0.060431756,0.064590596,0.030429447, 13:11:47.176
61290.066406, 115950.007813, 187500.015625, 97240.031250, 133259.937500, 102992.007813, 90968.265625, 104518.250000, 0.000, 0.000, 0.000,0.042640142,0.13146032,0.060431756,0.064590596,0.030429447, 13:11:47.176
61265.480469, 115926.718750, 187500.015625, 97516.367188, 133191.937500, 102977.945313, 90970.414063, 104541.140625, 0.172, 0.194, 0.958,0.042640142,0.13146032,0.060431756,0.064590596,0.030429447, 13:11:47.176
61510.679688, 116178.328125, 187500.015625, 96759.335938, 133370.328125, 102563.789063, 90920.320313, 104313.015625, 0.000, 0.000, 0.000,0.042640142,0.13146032,0.060431756,0.064590596,0.030429447, 13:11:47.176
61557.304688, 116224.195313, 187500.015625, 96408.632813, 133461.687500, 102537.234375, 90920.726563, 104270.929688, 0.000, 0.000, 0.000,0.042640142,0.13146032,0.060431756,0.064590596,0.030429447, 13:11:47.176
61316.375000, 115983.445313, 187500.015625, 97108.359375, 133288.546875, 102941.695313, 90961.562500, 104487.539063, 0.000, 0.000, 0.000,0.042640142,0.13146032,0.060431756,0.064590596,0.030429447, 13:11:47.176
61237.386719, 115903.875000, 187500.015625, 97549.070313, 133181.484375, 103024.593750, 90971.195313, 104561.656250, 0.000, 0.000, 0.000,0.042640142,0.13146032,0.060431756,0.064590596,0.030429447, 13:11:47.177
61459.851563, 116125.421875, 187500.015625, 96929.945313, 133337.359375, 102644.101563, 90941.625000, 104367.398438, 0.000, 0.000, 0.000,0.042640142,0.13146032,0.060431756,0.064590596,0.030429447, 13:11:47.177
61576.593750, 116242.164063, 187500.015625, 96387.851563, 133467.109375, 102501.164063, 90923.406250, 104261.562500, 0.000, 0.000, 0.000,0.042640142,0.13146032,0.060431756,0.064590596,0.030429447, 13:11:47.177
61370.960938, 116034.382813, 187500.015625, 96937.945313, 133331.234375, 102871.796875, 90957.562500, 104446.812500, 0.000, 0.000, 0.000,0.042640142,0.13146032,0.060431756,0.064590596,0.030429447, 13:11:47.177
61234.546875, 115893.390625, 187500.015625, 97553.648438, 133180.625000, 103060.250000, 90979.734375, 104572.117188, 0.000, 0.000, 0.000,0.042640142,0.13146032,0.060431756,0.064590596,0.030429447, 13:11:47.177
61422.703125, 116084.320313, 187500.015625, 97076.664063, 133297.421875, 102713.640625, 90946.851563, 104399.117188, 0.000, 0.000, 0.000,0.042640142,0.13146032,0.060431756,0.064590596,0.030429447, 13:11:47.177
61587.503906, 116253.453125, 187500.015625, 96387.070313, 133461.453125, 102471.320313, 90914.132813, 104239.789063, 0.170, 0.196, 0.954,0.042640142,0.13146032,0.060431756,0.064590596,0.030429447, 13:11:47.177
61423.195313, 116084.296875, 187500.015625, 96777.460938, 133368.546875, 102794.414063, 90949.445313, 104398.109375, 0.000, 0.000, 0.000,0.042640142,0.13146032,0.060431756,0.064590596,0.030429447, 13:11:47.178
61234.949219, 115892.875000, 187500.015625, 97510.625000, 133193.421875, 103068.312500, 90983.195313, 104569.414063, 0.000, 0.000, 0.000,0.042640142,0.13146032,0.060431756,0.064590596,0.030429447, 13:11:47.178
61379.273438, 116039.968750, 187500.015625, 97213.812500, 133263.687500, 102786.953125, 90956.039063, 104438.273438, 0.000, 0.000, 0.000,0.042640142,0.13146032,0.060431756,0.064590596,0.030429447, 13:11:47.178
61583.992188, 116248.335938, 187500.015625, 96445.804688, 133448.218750, 102466.335938, 90919.250000, 104242.203125, 0.000, 0.000, 0.000,0.042640142,0.13146032,0.060431756,0.064590596,0.030429447, 13:11:47.178
61460.523438, 116127.750000, 187500.015625, 96643.554688, 133398.468750, 102709.929688, 90942.765625, 104351.929688, 0.000, 0.000, 0.000,0.042640142,0.13146032,0.060431756,0.064590596,0.030429447, 13:11:47.179
61243.195313, 115904.046875, 187500.015625, 97431.515625, 133209.078125, 103052.085938, 90979.617188, 104553.007813, 0.000, 0.000, 0.000,0.042640142,0.13146032,0.060431756,0.064590596,0.030429447, 13:11:47.179
61331.351563, 115991.359375, 187500.015625, 97340.750000, 133232.531250, 102858.656250, 90964.648438, 104475.562500, 0.000, 0.000, 0.000,0.042640142,0.13146032,0.060431756,0.064590596,0.030429447, 13:11:47.179
61560.054688, 116225.804688, 187500.015625, 96541.156250, 133420.906250, 102486.390625, 90925.437500, 104261.765625, 0.000, 0.000, 0.000,0.042640142,0.13146032,0.060431756,0.064590596,0.030429447, 13:11:47.179
61502.722656, 116168.429688, 187500.015625, 96519.992188, 133427.703125, 102634.851563, 90937.375000, 104316.234375, 0.170, 0.202, 0.954,0.042640142,0.13146032,0.060431756,0.064590596,0.030429447, 13:11:47.180
61265.125000, 115924.906250, 187500.015625, 97321.546875, 133238.625000, 103025.648438, 90979.617188, 104537.335938, 0.000, 0.000, 0.000,0.042640142,0.13146032,0.060431756,0.064590596,0.030429447, 13:11:47.180
61286.714844, 115946.070313, 187500.015625, 97458.453125, 133206.734375, 102934.585938, 90976.445313, 104518.164063, 0.000, 0.000, 0.000,0.040503208,0.12843332,0.054153375,0.054460578,0.025660496, 13:11:47.180
61533.253906, 116195.468750, 187500.015625, 96670.484375, 133395.203125, 102535.070313, 90935.429688, 104297.484375, 0.000, 0.000, 0.000,0.040503208,0.12843332,0.054153375,0.054460578,0.025660496, 13:11:47.180
61536.472656, 116199.382813, 187500.015625, 96453.671875, 133452.375000, 102582.476563, 90941.351563, 104293.976563, 0.000, 0.000, 0.000,0.040503208,0.12843332,0.054153375,0.054460578,0.025660496, 13:11:47.181
61296.125000, 115955.281250, 187500.015625, 97201.679688, 133271.640625, 102984.226563, 90977.367188, 104511.367188, 0.000, 0.000, 0.000,0.040503208,0.12843332,0.054153375,0.054460578,0.025660496, 13:11:47.181
61259.378906, 115917.687500, 187500.015625, 97520.414063, 133194.640625, 102992.742188, 90979.757813, 104542.992188, 0.000, 0.000, 0.000,0.040503208,0.12843332,0.054153375,0.054460578,0.025660496, 13:11:47.181
61495.906250, 116157.117188, 187500.015625, 96807.210938, 133369.531250, 102591.304688, 90942.312500, 104330.093750, 0.000, 0.000, 0.000,0.040503208,0.12843332,0.054153375,0.054460578,0.025660496, 13:11:47.181
61567.742188, 116228.664063, 187500.015625, 96397.507813, 133477.781250, 102529.210938, 90940.054688, 104269.453125, 0.000, 0.000, 0.000,0.040503208,0.12843332,0.054153375,0.054460578,0.025660496, 13:11:47.182
61339.085938, 115995.890625, 187500.015625, 97065.843750, 133311.859375, 102923.656250, 90978.976563, 104473.054688, 0.000, 0.000, 0.000,0.040503208,0.12843332,0.054153375,0.054460578,0.025660496, 13:11:47.182
61251.710938, 115906.687500, 187500.015625, 97562.367188, 133190.265625, 103034.117188, 90985.054688, 104559.156250, 0.174, 0.212, 0.960,0.040503208,0.12843332,0.054153375,0.054460578,0.025660496, 13:11:47.182
61467.093750, 116126.429688, 187500.015625, 96977.039063, 133336.218750, 102661.960938, 90954.320313, 104370.414063, 0.000, 0.000, 0.000,0.040503208,0.12843332,0.054153375,0.054460578,0.025660496, 13:11:47.182
61595.726563, 116259.507813, 187500.015625, 96391.023438, 133476.593750, 102489.312500, 90932.656250, 104248.890625, 0.000, 0.000, 0.000,0.040503208,0.12843332,0.054153375,0.054460578,0.025660496, 13:11:47.182
61400.710938, 116065.070313, 187500.015625, 96900.375000, 133346.531250, 102847.992188, 90959.835938, 104429.203125, 0.000, 0.000, 0.000,0.040503208,0.12843332,0.054153375,0.054460578,0.025660496, 13:11:47.182
61245.722656, 115907.851563, 187500.015625, 97548.976563, 133191.671875, 103060.578125, 90979.781250, 104568.320313, 0.000, 0.000, 0.000,0.040503208,0.12843332,0.054153375,0.054460578,0.025660496, 13:11:47.182
61413.136719, 116078.062500, 187500.015625, 97138.468750, 133291.578125, 102737.710938, 90953.023438, 104411.812500, 0.000, 0.000, 0.000,0.040503208,0.12843332,0.054153375,0.054460578,0.025660496, 13:11:47.183
61594.789063, 116260.851563, 187500.015625, 96418.648438, 133464.234375, 102470.945313, 90920.679688, 104243.031250, 0.000, 0.000, 0.000,0.040503208,0.12843332,0.054153375,0.054460578,0.025660496, 13:11:47.184
61433.945313, 116095.382813, 187500.015625, 96755.601563, 133387.421875, 102776.046875, 90955.210938, 104392.273438, 0.000, 0.000, 0.000,0.040503208,0.12843332,0.054153375,0.054460578,0.025660496, 13:11:47.184
61230.144531, 115891.820313, 187500.015625, 97500.718750, 133207.343750, 103071.515625, 90986.171875, 104571.445313, 0.000, 0.000, 0.000,0.040503208,0.12843332,0.054153375,0.054460578,0.025660496, 13:11:47.184
61362.578125, 116027.945313, 187500.015625, 97260.882813, 133262.578125, 102813.750000, 90962.234375, 104451.085938, 0.000, 0.000, 0.000,0.040503208,0.12843332,0.054153375,0.054460578,0.025660496, 13:11:47.185
61586.316406, 116256.757813, 187500.015625, 96475.062500, 133442.406250, 102475.906250, 90919.492188, 104249.250000, 0.168, 0.210, 0.952,0.040503208,0.12843332,0.054153375,0.054460578,0.025660496, 13:11:47.185
61492.375000, 116161.968750, 187500.015625, 96612.484375, 133412.781250, 102698.507813, 90945.023438, 104348.890625, 0.000, 0.000, 0.000,0.040503208,0.12843332,0.054153375,0.054460578,0.025660496, 13:11:47.185
61256.406250, 115923.320313, 187500.015625, 97420.570313, 133207.453125, 103047.867188, 90978.171875, 104549.007813, 0.000, 0.000, 0.000,0.040503208,0.12843332,0.054153375,0.054460578,0.025660496, 13:11:47.186
61342.953125, 116010.828125, 187500.015625, 97378.140625, 133219.046875, 102874.500000, 90956.328125, 104479.898438, 0.000, 0.000, 0.000,0.040503208,0.12843332,0.054153375,0.054460578,0.025660496, 13:11:47.186
61585.468750, 116256.601563, 187500.015625, 96574.304688, 133416.937500, 102498.304688, 90918.265625, 104269.296875, 0.000, 0.000, 0.000,0.040503208,0.12843332,0.054153375,0.054460578,0.025660496, 13:11:47.186
61553.191406, 116219.320313, 187500.015625, 96499.539063, 133441.515625, 102622.914063, 90934.312500, 104311.429688, 0.000, 0.000, 0.000,0.040503208,0.12843332,0.054153375,0.054460578,0.025660496, 13:11:47.186
61307.503906, 115970.054688, 187500.015625, 97296.734375, 133250.640625, 103016.328125, 90978.343750, 104531.929688, 0.000, 0.000, 0.000,0.040503208,0.12843332,0.054153375,0.054460578,0.025660496, 13:11:47.187
61304.933594, 115969.093750, 187500.015625, 97486.328125, 133203.515625, 102951.054688, 90976.757813, 104528.687500, 0.000, 0.000, 0.000,0.040503208,0.12843332,0.054153375,0.054460578,0.025660496, 13:11:47.187
61553.328125, 116221.218750, 187500.015625, 96701.445313, 133396.687500, 102545.843750, 90937.734375, 104308.617188, 0.000, 0.000, 0.000,0.040503208,0.12843332,0.054153375,0.054460578,0.025660496, 13:11:47.187
61574.359375, 116242.523438, 187500.015625, 96421.976563, 133470.984375, 102565.156250, 90946.382813, 104292.140625, 0.168, 0.204, 0.954,0.040503208,0.12843332,0.054153375,0.054460578,0.025660496, 13:11:47.187
61330.234375, 115996.093750, 187500.015625, 97155.476563, 133285.578125, 102969.921875, 90980.359375, 104509.648438, 0.000, 0.000, 0.000,0.040503208,0.12843332,0.054153375,0.054460578,0.025660496, 13:11:47.188
61277.773438, 115945.515625, 187500.015625, 97523.984375, 133197.734375, 103007.273438, 90981.789063, 104559.242188, 0.000, 0.000, 0.000,0.040503208,0.12843332,0.054153375,0.054460578,0.025660496, 13:11:47.188
61512.757813, 116181.320313, 187500.015625, 96844.804688, 133361.953125, 102612.226563, 90948.148438, 104351.890625, 0.000, 0.000, 0.000,0.040503208,0.12843332,0.054153375,0.054460578,0.025660496, 13:11:47.188
61592.152344, 116257.789063, 187500.015625, 96380.023438, 133470.421875, 102514.570313, 90934.804688, 104269.273438, 0.000, 0.000, 0.000,0.040503208,0.12843332,0.054153375,0.054460578,0.025660496, 13:11:47.188
61369.035156, 116033.867188, 187500.015625, 97001.468750, 133318.187500, 102900.921875, 90974.078125, 104470.015625, 0.000, 0.000, 0.000,0.040503208,0.12843332,0.054153375,0.054460578,0.025660496, 13:11:47.189
61266.734375, 115924.570313, 187500.015625, 97543.812500, 133187.843750, 103045.406250, 90989.679688, 104574.265625, 0.000, 0.000, 0.000,0.040503208,0.12843332,0.054153375,0.054460578,0.025660496, 13:11:47.189
61471.296875, 116134.320313, 187500.015625, 96992.617188, 133323.171875, 102684.000000, 90957.648438, 104391.492188, 0.000, 0.000, 0.000,0.040503208,0.12843332,0.054153375,0.054460578,0.025660496, 13:11:47.189
61604.421875, 116270.867188, 187500.015625, 96384.898438, 133466.640625, 102488.312500, 90939.210938, 104260.671875, 0.000, 0.000, 0.000,0.040503208,0.12843332,0.054153375,0.054460578,0.025660496, 13:11:47.189
61423.285156, 116087.023438, 187500.015625, 96835.625000, 133354.234375, 102827.343750, 90963.640625, 104426.718750, 0.000, 0.000, 0.000,0.040503208,0.12843332,0.054153375,0.054460578,0.025660496, 13:11:47.190
61254.640625, 115914.976563, 187500.015625, 97521.843750, 133188.046875, 103070.617188, 90990.843750, 104582.984375, 0.176, 0.186, 0.956,0.040503208,0.12843332,0.054153375,0.054460578,0.025660496, 13:11:47.190
61418.546875, 116083.359375, 187500.015625, 97139.937500, 133277.687500, 102757.226563, 90958.343750, 104430.054688, 0.000, 0.000, 0.000,0.02563754,0.06192586,0.022472184,0.022562366,0.007733922, 13:11:47.645
61611.843750, 116279.898438, 187500.015625, 96389.570313, 133461.656250, 102473.492188, 90926.468750, 104253.359375, 0.000, 0.000, 0.000,0.02563754,0.06192586,0.022472184,0.022562366,0.007733922, 13:11:47.645
61466.781250, 116133.109375, 187500.015625, 96683.335938, 133395.515625, 102758.945313, 90963.460938, 104388.945313, 0.000, 0.000, 0.000,0.02563754,0.06192586,0.022472184,0.022562366,0.007733922, 13:11:47.645
61259.667969, 115924.281250, 187500.015625, 97458.539063, 133211.781250, 103070.281250, 90998.976563, 104576.140625, 0.000, 0.000, 0.000,0.02563754,0.06192586,0.022472184,0.022562366,0.007733922, 13:11:47.645
61373.617188, 116039.101563, 187500.015625, 97276.953125, 133250.515625, 102834.539063, 90974.414063, 104473.343750, 0.000, 0.000, 0.000,0.02563754,0.06192586,0.022472184,0.022562366,0.007733922, 13:11:47.645
61595.726563, 116262.507813, 187500.015625, 96478.257813, 133442.906250, 102481.960938, 90936.328125, 104267.398438, 0.000, 0.000, 0.000,0.02563754,0.06192586,0.022472184,0.022562366,0.007733922, 13:11:47.646
61515.777344, 116179.625000, 187500.015625, 96556.671875, 133426.250000, 102674.234375, 90955.679688, 104346.078125, 0.000, 0.000, 0.000,0.02563754,0.06192586,0.022472184,0.022562366,0.007733922, 13:11:47.646
61280.300781, 115938.937500, 187500.015625, 97367.679688, 133228.625000, 103046.273438, 90991.179688, 104557.476563, 0.000, 0.000, 0.000,0.02563754,0.06192586,0.022472184,0.022562366,0.007733922, 13:11:47.646
61324.714844, 115986.125000, 187500.015625, 97413.078125, 133216.890625, 102912.570313, 90980.406250, 104516.039063, 0.176, 0.188, 0.954,0.02563754,0.06192586,0.022472184,0.022562366,0.007733922, 13:11:47.646
61568.078125, 116235.750000, 187500.015625, 96600.460938, 133409.328125, 102518.507813, 90931.968750, 104292.562500, 0.000, 0.000, 0.000,0.02563754,0.06192586,0.022472184,0.022562366,0.007733922, 13:11:47.646
61546.890625, 116210.046875, 187500.015625, 96463.195313, 133444.296875, 102612.984375, 90936.367188, 104314.781250, 0.000, 0.000, 0.000,0.02563754,0.06192586,0.022472184,0.022562366,0.007733922, 13:11:47.646
61304.753906, 115963.171875, 187500.015625, 97247.609375, 133256.640625, 103014.671875, 90978.101563, 104534.632813, 0.000, 0.000, 0.000,0.02563754,0.06192586,0.022472184,0.022562366,0.007733922, 13:11:47.647
61296.281250, 115956.398438, 187500.015625, 97485.562500, 133205.390625, 102980.984375, 90982.640625, 104545.742188, 0.000, 0.000, 0.000,0.02563754,0.06192586,0.022472184,0.022562366,0.007733922, 13:11:47.647
61536.519531, 116205.281250, 187500.015625, 96734.234375, 133379.406250, 102578.656250, 90938.804688, 104327.054688, 0.000, 0.000, 0.000,0.02563754,0.06192586,0.022472184,0.022562366,0.007733922, 13:11:47.647
61573.914063, 116241.468750, 187500.015625, 96406.867188, 133455.828125, 102563.968750, 90934.265625, 104290.132813, 0.000, 0.000, 0.000,0.02563754,0.06192586,0.022472184,0.022562366,0.007733922, 13:11:47.647
61332.601563, 115989.992188, 187500.015625, 97123.000000, 133276.093750, 102962.257813, 90972.312500, 104498.242188, 0.000, 0.000, 0.000,0.02563754,0.06192586,0.022472184,0.022562366,0.007733922, 13:11:47.647
61264.339844, 115923.046875, 187500.015625, 97545.492188, 133177.828125, 103027.078125, 90977.812500, 104560.648438, 0.000, 0.000, 0.000,0.02563754,0.06192586,0.022472184,0.022562366,0.007733922, 13:11:47.647
61491.257813, 116153.718750, 187500.015625, 96898.093750, 133337.625000, 102636.617188, 90942.921875, 104360.156250, 0.000, 0.000, 0.000,0.02563754,0.06192586,0.022472184,0.022562366,0.007733922, 13:11:47.648
61596.847656, 116260.445313, 187500.015625, 96389.546875, 133462.015625, 102511.398438, 90928.703125, 104264.984375, 0.174, 0.192, 0.956,0.02563754,0.06192586,0.022472184,0.022562366,0.007733922, 13:11:47.648
61391.566406, 116049.273438, 187500.015625, 96961.257813, 133321.531250, 102885.078125, 90960.554688, 104454.750000, 0.000, 0.000, 0.000,0.02563754,0.06192586,0.022472184,0.022562366,0.007733922, 13:11:47.648
61260.296875, 115915.453125, 187500.015625, 97545.156250, 133183.953125, 103053.671875, 90979.937500, 104570.289063, 0.000, 0.000, 0.000,0.02563754,0.06192586,0.022472184,0.022562366,0.007733922, 13:11:47.648
61451.894531, 116110.578125, 187500.015625, 97045.125000, 133310.406250, 102705.968750, 90952.531250, 104395.789063, 0.000, 0.000, 0.000,0.02563754,0.06192586,0.022472184,0.022562366,0.007733922, 13:11:47.648
61607.597656, 116269.343750, 187500.015625, 96392.164063, 133468.546875, 102485.468750, 90932.640625, 104250.406250, 0.000, 0.000, 0.000,0.02563754,0.06192586,0.022472184,0.022562366,0.007733922, 13:11:47.648
61428.046875, 116087.445313, 187500.015625, 96814.273438, 133361.281250, 102812.968750, 90962.523438, 104412.195313, 0.000, 0.000, 0.000,0.02563754,0.06192586,0.022472184,0.022562366,0.007733922, 13:11:47.648
61247.800781, 115910.687500, 187500.015625, 97524.835938, 133188.234375, 103067.820313, 90984.648438, 104568.992188, 0.000, 0.000, 0.000,0.02563754,0.06192586,0.022472184,0.022562366,0.007733922, 13:11:47.649
61406.945313, 116074.078125, 187500.015625, 97192.867188, 133277.093750, 102777.046875, 90960.171875, 104434.453125, 0.000, 0.000, 0.000,0.02563754,0.06192586,0.022472184,0.022562366,0.007733922, 13:11:47.649
61610.750000, 116279.406250, 187500.015625, 96440.757813, 133459.843750, 102472.929688, 90928.343750, 104252.039063, 0.000, 0.000, 0.000,0.02563754,0.06192586,0.022472184,0.022562366,0.007733922, 13:11:47.649
61482.179688, 116146.632813, 187500.015625, 96666.867188, 133400.734375, 102728.703125, 90952.687500, 104370.843750, 0.000, 0.000, 0.000,0.02563754,0.06192586,0.022472184,0.022562366,0.007733922, 13:11:47.649
61268.187500, 115930.648438, 187500.015625, 97437.507813, 133215.203125, 103057.539063, 90985.429688, 104565.968750, 0.174, 0.198, 0.958,0.02563754,0.06192586,0.022472184,0.022562366,0.007733922, 13:11:47.649
61359.246094, 116023.453125, 187500.015625, 97323.023438, 133239.656250, 102855.726563, 90968.648438, 104481.664063, 0.000, 0.000, 0.000,0.02563754,0.06192586,0.022472184,0.022562366,0.007733922, 13:11:47.649
61589.691406, 116257.054688, 187500.015625, 96521.242188, 133431.234375, 102492.421875, 90930.085938, 104271.820313, 0.000, 0.000, 0.000,0.02563754,0.06192586,0.022472184,0.022562366,0.007733922, 13:11:47.649
61522.882813, 116190.312500, 187500.015625, 96542.140625, 133428.734375, 102657.851563, 90944.750000, 104337.648438, 0.000, 0.000, 0.000,0.02563754,0.06192586,0.022472184,0.022562366,0.007733922, 13:11:47.650
61280.480469, 115945.335938, 187500.015625, 97345.890625, 133231.843750, 103034.203125, 90982.148438, 104549.523438, 0.000, 0.000, 0.000,0.02563754,0.06192586,0.022472184,0.022562366,0.007733922, 13:11:47.650
61315.593750, 115981.718750, 187500.015625, 97432.953125, 133214.203125, 102926.359375, 90979.242188, 104521.562500, 0.000, 0.000, 0.000,0.02563754,0.06192586,0.022472184,0.022562366,0.007733922, 13:11:47.650
61553.683594, 116222.898438, 187500.015625, 96658.640625, 133402.187500, 102537.328125, 90943.414063, 104308.054688, 0.000, 0.000, 0.000,0.02563754,0.06192586,0.022472184,0.022562366,0.007733922, 13:11:47.650
61555.562500, 116224.328125, 187500.015625, 96471.265625, 133454.656250, 102598.992188, 90950.046875, 104313.937500, 0.000, 0.000, 0.000,0.02563754,0.06192586,0.022472184,0.022562366,0.007733922, 13:11:47.650
61315.527344, 115983.468750, 187500.015625, 97217.164063, 133268.109375, 102994.867188, 90984.492188, 104527.726563, 0.000, 0.000, 0.000,0.02563754,0.06192586,0.022472184,0.022562366,0.007733922, 13:11:47.650
61287.007813, 115953.718750, 187500.015625, 97512.546875, 133193.703125, 102988.250000, 90983.601563, 104556.023438, 0.154, 0.202, 0.958,0.02563754,0.06192586,0.022472184,0.022562366,0.007733922, 13:11:47.650
61532.339844, 116203.296875, 187500.015625, 96787.007813, 133369.765625, 102586.546875, 90942.718750, 104340.421875, 0.000, 0.000, 0.000,0.02563754,0.06192586,0.022472184,0.022562366,0.007733922, 13:11:47.651
61593.960938, 116263.648438, 187500.015625, 96394.375000, 133460.406250, 102537.484375, 90931.812500, 104282.617188, 0.000, 0.000, 0.000,0.02563754,0.06192586,0.022472184,0.022562366,0.007733922, 13:11:47.651
61363.738281, 116029.015625, 187500.015625, 97063.562500, 133293.234375, 102933.156250, 90965.585938, 104489.078125, 0.000, 0.000, 0.000,0.02563754,0.06192586,0.022472184,0.022562366,0.007733922, 13:11:47.651
