%OpenBCI Raw EEG Data
%
%Sample Rate = 250.0 Hz
%First Column = SampleIndex
%5 Columns before Timestamp are Frequency Power factors DELTA THETA ALPHA BETA GAMMA
%Last Column = Timestamp 
%Other Columns = EEG data in microvolts followed by Accel Data (in G) interleaved with Aux Data
, 0.000000, 0.000000, 0.000000, 0.000000, 0.000000, 0.000000, 0.000000, 0.000000, 0.000, 0.000, 0.000,0.0,0.0,0.0,0.0,0.0, 22:41:25.649
, 79790.382813, 89524.453125, 154588.640625, 153589.984375, 110007.367188, 91960.101563, 105731.343750, 115489.492188, 0.434, 0.330, 0.818,0.0,0.0,0.0,0.0,0.0, 22:41:26.134
, 79823.617188, 89560.914063, 154613.812500, 153272.750000, 110035.648438, 91938.625000, 105640.710938, 115495.281250, 0.000, 0.000, 0.000,0.0,0.0,0.0,0.0,0.0, 22:41:26.135
, 79808.734375, 89541.867188, 154662.531250, 153317.921875, 110041.859375, 91989.851563, 105743.304688, 115536.875000, 0.000, 0.000, 0.000,0.0,0.0,0.0,0.0,0.0, 22:41:26.135
, 79770.804688, 89499.492188, 154650.062500, 153627.265625, 110021.359375, 92025.679688, 105859.937500, 115541.750000, 0.000, 0.000, 0.000,0.0,0.0,0.0,0.0,0.0, 22:41:26.136
, 79783.054688, 89515.179688, 154598.812500, 153629.234375, 110009.601563, 91981.382813, 105771.781250, 115502.210938, 0.000, 0.000, 0.000,0.0,0.0,0.0,0.0,0.0, 22:41:26.137
, 79816.359375, 89549.218750, 154603.921875, 153318.140625, 110030.976563, 91936.898438, 105640.867188, 115492.085938, 0.000, 0.000, 0.000,0.0,0.0,0.0,0.0,0.0, 22:41:26.138
, 79810.632813, 89538.421875, 154646.937500, 153269.906250, 110039.960938, 91975.281250, 105691.468750, 115528.742188, 0.432, 0.382, 0.772,0.0,0.0,0.0,0.0,0.0, 22:41:26.138
, 79780.007813, 89502.687500, 154654.437500, 153563.671875, 110027.281250, 92024.859375, 105832.312500, 115548.570313, 0.000, 0.000, 0.000,0.0,0.0,0.0,0.0,0.0, 22:41:26.139
, 79771.851563, 89498.257813, 154600.500000, 153652.031250, 110000.062500, 91986.257813, 105783.203125, 115506.078125, 0.000, 0.000, 0.000,0.0,0.0,0.0,0.0,0.0, 22:41:26.139
, 79807.078125, 89537.328125, 154593.406250, 153354.671875, 110020.289063, 91931.648438, 105643.367188, 115481.359375, 0.000, 0.000, 0.000,0.0,0.0,0.0,0.0,0.0, 22:41:26.140
, 79804.734375, 89531.609375, 154633.468750, 153270.890625, 110040.585938, 91957.687500, 105689.257813, 115514.304688, 0.000, 0.000, 0.000,0.0,0.0,0.0,0.0,0.0, 22:41:26.140
, 79772.187500, 89492.382813, 154647.171875, 153546.640625, 110018.992188, 92009.078125, 105810.273438, 115540.703125, 0.000, 0.000, 0.000,0.0,0.0,0.0,0.0,0.0, 22:41:26.140
, 79759.718750, 89480.687500, 154598.875000, 153728.765625, 109991.859375, 91989.226563, 105791.562500, 115506.414063, 0.000, 0.000, 0.000,0.0,0.0,0.0,0.0,0.0, 22:41:26.141
, 79810.117188, 89539.406250, 154582.921875, 153439.687500, 110022.390625, 91934.937500, 105631.234375, 115480.484375, 0.000, 0.000, 0.000,0.0,0.0,0.0,0.0,0.0, 22:41:26.142
, 79815.976563, 89546.179688, 154633.000000, 153262.687500, 110049.054688, 91951.812500, 105646.882813, 115513.859375, 0.000, 0.000, 0.000,0.0,0.0,0.0,0.0,0.0, 22:41:26.142
, 79780.125000, 89505.257813, 154649.812500, 153481.953125, 110036.093750, 92005.632813, 105784.859375, 115541.281250, 0.000, 0.000, 0.000,0.0,0.0,0.0,0.0,0.0, 22:41:26.143
, 79755.000000, 89478.296875, 154608.078125, 153707.953125, 109995.921875, 91997.453125, 105808.820313, 115509.835938, 0.436, 0.430, 0.764,0.0,0.0,0.0,0.0,0.0, 22:41:26.144
, 79779.992188, 89510.867188, 154566.046875, 153498.968750, 109992.750000, 91929.125000, 105651.351563, 115462.718750, 0.000, 0.000, 0.000,0.0,0.0,0.0,0.0,0.0, 22:41:26.144
, 79795.750000, 89527.429688, 154604.078125, 153281.015625, 110023.304688, 91933.664063, 105628.484375, 115486.632813, 0.000, 0.000, 0.000,0.0,0.0,0.0,0.0,0.0, 22:41:26.145
, 79767.695313, 89494.437500, 154631.468750, 153451.359375, 110015.593750, 91984.109375, 105753.968750, 115513.945313, 0.000, 0.000, 0.000,0.0,0.0,0.0,0.0,0.0, 22:41:26.145
, 79754.460938, 89476.335938, 154611.593750, 153720.390625, 109996.101563, 91999.664063, 105820.578125, 115506.007813, 0.000, 0.000, 0.000,0.0,0.0,0.0,0.0,0.0, 22:41:26.146
, 79779.875000, 89505.453125, 154565.812500, 153580.328125, 109996.750000, 91937.437500, 105688.250000, 115464.679688, 0.000, 0.000, 0.000,0.0,0.0,0.0,0.0,0.0, 22:41:26.147
, 79810.921875, 89539.382813, 154600.656250, 153291.984375, 110029.765625, 91924.250000, 105625.156250, 115482.226563, 0.000, 0.000, 0.000,0.0,0.0,0.0,0.0,0.0, 22:41:26.147
, 79783.367188, 89510.398438, 154639.906250, 153388.031250, 110029.187500, 91977.023438, 105738.093750, 115520.851563, 0.000, 0.000, 0.000,0.0,0.0,0.0,0.0,0.0, 22:41:26.148
, 79749.101563, 89472.531250, 154622.453125, 153687.703125, 109999.210938, 92002.773438, 105823.796875, 115517.031250, 0.000, 0.000, 0.000,0.0,0.0,0.0,0.0,0.0, 22:41:26.148
, 79764.453125, 89493.898438, 154571.968750, 153632.140625, 109987.968750, 91945.750000, 105716.703125, 115469.351563, 0.000, 0.000, 0.000,0.0,0.0,0.0,0.0,0.0, 22:41:26.149
, 79794.179688, 89529.750000, 154592.968750, 153327.171875, 110012.578125, 91914.101563, 105626.046875, 115470.585938, 0.438, 0.452, 0.758,0.0,0.0,0.0,0.0,0.0, 22:41:26.150
, 79781.421875, 89514.554688, 154635.015625, 153355.718750, 110016.335938, 91960.367188, 105717.531250, 115512.265625, 0.000, 0.000, 0.000,0.0,0.0,0.0,0.0,0.0, 22:41:26.150
, 79753.750000, 89482.140625, 154630.343750, 153659.453125, 109996.328125, 92002.031250, 105824.171875, 115523.492188, 0.000, 0.000, 0.000,0.0,0.0,0.0,0.0,0.0, 22:41:26.151
, 79762.039063, 89493.898438, 154582.296875, 153673.578125, 109983.562500, 91959.742188, 105744.218750, 115485.562500, 0.000, 0.000, 0.000,0.0,0.0,0.0,0.0,0.0, 22:41:26.151
, 79798.226563, 89534.734375, 154587.984375, 153353.562500, 110005.539063, 91915.351563, 105619.835938, 115472.367188, 0.000, 0.000, 0.000,0.0,0.0,0.0,0.0,0.0, 22:41:26.152
, 79789.109375, 89524.257813, 154637.343750, 153327.171875, 110025.539063, 91954.781250, 105700.234375, 115511.976563, 0.000, 0.000, 0.000,0.0,0.0,0.0,0.0,0.0, 22:41:26.152
, 79754.460938, 89486.187500, 154636.562500, 153619.281250, 110010.718750, 92000.757813, 105825.250000, 115528.226563, 0.000, 0.000, 0.000,0.0,0.0,0.0,0.0,0.0, 22:41:26.153
, 79755.804688, 89488.875000, 154577.421875, 153707.937500, 109987.835938, 91969.804688, 105773.367188, 115487.570313, 0.000, 0.000, 0.000,0.0,0.0,0.0,0.0,0.0, 22:41:26.153
, 79786.156250, 89527.695313, 154564.234375, 153389.828125, 110005.179688, 91912.898438, 105624.593750, 115464.656250, 0.000, 0.000, 0.000,0.0,0.0,0.0,0.0,0.0, 22:41:26.154
, 79784.281250, 89524.164063, 154613.531250, 153287.453125, 110027.039063, 91939.960938, 105674.015625, 115504.109375, 0.436, 0.454, 0.754,0.0,0.0,0.0,0.0,0.0, 22:41:26.154
, 79757.390625, 89489.093750, 154634.531250, 153558.375000, 110012.625000, 91995.687500, 105814.539063, 115530.085938, 0.000, 0.000, 0.000,0.0,0.0,0.0,0.0,0.0, 22:41:26.154
, 79750.257813, 89484.960938, 154593.906250, 153720.781250, 109987.320313, 91981.156250, 105804.171875, 115495.414063, 0.000, 0.000, 0.000,0.0,0.0,0.0,0.0,0.0, 22:41:26.155
, 79774.062500, 89517.414063, 154561.796875, 153455.765625, 109987.234375, 91911.625000, 105653.273438, 115458.085938, 0.000, 0.000, 0.000,0.0,0.0,0.0,0.0,0.0, 22:41:26.155
, 79783.609375, 89524.632813, 154602.453125, 153277.343750, 110005.382813, 91919.445313, 105657.609375, 115484.953125, 0.000, 0.000, 0.000,0.0,0.0,0.0,0.0,0.0, 22:41:26.155
, 79752.203125, 89486.164063, 154625.421875, 153504.265625, 109995.921875, 91975.523438, 105790.109375, 115508.718750, 0.000, 0.000, 0.000,0.0,0.0,0.0,0.0,0.0, 22:41:26.156
, 79746.687500, 89483.820313, 154593.468750, 153712.406250, 109975.179688, 91981.000000, 105808.390625, 115492.328125, 0.000, 0.000, 0.000,0.0,0.0,0.0,0.0,0.0, 22:41:26.156
, 79787.210938, 89529.664063, 154575.781250, 153498.812500, 109992.484375, 91926.421875, 105671.468750, 115468.351563, 0.000, 0.000, 0.000,0.0,0.0,0.0,0.0,0.0, 22:41:26.156
, 79807.679688, 89549.601563, 154622.359375, 153297.890625, 110019.617188, 91925.500000, 105656.242188, 115489.515625, 0.000, 0.000, 0.000,0.0,0.0,0.0,0.0,0.0, 22:41:26.157
, 79784.640625, 89522.507813, 154647.062500, 153442.890625, 110012.421875, 91975.187500, 105770.148438, 115518.390625, 0.000, 0.000, 0.000,0.0,0.0,0.0,0.0,0.0, 22:41:26.157
, 79754.578125, 89491.289063, 154618.750000, 153705.156250, 109977.554688, 91986.523438, 105827.367188, 115501.382813, 0.430, 0.460, 0.752,0.0,0.0,0.0,0.0,0.0, 22:41:26.158
, 79781.796875, 89526.312500, 154574.593750, 153572.500000, 109979.226563, 91928.968750, 105692.007813, 115458.984375, 0.000, 0.000, 0.000,0.0,0.0,0.0,0.0,0.0, 22:41:26.158
, 79813.453125, 89558.695313, 154613.812500, 153288.906250, 110018.281250, 91917.906250, 105635.210938, 115481.492188, 0.000, 0.000, 0.000,0.0,0.0,0.0,0.0,0.0, 22:41:26.165
, 79781.148438, 89526.625000, 154646.328125, 153378.015625, 110015.125000, 91965.289063, 105751.437500, 115517.093750, 0.000, 0.000, 0.000,0.0,0.0,0.0,0.0,0.0, 22:41:26.165
, 79739.000000, 89482.945313, 154621.187500, 153680.781250, 109978.179688, 91986.546875, 105841.070313, 115502.257813, 0.000, 0.000, 0.000,0.0,0.0,0.0,0.0,0.0, 22:41:26.165
, 79760.875000, 89507.554688, 154569.296875, 153620.156250, 109973.304688, 91938.664063, 105733.671875, 115465.734375, 0.000, 0.000, 0.000,0.0,0.0,0.0,0.0,0.0, 22:41:26.166
, 79803.484375, 89549.445313, 154600.328125, 153319.687500, 110014.367188, 91915.867188, 105646.500000, 115478.296875, 0.000, 0.000, 0.000,0.0,0.0,0.0,0.0,0.0, 22:41:26.166
, 79793.062500, 89532.320313, 154641.812500, 153337.359375, 110019.843750, 91960.523438, 105734.187500, 115514.187500, 0.000, 0.000, 0.000,0.0,0.0,0.0,0.0,0.0, 22:41:26.166
, 79760.992188, 89494.523438, 154636.296875, 153642.312500, 109999.906250, 91998.750000, 105852.695313, 115519.335938, 0.000, 0.000, 0.000,0.0,0.0,0.0,0.0,0.0, 22:41:26.167
, 79777.890625, 89516.054688, 154593.375000, 153679.687500, 109991.968750, 91960.859375, 105786.132813, 115486.250000, 0.432, 0.464, 0.750,0.0,0.0,0.0,0.0,0.0, 22:41:26.167
, 79807.859375, 89554.140625, 154592.390625, 153357.125000, 110013.289063, 91911.867188, 105658.835938, 115470.179688, 0.000, 0.000, 0.000,0.0,0.0,0.0,0.0,0.0, 22:41:26.168
, 79796.664063, 89544.507813, 154635.843750, 153300.812500, 110025.812500, 91946.734375, 105724.664063, 115505.789063, 0.000, 0.000, 0.000,0.0,0.0,0.0,0.0,0.0, 22:41:26.168
, 79761.882813, 89504.117188, 154642.593750, 153583.906250, 110011.906250, 91997.945313, 105857.187500, 115529.078125, 0.000, 0.000, 0.000,0.0,0.0,0.0,0.0,0.0, 22:41:26.168
, 79765.304688, 89505.968750, 154601.062500, 153695.890625, 109993.062500, 91973.625000, 105819.835938, 115499.304688, 0.000, 0.000, 0.000,0.0,0.0,0.0,0.0,0.0, 22:41:26.169
, 79799.101563, 89541.914063, 154582.156250, 153416.203125, 110003.523438, 91913.320313, 105675.984375, 115472.328125, 0.000, 0.000, 0.000,0.0,0.0,0.0,0.0,0.0, 22:41:26.169
, 79803.750000, 89545.156250, 154625.937500, 153273.015625, 110023.242188, 91934.757813, 105701.195313, 115500.867188, 0.000, 0.000, 0.000,0.0,0.0,0.0,0.0,0.0, 22:41:26.169
, 79774.515625, 89511.695313, 154651.796875, 153513.875000, 110014.367188, 91991.257813, 105835.195313, 115529.210938, 0.000, 0.000, 0.000,0.0,0.0,0.0,0.0,0.0, 22:41:26.170
, 79762.507813, 89502.531250, 154616.937500, 153693.515625, 109995.859375, 91982.703125, 105835.148438, 115503.734375, 0.000, 0.000, 0.000,0.0,0.0,0.0,0.0,0.0, 22:41:26.170
, 79791.750000, 89541.445313, 154584.328125, 153428.000000, 110003.367188, 91918.796875, 105664.312500, 115466.132813, 0.000, 0.000, 0.000,0.0,0.0,0.0,0.0,0.0, 22:41:26.171
, 79804.757813, 89551.320313, 154630.765625, 153250.421875, 110027.015625, 91928.164063, 105671.375000, 115492.171875, 0.434, 0.456, 0.754,0.0,0.0,0.0,0.0,0.0, 22:41:26.171
, 79777.914063, 89520.296875, 154653.281250, 153455.937500, 110022.164063, 91983.546875, 105808.281250, 115520.312500, 0.000, 0.000, 0.000,0.0,0.0,0.0,0.0,0.0, 22:41:26.171
, 79757.859375, 89498.726563, 154619.109375, 153684.078125, 109991.367188, 91988.000000, 105847.398438, 115505.515625, 0.000, 0.000, 0.000,0.0,0.0,0.0,0.0,0.0, 22:41:26.172
, 79779.718750, 89525.906250, 154574.687500, 153489.140625, 109990.625000, 91925.414063, 105701.640625, 115462.289063, 0.000, 0.000, 0.000,0.0,0.0,0.0,0.0,0.0, 22:41:26.172
, 79810.273438, 89554.140625, 154621.578125, 153233.968750, 110026.367188, 91928.273438, 105665.835938, 115491.031250, 0.000, 0.000, 0.000,0.0,0.0,0.0,0.0,0.0, 22:41:26.173
, 79792.015625, 89528.992188, 154660.437500, 153378.156250, 110023.328125, 91987.125000, 105793.906250, 115531.468750, 0.000, 0.000, 0.000,0.0,0.0,0.0,0.0,0.0, 22:41:26.173
, 79764.476563, 89498.976563, 154636.046875, 153639.109375, 110000.101563, 92004.718750, 105862.460938, 115521.789063, 0.000, 0.000, 0.000,0.0,0.0,0.0,0.0,0.0, 22:41:26.173
, 79780.007813, 89520.898438, 154592.687500, 153543.828125, 109999.164063, 91946.156250, 105743.976563, 115484.109375, 0.000, 0.000, 0.000,0.0,0.0,0.0,0.0,0.0, 22:41:26.174
, 79803.929688, 89548.773438, 154608.781250, 153256.406250, 110025.539063, 91920.585938, 105658.726563, 115488.421875, 0.000, 0.000, 0.000,0.0,0.0,0.0,0.0,0.0, 22:41:26.174
, 79796.148438, 89537.460938, 154656.656250, 153306.187500, 110035.195313, 91972.710938, 105754.343750, 115529.140625, 0.432, 0.456, 0.756,0.0,0.0,0.0,0.0,0.0, 22:41:26.174
, 79767.648438, 89509.656250, 154653.703125, 153591.703125, 110017.898438, 92009.765625, 105854.195313, 115537.343750, 0.000, 0.000, 0.000,0.0,0.0,0.0,0.0,0.0, 22:41:26.175
, 79772.812500, 89517.367188, 154598.109375, 153579.812500, 109998.968750, 91957.171875, 105759.000000, 115489.648438, 0.000, 0.000, 0.000,0.0,0.0,0.0,0.0,0.0, 22:41:26.175
, 79810.453125, 89557.492188, 154609.671875, 153264.812500, 110028.851563, 91921.906250, 105645.648438, 115490.742188, 0.000, 0.000, 0.000,0.0,0.0,0.0,0.0,0.0, 22:41:26.176
, 79803.304688, 89546.429688, 154661.140625, 153270.468750, 110041.812500, 91968.796875, 105735.460938, 115534.015625, 0.000, 0.000, 0.000,0.0,0.0,0.0,0.0,0.0, 22:41:26.176
, 79765.015625, 89505.992188, 154653.750000, 153566.843750, 110009.828125, 92006.820313, 105844.445313, 115540.140625, 0.000, 0.000, 0.000,0.0,0.0,0.0,0.0,0.0, 22:41:26.176
, 79758.820313, 89503.109375, 154593.578125, 153613.921875, 109981.710938, 91961.085938, 105765.921875, 115491.148438, 0.000, 0.000, 0.000,0.0,0.0,0.0,0.0,0.0, 22:41:26.177
, 79804.148438, 89552.890625, 154599.718750, 153303.859375, 110014.367188, 91918.953125, 105633.468750, 115484.015625, 0.000, 0.000, 0.000,0.0,0.0,0.0,0.0,0.0, 22:41:26.177
, 79815.976563, 89562.429688, 154665.531250, 153237.312500, 110046.171875, 91962.718750, 105706.000000, 115535.578125, 0.000, 0.000, 0.000,0.0,0.0,0.0,0.0,0.0, 22:41:26.177
, 79776.460938, 89521.054688, 154673.390625, 153517.781250, 110027.484375, 92011.195313, 105839.570313, 115550.492188, 0.000, 0.000, 0.000,0.0,0.0,0.0,0.0,0.0, 22:41:26.178
, 79761.570313, 89511.781250, 154614.656250, 153633.250000, 109997.781250, 91982.882813, 105801.601563, 115511.757813, 0.440, 0.452, 0.758,0.0,0.0,0.0,0.0,0.0, 22:41:26.178
, 79784.750000, 89543.187500, 154584.125000, 153334.500000, 110007.484375, 91921.906250, 105642.546875, 115480.750000, 0.000, 0.000, 0.000,0.0,0.0,0.0,0.0,0.0, 22:41:26.178
, 79789.132813, 89546.648438, 154630.796875, 153197.218750, 110033.703125, 91948.500000, 105674.242188, 115514.953125, 0.000, 0.000, 0.000,0.0,0.0,0.0,0.0,0.0, 22:41:26.179
, 79756.406250, 89506.125000, 154650.468750, 153435.250000, 110016.335938, 92002.820313, 105807.273438, 115544.921875, 0.000, 0.000, 0.000,0.0,0.0,0.0,0.0,0.0, 22:41:26.179
, 79749.500000, 89498.367188, 154612.843750, 153630.671875, 109993.960938, 91993.765625, 105812.460938, 115523.109375, 0.000, 0.000, 0.000,0.0,0.0,0.0,0.0,0.0, 22:41:26.179
, 79788.882813, 89546.609375, 154589.578125, 153386.359375, 110009.671875, 91931.671875, 105659.929688, 115486.187500, 0.000, 0.000, 0.000,0.0,0.0,0.0,0.0,0.0, 22:41:26.180
, 79795.703125, 89545.976563, 154627.062500, 153190.109375, 110031.195313, 91933.460938, 105660.718750, 115505.562500, 0.000, 0.000, 0.000,0.0,0.0,0.0,0.0,0.0, 22:41:26.180
, 79767.875000, 89508.609375, 154653.078125, 153393.718750, 110024.554688, 91986.476563, 105803.390625, 115534.796875, 0.000, 0.000, 0.000,0.0,0.0,0.0,0.0,0.0, 22:41:26.181
, 79749.164063, 89484.000000, 154625.140625, 153656.078125, 109995.859375, 91997.562500, 105848.070313, 115517.882813, 0.000, 0.000, 0.000,0.0,0.0,0.0,0.0,0.0, 22:41:26.181
, 79775.812500, 89514.757813, 154574.421875, 153465.703125, 109992.484375, 91932.343750, 105689.125000, 115475.703125, 0.000, 0.000, 0.000,0.0,0.0,0.0,0.0,0.0, 22:41:26.181
, 79794.093750, 89536.812500, 154612.359375, 153207.406250, 110022.859375, 91920.117188, 105651.125000, 115487.460938, 0.436, 0.452, 0.754,0.0,0.0,0.0,0.0,0.0, 22:41:26.182
, 79770.265625, 89510.890625, 154643.640625, 153347.359375, 110020.085938, 91975.796875, 105774.710938, 115522.375000, 0.000, 0.000, 0.000,0.0,0.0,0.0,0.0,0.0, 22:41:26.182
, 79754.062500, 89489.765625, 154627.656250, 153631.781250, 110005.648438, 92004.109375, 105855.195313, 115526.414063, 0.000, 0.000, 0.000,0.0,0.0,0.0,0.0,0.0, 22:41:26.182
, 79774.492188, 89514.796875, 154579.875000, 153531.562500, 110007.929688, 91949.843750, 105735.015625, 115486.632813, 0.000, 0.000, 0.000,0.0,0.0,0.0,0.0,0.0, 22:41:26.183
, 79801.601563, 89543.093750, 154599.125000, 153225.265625, 110031.843750, 91925.257813, 105644.062500, 115490.703125, 0.000, 0.000, 0.000,0.0,0.0,0.0,0.0,0.0, 22:41:26.183
, 79783.250000, 89518.468750, 154643.906250, 153270.953125, 110032.695313, 91971.078125, 105742.765625, 115527.218750, 0.000, 0.000, 0.000,0.0,0.0,0.0,0.0,0.0, 22:41:26.183
, 79752.718750, 89483.554688, 154633.984375, 153567.156250, 110006.742188, 92001.476563, 105846.054688, 115529.789063, 0.000, 0.000, 0.000,0.0,0.0,0.0,0.0,0.0, 22:41:26.184
, 79770.710938, 89502.101563, 154583.593750, 153546.671875, 110002.203125, 91954.023438, 105760.984375, 115491.882813, 0.000, 0.000, 0.000,0.0,0.0,0.0,0.0,0.0, 22:41:26.184
, 79801.179688, 89535.515625, 154589.578125, 153223.171875, 110024.265625, 91914.687500, 105648.781250, 115489.132813, 0.000, 0.000, 0.000,0.0,0.0,0.0,0.0,0.0, 22:41:26.184
, 79788.617188, 89518.937500, 154628.000000, 153211.484375, 110023.351563, 91951.898438, 105724.906250, 115521.906250, 0.434, 0.444, 0.760,0.0,0.0,0.0,0.0,0.0, 22:41:26.185
, 79761.953125, 89485.320313, 154631.625000, 153507.437500, 110004.507813, 91999.687500, 105839.218750, 115533.929688, 0.000, 0.000, 0.000,0.0,0.0,0.0,0.0,0.0, 22:41:26.185
, 79765.593750, 89489.523438, 154579.984375, 153566.093750, 109987.429688, 91963.742188, 105769.593750, 115493.671875, 0.000, 0.000, 0.000,0.0,0.0,0.0,0.0,0.0, 22:41:26.185
, 79805.625000, 89529.750000, 154581.015625, 153251.515625, 110016.867188, 91917.078125, 105635.617188, 115483.906250, 0.000, 0.000, 0.000,0.0,0.0,0.0,0.0,0.0, 22:41:26.186
, 79802.992188, 89524.679688, 154627.343750, 153173.859375, 110038.703125, 91951.656250, 105695.359375, 115524.742188, 0.000, 0.000, 0.000,0.0,0.0,0.0,0.0,0.0, 22:41:26.186
, 79773.507813, 89489.875000, 154639.890625, 153443.312500, 110019.906250, 92000.312500, 105827.484375, 115539.445313, 0.000, 0.000, 0.000,0.0,0.0,0.0,0.0,0.0, 22:41:26.187
, 79768.476563, 89485.250000, 154596.328125, 153575.296875, 109994.695313, 91977.851563, 105801.617188, 115505.515625, 0.000, 0.000, 0.000,0.0,0.0,0.0,0.0,0.0, 22:41:26.187
, 79798.320313, 89522.000000, 154575.875000, 153312.328125, 110005.226563, 91918.328125, 105659.281250, 115477.179688, 0.000, 0.000, 0.000,0.0,0.0,0.0,0.0,0.0, 22:41:26.187
, 79820.179688, 89535.765625, 154625.921875, 153162.500000, 110037.367188, 91941.015625, 105682.929688, 115514.460938, 0.000, 0.000, 0.000,5.8128376E-4,7.699909E-4,9.4646873E-4,0.0029775868,0.003781339, 22:41:26.187
, 79798.429688, 89505.882813, 154652.187500, 153389.531250, 110035.312500, 91999.242188, 105815.500000, 115543.898438, 0.000, 0.000, 0.000,5.8128376E-4,7.699909E-4,9.4646873E-4,0.0029775868,0.003781339, 22:41:26.188
, 79778.226563, 89487.734375, 154611.531250, 153579.546875, 110008.781250, 91990.320313, 105824.796875, 115519.976563, 0.432, 0.438, 0.758,5.8128376E-4,7.699909E-4,9.4646873E-4,0.0029775868,0.003781339, 22:41:26.188
, 79802.562500, 89516.679688, 154573.703125, 153341.500000, 110015.773438, 91922.015625, 105673.031250, 115477.398438, 0.000, 0.000, 0.000,5.8128376E-4,7.699909E-4,9.4646873E-4,0.0029775868,0.003781339, 22:41:26.189
, 79807.953125, 89522.664063, 154602.562500, 153136.093750, 110034.015625, 91923.531250, 105655.617188, 115498.726563, 0.000, 0.000, 0.000,5.8128376E-4,7.699909E-4,9.4646873E-4,0.0029775868,0.003781339, 22:41:26.189
, 79783.632813, 89493.859375, 154634.421875, 153312.593750, 110025.585938, 91978.343750, 105783.132813, 115533.164063, 0.000, 0.000, 0.000,5.8128376E-4,7.699909E-4,9.4646873E-4,0.0029775868,0.003781339, 22:41:26.189
, 79775.585938, 89480.867188, 154612.953125, 153584.375000, 110004.062500, 91990.500000, 105837.718750, 115519.375000, 0.000, 0.000, 0.000,5.8128376E-4,7.699909E-4,9.4646873E-4,0.0029775868,0.003781339, 22:41:26.190
, 79815.234375, 89524.859375, 154577.421875, 153402.984375, 110014.585938, 91933.976563, 105697.640625, 115481.312500, 0.000, 0.000, 0.000,5.8128376E-4,7.699909E-4,9.4646873E-4,0.0029775868,0.003781339, 22:41:26.190
, 79840.695313, 89548.507813, 154612.843750, 153126.250000, 110048.539063, 91924.898438, 105650.703125, 115501.117188, 0.000, 0.000, 0.000,5.8128376E-4,7.699909E-4,9.4646873E-4,0.0029775868,0.003781339, 22:41:26.190
, 79813.898438, 89514.617188, 154649.046875, 153239.859375, 110046.664063, 91975.484375, 105774.328125, 115536.968750, 0.000, 0.000, 0.000,5.8128376E-4,7.699909E-4,9.4646873E-4,0.0029775868,0.003781339, 22:41:26.191
, 79783.656250, 89482.007813, 154625.812500, 153534.546875, 110015.484375, 91999.421875, 105850.187500, 115533.992188, 0.000, 0.000, 0.000,0.0,0.0,0.0,0.0,0.0, 22:41:26.614
, 79801.226563, 89506.242188, 154579.421875, 153449.015625, 110010.500000, 91945.062500, 105732.531250, 115492.843750, 0.434, 0.442, 0.760,0.0,0.0,0.0,0.0,0.0, 22:41:26.614
, 79829.546875, 89535.226563, 154596.500000, 153154.109375, 110033.968750, 91918.687500, 105645.382813, 115492.578125, 0.000, 0.000, 0.000,0.0,0.0,0.0,0.0,0.0, 22:41:26.614
, 79812.625000, 89515.046875, 154634.343750, 153194.578125, 110032.132813, 91963.882813, 105736.312500, 115530.398438, 0.000, 0.000, 0.000,0.0,0.0,0.0,0.0,0.0, 22:41:26.614
, 79776.703125, 89472.710938, 154629.000000, 153509.609375, 110005.625000, 91999.460938, 105844.382813, 115535.851563, 0.000, 0.000, 0.000,0.0,0.0,0.0,0.0,0.0, 22:41:26.615
, 79789.000000, 89489.359375, 154575.546875, 153509.000000, 110000.039063, 91954.539063, 105762.281250, 115495.195313, 0.000, 0.000, 0.000,0.0,0.0,0.0,0.0,0.0, 22:41:26.615
, 79837.007813, 89535.476563, 154593.640625, 153200.687500, 110038.304688, 91920.093750, 105660.382813, 115498.585938, 0.000, 0.000, 0.000,0.0,0.0,0.0,0.0,0.0, 22:41:26.615
, 79832.289063, 89525.531250, 154639.406250, 153180.703125, 110051.625000, 91961.468750, 105736.312500, 115536.031250, 0.000, 0.000, 0.000,0.0,0.0,0.0,0.0,0.0, 22:41:26.615
, 79795.812500, 89487.750000, 154639.125000, 153461.687500, 110023.750000, 92001.273438, 105840.710938, 115539.898438, 0.000, 0.000, 0.000,0.0,0.0,0.0,0.0,0.0, 22:41:26.616
, 79793.218750, 89487.820313, 154589.546875, 153541.703125, 109999.187500, 91966.117188, 105783.492188, 115503.351563, 0.000, 0.000, 0.000,0.0,0.0,0.0,0.0,0.0, 22:41:26.616
, 79837.906250, 89535.070313, 154594.656250, 153248.921875, 110027.375000, 91922.101563, 105658.281250, 115495.820313, 0.000, 0.000, 0.000,0.0,0.0,0.0,0.0,0.0, 22:41:26.616
, 79843.648438, 89535.921875, 154648.046875, 153162.734375, 110053.148438, 91953.531250, 105716.773438, 115534.015625, 0.434, 0.446, 0.758,0.0,0.0,0.0,0.0,0.0, 22:41:26.617
, 79806.765625, 89498.703125, 154654.640625, 153417.812500, 110035.312500, 92002.101563, 105847.328125, 115550.156250, 0.000, 0.000, 0.000,0.0,0.0,0.0,0.0,0.0, 22:41:26.617
, 79800.328125, 89491.734375, 154609.421875, 153562.250000, 110013.937500, 91983.328125, 105834.906250, 115516.492188, 0.000, 0.000, 0.000,0.0,0.0,0.0,0.0,0.0, 22:41:26.618
, 79834.906250, 89528.367188, 154579.828125, 153283.109375, 110021.179688, 91917.117188, 105673.367188, 115478.742188, 0.000, 0.000, 0.000,0.0,0.0,0.0,0.0,0.0, 22:41:26.618
, 79848.382813, 89539.429688, 154630.843750, 153115.593750, 110047.601563, 91936.679688, 105680.406250, 115514.726563, 0.000, 0.000, 0.000,0.0,0.0,0.0,0.0,0.0, 22:41:26.618
, 79822.703125, 89504.789063, 154658.015625, 153348.734375, 110040.765625, 91995.085938, 105818.187500, 115551.851563, 0.000, 0.000, 0.000,0.0,0.0,0.0,0.0,0.0, 22:41:26.619
, 79807.664063, 89487.062500, 154620.468750, 153577.531250, 110016.085938, 91992.687500, 105846.812500, 115528.500000, 0.000, 0.000, 0.000,0.0,0.0,0.0,0.0,0.0, 22:41:26.619
, 79834.414063, 89521.820313, 154582.843750, 153371.390625, 110020.710938, 91927.625000, 105698.242188, 115488.843750, 0.000, 0.000, 0.000,0.0,0.0,0.0,0.0,0.0, 22:41:26.620
, 79853.328125, 89540.570313, 154620.015625, 153151.515625, 110045.164063, 91928.117188, 105671.601563, 115508.984375, 0.000, 0.000, 0.000,0.0,0.0,0.0,0.0,0.0, 22:41:26.620
, 79832.960938, 89515.648438, 154651.171875, 153307.656250, 110040.695313, 91984.890625, 105796.796875, 115546.578125, 0.438, 0.438, 0.756,0.0,0.0,0.0,0.0,0.0, 22:41:26.620
, 79805.156250, 89488.132813, 154626.484375, 153573.375000, 110007.210938, 91995.710938, 105849.429688, 115532.406250, 0.000, 0.000, 0.000,0.0,0.0,0.0,0.0,0.0, 22:41:26.620
, 79819.796875, 89509.101563, 154569.437500, 153434.453125, 109995.257813, 91925.773438, 105705.328125, 115481.218750, 0.000, 0.000, 0.000,0.0,0.0,0.0,0.0,0.0, 22:41:26.621
, 79854.468750, 89545.531250, 154612.750000, 153166.515625, 110041.921875, 91919.445313, 105661.859375, 115504.960938, 0.000, 0.000, 0.000,0.0,0.0,0.0,0.0,0.0, 22:41:26.621
, 79835.757813, 89520.945313, 154656.500000, 153291.859375, 110041.703125, 91973.312500, 105787.250000, 115546.242188, 0.000, 0.000, 0.000,0.0,0.0,0.0,0.0,0.0, 22:41:26.621
, 79809.406250, 89490.750000, 154638.437500, 153594.093750, 110014.140625, 92003.398438, 105866.578125, 115549.484375, 0.000, 0.000, 0.000,0.0,0.0,0.0,0.0,0.0, 22:41:26.622
, 79820.218750, 89510.265625, 154584.687500, 153537.078125, 110002.898438, 91942.804688, 105748.960938, 115494.523438, 0.000, 0.000, 0.000,0.0,0.0,0.0,0.0,0.0, 22:41:26.622
, 79850.617188, 89543.742188, 154595.812500, 153239.046875, 110024.804688, 91911.578125, 105651.015625, 115495.726563, 0.000, 0.000, 0.000,0.0,0.0,0.0,0.0,0.0, 22:41:26.622
, 79849.523438, 89536.992188, 154639.078125, 153247.781250, 110036.937500, 91961.507813, 105734.765625, 115542.351563, 0.000, 0.000, 0.000,0.0,0.0,0.0,0.0,0.0, 22:41:26.622
, 79816.156250, 89499.351563, 154636.000000, 153547.453125, 110014.656250, 91997.070313, 105845.031250, 115549.484375, 0.000, 0.000, 0.000,0.0,0.0,0.0,0.0,0.0, 22:41:26.623
, 79817.406250, 89503.890625, 154581.656250, 153571.953125, 109997.312500, 91952.523438, 105769.101563, 115503.171875, 0.434, 0.440, 0.758,0.0,0.0,0.0,0.0,0.0, 22:41:26.623
, 79856.656250, 89546.804688, 154590.671875, 153259.734375, 110021.632813, 91912.179688, 105648.351563, 115490.054688, 0.000, 0.000, 0.000,0.0,0.0,0.0,0.0,0.0, 22:41:26.623
, 79853.546875, 89540.054688, 154641.593750, 153207.250000, 110035.937500, 91952.953125, 105714.585938, 115530.421875, 0.000, 0.000, 0.000,0.0,0.0,0.0,0.0,0.0, 22:41:26.624
, 79814.859375, 89495.062500, 154644.656250, 153509.296875, 110011.687500, 91996.757813, 105845.429688, 115545.593750, 0.000, 0.000, 0.000,0.0,0.0,0.0,0.0,0.0, 22:41:26.624
, 79814.414063, 89497.562500, 154593.937500, 153615.312500, 109991.117188, 91965.398438, 105803.343750, 115508.468750, 0.000, 0.000, 0.000,0.0,0.0,0.0,0.0,0.0, 22:41:26.624
, 79849.750000, 89541.242188, 154583.312500, 153311.640625, 110012.421875, 91913.187500, 105661.140625, 115490.164063, 0.000, 0.000, 0.000,0.0,0.0,0.0,0.0,0.0, 22:41:26.625
, 79859.781250, 89545.820313, 154632.015625, 153182.109375, 110035.687500, 91942.671875, 105706.578125, 115529.007813, 0.000, 0.000, 0.000,0.0,0.0,0.0,0.0,0.0, 22:41:26.625
, 79826.328125, 89506.531250, 154647.515625, 153431.796875, 110016.156250, 91995.328125, 105843.554688, 115551.406250, 0.000, 0.000, 0.000,0.0,0.0,0.0,0.0,0.0, 22:41:26.625
, 79816.085938, 89498.976563, 154603.843750, 153605.156250, 109990.718750, 91979.257813, 105824.976563, 115514.726563, 0.000, 0.000, 0.000,0.0,0.0,0.0,0.0,0.0, 22:41:26.626
, 79853.546875, 89541.015625, 154583.343750, 153352.718750, 110004.687500, 91920.632813, 105664.539063, 115487.078125, 0.000, 0.000, 0.000,0.0,0.0,0.0,0.0,0.0, 22:41:26.626
, 79860.078125, 89545.242188, 154621.625000, 153182.062500, 110025.093750, 91928.187500, 105671.468750, 115511.953125, 0.436, 0.436, 0.758,0.0,0.0,0.0,0.0,0.0, 22:41:26.626
, 79821.070313, 89502.351563, 154638.031250, 153401.468750, 110003.343750, 91977.265625, 105800.281250, 115536.703125, 0.000, 0.000, 0.000,0.0,0.0,0.0,0.0,0.0, 22:41:26.626
, 79811.617188, 89486.789063, 154601.437500, 153627.640625, 109982.960938, 91981.429688, 105827.210938, 115522.375000, 0.000, 0.000, 0.000,0.0,0.0,0.0,0.0,0.0, 22:41:26.627
, 79847.625000, 89527.429688, 154568.953125, 153409.937500, 109998.828125, 91920.851563, 105691.132813, 115489.023438, 0.000, 0.000, 0.000,0.0,0.0,0.0,0.0,0.0, 22:41:26.627
, 79863.718750, 89545.171875, 154608.328125, 153165.609375, 110029.070313, 91918.843750, 105669.898438, 115510.484375, 0.000, 0.000, 0.000,0.0,0.0,0.0,0.0,0.0, 22:41:26.627
, 79838.195313, 89515.851563, 154637.562500, 153303.250000, 110026.281250, 91972.734375, 105788.429688, 115543.718750, 0.000, 0.000, 0.000,0.0,0.0,0.0,0.0,0.0, 22:41:26.628
, 79818.164063, 89491.484375, 154618.250000, 153574.609375, 110003.125000, 91990.835938, 105854.773438, 115539.117188, 0.000, 0.000, 0.000,0.0,0.0,0.0,0.0,0.0, 22:41:26.628
, 79830.125000, 89508.539063, 154566.687500, 153455.984375, 109990.671875, 91927.734375, 105722.984375, 115490.546875, 0.000, 0.000, 0.000,0.0,0.0,0.0,0.0,0.0, 22:41:26.628
, 79856.546875, 89537.421875, 154591.156250, 153185.640625, 110014.429688, 91903.796875, 105659.445313, 115491.078125, 0.000, 0.000, 0.000,0.0,0.0,0.0,0.0,0.0, 22:41:26.628
, 79845.437500, 89519.937500, 154640.453125, 153290.687500, 110023.304688, 91956.929688, 105780.164063, 115530.820313, 0.438, 0.440, 0.762,0.0,0.0,0.0,0.0,0.0, 22:41:26.629
, 79811.210938, 89485.359375, 154629.921875, 153605.078125, 109993.937500, 91987.390625, 105874.265625, 115533.148438, 0.000, 0.000, 0.000,0.0,0.0,0.0,0.0,0.0, 22:41:26.629
, 79825.945313, 89504.453125, 154579.000000, 153561.281250, 109988.414063, 91936.250000, 105765.726563, 115493.335938, 0.000, 0.000, 0.000,0.0,0.0,0.0,0.0,0.0, 22:41:26.629
, 79863.828125, 89547.609375, 154595.875000, 153247.437500, 110014.632813, 91904.937500, 105655.710938, 115494.562500, 0.000, 0.000, 0.000,0.0,0.0,0.0,0.0,0.0, 22:41:26.630
, 79867.273438, 89546.898438, 154650.187500, 153251.312500, 110037.234375, 91957.625000, 105745.898438, 115540.117188, 0.000, 0.000, 0.000,0.0,0.0,0.0,0.0,0.0, 22:41:26.630
, 79836.406250, 89507.781250, 154649.687500, 153559.546875, 110013.851563, 92000.132813, 105859.398438, 115548.656250, 0.000, 0.000, 0.000,0.0,0.0,0.0,0.0,0.0, 22:41:26.630
, 79836.765625, 89511.960938, 154591.921875, 153589.718750, 109983.765625, 91956.343750, 105772.632813, 115504.109375, 0.000, 0.000, 0.000,0.0,0.0,0.0,0.0,0.0, 22:41:26.630
, 79868.789063, 89548.593750, 154591.000000, 153272.015625, 110006.992188, 91906.390625, 105641.984375, 115486.898438, 0.000, 0.000, 0.000,0.0,0.0,0.0,0.0,0.0, 22:41:26.631
, 79864.945313, 89539.875000, 154636.359375, 153231.890625, 110021.898438, 91946.062500, 105719.921875, 115524.562500, 0.000, 0.000, 0.000,0.0,0.0,0.0,0.0,0.0, 22:41:26.631
, 79829.898438, 89499.421875, 154637.390625, 153510.234375, 109995.296875, 91991.820313, 105842.343750, 115542.085938, 0.000, 0.000, 0.000,0.0,0.0,0.0,0.0,0.0, 22:41:26.631
, 79827.195313, 89499.265625, 154588.593750, 153628.765625, 109974.242188, 91961.265625, 105802.250000, 115502.320313, 0.444, 0.436, 0.764,0.0,0.0,0.0,0.0,0.0, 22:41:26.632
, 79868.320313, 89546.742188, 154577.578125, 153327.000000, 109999.257813, 91906.546875, 105654.789063, 115478.070313, 0.000, 0.000, 0.000,0.0,0.0,0.0,0.0,0.0, 22:41:26.632
, 79871.898438, 89545.015625, 154627.234375, 153205.640625, 110020.554688, 91933.031250, 105695.585938, 115512.492188, 0.000, 0.000, 0.000,0.0,0.0,0.0,0.0,0.0, 22:41:26.632
, 79839.023438, 89506.218750, 154639.359375, 153451.765625, 110003.210938, 91985.898438, 105823.304688, 115535.421875, 0.000, 0.000, 0.000,0.0,0.0,0.0,0.0,0.0, 22:41:26.633
, 79831.640625, 89499.507813, 154606.031250, 153639.062500, 109990.250000, 91977.382813, 105835.664063, 115512.132813, 0.000, 0.000, 0.000,0.0,0.0,0.0,0.0,0.0, 22:41:26.633
, 79862.601563, 89538.648438, 154577.484375, 153390.984375, 110002.968750, 91917.210938, 105692.882813, 115480.750000, 0.000, 0.000, 0.000,0.0,0.0,0.0,0.0,0.0, 22:41:26.633
, 79873.242188, 89552.125000, 154625.968750, 153212.281250, 110029.812500, 91930.734375, 105700.476563, 115511.640625, 0.000, 0.000, 0.000,0.0,0.0,0.0,0.0,0.0, 22:41:26.633
, 79835.289063, 89511.539063, 154644.453125, 153413.406250, 110012.492188, 91982.789063, 105824.953125, 115540.726563, 0.000, 0.000, 0.000,0.0,0.0,0.0,0.0,0.0, 22:41:26.634
, 79818.656250, 89491.953125, 154615.390625, 153654.531250, 109990.851563, 91987.171875, 105866.304688, 115526.085938, 0.000, 0.000, 0.000,0.0,0.0,0.0,0.0,0.0, 22:41:26.634
, 79849.414063, 89526.687500, 154578.000000, 153476.593750, 109998.320313, 91927.382813, 105722.429688, 115489.250000, 0.438, 0.438, 0.764,0.0,0.0,0.0,0.0,0.0, 22:41:26.634
, 79881.890625, 89556.015625, 154619.218750, 153208.812500, 110031.039063, 91928.273438, 105673.500000, 115514.929688, 0.000, 0.000, 0.000,0.0,0.0,0.0,0.0,0.0, 22:41:26.635
, 79861.929688, 89531.515625, 154659.968750, 153348.984375, 110031.976563, 91982.656250, 105805.820313, 115553.304688, 0.000, 0.000, 0.000,0.0,0.0,0.0,0.0,0.0, 22:41:26.635
, 79839.687500, 89510.039063, 154644.218750, 153620.562500, 110008.148438, 92000.250000, 105882.289063, 115547.179688, 0.000, 0.000, 0.000,0.0,0.0,0.0,0.0,0.0, 22:41:26.635
, 79846.460938, 89525.039063, 154587.312500, 153508.578125, 109986.132813, 91935.625000, 105747.085938, 115498.835938, 0.000, 0.000, 0.000,0.0,0.0,0.0,0.0,0.0, 22:41:26.636
, 79877.062500, 89554.070313, 154609.937500, 153231.125000, 110011.281250, 91915.492188, 105674.843750, 115506.234375, 0.000, 0.000, 0.000,0.0,0.0,0.0,0.0,0.0, 22:41:26.636
, 79869.507813, 89538.046875, 154656.453125, 153304.000000, 110024.554688, 91967.164063, 105780.523438, 115541.460938, 0.000, 0.000, 0.000,0.0,0.0,0.0,0.0,0.0, 22:41:26.636
, 79837.390625, 89500.828125, 154644.343750, 153617.078125, 110001.757813, 92001.382813, 105879.273438, 115544.703125, 0.000, 0.000, 0.000,0.0,0.0,0.0,0.0,0.0, 22:41:26.636
, 79846.351563, 89518.890625, 154591.671875, 153582.453125, 109991.187500, 91949.773438, 105783.156250, 115503.062500, 0.000, 0.000, 0.000,0.0,0.0,0.0,0.0,0.0, 22:41:26.637
, 79879.164063, 89556.890625, 154604.078125, 153271.312500, 110020.203125, 91918.351563, 105682.773438, 115503.039063, 0.000, 0.000, 0.000,0.0,0.0,0.0,0.0,0.0, 22:41:26.637
, 79871.921875, 89544.460938, 154650.343750, 153268.906250, 110034.171875, 91967.117188, 105763.507813, 115546.804688, 0.438, 0.436, 0.768,0.0,0.0,0.0,0.0,0.0, 22:41:26.637
, 79831.531250, 89499.242188, 154644.312500, 153583.562500, 110007.523438, 92005.476563, 105884.164063, 115552.125000, 0.000, 0.000, 0.000,0.0,0.0,0.0,0.0,0.0, 22:41:26.637
, 79838.882813, 89509.773438, 154593.750000, 153620.453125, 109994.875000, 91967.500000, 105813.828125, 115518.039063, 0.000, 0.000, 0.000,0.0,0.0,0.0,0.0,0.0, 22:41:26.638
, 79873.304688, 89548.437500, 154599.765625, 153318.562500, 110020.960938, 91923.312500, 105690.804688, 115510.437500, 0.000, 0.000, 0.000,0.0,0.0,0.0,0.0,0.0, 22:41:26.638
, 79868.234375, 89540.210938, 154643.796875, 153258.437500, 110033.367188, 91956.125000, 105753.718750, 115545.304688, 0.000, 0.000, 0.000,0.0,0.0,0.0,0.0,0.0, 22:41:26.639
, 79837.007813, 89504.875000, 154652.906250, 153549.906250, 110013.023438, 92002.750000, 105881.976563, 115558.937500, 0.000, 0.000, 0.000,0.0,0.0,0.0,0.0,0.0, 22:41:26.639
, 79845.367188, 89518.195313, 154612.515625, 153651.046875, 110002.382813, 91980.554688, 105837.828125, 115524.921875, 0.000, 0.000, 0.000,0.0,0.0,0.0,0.0,0.0, 22:41:26.639
, 79870.515625, 89552.750000, 154602.140625, 153358.015625, 110017.539063, 91921.679688, 105697.531250, 115498.296875, 0.000, 0.000, 0.000,0.0,0.0,0.0,0.0,0.0, 22:41:26.640
, 79872.187500, 89553.648438, 154638.906250, 153223.796875, 110034.351563, 91940.570313, 105720.593750, 115526.906250, 0.000, 0.000, 0.000,0.0,0.0,0.0,0.0,0.0, 22:41:26.640
, 79841.210938, 89517.820313, 154660.140625, 153451.937500, 110025.539063, 91994.367188, 105850.835938, 115553.734375, 0.438, 0.438, 0.764,0.0,0.0,0.0,0.0,0.0, 22:41:26.640
, 79828.851563, 89504.671875, 154623.859375, 153636.593750, 110009.585938, 91987.375000, 105866.109375, 115530.484375, 0.000, 0.000, 0.000,0.0,0.0,0.0,0.0,0.0, 22:41:26.640
, 79860.078125, 89542.585938, 154595.015625, 153382.406250, 110019.687500, 91927.046875, 105717.375000, 115496.195313, 0.000, 0.000, 0.000,0.0,0.0,0.0,0.0,0.0, 22:41:26.641
, 79870.398438, 89550.984375, 154636.359375, 153192.500000, 110040.609375, 91934.867188, 105713.484375, 115521.164063, 0.000, 0.000, 0.000,0.0,0.0,0.0,0.0,0.0, 22:41:26.641
, 79843.890625, 89515.718750, 154661.453125, 153387.281250, 110026.953125, 91990.859375, 105833.312500, 115550.289063, 0.000, 0.000, 0.000,0.0,0.0,0.0,0.0,0.0, 22:41:26.641
, 79831.445313, 89500.070313, 154634.859375, 153632.750000, 110003.320313, 91999.664063, 105878.890625, 115537.523438, 0.000, 0.000, 0.000,0.0,0.0,0.0,0.0,0.0, 22:41:26.642
, 79855.937500, 89534.312500, 154596.890625, 153447.812500, 110004.085938, 91938.820313, 105733.406250, 115499.820313, 0.000, 0.000, 0.000,0.0,0.0,0.0,0.0,0.0, 22:41:26.642
, 79863.179688, 89546.023438, 154623.187500, 153210.765625, 110021.335938, 91923.710938, 105693.351563, 115508.757813, 0.000, 0.000, 0.000,0.0,0.0,0.0,0.0,0.0, 22:41:26.642
, 79842.281250, 89521.078125, 154652.625000, 153332.656250, 110018.609375, 91971.703125, 105807.921875, 115538.976563, 0.000, 0.000, 0.000,0.0,0.0,0.0,0.0,0.0, 22:41:26.642
, 79825.812500, 89500.671875, 154639.750000, 153616.468750, 109998.429688, 91993.406250, 105887.343750, 115537.187500, 0.000, 0.000, 0.000,0.0,0.0,0.0,0.0,0.0, 22:41:26.643
, 79848.500000, 89525.929688, 154595.562500, 153521.359375, 109996.710938, 91942.062500, 105773.007813, 115500.421875, 0.434, 0.432, 0.772,0.0,0.0,0.0,0.0,0.0, 22:41:26.643
, 79876.617188, 89551.726563, 154621.515625, 153225.140625, 110029.382813, 91921.296875, 105701.195313, 115510.726563, 0.000, 0.000, 0.000,0.0,0.0,0.0,0.0,0.0, 22:41:26.644
, 79858.312500, 89537.664063, 154666.734375, 153263.781250, 110034.523438, 91966.828125, 105803.523438, 115545.507813, 0.000, 0.000, 0.000,0.0,0.0,0.0,0.0,0.0, 22:41:26.644
, 79822.007813, 89499.531250, 154645.953125, 153563.765625, 109997.132813, 91990.945313, 105898.585938, 115539.781250, 0.000, 0.000, 0.000,0.0,0.0,0.0,0.0,0.0, 22:41:26.644
, 79836.515625, 89516.320313, 154584.015625, 153539.968750, 109983.812500, 91944.320313, 105794.468750, 115495.617188, 0.000, 0.000, 0.000,0.0,0.0,0.0,0.0,0.0, 22:41:26.644
, 79859.335938, 89545.156250, 154591.359375, 153240.140625, 110008.781250, 91908.625000, 105696.234375, 115494.453125, 0.000, 0.000, 0.000,0.0,0.0,0.0,0.0,0.0, 22:41:26.645
, 79846.109375, 89532.101563, 154628.406250, 153229.093750, 110019.750000, 91952.148438, 105781.664063, 115537.546875, 0.000, 0.000, 0.000,0.0,0.0,0.0,0.0,0.0, 22:41:26.645
, 79809.781250, 89492.718750, 154629.828125, 153521.875000, 110000.531250, 91997.429688, 105910.406250, 115549.085938, 0.000, 0.000, 0.000,0.0,0.0,0.0,0.0,0.0, 22:41:26.645
, 79801.757813, 89490.812500, 154576.296875, 153586.156250, 109975.359375, 91957.445313, 105847.953125, 115501.093750, 0.000, 0.000, 0.000,0.0,0.0,0.0,0.0,0.0, 22:41:26.645
, 79831.554688, 89528.593750, 154566.203125, 153284.375000, 109986.000000, 91902.968750, 105709.421875, 115478.320313, 0.000, 0.000, 0.000,0.0,0.0,0.0,0.0,0.0, 22:41:26.646
, 79835.531250, 89526.960938, 154606.921875, 153200.421875, 109998.093750, 91931.875000, 105751.890625, 115512.070313, 0.436, 0.432, 0.774,0.0,0.0,0.0,0.0,0.0, 22:41:26.646
, 79807.171875, 89490.031250, 154618.875000, 153452.078125, 109983.835938, 91981.070313, 105872.476563, 115534.218750, 0.000, 0.000, 0.000,0.0,0.0,0.0,0.0,0.0, 22:41:26.646
, 79797.421875, 89482.593750, 154574.750000, 153596.687500, 109963.960938, 91959.898438, 105860.000000, 115503.843750, 0.000, 0.000, 0.000,0.0,0.0,0.0,0.0,0.0, 22:41:26.647
, 79834.148438, 89526.914063, 154558.437500, 153304.078125, 109985.195313, 91903.710938, 105711.992188, 115479.187500, 0.000, 0.000, 0.000,0.0,0.0,0.0,0.0,0.0, 22:41:26.647
, 79837.320313, 89529.796875, 154600.625000, 153158.437500, 110006.562500, 91921.632813, 105720.257813, 115508.695313, 0.000, 0.000, 0.000,0.0,0.0,0.0,0.0,0.0, 22:41:26.647
, 79804.351563, 89492.179688, 154620.250000, 153373.843750, 109992.953125, 91973.554688, 105841.406250, 115532.921875, 0.000, 0.000, 0.000,0.0,0.0,0.0,0.0,0.0, 22:41:26.647
, 79778.203125, 89469.515625, 154577.531250, 153591.078125, 109963.359375, 91968.726563, 105862.414063, 115508.648438, 0.000, 0.000, 0.000,0.0,0.0,0.0,0.0,0.0, 22:41:26.648
, 79808.039063, 89507.578125, 154547.125000, 153365.109375, 109974.625000, 91907.039063, 105720.351563, 115475.117188, 0.000, 0.000, 0.000,0.0,0.0,0.0,0.0,0.0, 22:41:26.648
, 79821.359375, 89519.429688, 154591.390625, 153159.312500, 110005.093750, 91915.265625, 105719.343750, 115503.351563, 0.000, 0.000, 0.000,0.0,0.0,0.0,0.0,0.0, 22:41:26.648
, 79786.718750, 89481.875000, 154619.234375, 153343.328125, 109998.812500, 91967.992188, 105851.625000, 115535.132813, 0.434, 0.434, 0.770,0.0,0.0,0.0,0.0,0.0, 22:41:26.648
, 79768.609375, 89459.523438, 154591.609375, 153596.718750, 109977.265625, 91977.851563, 105899.765625, 115520.562500, 0.000, 0.000, 0.000,0.0,0.0,0.0,0.0,0.0, 22:41:26.649
, 79800.109375, 89493.968750, 154552.890625, 153428.875000, 109978.601563, 91916.335938, 105758.195313, 115479.656250, 0.000, 0.000, 0.000,0.0,0.0,0.0,0.0,0.0, 22:41:26.649
, 79826.101563, 89521.523438, 154589.671875, 153158.812500, 110010.453125, 91908.625000, 105712.773438, 115499.531250, 0.000, 0.000, 0.000,0.0,0.0,0.0,0.0,0.0, 22:41:26.649
, 79798.671875, 89489.898438, 154625.187500, 153278.296875, 110003.617188, 91956.304688, 105824.734375, 115527.046875, 0.000, 0.000, 0.000,0.0,0.0,0.0,0.0,0.0, 22:41:27.093
, 79768.523438, 89458.828125, 154603.187500, 153566.406250, 109972.945313, 91975.078125, 105891.835938, 115517.250000, 0.000, 0.000, 0.000,0.0,0.0,0.0,0.0,0.0, 22:41:27.093
, 79797.937500, 89495.640625, 154561.718750, 153471.515625, 109976.789063, 91928.406250, 105776.695313, 115488.171875, 0.000, 0.000, 0.000,0.0,0.0,0.0,0.0,0.0, 22:41:27.093
, 79835.710938, 89533.109375, 154594.984375, 153172.984375, 110011.195313, 91907.929688, 105702.960938, 115495.148438, 0.000, 0.000, 0.000,0.0,0.0,0.0,0.0,0.0, 22:41:27.093
, 79820.781250, 89514.085938, 154638.921875, 153227.218750, 110016.132813, 91950.242188, 105802.335938, 115520.609375, 0.000, 0.000, 0.000,0.0,0.0,0.0,0.0,0.0, 22:41:27.094
, 79787.390625, 89474.656250, 154628.953125, 153530.859375, 109990.117188, 91982.390625, 105905.085938, 115522.820313, 0.000, 0.000, 0.000,0.0,0.0,0.0,0.0,0.0, 22:41:27.094
, 79789.781250, 89481.273438, 154563.359375, 153521.390625, 109971.789063, 91932.476563, 105807.726563, 115478.296875, 0.436, 0.440, 0.772,0.0,0.0,0.0,0.0,0.0, 22:41:27.094
, 79827.445313, 89524.117188, 154577.078125, 153185.968750, 110003.546875, 91898.882813, 105693.101563, 115482.945313, 0.000, 0.000, 0.000,0.0,0.0,0.0,0.0,0.0, 22:41:27.094
, 79821.250000, 89516.406250, 154629.234375, 153158.031250, 110019.039063, 91943.250000, 105782.468750, 115525.125000, 0.000, 0.000, 0.000,0.0,0.0,0.0,0.0,0.0, 22:41:27.094
, 79788.593750, 89477.921875, 154632.625000, 153446.156250, 109999.281250, 91989.156250, 105910.921875, 115540.273438, 0.000, 0.000, 0.000,0.0,0.0,0.0,0.0,0.0, 22:41:27.095
, 79792.039063, 89483.640625, 154583.515625, 153522.968750, 109980.304688, 91956.976563, 105855.195313, 115501.742188, 0.000, 0.000, 0.000,0.0,0.0,0.0,0.0,0.0, 22:41:27.095
, 79826.500000, 89523.539063, 154578.265625, 153225.703125, 109995.968750, 91904.781250, 105716.414063, 115483.570313, 0.000, 0.000, 0.000,0.0,0.0,0.0,0.0,0.0, 22:41:27.095
, 79825.718750, 89517.882813, 154620.843750, 153131.609375, 110011.617188, 91933.257813, 105761.367188, 115516.445313, 0.000, 0.000, 0.000,0.0,0.0,0.0,0.0,0.0, 22:41:27.095
, 79801.718750, 89486.343750, 154638.421875, 153384.062500, 109998.609375, 91984.109375, 105886.421875, 115537.523438, 0.000, 0.000, 0.000,0.0,0.0,0.0,0.0,0.0, 22:41:27.096
, 79803.328125, 89489.921875, 154599.015625, 153525.953125, 109983.703125, 91971.320313, 105866.843750, 115511.039063, 0.000, 0.000, 0.000,0.0,0.0,0.0,0.0,0.0, 22:41:27.096
, 79834.796875, 89526.984375, 154575.984375, 153263.531250, 109995.140625, 91913.742188, 105723.812500, 115481.085938, 0.434, 0.442, 0.766,0.0,0.0,0.0,0.0,0.0, 22:41:27.096
, 79845.054688, 89535.140625, 154623.343750, 153092.046875, 110028.421875, 91932.742188, 105739.328125, 115516.671875, 0.000, 0.000, 0.000,0.0,0.0,0.0,0.0,0.0, 22:41:27.096
, 79812.468750, 89498.664063, 154644.625000, 153325.421875, 110018.281250, 91987.867188, 105874.867188, 115544.210938, 0.000, 0.000, 0.000,0.0,0.0,0.0,0.0,0.0, 22:41:27.097
, 79799.164063, 89487.867188, 154608.578125, 153529.093750, 109996.414063, 91985.273438, 105890.226563, 115520.492188, 0.000, 0.000, 0.000,0.0,0.0,0.0,0.0,0.0, 22:41:27.097
, 79833.585938, 89529.507813, 154577.531250, 153298.109375, 110003.148438, 91923.601563, 105739.078125, 115486.500000, 0.000, 0.000, 0.000,0.0,0.0,0.0,0.0,0.0, 22:41:27.097
, 79853.640625, 89547.296875, 154620.984375, 153075.171875, 110027.664063, 91928.343750, 105717.492188, 115512.265625, 0.000, 0.000, 0.000,0.0,0.0,0.0,0.0,0.0, 22:41:27.097
, 79820.398438, 89509.367188, 154649.453125, 153240.000000, 110012.242188, 91981.585938, 105835.304688, 115543.898438, 0.000, 0.000, 0.000,0.0,0.0,0.0,0.0,0.0, 22:41:27.097
, 79797.867188, 89483.351563, 154619.453125, 153503.375000, 109987.656250, 91993.382813, 105886.539063, 115532.359375, 0.000, 0.000, 0.000,0.0,0.0,0.0,0.0,0.0, 22:41:27.097
, 79823.265625, 89514.796875, 154584.609375, 153348.406250, 109996.640625, 91936.390625, 105758.304688, 115495.328125, 0.000, 0.000, 0.000,0.0,0.0,0.0,0.0,0.0, 22:41:27.098
, 79842.976563, 89538.109375, 154613.468750, 153083.500000, 110025.164063, 91923.335938, 105701.593750, 115506.812500, 0.000, 0.000, 0.000,0.0,0.0,0.0,0.0,0.0, 22:41:27.098
, 79823.867188, 89519.273438, 154650.593750, 153171.671875, 110027.281250, 91975.617188, 105807.656250, 115546.843750, 0.430, 0.446, 0.762,0.0,0.0,0.0,0.0,0.0, 22:41:27.098
, 79792.640625, 89483.953125, 154628.109375, 153467.515625, 109996.664063, 91997.406250, 105894.132813, 115539.695313, 0.000, 0.000, 0.000,0.0,0.0,0.0,0.0,0.0, 22:41:27.098
, 79805.914063, 89499.976563, 154571.359375, 153407.578125, 109982.070313, 91940.343750, 105776.523438, 115489.875000, 0.000, 0.000, 0.000,0.0,0.0,0.0,0.0,0.0, 22:41:27.099
, 79834.929688, 89531.117188, 154586.421875, 153105.531250, 110005.875000, 91910.125000, 105680.765625, 115489.804688, 0.000, 0.000, 0.000,0.0,0.0,0.0,0.0,0.0, 22:41:27.099
, 79828.718750, 89520.250000, 154627.703125, 153108.906250, 110014.429688, 91956.460938, 105765.343750, 115531.382813, 0.000, 0.000, 0.000,0.0,0.0,0.0,0.0,0.0, 22:41:27.099
, 79805.648438, 89488.539063, 154634.218750, 153398.359375, 109994.492188, 92000.023438, 105878.468750, 115548.945313, 0.000, 0.000, 0.000,0.0,0.0,0.0,0.0,0.0, 22:41:27.099
, 79817.945313, 89497.523438, 154588.968750, 153431.593750, 109981.664063, 91958.875000, 105809.890625, 115511.265625, 0.000, 0.000, 0.000,0.0,0.0,0.0,0.0,0.0, 22:41:27.100
, 79849.796875, 89534.226563, 154590.843750, 153127.015625, 110008.554688, 91908.828125, 105694.265625, 115488.148438, 0.000, 0.000, 0.000,0.0,0.0,0.0,0.0,0.0, 22:41:27.100
, 79847.132813, 89527.023438, 154636.734375, 153078.640625, 110025.382813, 91946.828125, 105764.000000, 115525.210938, 0.000, 0.000, 0.000,0.0,0.0,0.0,0.0,0.0, 22:41:27.100
, 79812.312500, 89484.359375, 154644.046875, 153377.421875, 110003.703125, 91991.460938, 105893.976563, 115543.132813, 0.438, 0.438, 0.764,0.0,0.0,0.0,0.0,0.0, 22:41:27.100
, 79806.093750, 89479.664063, 154586.984375, 153491.125000, 109984.148438, 91957.132813, 105851.734375, 115498.140625, 0.000, 0.000, 0.000,0.0,0.0,0.0,0.0,0.0, 22:41:27.101
, 79844.718750, 89523.023438, 154574.953125, 153175.687500, 110009.000000, 91905.812500, 105700.906250, 115477.085938, 0.000, 0.000, 0.000,0.0,0.0,0.0,0.0,0.0, 22:41:27.101
, 79851.250000, 89525.820313, 154628.515625, 153069.812500, 110030.976563, 91935.875000, 105748.695313, 115514.859375, 0.000, 0.000, 0.000,0.0,0.0,0.0,0.0,0.0, 22:41:27.101
, 79817.429688, 89490.546875, 154641.859375, 153332.765625, 110009.046875, 91991.710938, 105874.953125, 115539.875000, 0.000, 0.000, 0.000,0.0,0.0,0.0,0.0,0.0, 22:41:27.101
, 79801.875000, 89476.351563, 154597.328125, 153522.484375, 109983.187500, 91978.210938, 105875.093750, 115514.484375, 0.000, 0.000, 0.000,0.0,0.0,0.0,0.0,0.0, 22:41:27.102
, 79838.531250, 89517.750000, 154569.421875, 153266.109375, 109995.789063, 91917.257813, 105729.023438, 115483.679688, 0.000, 0.000, 0.000,0.0,0.0,0.0,0.0,0.0, 22:41:27.102
, 79856.054688, 89533.867188, 154616.156250, 153086.734375, 110022.367188, 91929.390625, 105737.960938, 115508.875000, 0.000, 0.000, 0.000,0.0,0.0,0.0,0.0,0.0, 22:41:27.102
, 79827.757813, 89499.820313, 154643.093750, 153280.875000, 110012.578125, 91983.523438, 105862.734375, 115540.546875, 0.000, 0.000, 0.000,0.0,0.0,0.0,0.0,0.0, 22:41:27.103
, 79808.171875, 89480.179688, 154608.281250, 153512.734375, 109984.414063, 91980.507813, 105892.101563, 115517.562500, 0.000, 0.000, 0.000,0.0,0.0,0.0,0.0,0.0, 22:41:27.103
, 79851.070313, 89528.054688, 154577.812500, 153282.046875, 109998.296875, 91921.812500, 105739.375000, 115485.398438, 0.444, 0.434, 0.768,0.0,0.0,0.0,0.0,0.0, 22:41:27.103
, 79874.648438, 89550.960938, 154624.765625, 153050.906250, 110033.117188, 91927.734375, 105717.828125, 115513.632813, 0.000, 0.000, 0.000,0.0,0.0,0.0,0.0,0.0, 22:41:27.103
, 79848.695313, 89517.726563, 154658.953125, 153207.125000, 110031.109375, 91985.937500, 105848.179688, 115553.398438, 0.000, 0.000, 0.000,0.0,0.0,0.0,0.0,0.0, 22:41:27.104
, 79808.328125, 89476.132813, 154627.109375, 153503.859375, 109996.304688, 91993.164063, 105918.382813, 115536.859375, 0.000, 0.000, 0.000,0.0,0.0,0.0,0.0,0.0, 22:41:27.104
, 79827.664063, 89500.718750, 154565.796875, 153383.312500, 109990.960938, 91929.054688, 105778.195313, 115488.132813, 0.000, 0.000, 0.000,0.0,0.0,0.0,0.0,0.0, 22:41:27.104
, 79867.476563, 89539.585938, 154601.578125, 153082.906250, 110034.484375, 91917.257813, 105715.078125, 115509.250000, 0.000, 0.000, 0.000,0.0,0.0,0.0,0.0,0.0, 22:41:27.104
, 79849.953125, 89516.250000, 154641.125000, 153166.265625, 110033.273438, 91968.085938, 105828.171875, 115544.343750, 0.000, 0.000, 0.000,0.0,0.0,0.0,0.0,0.0, 22:41:27.105
, 79817.609375, 89477.625000, 154626.140625, 153470.734375, 110002.539063, 91996.781250, 105919.148438, 115540.726563, 0.000, 0.000, 0.000,0.0,0.0,0.0,0.0,0.0, 22:41:27.105
, 79833.210938, 89498.570313, 154569.734375, 153416.203125, 109990.250000, 91941.882813, 105806.046875, 115495.859375, 0.000, 0.000, 0.000,0.0,0.0,0.0,0.0,0.0, 22:41:27.105
, 79869.015625, 89533.578125, 154594.187500, 153100.765625, 110023.304688, 91911.843750, 105704.078125, 115500.351563, 0.000, 0.000, 0.000,0.0,0.0,0.0,0.0,0.0, 22:41:27.105
, 79855.648438, 89515.406250, 154637.437500, 153110.500000, 110029.539063, 91952.773438, 105789.929688, 115535.132813, 0.448, 0.442, 0.766,0.0,0.0,0.0,0.0,0.0, 22:41:27.105
, 79825.140625, 89480.867188, 154639.687500, 153432.984375, 110003.437500, 91992.398438, 105914.070313, 115542.937500, 0.000, 0.000, 0.000,0.0,0.0,0.0,0.0,0.0, 22:41:27.106
, 79834.367188, 89495.109375, 154587.078125, 153475.046875, 109987.164063, 91952.281250, 105839.843750, 115502.703125, 0.000, 0.000, 0.000,0.0,0.0,0.0,0.0,0.0, 22:41:27.106
, 79872.125000, 89535.500000, 154591.359375, 153148.984375, 110019.148438, 91908.359375, 105710.851563, 115496.351563, 0.000, 0.000, 0.000,0.0,0.0,0.0,0.0,0.0, 22:41:27.106
, 79870.046875, 89531.117188, 154638.796875, 153094.062500, 110037.164063, 91944.726563, 105777.367188, 115532.539063, 0.000, 0.000, 0.000,0.0,0.0,0.0,0.0,0.0, 22:41:27.106
, 79839.710938, 89491.734375, 154643.875000, 153393.875000, 110013.851563, 91992.335938, 105902.046875, 115548.320313, 0.000, 0.000, 0.000,0.0,0.0,0.0,0.0,0.0, 22:41:27.107
, 79844.320313, 89493.187500, 154590.890625, 153494.093750, 109995.859375, 91966.226563, 105853.859375, 115513.585938, 0.000, 0.000, 0.000,0.0,0.0,0.0,0.0,0.0, 22:41:27.107
, 79878.937500, 89531.921875, 154580.953125, 153206.468750, 110017.093750, 91914.570313, 105716.703125, 115494.406250, 0.000, 0.000, 0.000,0.0,0.0,0.0,0.0,0.0, 22:41:27.107
, 79888.867188, 89540.328125, 154630.500000, 153081.812500, 110039.734375, 91942.312500, 105756.851563, 115530.617188, 0.000, 0.000, 0.000,0.0,0.0,0.0,0.0,0.0, 22:41:27.107
, 79850.757813, 89495.218750, 154647.625000, 153360.828125, 110017.695313, 91993.382813, 105893.710938, 115550.804688, 0.440, 0.444, 0.764,0.0,0.0,0.0,0.0,0.0, 22:41:27.108
, 79843.890625, 89481.789063, 154606.406250, 153558.359375, 109994.718750, 91978.054688, 105884.679688, 115518.304688, 0.000, 0.000, 0.000,0.0,0.0,0.0,0.0,0.0, 22:41:27.108
, 79883.210938, 89522.312500, 154589.625000, 153323.593750, 110010.859375, 91919.515625, 105739.390625, 115490.898438, 0.000, 0.000, 0.000,0.0,0.0,0.0,0.0,0.0, 22:41:27.108
, 79897.335938, 89540.031250, 154630.750000, 153138.812500, 110030.906250, 91928.187500, 105731.796875, 115519.890625, 0.000, 0.000, 0.000,0.0,0.0,0.0,0.0,0.0, 22:41:27.109
, 79863.804688, 89503.468750, 154647.484375, 153344.406250, 110014.859375, 91976.773438, 105854.593750, 115545.687500, 0.000, 0.000, 0.000,0.0,0.0,0.0,0.0,0.0, 22:41:27.109
, 79841.632813, 89480.265625, 154614.140625, 153600.531250, 109992.375000, 91980.531250, 105893.015625, 115525.789063, 0.000, 0.000, 0.000,0.0,0.0,0.0,0.0,0.0, 22:41:27.109
, 79863.898438, 89508.023438, 154576.859375, 153414.296875, 110002.476563, 91917.726563, 105755.132813, 115485.226563, 0.000, 0.000, 0.000,0.0,0.0,0.0,0.0,0.0, 22:41:27.110
, 79889.023438, 89533.617188, 154611.500000, 153178.218750, 110032.203125, 91914.148438, 105725.382813, 115506.460938, 0.000, 0.000, 0.000,0.0,0.0,0.0,0.0,0.0, 22:41:27.110
, 79858.289063, 89498.593750, 154640.671875, 153331.937500, 110020.046875, 91966.632813, 105830.523438, 115540.945313, 0.000, 0.000, 0.000,0.0,0.0,0.0,0.0,0.0, 22:41:27.110
, 79822.304688, 89458.476563, 154609.515625, 153630.187500, 109983.765625, 91979.500000, 105890.109375, 115525.750000, 0.000, 0.000, 0.000,0.0,0.0,0.0,0.0,0.0, 22:41:27.110
, 79850.265625, 89488.398438, 154560.562500, 153544.562500, 109981.820313, 91921.812500, 105762.796875, 115481.781250, 0.438, 0.440, 0.764,0.0,0.0,0.0,0.0,0.0, 22:41:27.110
, 79894.500000, 89534.023438, 154595.093750, 153264.031250, 110018.523438, 91907.843750, 105682.531250, 115492.687500, 0.000, 0.000, 0.000,0.0,0.0,0.0,0.0,0.0, 22:41:27.111
, 79878.093750, 89509.140625, 154637.828125, 153335.468750, 110023.460938, 91956.882813, 105789.304688, 115530.507813, 0.000, 0.000, 0.000,0.0,0.0,0.0,0.0,0.0, 22:41:27.111
, 79841.367188, 89467.929688, 154621.312500, 153642.781250, 109990.695313, 91983.882813, 105883.382813, 115529.320313, 0.000, 0.000, 0.000,0.0,0.0,0.0,0.0,0.0, 22:41:27.111
, 79858.843750, 89493.117188, 154572.406250, 153617.656250, 109985.554688, 91936.234375, 105782.804688, 115490.898438, 0.000, 0.000, 0.000,0.0,0.0,0.0,0.0,0.0, 22:41:27.111
, 79888.171875, 89528.187500, 154589.078125, 153317.812500, 110016.109375, 91907.085938, 105684.070313, 115494.007813, 0.000, 0.000, 0.000,0.0,0.0,0.0,0.0,0.0, 22:41:27.112
, 79873.664063, 89511.937500, 154628.843750, 153335.000000, 110019.101563, 91948.390625, 105769.054688, 115527.289063, 0.000, 0.000, 0.000,0.0,0.0,0.0,0.0,0.0, 22:41:27.112
, 79839.195313, 89474.882813, 154627.687500, 153651.031250, 109994.632813, 91987.640625, 105889.218750, 115536.320313, 0.000, 0.000, 0.000,0.0,0.0,0.0,0.0,0.0, 22:41:27.112
, 79846.867188, 89484.132813, 154574.468750, 153712.203125, 109977.554688, 91948.234375, 105819.703125, 115496.804688, 0.000, 0.000, 0.000,0.0,0.0,0.0,0.0,0.0, 22:41:27.112
, 79890.140625, 89527.898438, 154580.484375, 153394.671875, 110004.617188, 91904.085938, 105686.820313, 115488.195313, 0.434, 0.440, 0.764,0.0,0.0,0.0,0.0,0.0, 22:41:27.112
, 79884.929688, 89517.328125, 154627.218750, 153346.328125, 110019.351563, 91935.648438, 105757.140625, 115525.812500, 0.000, 0.000, 0.000,0.0,0.0,0.0,0.0,0.0, 22:41:27.113
, 79859.625000, 89486.906250, 154633.859375, 153644.187500, 110004.484375, 91986.390625, 105892.148438, 115546.914063, 0.000, 0.000, 0.000,0.0,0.0,0.0,0.0,0.0, 22:41:27.113
, 79859.070313, 89488.804688, 154588.093750, 153760.375000, 109981.195313, 91961.039063, 105854.640625, 115510.125000, 0.000, 0.000, 0.000,0.0,0.0,0.0,0.0,0.0, 22:41:27.113
, 79891.437500, 89524.812500, 154573.328125, 153470.640625, 109994.921875, 91902.679688, 105705.351563, 115481.359375, 0.000, 0.000, 0.000,0.0,0.0,0.0,0.0,0.0, 22:41:27.113
, 79896.171875, 89527.765625, 154618.031250, 153347.265625, 110014.968750, 91925.437500, 105742.273438, 115515.445313, 0.000, 0.000, 0.000,0.0,0.0,0.0,0.0,0.0, 22:41:27.113
, 79859.921875, 89487.085938, 154635.046875, 153606.375000, 110003.968750, 91981.226563, 105879.023438, 115542.976563, 0.000, 0.000, 0.000,0.0,0.0,0.0,0.0,0.0, 22:41:27.113
, 79849.726563, 89476.578125, 154593.953125, 153800.875000, 109990.335938, 91975.570313, 105887.671875, 115521.078125, 0.000, 0.000, 0.000,0.0,0.0,0.0,0.0,0.0, 22:41:27.114
, 79884.304688, 89517.773438, 154566.078125, 153555.781250, 110001.781250, 91915.218750, 105738.210938, 115488.421875, 0.000, 0.000, 0.000,0.0,0.0,0.0,0.0,0.0, 22:41:27.114
, 79887.703125, 89519.445313, 154604.437500, 153378.921875, 110022.593750, 91923.984375, 105734.164063, 115514.437500, 0.000, 0.000, 0.000,0.0,0.0,0.0,0.0,0.0, 22:41:27.114
, 79861.234375, 89489.898438, 154628.156250, 153565.734375, 110013.851563, 91977.156250, 105858.351563, 115546.804688, 0.432, 0.442, 0.766,0.0,0.0,0.0,0.0,0.0, 22:41:27.114
, 79849.953125, 89477.296875, 154606.937500, 153798.421875, 109995.257813, 91984.242188, 105902.984375, 115532.117188, 0.000, 0.000, 0.000,0.0,0.0,0.0,0.0,0.0, 22:41:27.114
, 79875.812500, 89506.867188, 154567.765625, 153621.750000, 109995.726563, 91919.648438, 105761.570313, 115487.570313, 0.000, 0.000, 0.000,0.0,0.0,0.0,0.0,0.0, 22:41:27.114
, 79895.343750, 89526.804688, 154598.109375, 153381.984375, 110016.671875, 91909.187500, 105717.468750, 115500.445313, 0.000, 0.000, 0.000,0.0,0.0,0.0,0.0,0.0, 22:41:27.114
, 79885.242188, 89512.250000, 154638.765625, 153499.609375, 110023.710938, 91969.156250, 105831.953125, 115543.296875, 0.000, 0.000, 0.000,0.0,0.0,0.0,0.0,0.0, 22:41:27.114
, 79867.296875, 89490.835938, 154633.437500, 153782.328125, 110006.500000, 91999.421875, 105913.492188, 115545.570313, 0.000, 0.000, 0.000,0.0,0.0,0.0,0.0,0.0, 22:41:27.115
, 79884.390625, 89515.070313, 154585.687500, 153700.843750, 109998.812500, 91943.898438, 105796.210938, 115504.156250, 0.000, 0.000, 0.000,0.0,0.0,0.0,0.0,0.0, 22:41:27.115
, 79916.070313, 89546.875000, 154607.750000, 153402.046875, 110031.953125, 91918.773438, 105705.507813, 115505.359375, 0.000, 0.000, 0.000,0.0,0.0,0.0,0.0,0.0, 22:41:27.115
, 79899.820313, 89522.289063, 154647.671875, 153437.656250, 110039.023438, 91965.062500, 105797.242188, 115540.921875, 0.000, 0.000, 0.000,0.0,0.0,0.0,0.0,0.0, 22:41:27.115
, 79860.296875, 89476.312500, 154634.890625, 153749.859375, 110010.031250, 91994.414063, 105902.875000, 115539.179688, 0.432, 0.448, 0.768,0.0,0.0,0.0,0.0,0.0, 22:41:27.115
, 79875.320313, 89496.984375, 154579.578125, 153735.031250, 109992.234375, 91945.953125, 105781.750000, 115493.406250, 0.000, 0.000, 0.000,0.0,0.0,0.0,0.0,0.0, 22:41:27.115
, 79927.890625, 89555.320313, 154605.640625, 153419.468750, 110031.484375, 91919.109375, 105654.140625, 115501.789063, 0.000, 0.000, 0.000,0.0,0.0,0.0,0.0,0.0, 22:41:27.116
, 79916.937500, 89539.453125, 154654.578125, 153406.906250, 110045.570313, 91960.843750, 105736.781250, 115537.617188, 0.000, 0.000, 0.000,0.0,0.0,0.0,0.0,0.0, 22:41:27.116
, 79870.359375, 89488.875000, 154644.031250, 153697.234375, 110015.687500, 91995.507813, 105847.843750, 115538.914063, 0.000, 0.000, 0.000,0.0,0.0,0.0,0.0,0.0, 22:41:27.116
, 79875.500000, 89498.078125, 154588.921875, 153766.390625, 109993.468750, 91958.023438, 105783.359375, 115499.195313, 0.000, 0.000, 0.000,0.0,0.0,0.0,0.0,0.0, 22:41:27.116
, 79912.023438, 89537.109375, 154591.828125, 153461.953125, 110020.648438, 91912.179688, 105657.343750, 115486.585938, 0.000, 0.000, 0.000,0.0,0.0,0.0,0.0,0.0, 22:41:27.116
, 79906.187500, 89528.140625, 154636.453125, 153392.390625, 110034.796875, 91943.117188, 105708.570313, 115518.328125, 0.000, 0.000, 0.000,0.0,0.0,0.0,0.0,0.0, 22:41:27.117
, 79872.054688, 89491.351563, 154644.218750, 153659.234375, 110012.398438, 91989.851563, 105823.812500, 115536.367188, 0.000, 0.000, 0.000,0.0,0.0,0.0,0.0,0.0, 22:41:27.117
, 79870.695313, 89490.882813, 154600.390625, 153797.515625, 109994.000000, 91972.125000, 105799.140625, 115510.812500, 0.000, 0.000, 0.000,0.0,0.0,0.0,0.0,0.0, 22:41:27.117
, 79907.390625, 89531.656250, 154585.234375, 153527.796875, 110010.523438, 91916.648438, 105659.304688, 115487.812500, 0.422, 0.448, 0.768,0.0,0.0,0.0,0.0,0.0, 22:41:27.118
, 79916.226563, 89539.164063, 154626.437500, 153385.250000, 110028.515625, 91933.773438, 105679.468750, 115513.921875, 0.000, 0.000, 0.000,0.0,0.0,0.0,0.0,0.0, 22:41:27.118
, 79880.640625, 89499.625000, 154646.156250, 153627.375000, 110015.437500, 91983.304688, 105810.789063, 115535.468750, 0.000, 0.000, 0.000,0.0,0.0,0.0,0.0,0.0, 22:41:27.118
, 79871.585938, 89490.882813, 154610.562500, 153841.531250, 110002.539063, 91978.765625, 105830.921875, 115515.218750, 0.000, 0.000, 0.000,0.0,0.0,0.0,0.0,0.0, 22:41:27.119
, 79910.210938, 89536.234375, 154578.796875, 153592.734375, 110013.671875, 91915.601563, 105676.609375, 115478.921875, 0.000, 0.000, 0.000,0.0,0.0,0.0,0.0,0.0, 22:41:27.119
, 79921.789063, 89548.039063, 154618.437500, 153382.921875, 110030.726563, 91921.296875, 105662.304688, 115503.843750, 0.000, 0.000, 0.000,0.0,0.0,0.0,0.0,0.0, 22:41:27.119
, 79889.398438, 89507.695313, 154640.296875, 153592.593750, 110019.570313, 91978.164063, 105798.156250, 115542.109375, 0.000, 0.000, 0.000,0.0,0.0,0.0,0.0,0.0, 22:41:27.119
, 79872.953125, 89487.195313, 154612.312500, 153843.125000, 109998.070313, 91985.609375, 105841.718750, 115526.171875, 0.000, 0.000, 0.000,0.0,0.0,0.0,0.0,0.0, 22:41:27.120
, 79904.000000, 89522.062500, 154578.406250, 153676.421875, 110007.640625, 91924.765625, 105707.539063, 115485.421875, 0.000, 0.000, 0.000,0.0,0.0,0.0,0.0,0.0, 22:41:27.120
, 79925.882813, 89546.179688, 154613.531250, 153413.031250, 110038.640625, 91916.468750, 105662.031250, 115503.281250, 0.000, 0.000, 0.000,0.0,0.0,0.0,0.0,0.0, 22:41:27.572
, 79903.617188, 89520.585938, 154643.265625, 153525.093750, 110031.171875, 91969.804688, 105771.828125, 115537.281250, 0.422, 0.456, 0.764,0.0,0.0,0.0,0.0,0.0, 22:41:27.572
, 79878.312500, 89491.757813, 154624.937500, 153809.296875, 110006.367188, 91992.109375, 105844.492188, 115532.382813, 0.000, 0.000, 0.000,0.0,0.0,0.0,0.0,0.0, 22:41:27.573
, 79895.320313, 89513.679688, 154574.781250, 153728.281250, 110001.851563, 91936.476563, 105721.375000, 115487.796875, 0.000, 0.000, 0.000,0.0,0.0,0.0,0.0,0.0, 22:41:27.574
, 79930.664063, 89551.234375, 154603.875000, 153430.812500, 110039.734375, 91913.992188, 105637.937500, 115497.828125, 0.000, 0.000, 0.000,0.0,0.0,0.0,0.0,0.0, 22:41:27.574
, 79913.117188, 89532.929688, 154645.187500, 153477.718750, 110042.218750, 91959.500000, 105739.414063, 115535.046875, 0.000, 0.000, 0.000,0.0,0.0,0.0,0.0,0.0, 22:41:27.574
, 79885.156250, 89502.101563, 154637.828125, 153768.734375, 110019.375000, 91995.617188, 105845.046875, 115540.453125, 0.000, 0.000, 0.000,0.0,0.0,0.0,0.0,0.0, 22:41:27.574
, 79897.718750, 89516.875000, 154588.171875, 153771.593750, 110010.718750, 91948.968750, 105755.601563, 115494.476563, 0.000, 0.000, 0.000,0.0,0.0,0.0,0.0,0.0, 22:41:27.574
, 79932.429688, 89552.101563, 154597.750000, 153461.859375, 110042.375000, 91912.359375, 105635.281250, 115489.578125, 0.000, 0.000, 0.000,0.0,0.0,0.0,0.0,0.0, 22:41:27.574
, 79921.539063, 89537.867188, 154640.406250, 153432.343750, 110054.937500, 91951.031250, 105714.289063, 115532.117188, 0.000, 0.000, 0.000,0.0,0.0,0.0,0.0,0.0, 22:41:27.575
, 79888.906250, 89501.921875, 154638.015625, 153714.968750, 110023.062500, 91991.976563, 105832.085938, 115545.906250, 0.428, 0.446, 0.760,0.0,0.0,0.0,0.0,0.0, 22:41:27.575
, 79890.539063, 89506.351563, 154589.328125, 153788.000000, 109999.656250, 91955.164063, 105778.242188, 115501.226563, 0.000, 0.000, 0.000,0.0,0.0,0.0,0.0,0.0, 22:41:27.575
, 79921.898438, 89544.367188, 154583.078125, 153492.437500, 110016.000000, 91900.359375, 105649.921875, 115477.359375, 0.000, 0.000, 0.000,0.0,0.0,0.0,0.0,0.0, 22:41:27.575
, 79925.789063, 89542.648438, 154629.156250, 153398.468750, 110037.765625, 91931.359375, 105704.460938, 115513.500000, 0.000, 0.000, 0.000,0.0,0.0,0.0,0.0,0.0, 22:41:27.575
, 79898.031250, 89503.781250, 154648.625000, 153669.875000, 110024.203125, 91982.718750, 105848.070313, 115536.585938, 0.000, 0.000, 0.000,0.0,0.0,0.0,0.0,0.0, 22:41:27.575
, 79885.984375, 89493.835938, 154603.031250, 153851.453125, 109998.273438, 91964.257813, 105850.015625, 115507.085938, 0.000, 0.000, 0.000,0.0,0.0,0.0,0.0,0.0, 22:41:27.576
, 79915.796875, 89533.976563, 154572.078125, 153576.640625, 110011.843750, 91904.179688, 105699.515625, 115477.265625, 0.000, 0.000, 0.000,0.0,0.0,0.0,0.0,0.0, 22:41:27.576
, 79936.273438, 89553.023438, 154627.593750, 153401.375000, 110044.695313, 91923.757813, 105719.765625, 115512.179688, 0.000, 0.000, 0.000,0.0,0.0,0.0,0.0,0.0, 22:41:27.576
, 79901.468750, 89514.757813, 154646.390625, 153616.250000, 110024.601563, 91976.171875, 105850.929688, 115541.703125, 0.000, 0.000, 0.000,0.0,0.0,0.0,0.0,0.0, 22:41:27.576
, 79882.937500, 89495.132813, 154608.062500, 153834.328125, 109995.632813, 91974.609375, 105868.812500, 115517.562500, 0.000, 0.000, 0.000,0.0,0.0,0.0,0.0,0.0, 22:41:27.576
, 79912.531250, 89531.515625, 154578.875000, 153618.578125, 110001.132813, 91911.312500, 105719.546875, 115474.742188, 0.426, 0.444, 0.766,0.0,0.0,0.0,0.0,0.0, 22:41:27.577
, 79930.703125, 89548.617188, 154618.828125, 153398.875000, 110032.359375, 91914.507813, 105701.507813, 115497.046875, 0.000, 0.000, 0.000,0.0,0.0,0.0,0.0,0.0, 22:41:27.577
, 79898.007813, 89512.226563, 154642.531250, 153558.468750, 110026.367188, 91967.234375, 105825.046875, 115527.578125, 0.000, 0.000, 0.000,0.0,0.0,0.0,0.0,0.0, 22:41:27.577
, 79866.156250, 89482.281250, 154612.750000, 153824.703125, 109999.101563, 91977.382813, 105882.109375, 115511.710938, 0.000, 0.000, 0.000,0.0,0.0,0.0,0.0,0.0, 22:41:27.577
, 79888.437500, 89512.898438, 154568.640625, 153685.046875, 109999.882813, 91917.429688, 105739.351563, 115470.875000, 0.000, 0.000, 0.000,0.0,0.0,0.0,0.0,0.0, 22:41:27.577
, 79914.304688, 89538.468750, 154600.437500, 153430.734375, 110029.296875, 91906.343750, 105678.507813, 115486.343750, 0.000, 0.000, 0.000,0.0,0.0,0.0,0.0,0.0, 22:41:27.577
, 79893.109375, 89516.632813, 154635.546875, 153524.531250, 110025.140625, 91955.453125, 105787.296875, 115522.976563, 0.000, 0.000, 0.000,0.0,0.0,0.0,0.0,0.0, 22:41:27.577
, 79870.085938, 89486.968750, 154618.187500, 153810.859375, 109999.320313, 91979.171875, 105869.437500, 115515.242188, 0.000, 0.000, 0.000,0.0,0.0,0.0,0.0,0.0, 22:41:27.578
, 79900.015625, 89517.820313, 154577.703125, 153727.781250, 110005.937500, 91933.078125, 105761.054688, 115483.390625, 0.000, 0.000, 0.000,0.0,0.0,0.0,0.0,0.0, 22:41:27.578
, 79932.539063, 89555.546875, 154606.390625, 153421.109375, 110038.703125, 91910.054688, 105677.546875, 115495.882813, 0.432, 0.452, 0.774,0.0,0.0,0.0,0.0,0.0, 22:41:27.578
, 79908.625000, 89530.218750, 154643.265625, 153455.781250, 110045.929688, 91954.515625, 105774.531250, 115537.546875, 0.000, 0.000, 0.000,0.0,0.0,0.0,0.0,0.0, 22:41:27.578
, 79862.625000, 89485.632813, 154630.593750, 153759.718750, 110016.671875, 91987.570313, 105881.820313, 115543.898438, 0.000, 0.000, 0.000,0.0,0.0,0.0,0.0,0.0, 22:41:27.578
, 79870.828125, 89496.625000, 154574.125000, 153775.890625, 110002.453125, 91937.906250, 105794.515625, 115488.734375, 0.000, 0.000, 0.000,0.0,0.0,0.0,0.0,0.0, 22:41:27.578
, 79914.906250, 89540.820313, 154583.109375, 153461.484375, 110037.812500, 91895.101563, 105677.523438, 115476.726563, 0.000, 0.000, 0.000,0.0,0.0,0.0,0.0,0.0, 22:41:27.578
, 79911.414063, 89533.914063, 154635.156250, 153404.390625, 110055.851563, 91937.125000, 105750.390625, 115521.656250, 0.000, 0.000, 0.000,0.0,0.0,0.0,0.0,0.0, 22:41:27.579
, 79878.359375, 89493.789063, 154645.640625, 153701.390625, 110032.070313, 91986.679688, 105883.718750, 115543.898438, 0.000, 0.000, 0.000,0.0,0.0,0.0,0.0,0.0, 22:41:27.579
, 79876.234375, 89495.578125, 154588.812500, 153792.000000, 110001.890625, 91955.250000, 105827.054688, 115504.398438, 0.000, 0.000, 0.000,0.0,0.0,0.0,0.0,0.0, 22:41:27.579
, 79901.070313, 89527.476563, 154567.671875, 153494.750000, 110008.171875, 91896.601563, 105676.046875, 115474.828125, 0.000, 0.000, 0.000,0.0,0.0,0.0,0.0,0.0, 22:41:27.579
, 79905.960938, 89526.890625, 154616.234375, 153396.687500, 110031.796875, 91925.320313, 105724.484375, 115512.742188, 0.000, 0.000, 0.000,0.0,0.0,0.0,0.0,0.0, 22:41:27.579
, 79873.195313, 89489.812500, 154629.828125, 153654.312500, 110014.078125, 91975.882813, 105855.781250, 115539.156250, 0.424, 0.456, 0.770,0.0,0.0,0.0,0.0,0.0, 22:41:27.580
, 79863.562500, 89483.906250, 154585.796875, 153819.875000, 109993.828125, 91960.820313, 105849.859375, 115509.945313, 0.000, 0.000, 0.000,0.0,0.0,0.0,0.0,0.0, 22:41:27.580
, 79901.695313, 89525.328125, 154568.140625, 153569.234375, 110013.203125, 91903.578125, 105708.031250, 115480.976563, 0.000, 0.000, 0.000,0.0,0.0,0.0,0.0,0.0, 22:41:27.580
, 79905.937500, 89530.375000, 154609.515625, 153399.609375, 110031.843750, 91917.609375, 105714.742188, 115504.289063, 0.000, 0.000, 0.000,0.0,0.0,0.0,0.0,0.0, 22:41:27.580
, 79866.710938, 89492.601563, 154629.453125, 153608.328125, 110025.632813, 91973.960938, 105850.125000, 115533.953125, 0.000, 0.000, 0.000,0.0,0.0,0.0,0.0,0.0, 22:41:27.580
, 79856.187500, 89480.421875, 154596.078125, 153810.906250, 110004.687500, 91973.554688, 105866.195313, 115513.093750, 0.000, 0.000, 0.000,0.0,0.0,0.0,0.0,0.0, 22:41:27.581
, 79891.593750, 89514.867188, 154567.625000, 153601.203125, 110009.851563, 91912.625000, 105713.890625, 115478.539063, 0.000, 0.000, 0.000,0.0,0.0,0.0,0.0,0.0, 22:41:27.581
, 79910.882813, 89535.656250, 154604.703125, 153357.921875, 110040.273438, 91912.203125, 105683.445313, 115502.296875, 0.000, 0.000, 0.000,0.0,0.0,0.0,0.0,0.0, 22:41:27.581
, 79882.093750, 89503.023438, 154638.593750, 153527.515625, 110038.664063, 91966.093750, 105824.781250, 115538.242188, 0.000, 0.000, 0.000,0.0,0.0,0.0,0.0,0.0, 22:41:27.581
, 79855.562500, 89476.531250, 154606.812500, 153808.921875, 110004.953125, 91978.585938, 105894.539063, 115525.679688, 0.422, 0.456, 0.768,0.0,0.0,0.0,0.0,0.0, 22:41:27.581
, 79873.578125, 89506.843750, 154556.625000, 153674.859375, 109994.117188, 91915.914063, 105763.445313, 115482.179688, 0.000, 0.000, 0.000,0.0,0.0,0.0,0.0,0.0, 22:41:27.581
, 79907.234375, 89541.242188, 154591.546875, 153399.562500, 110031.578125, 91904.960938, 105707.539063, 115500.601563, 0.000, 0.000, 0.000,0.0,0.0,0.0,0.0,0.0, 22:41:27.581
, 79889.023438, 89517.078125, 154628.468750, 153485.265625, 110034.039063, 91956.835938, 105819.054688, 115536.117188, 0.000, 0.000, 0.000,0.0,0.0,0.0,0.0,0.0, 22:41:27.582
, 79859.562500, 89484.468750, 154608.265625, 153770.140625, 110005.781250, 91981.781250, 105903.656250, 115530.664063, 0.000, 0.000, 0.000,0.0,0.0,0.0,0.0,0.0, 22:41:27.582
, 79879.007813, 89511.757813, 154561.125000, 153694.078125, 110000.015625, 91929.570313, 105784.679688, 115487.570313, 0.000, 0.000, 0.000,0.0,0.0,0.0,0.0,0.0, 22:41:27.582
, 79910.257813, 89547.054688, 154586.265625, 153401.156250, 110036.203125, 91904.132813, 105694.710938, 115494.632813, 0.000, 0.000, 0.000,0.0,0.0,0.0,0.0,0.0, 22:41:27.582
, 79899.859375, 89532.750000, 154632.828125, 153428.375000, 110051.539063, 91955.898438, 105797.328125, 115545.414063, 0.000, 0.000, 0.000,0.0,0.0,0.0,0.0,0.0, 22:41:27.582
, 79862.648438, 89492.718750, 154623.156250, 153717.484375, 110018.054688, 91991.257813, 105900.593750, 115550.914063, 0.000, 0.000, 0.000,0.0,0.0,0.0,0.0,0.0, 22:41:27.582
, 79860.234375, 89492.562500, 154567.671875, 153761.906250, 109997.203125, 91941.195313, 105828.937500, 115497.203125, 0.000, 0.000, 0.000,0.0,0.0,0.0,0.0,0.0, 22:41:27.582
, 79900.242188, 89534.085938, 154569.953125, 153458.109375, 110026.992188, 91894.968750, 105697.726563, 115479.101563, 0.422, 0.456, 0.768,0.0,0.0,0.0,0.0,0.0, 22:41:27.583
, 79905.382813, 89535.851563, 154628.484375, 153386.421875, 110054.242188, 91942.179688, 105753.382813, 115532.695313, 0.000, 0.000, 0.000,0.0,0.0,0.0,0.0,0.0, 22:41:27.583
, 79869.617188, 89493.210938, 154640.921875, 153677.562500, 110031.843750, 91990.859375, 105885.375000, 115554.539063, 0.000, 0.000, 0.000,0.0,0.0,0.0,0.0,0.0, 22:41:27.583
, 79865.617188, 89491.757813, 154577.000000, 153785.109375, 109998.921875, 91951.320313, 105834.632813, 115504.242188, 0.000, 0.000, 0.000,0.0,0.0,0.0,0.0,0.0, 22:41:27.583
, 79908.132813, 89542.289063, 154568.500000, 153478.578125, 110019.726563, 91895.546875, 105684.898438, 115476.015625, 0.000, 0.000, 0.000,0.0,0.0,0.0,0.0,0.0, 22:41:27.583
, 79911.085938, 89544.953125, 154617.140625, 153369.890625, 110040.804688, 91919.531250, 105726.140625, 115509.164063, 0.000, 0.000, 0.000,0.0,0.0,0.0,0.0,0.0, 22:41:27.583
, 79874.648438, 89505.750000, 154628.046875, 153619.781250, 110020.851563, 91971.164063, 105854.281250, 115532.226563, 0.000, 0.000, 0.000,0.0,0.0,0.0,0.0,0.0, 22:41:27.584
, 79866.046875, 89501.992188, 154588.843750, 153782.703125, 109999.570313, 91964.460938, 105852.562500, 115513.453125, 0.000, 0.000, 0.000,0.0,0.0,0.0,0.0,0.0, 22:41:27.584
, 79899.679688, 89545.312500, 154562.937500, 153516.312500, 110010.250000, 91904.828125, 105693.257813, 115481.539063, 0.000, 0.000, 0.000,0.0,0.0,0.0,0.0,0.0, 22:41:27.584
, 79906.656250, 89552.218750, 154606.359375, 153339.250000, 110036.429688, 91913.140625, 105695.070313, 115503.257813, 0.000, 0.000, 0.000,0.0,0.0,0.0,0.0,0.0, 22:41:27.584
, 79867.093750, 89511.156250, 154622.453125, 153552.046875, 110019.328125, 91964.039063, 105821.359375, 115530.062500, 0.420, 0.462, 0.770,0.0,0.0,0.0,0.0,0.0, 22:41:27.584
, 79846.843750, 89489.500000, 154584.250000, 153779.296875, 109993.734375, 91965.960938, 105842.812500, 115510.007813, 0.000, 0.000, 0.000,0.0,0.0,0.0,0.0,0.0, 22:41:27.584
, 79876.992188, 89524.835938, 154549.406250, 153578.296875, 110002.453125, 91903.976563, 105691.492188, 115472.148438, 0.000, 0.000, 0.000,0.0,0.0,0.0,0.0,0.0, 22:41:27.584
, 79902.234375, 89548.906250, 154592.453125, 153341.750000, 110035.937500, 91905.656250, 105654.835938, 115498.992188, 0.000, 0.000, 0.000,0.0,0.0,0.0,0.0,0.0, 22:41:27.585
, 79879.585938, 89521.234375, 154626.500000, 153472.343750, 110034.726563, 91961.937500, 105767.710938, 115540.250000, 0.000, 0.000, 0.000,0.0,0.0,0.0,0.0,0.0, 22:41:27.585
, 79854.914063, 89490.187500, 154606.406250, 153747.968750, 110009.226563, 91978.226563, 105840.335938, 115530.867188, 0.000, 0.000, 0.000,0.0,0.0,0.0,0.0,0.0, 22:41:27.585
, 79877.171875, 89517.484375, 154557.875000, 153626.187500, 110006.164063, 91913.968750, 105708.187500, 115478.476563, 0.000, 0.000, 0.000,0.0,0.0,0.0,0.0,0.0, 22:41:27.585
, 79905.781250, 89548.726563, 154589.046875, 153332.093750, 110037.632813, 91896.601563, 105633.000000, 115493.828125, 0.000, 0.000, 0.000,0.0,0.0,0.0,0.0,0.0, 22:41:27.585
, 79885.671875, 89523.804688, 154619.546875, 153394.296875, 110029.945313, 91943.296875, 105733.718750, 115527.734375, 0.000, 0.000, 0.000,0.0,0.0,0.0,0.0,0.0, 22:41:27.585
, 79856.500000, 89494.343750, 154607.843750, 153650.265625, 110007.281250, 91971.859375, 105816.750000, 115527.601563, 0.406, 0.460, 0.770,0.0,0.0,0.0,0.0,0.0, 22:41:27.586
, 79869.242188, 89511.265625, 154560.234375, 153606.031250, 110003.414063, 91919.867188, 105715.367188, 115483.968750, 0.000, 0.000, 0.000,0.0,0.0,0.0,0.0,0.0, 22:41:27.586
, 79902.429688, 89547.742188, 154575.812500, 153298.359375, 110036.937500, 91885.093750, 105618.109375, 115485.000000, 0.000, 0.000, 0.000,0.0,0.0,0.0,0.0,0.0, 22:41:27.586
, 79894.187500, 89533.421875, 154618.437500, 153293.359375, 110044.046875, 91931.960938, 105702.867188, 115525.125000, 0.000, 0.000, 0.000,0.0,0.0,0.0,0.0,0.0, 22:41:27.586
, 79864.101563, 89496.250000, 154617.187500, 153582.234375, 110022.570313, 91975.148438, 105820.015625, 115536.523438, 0.000, 0.000, 0.000,0.0,0.0,0.0,0.0,0.0, 22:41:27.586
, 79867.273438, 89501.429688, 154565.250000, 153639.875000, 110004.687500, 91934.289063, 105753.968750, 115493.000000, 0.000, 0.000, 0.000,0.0,0.0,0.0,0.0,0.0, 22:41:27.587
, 79906.078125, 89544.234375, 154566.203125, 153326.453125, 110029.695313, 91886.367188, 105610.757813, 115480.640625, 0.000, 0.000, 0.000,0.0,0.0,0.0,0.0,0.0, 22:41:27.587
, 79897.335938, 89529.773438, 154612.890625, 153286.578125, 110042.257813, 91919.062500, 105675.601563, 115518.078125, 0.000, 0.000, 0.000,0.0,0.0,0.0,0.0,0.0, 22:41:27.587
, 79866.867188, 89493.054688, 154615.031250, 153562.609375, 110022.812500, 91964.726563, 105791.296875, 115532.968750, 0.000, 0.000, 0.000,0.0,0.0,0.0,0.0,0.0, 22:41:27.587
, 79866.468750, 89493.632813, 154579.343750, 153679.093750, 110011.125000, 91941.750000, 105760.609375, 115505.671875, 0.000, 0.000, 0.000,0.0,0.0,0.0,0.0,0.0, 22:41:27.587
, 79903.210938, 89535.046875, 154559.484375, 153397.937500, 110028.046875, 91884.242188, 105611.968750, 115481.757813, 0.408, 0.460, 0.768,0.0,0.0,0.0,0.0,0.0, 22:41:27.587
, 79912.445313, 89542.445313, 154604.187500, 153249.953125, 110048.187500, 91907.664063, 105633.359375, 115523.398438, 0.000, 0.000, 0.000,0.0,0.0,0.0,0.0,0.0, 22:41:27.588
, 79890.359375, 89513.523438, 154633.468750, 153475.593750, 110040.156250, 91961.242188, 105768.250000, 115544.906250, 0.000, 0.000, 0.000,0.0,0.0,0.0,0.0,0.0, 22:41:27.588
, 79885.671875, 89505.234375, 154601.671875, 153660.109375, 110024.242188, 91957.085938, 105777.773438, 115521.945313, 0.000, 0.000, 0.000,0.0,0.0,0.0,0.0,0.0, 22:41:27.588
, 79916.046875, 89537.578125, 154575.734375, 153423.234375, 110036.046875, 91901.968750, 105633.757813, 115494.632813, 0.000, 0.000, 0.000,0.0,0.0,0.0,0.0,0.0, 22:41:27.588
, 79932.765625, 89551.750000, 154620.625000, 153239.078125, 110059.132813, 91915.781250, 105631.234375, 115523.312500, 0.000, 0.000, 0.000,0.0,0.0,0.0,0.0,0.0, 22:41:27.588
, 79901.601563, 89517.187500, 154640.609375, 153435.171875, 110039.062500, 91963.921875, 105740.156250, 115539.984375, 0.000, 0.000, 0.000,0.0,0.0,0.0,0.0,0.0, 22:41:27.588
, 79878.132813, 89494.281250, 154606.093750, 153681.140625, 110011.953125, 91965.492188, 105764.984375, 115517.093750, 0.000, 0.000, 0.000,0.0,0.0,0.0,0.0,0.0, 22:41:27.588
, 79906.835938, 89528.054688, 154565.328125, 153506.437500, 110013.648438, 91902.632813, 105615.382813, 115477.085938, 0.000, 0.000, 0.000,0.0,0.0,0.0,0.0,0.0, 22:41:27.588
, 79927.937500, 89549.781250, 154600.343750, 153263.093750, 110039.351563, 91894.210938, 105571.554688, 115492.890625, 0.416, 0.458, 0.766,0.0,0.0,0.0,0.0,0.0, 22:41:27.589
, 79897.203125, 89510.484375, 154628.046875, 153416.203125, 110029.523438, 91942.312500, 105691.828125, 115526.085938, 0.000, 0.000, 0.000,0.0,0.0,0.0,0.0,0.0, 22:41:27.589
, 79873.890625, 89482.101563, 154605.265625, 153706.031250, 110002.093750, 91960.796875, 105758.859375, 115518.367188, 0.000, 0.000, 0.000,0.0,0.0,0.0,0.0,0.0, 22:41:27.589
, 79898.500000, 89514.914063, 154558.187500, 153600.109375, 110000.281250, 91907.796875, 105628.843750, 115478.250000, 0.000, 0.000, 0.000,0.0,0.0,0.0,0.0,0.0, 22:41:27.589
, 79936.562500, 89554.742188, 154587.921875, 153304.796875, 110036.382813, 91892.195313, 105548.710938, 115493.984375, 0.000, 0.000, 0.000,0.0,0.0,0.0,0.0,0.0, 22:41:27.589
, 79921.765625, 89535.320313, 154629.562500, 153376.609375, 110040.632813, 91942.710938, 105655.281250, 115534.664063, 0.000, 0.000, 0.000,0.0,0.0,0.0,0.0,0.0, 22:41:27.590
, 79891.390625, 89503.132813, 154623.750000, 153663.875000, 110013.312500, 91973.710938, 105745.851563, 115538.218750, 0.000, 0.000, 0.000,0.0,0.0,0.0,0.0,0.0, 22:41:27.590
, 79900.062500, 89514.375000, 154574.484375, 153664.281250, 109996.015625, 91921.656250, 105651.281250, 115488.843750, 0.000, 0.000, 0.000,0.0,0.0,0.0,0.0,0.0, 22:41:27.590
, 79934.773438, 89553.218750, 154583.703125, 153370.453125, 110024.648438, 91883.859375, 105537.312500, 115479.078125, 0.000, 0.000, 0.000,0.0,0.0,0.0,0.0,0.0, 22:41:27.590
, 79921.609375, 89536.992188, 154624.062500, 153374.328125, 110033.476563, 91922.039063, 105616.304688, 115514.015625, 0.000, 0.000, 0.000,0.0,0.0,0.0,0.0,0.0, 22:41:27.590
, 79889.289063, 89498.796875, 154622.906250, 153682.406250, 110009.960938, 91962.718750, 105737.695313, 115525.007813, 0.418, 0.456, 0.762,0.0,0.0,0.0,0.0,0.0, 22:41:27.590
, 79896.929688, 89510.148438, 154574.687500, 153757.406250, 109998.718750, 91934.265625, 105677.679688, 115494.945313, 0.000, 0.000, 0.000,0.0,0.0,0.0,0.0,0.0, 22:41:27.590
, 79938.171875, 89553.960938, 154579.828125, 153464.375000, 110027.218750, 91892.625000, 105552.554688, 115485.695313, 0.000, 0.000, 0.000,0.0,0.0,0.0,0.0,0.0, 22:41:27.591
, 79940.250000, 89551.476563, 154623.187500, 153393.015625, 110047.398438, 91922.507813, 105606.218750, 115519.820313, 0.000, 0.000, 0.000,0.0,0.0,0.0,0.0,0.0, 22:41:27.591
, 79908.984375, 89513.617188, 154633.546875, 153653.578125, 110030.570313, 91971.007813, 105727.882813, 115542.960938, 0.000, 0.000, 0.000,0.0,0.0,0.0,0.0,0.0, 22:41:27.591
, 79901.117188, 89506.218750, 154588.125000, 153800.062500, 110007.703125, 91948.703125, 105696.140625, 115509.429688, 0.000, 0.000, 0.000,0.0,0.0,0.0,0.0,0.0, 22:41:27.591
, 79936.093750, 89546.273438, 154572.718750, 153536.000000, 110027.617188, 91889.601563, 105546.140625, 115481.289063, 0.000, 0.000, 0.000,0.0,0.0,0.0,0.0,0.0, 22:41:27.591
, 79941.726563, 89549.757813, 154615.187500, 153408.562500, 110048.140625, 91909.875000, 105571.015625, 115513.656250, 0.000, 0.000, 0.000,0.0,0.0,0.0,0.0,0.0, 22:41:27.591
, 79907.234375, 89508.671875, 154635.859375, 153660.281250, 110029.273438, 91966.335938, 105701.750000, 115545.375000, 0.000, 0.000, 0.000,0.0,0.0,0.0,0.0,0.0, 22:41:27.591
, 79896.929688, 89496.179688, 154595.296875, 153888.250000, 110006.140625, 91961.015625, 105718.406250, 115522.507813, 0.414, 0.462, 0.766,0.0,0.0,0.0,0.0,0.0, 22:41:27.592
, 79932.789063, 89536.968750, 154569.062500, 153675.812500, 110016.757813, 91896.828125, 105565.429688, 115484.773438, 0.000, 0.000, 0.000,0.0,0.0,0.0,0.0,0.0, 22:41:27.592
, 79949.078125, 89551.453125, 154606.140625, 153487.546875, 110043.062500, 91902.164063, 105553.898438, 115510.812500, 0.000, 0.000, 0.000,0.0,0.0,0.0,0.0,0.0, 22:41:27.592
, 79921.585938, 89524.570313, 154633.312500, 153652.406250, 110039.289063, 91954.492188, 105678.328125, 115541.546875, 0.000, 0.000, 0.000,0.0,0.0,0.0,0.0,0.0, 22:41:27.593
, 79897.000000, 89500.609375, 154603.750000, 153912.046875, 110010.523438, 91961.687500, 105730.210938, 115520.093750, 0.000, 0.000, 0.000,0.0,0.0,0.0,0.0,0.0, 22:41:27.593
, 79930.906250, 89536.523438, 154563.984375, 153763.046875, 110013.585938, 91904.156250, 105591.093750, 115482.656250, 0.000, 0.000, 0.000,10.683069,21.28566,7.1963005,8.313395,5.53128, 22:41:28.054
, 79962.398438, 89565.539063, 154602.468750, 153511.984375, 110049.054688, 91898.320313, 105542.382813, 115503.773438, 0.000, 0.000, 0.000,10.683069,21.28566,7.1963005,8.313395,5.53128, 22:41:28.054
, 79927.960938, 89528.234375, 154635.984375, 153642.562500, 110043.132813, 91947.945313, 105656.289063, 115537.187500, 0.000, 0.000, 0.000,10.683069,21.28566,7.1963005,8.313395,5.53128, 22:41:28.054
, 79894.117188, 89493.273438, 154604.343750, 153945.593750, 110007.750000, 91964.218750, 105724.617188, 115525.257813, 0.000, 0.000, 0.000,10.683069,21.28566,7.1963005,8.313395,5.53128, 22:41:28.055
, 79920.648438, 89524.968750, 154558.000000, 153867.281250, 110001.335938, 91908.578125, 105595.046875, 115482.828125, 0.000, 0.000, 0.000,10.683069,21.28566,7.1963005,8.313395,5.53128, 22:41:28.055
, 79957.484375, 89561.937500, 154587.921875, 153577.312500, 110036.312500, 91888.148438, 105516.281250, 115493.289063, 0.422, 0.462, 0.770,10.683069,21.28566,7.1963005,8.313395,5.53128, 22:41:28.055
, 79941.929688, 89540.171875, 154628.109375, 153630.734375, 110037.632813, 91934.421875, 105622.289063, 115531.515625, 0.000, 0.000, 0.000,10.683069,21.28566,7.1963005,8.313395,5.53128, 22:41:28.055
, 79908.757813, 89504.140625, 154618.953125, 153956.640625, 110010.054688, 91969.421875, 105733.781250, 115536.703125, 0.000, 0.000, 0.000,10.683069,21.28566,7.1963005,8.313395,5.53128, 22:41:28.055
, 79923.289063, 89522.554688, 154569.281250, 153959.328125, 109999.164063, 91925.281250, 105633.312500, 115498.632813, 0.000, 0.000, 0.000,10.683069,21.28566,7.1963005,8.313395,5.53128, 22:41:28.055
, 79954.132813, 89555.304688, 154584.640625, 153670.265625, 110030.460938, 91886.367188, 105525.468750, 115490.367188, 0.000, 0.000, 0.000,10.683069,21.28566,7.1963005,8.313395,5.53128, 22:41:28.055
, 79938.101563, 89539.296875, 154618.906250, 153669.578125, 110035.687500, 91922.484375, 105604.437500, 115526.554688, 0.000, 0.000, 0.000,10.683069,21.28566,7.1963005,8.313395,5.53128, 22:41:28.056
, 79904.195313, 89503.625000, 154615.171875, 153957.687500, 110014.742188, 91963.367188, 105728.281250, 115539.445313, 0.000, 0.000, 0.000,10.683069,21.28566,7.1963005,8.313395,5.53128, 22:41:28.056
, 79913.273438, 89514.820313, 154565.390625, 154025.109375, 110003.703125, 91931.359375, 105680.539063, 115506.343750, 0.000, 0.000, 0.000,10.683069,21.28566,7.1963005,8.313395,5.53128, 22:41:28.056
, 79952.835938, 89557.757813, 154567.562500, 153723.781250, 110027.195313, 91884.015625, 105554.968750, 115492.328125, 0.000, 0.000, 0.000,10.683069,21.28566,7.1963005,8.313395,5.53128, 22:41:28.056
, 79949.882813, 89553.914063, 154612.625000, 153638.531250, 110040.359375, 91911.242188, 105598.843750, 115521.945313, 0.000, 0.000, 0.000,10.683069,21.28566,7.1963005,8.313395,5.53128, 22:41:28.056
, 79908.914063, 89511.203125, 154621.312500, 153908.828125, 110025.296875, 91956.437500, 105729.109375, 115539.335938, 0.416, 0.454, 0.760,10.683069,21.28566,7.1963005,8.313395,5.53128, 22:41:28.056
, 79900.914063, 89502.257813, 154576.093750, 154077.187500, 110003.414063, 91940.117188, 105719.414063, 115510.164063, 0.000, 0.000, 0.000,10.683069,21.28566,7.1963005,8.313395,5.53128, 22:41:28.056
, 79942.171875, 89548.148438, 154560.984375, 153806.015625, 110021.476563, 91885.203125, 105572.585938, 115486.453125, 0.000, 0.000, 0.000,10.683069,21.28566,7.1963005,8.313395,5.53128, 22:41:28.056
, 79952.007813, 89558.046875, 154604.687500, 153642.531250, 110044.335938, 91906.367188, 105592.226563, 115523.671875, 0.000, 0.000, 0.000,10.683069,21.28566,7.1963005,8.313395,5.53128, 22:41:28.057
, 79918.257813, 89520.117188, 154625.203125, 153852.015625, 110033.343750, 91962.132813, 105722.828125, 115554.781250, 0.000, 0.000, 0.000,10.683069,21.28566,7.1963005,8.313395,5.53128, 22:41:28.057
, 79908.843750, 89506.906250, 154587.203125, 154054.875000, 110014.429688, 91960.148438, 105749.007813, 115534.601563, 0.000, 0.000, 0.000,10.683069,21.28566,7.1963005,8.313395,5.53128, 22:41:28.057
, 79932.476563, 89535.429688, 154550.781250, 153853.843750, 110016.781250, 91897.226563, 105614.468750, 115495.703125, 0.000, 0.000, 0.000,10.683069,21.28566,7.1963005,8.313395,5.53128, 22:41:28.057
, 79943.718750, 89547.992188, 154585.375000, 153647.578125, 110036.515625, 91898.812500, 105596.523438, 115516.132813, 0.000, 0.000, 0.000,10.683069,21.28566,7.1963005,8.313395,5.53128, 22:41:28.057
, 79913.609375, 89514.867188, 154610.718750, 153813.796875, 110020.468750, 91949.687500, 105712.906250, 115542.015625, 0.000, 0.000, 0.000,10.683069,21.28566,7.1963005,8.313395,5.53128, 22:41:28.057
, 79883.257813, 89486.750000, 154578.828125, 154088.546875, 109987.390625, 91958.046875, 105765.593750, 115523.109375, 0.416, 0.464, 0.760,10.683069,21.28566,7.1963005,8.313395,5.53128, 22:41:28.057
, 79915.617188, 89524.453125, 154537.515625, 153931.109375, 109990.742188, 91898.882813, 105614.718750, 115483.031250, 0.000, 0.000, 0.000,10.683069,21.28566,7.1963005,8.313395,5.53128, 22:41:28.058
, 79945.343750, 89551.859375, 154575.578125, 153678.093750, 110022.343750, 91893.156250, 105566.187500, 115503.734375, 0.000, 0.000, 0.000,10.683069,21.28566,7.1963005,8.313395,5.53128, 22:41:28.058
, 79923.953125, 89525.796875, 154609.000000, 153789.453125, 110027.890625, 91945.617188, 105685.125000, 115537.640625, 0.000, 0.000, 0.000,10.683069,21.28566,7.1963005,8.313395,5.53128, 22:41:28.058
, 79896.062500, 89497.992188, 154591.296875, 154055.640625, 110006.164063, 91969.085938, 105761.343750, 115532.046875, 0.000, 0.000, 0.000,10.683069,21.28566,7.1963005,8.313395,5.53128, 22:41:28.058
, 79908.195313, 89518.171875, 154543.375000, 153989.484375, 109994.359375, 91913.679688, 105652.218750, 115488.867188, 0.000, 0.000, 0.000,10.683069,21.28566,7.1963005,8.313395,5.53128, 22:41:28.058
, 79943.406250, 89555.210938, 154570.062500, 153702.562500, 110026.367188, 91890.859375, 105569.406250, 115500.421875, 0.000, 0.000, 0.000,10.683069,21.28566,7.1963005,8.313395,5.53128, 22:41:28.058
, 79930.039063, 89538.335938, 154613.062500, 153742.218750, 110029.500000, 91936.835938, 105670.843750, 115541.437500, 0.000, 0.000, 0.000,10.683069,21.28566,7.1963005,8.313395,5.53128, 22:41:28.058
, 79897.625000, 89498.750000, 154606.703125, 154050.312500, 110005.421875, 91973.109375, 105784.429688, 115544.257813, 0.000, 0.000, 0.000,10.683069,21.28566,7.1963005,8.313395,5.53128, 22:41:28.059
, 79910.632813, 89511.937500, 154556.968750, 154050.921875, 110002.453125, 91929.437500, 105703.429688, 115502.835938, 0.000, 0.000, 0.000,10.683069,21.28566,7.1963005,8.313395,5.53128, 22:41:28.059
, 79952.656250, 89556.507813, 154567.421875, 153732.812500, 110033.703125, 91889.226563, 105590.328125, 115494.992188, 0.416, 0.460, 0.766,10.683069,21.28566,7.1963005,8.313395,5.53128, 22:41:28.059
, 79945.304688, 89547.210938, 154610.937500, 153697.000000, 110047.023438, 91926.437500, 105670.078125, 115533.437500, 0.000, 0.000, 0.000,10.683069,21.28566,7.1963005,8.313395,5.53128, 22:41:28.059
, 79909.718750, 89505.906250, 154613.812500, 153979.078125, 110024.289063, 91971.617188, 105792.812500, 115546.351563, 0.000, 0.000, 0.000,10.683069,21.28566,7.1963005,8.313395,5.53128, 22:41:28.059
, 79904.195313, 89504.070313, 154567.406250, 154083.671875, 110005.804688, 91944.593750, 105749.203125, 115515.312500, 0.000, 0.000, 0.000,10.683069,21.28566,7.1963005,8.313395,5.53128, 22:41:28.059
, 79933.750000, 89539.765625, 154554.531250, 153808.000000, 110019.710938, 91891.570313, 105605.257813, 115493.429688, 0.000, 0.000, 0.000,10.683069,21.28566,7.1963005,8.313395,5.53128, 22:41:28.060
, 79940.945313, 89546.156250, 154598.500000, 153703.937500, 110040.156250, 91921.500000, 105638.695313, 115531.851563, 0.000, 0.000, 0.000,10.683069,21.28566,7.1963005,8.313395,5.53128, 22:41:28.060
, 79911.195313, 89512.007813, 154615.593750, 153941.265625, 110023.437500, 91975.679688, 105760.445313, 115560.617188, 0.000, 0.000, 0.000,10.683069,21.28566,7.1963005,8.313395,5.53128, 22:41:28.060
, 79900.015625, 89501.164063, 154576.796875, 154097.890625, 109999.593750, 91959.742188, 105750.882813, 115526.039063, 0.000, 0.000, 0.000,10.683069,21.28566,7.1963005,8.313395,5.53128, 22:41:28.060
, 79930.257813, 89533.640625, 154551.875000, 153849.875000, 110009.046875, 91901.453125, 105612.906250, 115495.843750, 0.000, 0.000, 0.000,10.683069,21.28566,7.1963005,8.313395,5.53128, 22:41:28.060
, 79944.070313, 89547.343750, 154590.046875, 153680.593750, 110028.132813, 91914.437500, 105626.046875, 115523.179688, 0.414, 0.466, 0.764,10.683069,21.28566,7.1963005,8.313395,5.53128, 22:41:28.060
, 79920.984375, 89520.273438, 154618.796875, 153872.953125, 110020.445313, 91972.265625, 105754.570313, 115560.101563, 0.000, 0.000, 0.000,10.683069,21.28566,7.1963005,8.313395,5.53128, 22:41:28.061
, 79900.171875, 89498.929688, 154584.093750, 154094.703125, 109993.984375, 91967.523438, 105781.328125, 115532.046875, 0.000, 0.000, 0.000,10.683069,21.28566,7.1963005,8.313395,5.53128, 22:41:28.061
, 79936.968750, 89541.015625, 154553.953125, 153875.421875, 110006.031250, 91908.382813, 105631.632813, 115495.570313, 0.000, 0.000, 0.000,10.683069,21.28566,7.1963005,8.313395,5.53128, 22:41:28.061
, 79960.992188, 89561.781250, 154601.734375, 153662.468750, 110041.750000, 91910.796875, 105622.828125, 115524.000000, 0.000, 0.000, 0.000,10.683069,21.28566,7.1963005,8.313395,5.53128, 22:41:28.061
, 79931.156250, 89528.726563, 154627.437500, 153825.234375, 110031.421875, 91960.750000, 105749.187500, 115550.492188, 0.000, 0.000, 0.000,10.683069,21.28566,7.1963005,8.313395,5.53128, 22:41:28.061
, 79903.750000, 89501.453125, 154598.500000, 154084.109375, 109998.984375, 91971.078125, 105800.703125, 115532.851563, 0.000, 0.000, 0.000,10.683069,21.28566,7.1963005,8.313395,5.53128, 22:41:28.061
, 79930.820313, 89532.054688, 154556.812500, 153946.312500, 110003.640625, 91910.750000, 105675.156250, 115492.421875, 0.000, 0.000, 0.000,10.683069,21.28566,7.1963005,8.313395,5.53128, 22:41:28.061
, 79963.273438, 89564.507813, 154591.609375, 153667.250000, 110036.937500, 91895.664063, 105611.296875, 115509.539063, 0.000, 0.000, 0.000,10.683069,21.28566,7.1963005,8.313395,5.53128, 22:41:28.061
, 79949.195313, 89542.828125, 154626.843750, 153742.875000, 110038.773438, 91949.750000, 105714.132813, 115548.437500, 0.000, 0.000, 0.000,10.683069,21.28566,7.1963005,8.313395,5.53128, 22:41:28.062
, 79917.250000, 89507.062500, 154613.734375, 154032.609375, 110015.437500, 91978.875000, 105814.179688, 115546.554688, 0.418, 0.462, 0.766,10.683069,21.28566,7.1963005,8.313395,5.53128, 22:41:28.062
, 79930.953125, 89529.304688, 154561.343750, 153971.750000, 110003.796875, 91925.257813, 105709.781250, 115500.867188, 0.000, 0.000, 0.000,10.683069,21.28566,7.1963005,8.313395,5.53128, 22:41:28.062
, 79962.023438, 89562.992188, 154580.500000, 153667.828125, 110027.890625, 91897.382813, 105618.828125, 115503.375000, 0.000, 0.000, 0.000,10.683069,21.28566,7.1963005,8.313395,5.53128, 22:41:28.062
, 79943.492188, 89541.734375, 154615.703125, 153678.203125, 110029.367188, 91936.234375, 105705.554688, 115534.351563, 0.000, 0.000, 0.000,10.683069,21.28566,7.1963005,8.313395,5.53128, 22:41:28.062
, 79908.242188, 89505.523438, 154611.234375, 153970.515625, 110010.632813, 91973.578125, 105824.218750, 115542.890625, 0.000, 0.000, 0.000,10.683069,21.28566,7.1963005,8.313395,5.53128, 22:41:28.062
, 79924.625000, 89526.109375, 154564.187500, 153979.687500, 110005.468750, 91934.421875, 105748.179688, 115503.281250, 0.000, 0.000, 0.000,10.683069,21.28566,7.1963005,8.313395,5.53128, 22:41:28.062
, 79953.148438, 89558.609375, 154569.968750, 153685.828125, 110022.281250, 91890.367188, 105622.312500, 115487.484375, 0.000, 0.000, 0.000,10.683069,21.28566,7.1963005,8.313395,5.53128, 22:41:28.063
, 79949.257813, 89554.164063, 154614.078125, 153637.437500, 110040.804688, 91929.101563, 105686.796875, 115528.945313, 0.000, 0.000, 0.000,10.683069,21.28566,7.1963005,8.313395,5.53128, 22:41:28.063
, 79924.515625, 89524.968750, 154625.296875, 153886.390625, 110025.539063, 91977.070313, 105813.445313, 115552.414063, 0.000, 0.000, 0.000,10.683069,21.28566,7.1963005,8.313395,5.53128, 22:41:28.063
, 79917.789063, 89519.742188, 154580.250000, 153992.921875, 109999.835938, 91947.093750, 105774.531250, 115513.945313, 0.420, 0.462, 0.766,10.683069,21.28566,7.1963005,8.313395,5.53128, 22:41:28.063
, 79951.093750, 89558.789063, 154564.125000, 153705.515625, 110014.343750, 91891.859375, 105622.828125, 115489.382813, 0.000, 0.000, 0.000,10.683069,21.28566,7.1963005,8.313395,5.53128, 22:41:28.063
, 79951.226563, 89558.273438, 154610.593750, 153579.968750, 110031.398438, 91919.515625, 105655.820313, 115527.710938, 0.000, 0.000, 0.000,10.683069,21.28566,7.1963005,8.313395,5.53128, 22:41:28.063
, 79911.773438, 89517.171875, 154620.515625, 153834.218750, 110013.539063, 91967.031250, 105785.640625, 115538.843750, 0.000, 0.000, 0.000,10.683069,21.28566,7.1963005,8.313395,5.53128, 22:41:28.063
, 79904.468750, 89509.882813, 154574.625000, 154003.734375, 109992.234375, 91952.679688, 105776.367188, 115509.945313, 0.000, 0.000, 0.000,10.683069,21.28566,7.1963005,8.313395,5.53128, 22:41:28.063
, 79943.648438, 89552.593750, 154556.718750, 153737.296875, 110012.492188, 91897.156250, 105629.804688, 115486.921875, 0.000, 0.000, 0.000,10.683069,21.28566,7.1963005,8.313395,5.53128, 22:41:28.064
, 79946.015625, 89553.265625, 154598.390625, 153583.609375, 110035.914063, 91911.039063, 105654.726563, 115515.242188, 0.000, 0.000, 0.000,10.683069,21.28566,7.1963005,8.313395,5.53128, 22:41:28.064
, 79913.046875, 89518.351563, 154614.437500, 153781.609375, 110024.242188, 91961.375000, 105774.195313, 115540.500000, 0.000, 0.000, 0.000,10.683069,21.28566,7.1963005,8.313395,5.53128, 22:41:28.064
, 79889.468750, 89494.882813, 154578.406250, 154005.859375, 109999.031250, 91958.804688, 105801.914063, 115517.164063, 0.000, 0.000, 0.000,10.683069,21.28566,7.1963005,8.313395,5.53128, 22:41:28.064
, 79917.359375, 89528.812500, 154543.078125, 153810.031250, 110006.695313, 91898.679688, 105661.742188, 115484.015625, 0.000, 0.000, 0.000,10.683069,21.28566,7.1963005,8.313395,5.53128, 22:41:28.064
, 79941.617188, 89553.085938, 154585.390625, 153564.250000, 110036.539063, 91898.812500, 105630.179688, 115508.000000, 0.420, 0.454, 0.768,10.683069,21.28566,7.1963005,8.313395,5.53128, 22:41:28.064
, 79915.843750, 89521.882813, 154617.968750, 153717.671875, 110032.179688, 91953.171875, 105760.828125, 115540.273438, 0.000, 0.000, 0.000,10.683069,21.28566,7.1963005,8.313395,5.53128, 22:41:28.064
, 79883.054688, 89484.890625, 154584.546875, 153998.859375, 110001.289063, 91963.992188, 105827.304688, 115522.750000, 0.000, 0.000, 0.000,10.683069,21.28566,7.1963005,8.313395,5.53128, 22:41:28.064
, 79910.414063, 89515.539063, 154539.390625, 153856.906250, 110005.648438, 91904.937500, 105694.531250, 115482.382813, 0.000, 0.000, 0.000,10.683069,21.28566,7.1963005,8.313395,5.53128, 22:41:28.065
, 79943.468750, 89552.085938, 154576.640625, 153568.765625, 110042.640625, 91895.281250, 105642.406250, 115501.492188, 0.000, 0.000, 0.000,10.683069,21.28566,7.1963005,8.313395,5.53128, 22:41:28.065
, 79927.351563, 89530.695313, 154619.015625, 153634.375000, 110043.375000, 91948.593750, 105753.453125, 115539.757813, 0.000, 0.000, 0.000,10.683069,21.28566,7.1963005,8.313395,5.53128, 22:41:28.065
, 79893.359375, 89492.406250, 154601.765625, 153924.765625, 110012.687500, 91976.734375, 105847.328125, 115541.726563, 0.000, 0.000, 0.000,10.683069,21.28566,7.1963005,8.313395,5.53128, 22:41:28.065
, 79905.273438, 89507.601563, 154553.390625, 153885.078125, 110005.804688, 91924.476563, 105754.343750, 115497.695313, 0.000, 0.000, 0.000,10.683069,21.28566,7.1963005,8.313395,5.53128, 22:41:28.065
, 79925.859375, 89534.554688, 154563.734375, 153585.781250, 110026.148438, 91885.601563, 105656.335938, 115491.507813, 0.000, 0.000, 0.000,10.683069,21.28566,7.1963005,8.313395,5.53128, 22:41:28.065
, 79924.695313, 89533.062500, 154607.234375, 153587.250000, 110039.468750, 91925.164063, 105744.179688, 115531.492188, 0.000, 0.000, 0.000,10.683069,21.28566,7.1963005,8.313395,5.53128, 22:41:28.065
, 79896.062500, 89504.539063, 154606.312500, 153877.859375, 110017.382813, 91963.609375, 105856.781250, 115537.906250, 0.420, 0.448, 0.768,10.683069,21.28566,7.1963005,8.313395,5.53128, 22:41:28.066
, 79904.375000, 89516.656250, 154561.015625, 153921.796875, 110002.875000, 91927.000000, 105786.664063, 115499.867188, 0.000, 0.000, 0.000,10.683069,21.28566,7.1963005,8.313395,5.53128, 22:41:28.066
, 79939.625000, 89556.906250, 154564.250000, 153637.437500, 110023.265625, 91881.625000, 105659.375000, 115489.226563, 0.000, 0.000, 0.000,10.683069,21.28566,7.1963005,8.313395,5.53128, 22:41:28.066
, 79942.398438, 89557.398438, 154607.171875, 153581.937500, 110040.429688, 91917.789063, 105712.054688, 115526.593750, 0.000, 0.000, 0.000,10.683069,21.28566,7.1963005,8.313395,5.53128, 22:41:28.066
, 79915.773438, 89527.156250, 154613.890625, 153849.109375, 110026.437500, 91964.664063, 105839.242188, 115543.671875, 0.000, 0.000, 0.000,10.683069,21.28566,7.1963005,8.313395,5.53128, 22:41:28.066
, 79921.031250, 89535.695313, 154568.500000, 153937.218750, 110008.890625, 91938.265625, 105798.562500, 115511.062500, 0.000, 0.000, 0.000,10.683069,21.28566,7.1963005,8.313395,5.53128, 22:41:28.066
, 79951.671875, 89569.742188, 154560.000000, 153643.421875, 110026.617188, 91885.312500, 105659.242188, 115489.046875, 0.000, 0.000, 0.000,10.683069,21.28566,7.1963005,8.313395,5.53128, 22:41:28.066
, 79953.546875, 89566.031250, 154601.125000, 153515.437500, 110047.000000, 91908.226563, 105696.609375, 115525.281250, 0.000, 0.000, 0.000,10.683069,21.28566,7.1963005,8.313395,5.53128, 22:41:28.066
, 79915.578125, 89522.375000, 154617.500000, 153764.265625, 110033.406250, 91961.289063, 105833.023438, 115548.929688, 0.000, 0.000, 0.000,10.683069,21.28566,7.1963005,8.313395,5.53128, 22:41:28.067
, 79897.179688, 89507.781250, 154573.500000, 153953.562500, 110007.882813, 91949.906250, 105835.195313, 115518.437500, 0.418, 0.448, 0.772,10.683069,21.28566,7.1963005,8.313395,5.53128, 22:41:28.067
, 79921.992188, 89540.367188, 154540.671875, 153713.171875, 110009.585938, 91884.976563, 105685.906250, 115477.179688, 0.000, 0.000, 0.000,10.683069,21.28566,7.1963005,8.313395,5.53128, 22:41:28.067
, 79936.898438, 89553.851563, 154583.203125, 153529.281250, 110038.687500, 91894.703125, 105690.601563, 115504.734375, 0.000, 0.000, 0.000,10.683069,21.28566,7.1963005,8.313395,5.53128, 22:41:28.067
, 79918.773438, 89530.578125, 154611.843750, 153709.593750, 110034.234375, 91951.609375, 105820.507813, 115538.953125, 0.000, 0.000, 0.000,10.683069,21.28566,7.1963005,8.313395,5.53128, 22:41:28.067
, 79906.296875, 89516.523438, 154592.296875, 153934.609375, 110016.710938, 91962.585938, 105865.882813, 115531.890625, 0.000, 0.000, 0.000,10.683069,21.28566,7.1963005,8.313395,5.53128, 22:41:28.067
, 79928.023438, 89545.601563, 154561.171875, 153770.000000, 110018.945313, 91908.109375, 105734.406250, 115496.914063, 0.000, 0.000, 0.000,10.683069,21.28566,7.1963005,8.313395,5.53128, 22:41:28.067
, 79942.890625, 89563.992188, 154591.000000, 153532.875000, 110043.000000, 91901.046875, 105694.890625, 115510.523438, 0.000, 0.000, 0.000,10.683069,21.28566,7.1963005,8.313395,5.53128, 22:41:28.068
, 79921.898438, 89541.171875, 154621.875000, 153652.296875, 110038.640625, 91949.843750, 105806.273438, 115544.656250, 0.000, 0.000, 0.000,10.683069,21.28566,7.1963005,8.313395,5.53128, 22:41:28.068
, 79894.093750, 89512.695313, 154606.359375, 153930.328125, 110009.046875, 91971.992188, 105877.726563, 115540.500000, 0.000, 0.000, 0.000,10.683069,21.28566,7.1963005,8.313395,5.53128, 22:41:28.068
, 79915.328125, 89540.570313, 154561.765625, 153819.765625, 110013.695313, 91915.820313, 105760.781250, 115502.164063, 0.000, 0.000, 0.000,10.683069,21.28566,7.1963005,8.313395,5.53128, 22:41:28.068
, 79947.273438, 89570.187500, 154589.390625, 153540.312500, 110046.375000, 91893.250000, 105698.023438, 115512.539063, 0.414, 0.444, 0.778,10.683069,21.28566,7.1963005,8.313395,5.53128, 22:41:28.068
, 79932.453125, 89549.375000, 154624.046875, 153594.406250, 110050.953125, 91940.117188, 105799.343750, 115552.078125, 0.000, 0.000, 0.000,10.683069,21.28566,7.1963005,8.313395,5.53128, 22:41:28.068
, 79902.140625, 89516.500000, 154619.796875, 153874.875000, 110025.406250, 91969.984375, 105895.070313, 115554.671875, 0.000, 0.000, 0.000,10.683069,21.28566,7.1963005,8.313395,5.53128, 22:41:28.068
, 79909.945313, 89529.554688, 154570.890625, 153856.265625, 110012.242188, 91917.273438, 105805.265625, 115503.734375, 0.000, 0.000, 0.000,10.683069,21.28566,7.1963005,8.313395,5.53128, 22:41:28.069
, 79936.539063, 89559.992188, 154577.593750, 153565.234375, 110032.757813, 91880.773438, 105702.421875, 115494.406250, 0.000, 0.000, 0.000,10.683069,21.28566,7.1963005,8.313395,5.53128, 22:41:28.069
, 79927.085938, 89547.453125, 154614.078125, 153557.078125, 110043.757813, 91920.179688, 105774.531250, 115530.109375, 0.000, 0.000, 0.000,10.683069,21.28566,7.1963005,8.313395,5.53128, 22:41:28.069
, 79901.468750, 89519.156250, 154617.000000, 153816.078125, 110028.085938, 91963.765625, 105875.539063, 115544.523438, 0.000, 0.000, 0.000,10.683069,21.28566,7.1963005,8.313395,5.53128, 22:41:28.069
, 79907.460938, 89527.296875, 154577.468750, 153855.031250, 110018.921875, 91932.320313, 105821.203125, 115512.226563, 0.000, 0.000, 0.000,10.683069,21.28566,7.1963005,8.313395,5.53128, 22:41:28.069
, 79941.953125, 89565.468750, 154574.937500, 153550.937500, 110042.929688, 91886.968750, 105691.828125, 115497.515625, 0.000, 0.000, 0.000,10.683069,21.28566,7.1963005,8.313395,5.53128, 22:41:28.069
, 79940.921875, 89562.921875, 154620.109375, 153475.156250, 110056.429688, 91920.742188, 105745.320313, 115534.953125, 0.412, 0.434, 0.782,10.683069,21.28566,7.1963005,8.313395,5.53128, 22:41:28.069
, 79904.734375, 89522.375000, 154626.406250, 153743.546875, 110033.789063, 91971.617188, 105876.343750, 115555.453125, 0.000, 0.000, 0.000,10.683069,21.28566,7.1963005,8.313395,5.53128, 22:41:28.070
, 79893.445313, 89513.460938, 154579.203125, 153874.812500, 110008.601563, 91949.171875, 105849.164063, 115521.140625, 0.000, 0.000, 0.000,10.683069,21.28566,7.1963005,8.313395,5.53128, 22:41:28.070
, 79925.859375, 89551.968750, 154561.078125, 153619.093750, 110026.031250, 91894.390625, 105709.484375, 115495.531250, 0.000, 0.000, 0.000,10.683069,21.28566,7.1963005,8.313395,5.53128, 22:41:28.070
, 79941.101563, 89565.359375, 154606.500000, 153475.312500, 110047.781250, 91919.625000, 105726.273438, 115533.437500, 0.000, 0.000, 0.000,10.683069,21.28566,7.1963005,8.313395,5.53128, 22:41:28.070
, 79917.992188, 89538.382813, 154629.265625, 153675.375000, 110036.875000, 91974.585938, 105850.390625, 115563.968750, 0.000, 0.000, 0.000,10.683069,21.28566,7.1963005,8.313395,5.53128, 22:41:28.070
, 79900.734375, 89523.921875, 154589.625000, 153858.562500, 110013.312500, 91964.640625, 105870.328125, 115537.859375, 0.000, 0.000, 0.000,10.683069,21.28566,7.1963005,8.313395,5.53128, 22:41:28.070
, 79932.945313, 89558.992188, 154565.343750, 153618.484375, 110033.164063, 91908.046875, 105736.312500, 115511.148438, 0.000, 0.000, 0.000,10.683069,21.28566,7.1963005,8.313395,5.53128, 22:41:28.070
, 79943.515625, 89566.562500, 154602.453125, 153432.812500, 110053.835938, 91914.750000, 105728.953125, 115535.781250, 0.000, 0.000, 0.000,10.683069,21.28566,7.1963005,8.313395,5.53128, 22:41:28.071
, 79910.164063, 89529.171875, 154624.250000, 153616.562500, 110037.898438, 91964.039063, 105852.132813, 115558.804688, 0.000, 0.000, 0.000,10.683069,21.28566,7.1963005,8.313395,5.53128, 22:41:28.071
, 79890.921875, 89507.156250, 154592.968750, 153860.656250, 110008.195313, 91967.750000, 105892.164063, 115535.914063, 0.410, 0.432, 0.786,9.198652,18.329348,6.4080133,7.1438003,4.749732, 22:41:28.071
, 79920.046875, 89544.703125, 154556.109375, 153673.921875, 110011.726563, 91906.812500, 105751.125000, 115497.828125, 0.000, 0.000, 0.000,5.3075843,5.1235995,2.6197083,3.7522447,1.968637, 22:41:28.533
, 79944.523438, 89571.703125, 154596.296875, 153412.593750, 110046.281250, 91905.898438, 105716.796875, 115524.828125, 0.000, 0.000, 0.000,5.3075843,5.1235995,2.6197083,3.7522447,1.968637, 22:41:28.534
, 79920.421875, 89544.390625, 154630.750000, 153530.953125, 110042.820313, 91958.250000, 105838.929688, 115563.140625, 0.000, 0.000, 0.000,5.3075843,5.1235995,2.6197083,3.7522447,1.968637, 22:41:28.534
, 79887.140625, 89508.164063, 154601.437500, 153818.203125, 110008.867188, 91970.968750, 105914.187500, 115543.585938, 0.000, 0.000, 0.000,5.3075843,5.1235995,2.6197083,3.7522447,1.968637, 22:41:28.534
, 79914.304688, 89538.757813, 154559.765625, 153709.234375, 110013.625000, 91919.671875, 105795.343750, 115502.945313, 0.000, 0.000, 0.000,5.3075843,5.1235995,2.6197083,3.7522447,1.968637, 22:41:28.534
, 79945.171875, 89569.984375, 154586.828125, 153426.921875, 110046.593750, 91900.625000, 105726.851563, 115515.867188, 0.000, 0.000, 0.000,5.3075843,5.1235995,2.6197083,3.7522447,1.968637, 22:41:28.534
, 79932.382813, 89551.523438, 154626.046875, 153460.953125, 110054.421875, 91947.453125, 105823.210938, 115552.750000, 0.000, 0.000, 0.000,5.3075843,5.1235995,2.6197083,3.7522447,1.968637, 22:41:28.534
, 79895.726563, 89513.750000, 154612.671875, 153758.890625, 110023.890625, 91977.695313, 105929.671875, 115552.460938, 0.000, 0.000, 0.000,5.3075843,5.1235995,2.6197083,3.7522447,1.968637, 22:41:28.534
, 79909.117188, 89535.539063, 154562.859375, 153737.796875, 110012.960938, 91931.828125, 105839.890625, 115511.507813, 0.402, 0.430, 0.782,5.3075843,5.1235995,2.6197083,3.7522447,1.968637, 22:41:28.535
, 79949.078125, 89578.617188, 154579.703125, 153410.562500, 110045.007813, 91894.632813, 105733.289063, 115512.601563, 0.000, 0.000, 0.000,5.3075843,5.1235995,2.6197083,3.7522447,1.968637, 22:41:28.535
, 79932.648438, 89552.617188, 154621.625000, 153410.500000, 110051.265625, 91931.046875, 105825.312500, 115546.023438, 0.000, 0.000, 0.000,5.3075843,5.1235995,2.6197083,3.7522447,1.968637, 22:41:28.535
, 79900.710938, 89511.265625, 154613.781250, 153709.000000, 110025.429688, 91971.101563, 105939.687500, 115555.046875, 0.000, 0.000, 0.000,5.3075843,5.1235995,2.6197083,3.7522447,1.968637, 22:41:28.535
, 79910.859375, 89522.109375, 154571.359375, 153773.812500, 110018.390625, 91943.585938, 105886.492188, 115527.515625, 0.000, 0.000, 0.000,5.3075843,5.1235995,2.6197083,3.7522447,1.968637, 22:41:28.535
, 79947.156250, 89562.367188, 154569.531250, 153478.500000, 110044.656250, 91892.132813, 105758.664063, 115503.710938, 0.000, 0.000, 0.000,5.3075843,5.1235995,2.6197083,3.7522447,1.968637, 22:41:28.536
, 79949.546875, 89560.109375, 154616.406250, 153395.796875, 110057.679688, 91922.351563, 105808.843750, 115539.468750, 0.000, 0.000, 0.000,5.3075843,5.1235995,2.6197083,3.7522447,1.968637, 22:41:28.536
, 79916.023438, 89520.898438, 154624.531250, 153664.125000, 110028.804688, 91968.328125, 105929.515625, 115557.015625, 0.000, 0.000, 0.000,5.3075843,5.1235995,2.6197083,3.7522447,1.968637, 22:41:28.536
, 79907.125000, 89510.640625, 154579.656250, 153827.968750, 110000.890625, 91947.515625, 105899.898438, 115522.843750, 0.000, 0.000, 0.000,5.3075843,5.1235995,2.6197083,3.7522447,1.968637, 22:41:28.536
, 79945.796875, 89554.968750, 154558.218750, 153560.281250, 110016.671875, 91892.015625, 105739.039063, 115495.125000, 0.000, 0.000, 0.000,5.3075843,5.1235995,2.6197083,3.7522447,1.968637, 22:41:28.537
, 79960.140625, 89565.492188, 154608.203125, 153410.343750, 110045.210938, 91914.664063, 105762.906250, 115533.148438, 0.402, 0.434, 0.782,5.3075843,5.1235995,2.6197083,3.7522447,1.968637, 22:41:28.537
, 79932.273438, 89529.570313, 154623.968750, 153629.546875, 110030.773438, 91969.960938, 105891.453125, 115562.468750, 0.000, 0.000, 0.000,5.3075843,5.1235995,2.6197083,3.7522447,1.968637, 22:41:28.537
, 79909.804688, 89508.539063, 154589.078125, 153843.718750, 110007.031250, 91963.726563, 105914.250000, 115538.265625, 0.000, 0.000, 0.000,5.3075843,5.1235995,2.6197083,3.7522447,1.968637, 22:41:28.537
, 79932.453125, 89537.757813, 154551.046875, 153651.703125, 110013.765625, 91899.843750, 105776.367188, 115499.039063, 0.000, 0.000, 0.000,5.3075843,5.1235995,2.6197083,3.7522447,1.968637, 22:41:28.537
, 79946.757813, 89551.140625, 154585.953125, 153465.984375, 110036.132813, 91900.867188, 105761.570313, 115519.554688, 0.000, 0.000, 0.000,5.3075843,5.1235995,2.6197083,3.7522447,1.968637, 22:41:28.538
, 79922.523438, 89524.742188, 154613.359375, 153634.312500, 110029.992188, 91954.492188, 105884.656250, 115552.078125, 0.000, 0.000, 0.000,5.3075843,5.1235995,2.6197083,3.7522447,1.968637, 22:41:28.538
, 79906.343750, 89509.617188, 154597.265625, 153905.328125, 110013.132813, 91969.109375, 105949.703125, 115545.328125, 0.000, 0.000, 0.000,5.3075843,5.1235995,2.6197083,3.7522447,1.968637, 22:41:28.538
, 79931.890625, 89543.234375, 154555.359375, 153766.046875, 110009.781250, 91907.531250, 105809.445313, 115500.843750, 0.000, 0.000, 0.000,5.3075843,5.1235995,2.6197083,3.7522447,1.968637, 22:41:28.539
, 79958.289063, 89569.828125, 154590.718750, 153514.609375, 110035.601563, 91897.273438, 105748.710938, 115517.765625, 0.000, 0.000, 0.000,5.3075843,5.1235995,2.6197083,3.7522447,1.968637, 22:41:28.539
, 79940.992188, 89545.328125, 154628.921875, 153639.515625, 110036.828125, 91950.421875, 105867.757813, 115556.437500, 0.000, 0.000, 0.000,5.3075843,5.1235995,2.6197083,3.7522447,1.968637, 22:41:28.539
, 79916.242188, 89513.929688, 154607.609375, 153923.671875, 110013.851563, 91970.476563, 105946.976563, 115550.109375, 0.404, 0.438, 0.776,5.3075843,5.1235995,2.6197083,3.7522447,1.968637, 22:41:28.539
, 79933.593750, 89534.734375, 154563.421875, 153870.250000, 110006.523438, 91915.867188, 105838.296875, 115507.171875, 0.000, 0.000, 0.000,5.539446,4.763078,2.457891,3.6636221,1.8911265, 22:41:28.539
, 79963.515625, 89567.460938, 154582.296875, 153599.109375, 110033.921875, 91889.406250, 105750.812500, 115510.437500, 0.000, 0.000, 0.000,5.539446,4.763078,2.457891,3.6636221,1.8911265, 22:41:28.539
, 79944.679688, 89547.164063, 154617.562500, 153658.250000, 110038.078125, 91932.453125, 105847.976563, 115547.320313, 0.000, 0.000, 0.000,5.539446,4.763078,2.457891,3.6636221,1.8911265, 22:41:28.540
, 79915.531250, 89514.843750, 154610.562500, 153946.453125, 110014.164063, 91968.570313, 105947.195313, 115554.000000, 0.000, 0.000, 0.000,5.539446,4.763078,2.457891,3.6636221,1.8911265, 22:41:28.540
, 79923.953125, 89526.312500, 154560.625000, 153958.468750, 110003.007813, 91922.664063, 105866.398438, 115508.554688, 0.000, 0.000, 0.000,5.539446,4.763078,2.457891,3.6636221,1.8911265, 22:41:28.540
, 79951.765625, 89558.992188, 154566.484375, 153674.296875, 110023.867188, 91881.023438, 105757.968750, 115496.890625, 0.000, 0.000, 0.000,5.539446,4.763078,2.457891,3.6636221,1.8911265, 22:41:28.540
, 79944.054688, 89550.562500, 154607.328125, 153640.453125, 110035.000000, 91923.828125, 105825.000000, 115537.101563, 0.000, 0.000, 0.000,5.539446,4.763078,2.457891,3.6636221,1.8911265, 22:41:28.540
, 79907.390625, 89508.921875, 154611.015625, 153929.390625, 110011.257813, 91971.101563, 105942.460938, 115553.578125, 0.000, 0.000, 0.000,5.539446,4.763078,2.457891,3.6636221,1.8911265, 22:41:28.540
, 79913.023438, 89515.757813, 154564.718750, 154021.125000, 109998.070313, 91940.882813, 105888.125000, 115519.554688, 0.404, 0.438, 0.776,5.539446,4.763078,2.457891,3.6636221,1.8911265, 22:41:28.540
, 79954.000000, 89557.109375, 154559.781250, 153737.703125, 110021.742188, 91892.757813, 105756.515625, 115504.398438, 0.000, 0.000, 0.000,5.539446,4.763078,2.457891,3.6636221,1.8911265, 22:41:28.541
, 79954.890625, 89552.281250, 154607.796875, 153644.406250, 110041.968750, 91920.960938, 105801.039063, 115542.000000, 0.000, 0.000, 0.000,5.539446,4.763078,2.457891,3.6636221,1.8911265, 22:41:28.541
, 79911.218750, 89504.875000, 154619.109375, 153935.828125, 110020.960938, 91966.453125, 105936.914063, 115561.109375, 0.000, 0.000, 0.000,5.539446,4.763078,2.457891,3.6636221,1.8911265, 22:41:28.541
, 79901.382813, 89495.953125, 154574.953125, 154122.296875, 109995.609375, 91947.968750, 105927.484375, 115528.500000, 0.000, 0.000, 0.000,5.539446,4.763078,2.457891,3.6636221,1.8911265, 22:41:28.541
, 79940.453125, 89539.898438, 154553.718750, 153878.359375, 110006.945313, 91890.007813, 105778.242188, 115500.132813, 0.000, 0.000, 0.000,5.539446,4.763078,2.457891,3.6636221,1.8911265, 22:41:28.541
, 79953.546875, 89553.375000, 154597.687500, 153732.828125, 110029.226563, 91908.179688, 105786.867188, 115530.617188, 0.000, 0.000, 0.000,5.539446,4.763078,2.457891,3.6636221,1.8911265, 22:41:28.542
, 79920.804688, 89518.781250, 154617.468750, 153953.453125, 110015.664063, 91961.171875, 105909.804688, 115560.726563, 0.000, 0.000, 0.000,5.539446,4.763078,2.457891,3.6636221,1.8911265, 22:41:28.542
, 79903.703125, 89497.992188, 154584.718750, 154178.968750, 109992.687500, 91958.023438, 105939.039063, 115535.625000, 0.000, 0.000, 0.000,5.539446,4.763078,2.457891,3.6636221,1.8911265, 22:41:28.542
, 79935.515625, 89533.242188, 154550.843750, 153987.468750, 110002.679688, 91897.382813, 105803.031250, 115495.796875, 0.000, 0.000, 0.000,5.539446,4.763078,2.457891,3.6636221,1.8911265, 22:41:28.542
, 79951.359375, 89550.156250, 154589.671875, 153776.218750, 110033.968750, 91900.242188, 105788.656250, 115518.593750, 0.398, 0.446, 0.780,5.539446,4.763078,2.457891,3.6636221,1.8911265, 22:41:28.542
, 79915.242188, 89511.554688, 154611.640625, 153951.093750, 110023.085938, 91949.617188, 105904.218750, 115544.859375, 0.000, 0.000, 0.000,5.539446,4.763078,2.457891,3.6636221,1.8911265, 22:41:28.543
, 79893.000000, 89488.468750, 154585.468750, 154206.437500, 109998.007813, 91963.656250, 105953.859375, 115535.421875, 0.000, 0.000, 0.000,5.539446,4.763078,2.457891,3.6636221,1.8911265, 22:41:28.543
, 79909.804688, 89508.562500, 154541.187500, 154090.343750, 109990.226563, 91904.000000, 105828.484375, 115492.218750, 0.000, 0.000, 0.000,5.539446,4.763078,2.457891,3.6636221,1.8911265, 22:41:28.543
, 79937.703125, 89532.164063, 154567.500000, 153846.406250, 110019.015625, 91888.085938, 105771.851563, 115501.671875, 0.000, 0.000, 0.000,5.539446,4.763078,2.457891,3.6636221,1.8911265, 22:41:28.543
, 79930.867188, 89519.070313, 154604.312500, 153927.390625, 110027.484375, 91939.695313, 105876.992188, 115539.445313, 0.000, 0.000, 0.000,5.539446,4.763078,2.457891,3.6636221,1.8911265, 22:41:28.543
, 79903.054688, 89486.437500, 154595.234375, 154221.203125, 109994.851563, 91966.023438, 105966.757813, 115538.554688, 0.000, 0.000, 0.000,5.539446,4.763078,2.457891,3.6636221,1.8911265, 22:41:28.544
, 79919.710938, 89506.375000, 154541.906250, 154184.203125, 109984.367188, 91912.875000, 105865.148438, 115497.515625, 0.000, 0.000, 0.000,5.539446,4.763078,2.457891,3.6636221,1.8911265, 22:41:28.544
, 79955.898438, 89546.765625, 154563.968750, 153886.296875, 110019.460938, 91884.375000, 105776.968750, 115500.132813, 0.000, 0.000, 0.000,5.539446,4.763078,2.457891,3.6636221,1.8911265, 22:41:28.544
, 79945.148438, 89533.304688, 154606.921875, 153901.968750, 110028.109375, 91928.500000, 105861.234375, 115535.734375, 0.396, 0.452, 0.788,5.539446,4.763078,2.457891,3.6636221,1.8911265, 22:41:28.544
, 79910.632813, 89497.968750, 154603.859375, 154205.687500, 110005.289063, 91964.015625, 105971.851563, 115541.617188, 0.000, 0.000, 0.000,5.539446,4.763078,2.457891,3.6636221,1.8911265, 22:41:28.544
, 79918.812500, 89509.968750, 154554.953125, 154251.531250, 109990.382813, 91927.312500, 105906.156250, 115504.023438, 0.000, 0.000, 0.000,5.539446,4.763078,2.457891,3.6636221,1.8911265, 22:41:28.544
