%OpenBCI Raw EEG Data
%
%Sample Rate = 250.0 Hz
%First Column = SampleIndex
%5 Columns before Timestamp are Frequency Power factors DELTA THETA ALPHA BETA GAMMA
%Last Column = Timestamp 
%Other Columns = EEG data in microvolts followed by Accel Data (in G) interleaved with Aux Data
0.000000, 0.000000, 0.000000, 0.000000, 0.000000, 0.000000, 0.000000, 0.000000, 0.000, 0.000, 0.000,0.0,0.0,0.0,0.0,0.0, 14:49:44.089
79117.867188, 83687.429688, 158044.687500, 126865.125000, 143552.359375, 99588.929688, 124450.578125, 144610.578125, 0.160, 0.240, 0.950,0.0,0.0,0.0,0.0,0.0, 14:49:44.573
79187.039063, 83752.695313, 158107.234375, 126804.304688, 143610.359375, 99476.968750, 124458.781250, 144609.953125, 0.000, 0.000, 0.000,0.0,0.0,0.0,0.0,0.0, 14:49:44.576
79177.656250, 83747.625000, 158112.031250, 126855.039063, 143622.515625, 99580.726563, 124495.460938, 144653.750000, 0.000, 0.000, 0.000,0.0,0.0,0.0,0.0,0.0, 14:49:44.577
79102.281250, 83668.992188, 158040.625000, 126915.859375, 143556.046875, 99690.875000, 124481.328125, 144651.250000, 0.000, 0.000, 0.000,0.0,0.0,0.0,0.0,0.0, 14:49:44.577
79121.171875, 83681.664063, 158039.953125, 126882.468750, 143548.640625, 99613.921875, 124453.812500, 144621.453125, 0.000, 0.000, 0.000,0.0,0.0,0.0,0.0,0.0, 14:49:44.578
79192.140625, 83755.203125, 158102.640625, 126810.765625, 143601.031250, 99482.421875, 124453.703125, 144610.234375, 0.000, 0.000, 0.000,0.0,0.0,0.0,0.0,0.0, 14:49:44.579
79203.179688, 83767.296875, 158131.484375, 126851.421875, 143636.187500, 99562.914063, 124498.812500, 144657.281250, 0.166, 0.244, 0.950,0.0,0.0,0.0,0.0,0.0, 14:49:44.579
79118.289063, 83682.578125, 158058.015625, 126919.101563, 143575.843750, 99688.484375, 124493.734375, 144660.500000, 0.000, 0.000, 0.000,0.0,0.0,0.0,0.0,0.0, 14:49:44.580
79098.257813, 83665.328125, 158025.781250, 126885.867188, 143541.250000, 99629.921875, 124458.171875, 144621.546875, 0.000, 0.000, 0.000,0.0,0.0,0.0,0.0,0.0, 14:49:44.580
79172.875000, 83737.585938, 158091.671875, 126811.234375, 143594.156250, 99493.039063, 124455.960938, 144606.421875, 0.000, 0.000, 0.000,0.0,0.0,0.0,0.0,0.0, 14:49:44.581
79206.734375, 83765.882813, 158132.578125, 126827.796875, 143636.625000, 99528.562500, 124492.062500, 144646.296875, 0.000, 0.000, 0.000,0.0,0.0,0.0,0.0,0.0, 14:49:44.581
79148.062500, 83706.429688, 158083.953125, 126911.906250, 143596.828125, 99679.031250, 124505.289063, 144670.765625, 0.000, 0.000, 0.000,0.0,0.0,0.0,0.0,0.0, 14:49:44.581
79108.343750, 83664.656250, 158035.437500, 126909.671875, 143548.859375, 99663.164063, 124470.289063, 144634.484375, 0.000, 0.000, 0.000,0.0,0.0,0.0,0.0,0.0, 14:49:44.582
79161.539063, 83723.062500, 158075.265625, 126825.406250, 143581.328125, 99512.734375, 124449.945313, 144604.734375, 0.000, 0.000, 0.000,0.0,0.0,0.0,0.0,0.0, 14:49:44.583
79218.132813, 83784.210938, 158140.515625, 126827.015625, 143640.625000, 99516.625000, 124490.945313, 144642.625000, 0.000, 0.000, 0.000,0.0,0.0,0.0,0.0,0.0, 14:49:44.584
79160.664063, 83727.218750, 158098.156250, 126907.257813, 143607.703125, 99664.210938, 124509.429688, 144671.218750, 0.000, 0.000, 0.000,0.0,0.0,0.0,0.0,0.0, 14:49:44.584
79103.890625, 83672.906250, 158038.156250, 126921.382813, 143552.062500, 99687.281250, 124478.601563, 144646.015625, 0.164, 0.240, 0.948,0.0,0.0,0.0,0.0,0.0, 14:49:44.585
79155.054688, 83723.460938, 158072.140625, 126842.992188, 143578.843750, 99546.578125, 124460.453125, 144618.359375, 0.000, 0.000, 0.000,0.0,0.0,0.0,0.0,0.0, 14:49:44.585
79211.632813, 83782.515625, 158134.093750, 126813.781250, 143632.796875, 99495.140625, 124482.898438, 144638.140625, 0.000, 0.000, 0.000,0.0,0.0,0.0,0.0,0.0, 14:49:44.585
79158.835938, 83732.445313, 158099.890625, 126884.750000, 143608.515625, 99630.750000, 124500.976563, 144667.453125, 0.000, 0.000, 0.000,0.0,0.0,0.0,0.0,0.0, 14:49:44.586
79108.007813, 83677.148438, 158043.140625, 126925.562500, 143556.890625, 99690.609375, 124484.054688, 144652.546875, 0.000, 0.000, 0.000,0.0,0.0,0.0,0.0,0.0, 14:49:44.586
79150.117188, 83714.250000, 158064.578125, 126863.398438, 143574.968750, 99570.960938, 124461.328125, 144620.625000, 0.000, 0.000, 0.000,0.0,0.0,0.0,0.0,0.0, 14:49:44.586
79212.992188, 83774.890625, 158126.875000, 126815.390625, 143627.765625, 99485.312500, 124472.992188, 144626.265625, 0.000, 0.000, 0.000,0.0,0.0,0.0,0.0,0.0, 14:49:44.587
79186.062500, 83752.898438, 158118.171875, 126877.929688, 143626.093750, 99606.343750, 124506.812500, 144666.671875, 0.000, 0.000, 0.000,0.0,0.0,0.0,0.0,0.0, 14:49:44.587
79111.960938, 83683.718750, 158052.546875, 126930.164063, 143567.781250, 99700.312500, 124492.867188, 144662.312500, 0.000, 0.000, 0.000,0.0,0.0,0.0,0.0,0.0, 14:49:44.587
79116.367188, 83690.445313, 158046.140625, 126869.929688, 143554.562500, 99591.078125, 124451.070313, 144618.031250, 0.160, 0.246, 0.948,0.0,0.0,0.0,0.0,0.0, 14:49:44.587
79199.578125, 83767.203125, 158121.203125, 126811.453125, 143619.546875, 99481.554688, 124463.289063, 144623.656250, 0.000, 0.000, 0.000,0.0,0.0,0.0,0.0,0.0, 14:49:44.588
79191.375000, 83755.265625, 158126.500000, 126858.375000, 143630.828125, 99579.718750, 124496.484375, 144662.500000, 0.000, 0.000, 0.000,0.0,0.0,0.0,0.0,0.0, 14:49:44.588
79121.976563, 83685.351563, 158061.187500, 126925.804688, 143575.781250, 99697.875000, 124495.593750, 144667.953125, 0.000, 0.000, 0.000,0.0,0.0,0.0,0.0,0.0, 14:49:44.588
79114.867188, 83682.890625, 158042.734375, 126887.851563, 143556.687500, 99621.523438, 124464.546875, 144629.843750, 0.000, 0.000, 0.000,0.0,0.0,0.0,0.0,0.0, 14:49:44.589
79189.187500, 83758.757813, 158108.718750, 126817.601563, 143611.468750, 99491.921875, 124465.843750, 144623.140625, 0.000, 0.000, 0.000,0.0,0.0,0.0,0.0,0.0, 14:49:44.589
79205.281250, 83773.640625, 158135.546875, 126850.523438, 143637.828125, 99552.679688, 124497.695313, 144660.156250, 0.000, 0.000, 0.000,0.0,0.0,0.0,0.0,0.0, 14:49:44.589
79136.304688, 83705.890625, 158081.343750, 126934.101563, 143594.468750, 99691.187500, 124507.460938, 144678.078125, 0.000, 0.000, 0.000,0.0,0.0,0.0,0.0,0.0, 14:49:44.589
79110.312500, 83677.375000, 158042.500000, 126910.476563, 143557.203125, 99646.328125, 124472.140625, 144639.609375, 0.000, 0.000, 0.000,0.0,0.0,0.0,0.0,0.0, 14:49:44.590
79177.453125, 83747.578125, 158097.296875, 126830.429688, 143604.031250, 99508.937500, 124466.312500, 144624.187500, 0.000, 0.000, 0.000,0.0,0.0,0.0,0.0,0.0, 14:49:44.590
79207.226563, 83779.296875, 158137.171875, 126840.218750, 143646.203125, 99535.265625, 124500.757813, 144660.281250, 0.156, 0.246, 0.950,0.0,0.0,0.0,0.0,0.0, 14:49:44.590
79142.539063, 83718.703125, 158083.750000, 126915.101563, 143598.375000, 99678.921875, 124504.445313, 144678.187500, 0.000, 0.000, 0.000,0.0,0.0,0.0,0.0,0.0, 14:49:44.590
79101.617188, 83679.585938, 158032.812500, 126914.671875, 143550.546875, 99672.546875, 124471.320313, 144643.296875, 0.000, 0.000, 0.000,0.0,0.0,0.0,0.0,0.0, 14:49:44.591
79156.484375, 83731.218750, 158071.906250, 126830.031250, 143580.265625, 99523.218750, 124448.632813, 144611.875000, 0.000, 0.000, 0.000,0.0,0.0,0.0,0.0,0.0, 14:49:44.592
79205.843750, 83775.695313, 158126.093750, 126818.453125, 143634.671875, 99506.609375, 124478.406250, 144638.453125, 0.000, 0.000, 0.000,0.0,0.0,0.0,0.0,0.0, 14:49:44.592
79149.000000, 83716.625000, 158084.875000, 126897.484375, 143600.312500, 99649.281250, 124495.835938, 144665.765625, 0.000, 0.000, 0.000,0.0,0.0,0.0,0.0,0.0, 14:49:44.592
79100.250000, 83669.304688, 158030.531250, 126921.132813, 143546.968750, 99680.773438, 124473.460938, 144643.515625, 0.000, 0.000, 0.000,0.0,0.0,0.0,0.0,0.0, 14:49:44.592
79138.960938, 83707.500000, 158052.718750, 126844.445313, 143563.531250, 99539.335938, 124446.398438, 144604.187500, 0.000, 0.000, 0.000,0.0,0.0,0.0,0.0,0.0, 14:49:44.593
79204.703125, 83774.421875, 158122.578125, 126814.718750, 143626.515625, 99486.117188, 124471.179688, 144629.500000, 0.000, 0.000, 0.000,0.0,0.0,0.0,0.0,0.0, 14:49:44.593
79155.460938, 83728.156250, 158094.750000, 126891.093750, 143612.125000, 99627.843750, 124502.093750, 144666.031250, 0.000, 0.000, 0.000,0.0,0.0,0.0,0.0,0.0, 14:49:44.593
79080.578125, 83654.750000, 158023.750000, 126932.359375, 143542.390625, 99691.101563, 124471.476563, 144641.796875, 0.156, 0.246, 0.948,0.0,0.0,0.0,0.0,0.0, 14:49:44.593
79104.203125, 83676.453125, 158035.859375, 126865.414063, 143547.609375, 99566.218750, 124442.062500, 144602.375000, 0.000, 0.000, 0.000,0.0,0.0,0.0,0.0,0.0, 14:49:44.593
79182.351563, 83751.757813, 158105.750000, 126811.835938, 143610.421875, 99475.179688, 124458.289063, 144611.421875, 0.000, 0.000, 0.000,0.0,0.0,0.0,0.0,0.0, 14:49:44.606
79171.085938, 83737.835938, 158106.328125, 126871.625000, 143618.843750, 99597.000000, 124499.796875, 144658.390625, 0.000, 0.000, 0.000,0.0,0.0,0.0,0.0,0.0, 14:49:44.607
79104.632813, 83669.390625, 158044.671875, 126925.468750, 143562.015625, 99696.578125, 124492.593750, 144656.375000, 0.000, 0.000, 0.000,0.0,0.0,0.0,0.0,0.0, 14:49:44.607
79118.335938, 83686.179688, 158044.390625, 126875.429688, 143554.343750, 99600.132813, 124459.914063, 144619.171875, 0.000, 0.000, 0.000,0.0,0.0,0.0,0.0,0.0, 14:49:44.608
79186.171875, 83754.015625, 158104.140625, 126807.789063, 143601.265625, 99476.476563, 124456.539063, 144609.921875, 0.000, 0.000, 0.000,0.0,0.0,0.0,0.0,0.0, 14:49:44.608
79181.562500, 83744.117188, 158112.906250, 126851.867188, 143619.828125, 99569.101563, 124494.742188, 144650.250000, 0.000, 0.000, 0.000,0.0,0.0,0.0,0.0,0.0, 14:49:44.608
79108.453125, 83674.671875, 158049.156250, 126924.664063, 143566.359375, 99692.890625, 124496.148438, 144657.265625, 0.000, 0.000, 0.000,0.0,0.0,0.0,0.0,0.0, 14:49:44.608
79096.718750, 83665.125000, 158028.421875, 126891.476563, 143543.968750, 99621.632813, 124464.140625, 144618.359375, 0.156, 0.246, 0.948,0.0,0.0,0.0,0.0,0.0, 14:49:44.609
79169.226563, 83742.507813, 158096.078125, 126823.054688, 143602.421875, 99490.453125, 124466.000000, 144609.968750, 0.000, 0.000, 0.000,0.0,0.0,0.0,0.0,0.0, 14:49:44.609
79180.914063, 83753.570313, 158120.500000, 126847.398438, 143626.765625, 99547.890625, 124495.992188, 144647.671875, 0.000, 0.000, 0.000,0.0,0.0,0.0,0.0,0.0, 14:49:44.609
79100.968750, 83670.601563, 158050.046875, 126920.507813, 143567.156250, 99685.757813, 124490.921875, 144652.640625, 0.000, 0.000, 0.000,0.0,0.0,0.0,0.0,0.0, 14:49:44.609
79075.257813, 83640.132813, 158013.281250, 126905.828125, 143528.453125, 99651.429688, 124456.070313, 144616.046875, 0.000, 0.000, 0.000,0.0,0.0,0.0,0.0,0.0, 14:49:44.609
79148.265625, 83710.187500, 158068.953125, 126829.648438, 143571.468750, 99509.492188, 124443.531250, 144598.062500, 0.000, 0.000, 0.000,0.0,0.0,0.0,0.0,0.0, 14:49:44.610
79188.742188, 83751.335938, 158115.984375, 126835.664063, 143615.406250, 99521.273438, 124474.554688, 144631.625000, 0.000, 0.000, 0.000,0.0,0.0,0.0,0.0,0.0, 14:49:44.611
79132.171875, 83698.203125, 158074.343750, 126914.320313, 143585.640625, 99668.929688, 124497.960938, 144661.015625, 0.000, 0.000, 0.000,0.0,0.0,0.0,0.0,0.0, 14:49:44.612
79084.851563, 83653.929688, 158023.750000, 126917.359375, 143537.359375, 99671.921875, 124467.070313, 144628.984375, 0.000, 0.000, 0.000,0.0,0.0,0.0,0.0,0.0, 14:49:44.613
79147.320313, 83714.703125, 158068.218750, 126839.593750, 143568.625000, 99528.562500, 124448.226563, 144600.250000, 0.000, 0.000, 0.000,0.0,0.0,0.0,0.0,0.0, 14:49:44.613
79194.953125, 83763.335938, 158121.734375, 126818.789063, 143618.468750, 99501.156250, 124472.414063, 144620.656250, 0.160, 0.242, 0.950,0.0,0.0,0.0,0.0,0.0, 14:49:44.613
79137.156250, 83708.820313, 158078.968750, 126891.429688, 143585.906250, 99641.773438, 124491.031250, 144648.437500, 0.000, 0.000, 0.000,0.0,0.0,0.0,0.0,0.0, 14:49:44.614
79091.914063, 83665.054688, 158028.921875, 126930.765625, 143539.765625, 99687.570313, 124475.835938, 144634.406250, 0.000, 0.000, 0.000,0.0,0.0,0.0,0.0,0.0, 14:49:44.614
79127.382813, 83702.695313, 158053.515625, 126861.031250, 143555.546875, 99553.234375, 124448.117188, 144597.203125, 0.000, 0.000, 0.000,0.0,0.0,0.0,0.0,0.0, 14:49:44.615
79191.914063, 83766.023438, 158121.000000, 126825.132813, 143614.109375, 99487.742188, 124465.257813, 144612.156250, 0.000, 0.000, 0.000,0.0,0.0,0.0,0.0,0.0, 14:49:44.615
79153.132813, 83723.867188, 158094.390625, 126894.734375, 143595.734375, 99618.164063, 124489.085938, 144645.046875, 0.000, 0.000, 0.000,0.0,0.0,0.0,0.0,0.0, 14:49:44.615
79075.148438, 83648.453125, 158016.859375, 126932.781250, 143525.078125, 99686.359375, 124462.484375, 144624.125000, 0.000, 0.000, 0.000,5.8854916E-6,7.796134E-6,9.582924E-6,3.0147305E-5,3.8289112E-5, 14:49:44.616
79094.906250, 83666.132813, 158021.625000, 126868.585938, 143525.031250, 99564.257813, 124429.296875, 144582.343750, 0.000, 0.000, 0.000,5.8854916E-6,7.796134E-6,9.582924E-6,3.0147305E-5,3.8289112E-5, 14:49:44.616
79171.281250, 83741.593750, 158095.765625, 126814.742188, 143589.406250, 99465.304688, 124445.750000, 144592.953125, 0.000, 0.000, 0.000,5.8854916E-6,7.796134E-6,9.582924E-6,3.0147305E-5,3.8289112E-5, 14:49:44.617
79164.000000, 83740.453125, 158106.171875, 126877.437500, 143604.921875, 99585.984375, 124489.531250, 144643.156250, 0.150, 0.248, 0.950,5.8854916E-6,7.796134E-6,9.582924E-6,3.0147305E-5,3.8289112E-5, 14:49:44.617
79094.078125, 83667.250000, 158040.156250, 126942.101563, 143549.765625, 99693.203125, 124485.578125, 144642.000000, 0.000, 0.000, 0.000,5.8854916E-6,7.796134E-6,9.582924E-6,3.0147305E-5,3.8289112E-5, 14:49:44.618
79096.648438, 83667.609375, 158026.843750, 126891.500000, 143530.625000, 99594.968750, 124446.375000, 144598.390625, 0.000, 0.000, 0.000,5.8854916E-6,7.796134E-6,9.582924E-6,3.0147305E-5,3.8289112E-5, 14:49:44.618
79173.382813, 83746.328125, 158096.000000, 126819.750000, 143588.859375, 99471.804688, 124448.515625, 144592.890625, 0.000, 0.000, 0.000,5.8854916E-6,7.796134E-6,9.582924E-6,3.0147305E-5,3.8289112E-5, 14:49:44.619
79174.148438, 83750.218750, 158116.171875, 126862.015625, 143614.609375, 99559.609375, 124487.703125, 144635.406250, 0.000, 0.000, 0.000,5.8854916E-6,7.796134E-6,9.582924E-6,3.0147305E-5,3.8289112E-5, 14:49:44.619
79104.187500, 83677.820313, 158055.234375, 126935.578125, 143562.562500, 99688.890625, 124490.851563, 144647.750000, 0.000, 0.000, 0.000,5.8854916E-6,7.796134E-6,9.582924E-6,3.0147305E-5,3.8289112E-5, 14:49:44.620
79093.414063, 83667.429688, 158030.203125, 126906.960938, 143535.328125, 99627.289063, 124457.187500, 144611.218750, 0.000, 0.000, 0.000,5.8854916E-6,7.796134E-6,9.582924E-6,3.0147305E-5,3.8289112E-5, 14:49:44.620
79163.484375, 83734.195313, 158088.671875, 126829.539063, 143587.421875, 99487.859375, 124451.539063, 144594.703125, 0.000, 0.000, 0.000,5.8854916E-6,7.796134E-6,9.582924E-6,3.0147305E-5,3.8289112E-5, 14:49:44.621
79177.500000, 83748.382813, 158115.781250, 126842.460938, 143616.187500, 99528.421875, 124479.140625, 144627.937500, 0.000, 0.000, 0.000,5.8854916E-6,7.796134E-6,9.582924E-6,3.0147305E-5,3.8289112E-5, 14:49:44.621
79110.914063, 83683.679688, 158058.953125, 126919.953125, 143564.046875, 99670.132813, 124483.718750, 144647.546875, 0.000, 0.000, 0.000,5.8854916E-6,7.796134E-6,9.582924E-6,3.0147305E-5,3.8289112E-5, 14:49:44.621
79083.687500, 83655.695313, 158020.562500, 126910.406250, 143524.906250, 99646.734375, 124453.164063, 144616.453125, 0.154, 0.250, 0.954,5.8854916E-6,7.796134E-6,9.582924E-6,3.0147305E-5,3.8289112E-5, 14:49:44.622
79139.835938, 83709.445313, 158066.562500, 126827.617188, 143562.718750, 99498.812500, 124436.648438, 144587.937500, 0.000, 0.000, 0.000,5.8854916E-6,7.796134E-6,9.582924E-6,3.0147305E-5,3.8289112E-5, 14:49:44.622
79176.445313, 83740.335938, 158108.765625, 126824.507813, 143607.828125, 99498.140625, 124465.703125, 144613.125000, 0.000, 0.000, 0.000,5.8854916E-6,7.796134E-6,9.582924E-6,3.0147305E-5,3.8289112E-5, 14:49:44.623
79123.851563, 83692.750000, 158068.875000, 126908.710938, 143579.078125, 99648.273438, 124483.367188, 144646.203125, 0.000, 0.000, 0.000,5.8854916E-6,7.796134E-6,9.582924E-6,3.0147305E-5,3.8289112E-5, 14:49:44.623
79077.984375, 83649.812500, 158013.906250, 126925.046875, 143526.015625, 99664.835938, 124454.460938, 144621.859375, 0.000, 0.000, 0.000,5.8854916E-6,7.796134E-6,9.582924E-6,3.0147305E-5,3.8289112E-5, 14:49:44.623
79126.335938, 83696.351563, 158046.109375, 126844.226563, 143550.968750, 99521.585938, 124431.929688, 144586.906250, 0.000, 0.000, 0.000,5.8854916E-6,7.796134E-6,9.582924E-6,3.0147305E-5,3.8289112E-5, 14:49:44.624
79180.539063, 83751.289063, 158106.000000, 126826.164063, 143607.265625, 99486.921875, 124459.601563, 144611.328125, 0.000, 0.000, 0.000,5.8854916E-6,7.796134E-6,9.582924E-6,3.0147305E-5,3.8289112E-5, 14:49:44.625
79143.703125, 83717.156250, 158083.531250, 126904.640625, 143592.656250, 99634.171875, 124489.132813, 144655.093750, 0.000, 0.000, 0.000,5.8854916E-6,7.796134E-6,9.582924E-6,3.0147305E-5,3.8289112E-5, 14:49:44.626
79078.390625, 83654.710938, 158021.375000, 126934.140625, 143531.078125, 99683.632813, 124459.070313, 144631.062500, 0.000, 0.000, 0.000,5.8854916E-6,7.796134E-6,9.582924E-6,3.0147305E-5,3.8289112E-5, 14:49:44.626
79124.304688, 83691.093750, 158045.406250, 126862.710938, 143544.000000, 99550.289063, 124431.820313, 144591.656250, 0.000, 0.000, 0.000,5.8854916E-6,7.796134E-6,9.582924E-6,3.0147305E-5,3.8289112E-5, 14:49:44.626
79202.218750, 83764.390625, 158125.218750, 126826.562500, 143616.859375, 99480.390625, 124463.804688, 144613.328125, 0.160, 0.246, 0.958,5.8854916E-6,7.796134E-6,9.582924E-6,3.0147305E-5,3.8289112E-5, 14:49:44.627
79157.515625, 83724.218750, 158103.531250, 126887.875000, 143605.187500, 99605.492188, 124492.554688, 144649.578125, 0.000, 0.000, 0.000,5.8854916E-6,7.796134E-6,9.582924E-6,3.0147305E-5,3.8289112E-5, 14:49:44.627
79087.015625, 83652.476563, 158033.890625, 126936.554688, 143546.453125, 99689.718750, 124475.539063, 144641.937500, 0.000, 0.000, 0.000,5.8854916E-6,7.796134E-6,9.582924E-6,3.0147305E-5,3.8289112E-5, 14:49:44.628
79104.046875, 83668.054688, 158035.750000, 126876.476563, 143545.921875, 99577.398438, 124444.765625, 144601.296875, 0.000, 0.000, 0.000,5.8854916E-6,7.796134E-6,9.582924E-6,3.0147305E-5,3.8289112E-5, 14:49:44.628
79177.859375, 83737.898438, 158102.406250, 126817.804688, 143602.468750, 99471.156250, 124452.226563, 144601.953125, 0.000, 0.000, 0.000,5.8854916E-6,7.796134E-6,9.582924E-6,3.0147305E-5,3.8289112E-5, 14:49:44.628
79163.882813, 83723.976563, 158105.484375, 126870.664063, 143613.000000, 99580.054688, 124488.351563, 144643.906250, 0.000, 0.000, 0.000,5.8854916E-6,7.796134E-6,9.582924E-6,3.0147305E-5,3.8289112E-5, 14:49:44.628
79094.460938, 83657.054688, 158038.250000, 126935.750000, 143547.484375, 99691.750000, 124475.500000, 144639.468750, 0.000, 0.000, 0.000,5.8854916E-6,7.796134E-6,9.582924E-6,3.0147305E-5,3.8289112E-5, 14:49:44.629
79090.304688, 83650.976563, 158025.734375, 126892.773438, 143527.921875, 99607.640625, 124439.000000, 144599.281250, 0.000, 0.000, 0.000,5.8854916E-6,7.796134E-6,9.582924E-6,3.0147305E-5,3.8289112E-5, 14:49:44.629
79162.898438, 83723.578125, 158101.015625, 126824.171875, 143596.875000, 99484.015625, 124450.195313, 144599.781250, 0.000, 0.000, 0.000,5.8854916E-6,7.796134E-6,9.582924E-6,3.0147305E-5,3.8289112E-5, 14:49:44.629
79178.593750, 83749.460938, 158128.109375, 126860.585938, 143626.000000, 99555.382813, 124491.007813, 144642.265625, 0.162, 0.240, 0.954,5.8854916E-6,7.796134E-6,9.582924E-6,3.0147305E-5,3.8289112E-5, 14:49:44.629
79108.875000, 83685.015625, 158057.625000, 126932.179688, 143563.937500, 99680.078125, 124483.609375, 144642.312500, 0.000, 0.000, 0.000,5.8854916E-6,7.796134E-6,9.582924E-6,3.0147305E-5,3.8289112E-5, 14:49:44.630
79081.070313, 83658.125000, 158021.671875, 126903.140625, 143528.171875, 99626.101563, 124443.710938, 144604.062500, 0.000, 0.000, 0.000,5.8854916E-6,7.796134E-6,9.582924E-6,3.0147305E-5,3.8289112E-5, 14:49:44.630
79123.070313, 83702.070313, 158059.781250, 126814.539063, 143556.578125, 99480.148438, 124422.546875, 144574.140625, 0.000, 0.000, 0.000,5.8854916E-6,7.796134E-6,9.582924E-6,3.0147305E-5,3.8289112E-5, 14:49:44.630
79140.640625, 83723.304688, 158089.687500, 126822.476563, 143590.109375, 99508.375000, 124453.078125, 144605.984375, 0.000, 0.000, 0.000,5.8854916E-6,7.796134E-6,9.582924E-6,3.0147305E-5,3.8289112E-5, 14:49:44.631
79079.375000, 83670.335938, 158046.656250, 126906.515625, 143558.859375, 99659.984375, 124474.828125, 144639.718750, 0.000, 0.000, 0.000,5.8854916E-6,7.796134E-6,9.582924E-6,3.0147305E-5,3.8289112E-5, 14:49:44.631
79041.132813, 83631.257813, 158006.687500, 126901.960938, 143518.828125, 99644.429688, 124443.289063, 144609.750000, 0.000, 0.000, 0.000,5.8854916E-6,7.796134E-6,9.582924E-6,3.0147305E-5,3.8289112E-5, 14:49:44.632
79095.132813, 83682.289063, 158056.718750, 126824.531250, 143561.703125, 99502.187500, 124433.343750, 144585.156250, 0.000, 0.000, 0.000,5.8854916E-6,7.796134E-6,9.582924E-6,3.0147305E-5,3.8289112E-5, 14:49:44.633
79128.812500, 83717.960938, 158100.296875, 126816.460938, 143604.234375, 99495.101563, 124460.898438, 144611.375000, 0.000, 0.000, 0.000,5.8854916E-6,7.796134E-6,9.582924E-6,3.0147305E-5,3.8289112E-5, 14:49:44.633
79071.929688, 83664.320313, 158057.156250, 126896.906250, 143570.968750, 99643.515625, 124477.867188, 144639.718750, 0.000, 0.000, 0.000,5.8854916E-6,7.796134E-6,9.582924E-6,3.0147305E-5,3.8289112E-5, 14:49:44.634
79014.375000, 83606.875000, 157994.187500, 126909.710938, 143506.640625, 99659.695313, 124435.554688, 144606.781250, 0.162, 0.246, 0.944,5.8854916E-6,7.796134E-6,9.582924E-6,3.0147305E-5,3.8289112E-5, 14:49:44.634
79067.328125, 83659.562500, 158030.046875, 126832.085938, 143530.203125, 99515.773438, 124411.992188, 144577.000000, 0.000, 0.000, 0.000,5.8854916E-6,7.796134E-6,9.582924E-6,3.0147305E-5,3.8289112E-5, 14:49:44.635
79130.203125, 83722.835938, 158096.656250, 126806.625000, 143594.031250, 99470.421875, 124445.968750, 144603.171875, 0.000, 0.000, 0.000,5.8854916E-6,7.796134E-6,9.582924E-6,3.0147305E-5,3.8289112E-5, 14:49:44.635
79069.921875, 83666.000000, 158057.500000, 126875.468750, 143566.562500, 99606.390625, 124467.898438, 144631.359375, 0.000, 0.000, 0.000,5.8854916E-6,7.796134E-6,9.582924E-6,3.0147305E-5,3.8289112E-5, 14:49:44.635
79011.960938, 83608.101563, 157995.453125, 126912.328125, 143511.687500, 99668.976563, 124451.468750, 144617.250000, 0.000, 0.000, 0.000,5.8854916E-6,7.796134E-6,9.582924E-6,3.0147305E-5,3.8289112E-5, 14:49:44.636
79049.335938, 83643.445313, 158015.765625, 126849.695313, 143530.015625, 99546.281250, 124433.031250, 144586.390625, 0.000, 0.000, 0.000,5.8854916E-6,7.796134E-6,9.582924E-6,3.0147305E-5,3.8289112E-5, 14:49:44.637
79116.164063, 83708.132813, 158080.609375, 126802.359375, 143585.015625, 99459.875000, 124443.492188, 144593.703125, 0.000, 0.000, 0.000,5.8854916E-6,7.796134E-6,9.582924E-6,3.0147305E-5,3.8289112E-5, 14:49:44.638
79091.445313, 83684.656250, 158074.343750, 126867.289063, 143585.453125, 99586.273438, 124478.109375, 144637.531250, 0.000, 0.000, 0.000,5.8854916E-6,7.796134E-6,9.582924E-6,3.0147305E-5,3.8289112E-5, 14:49:44.639
79020.835938, 83615.976563, 158009.546875, 126922.789063, 143527.046875, 99677.984375, 124462.421875, 144629.500000, 0.000, 0.000, 0.000,0.0,0.0,0.0,0.0,0.0, 14:49:45.052
79046.117188, 83639.710938, 158019.046875, 126872.695313, 143529.906250, 99578.109375, 124438.796875, 144597.921875, 0.166, 0.250, 0.948,0.0,0.0,0.0,0.0,0.0, 14:49:45.053
79113.929688, 83708.375000, 158082.281250, 126805.484375, 143584.406250, 99466.531250, 124442.929688, 144595.531250, 0.000, 0.000, 0.000,0.0,0.0,0.0,0.0,0.0, 14:49:45.054
79097.921875, 83692.687500, 158082.937500, 126849.523438, 143594.515625, 99561.882813, 124473.976563, 144635.187500, 0.000, 0.000, 0.000,0.0,0.0,0.0,0.0,0.0, 14:49:45.054
79029.773438, 83623.257813, 158019.359375, 126918.250000, 143538.343750, 99680.773438, 124469.281250, 144641.125000, 0.000, 0.000, 0.000,0.0,0.0,0.0,0.0,0.0, 14:49:45.056
79026.515625, 83622.164063, 158004.515625, 126880.945313, 143519.890625, 99604.781250, 124438.054688, 144601.796875, 0.000, 0.000, 0.000,0.0,0.0,0.0,0.0,0.0, 14:49:45.058
79100.273438, 83695.656250, 158072.171875, 126809.710938, 143581.765625, 99474.960938, 124445.570313, 144593.562500, 0.000, 0.000, 0.000,0.0,0.0,0.0,0.0,0.0, 14:49:45.059
79112.296875, 83705.359375, 158100.000000, 126839.085938, 143619.203125, 99543.804688, 124490.515625, 144638.250000, 0.000, 0.000, 0.000,0.0,0.0,0.0,0.0,0.0, 14:49:45.060
79035.007813, 83632.421875, 158035.406250, 126910.609375, 143558.593750, 99676.015625, 124485.687500, 144647.000000, 0.000, 0.000, 0.000,0.0,0.0,0.0,0.0,0.0, 14:49:45.061
79005.164063, 83603.296875, 157996.812500, 126890.421875, 143518.015625, 99628.359375, 124446.101563, 144607.640625, 0.000, 0.000, 0.000,0.0,0.0,0.0,0.0,0.0, 14:49:45.061
79072.671875, 83668.429688, 158050.656250, 126807.367188, 143560.843750, 99480.773438, 124434.820313, 144585.421875, 0.000, 0.000, 0.000,0.0,0.0,0.0,0.0,0.0, 14:49:45.062
79121.460938, 83718.921875, 158109.468750, 126827.015625, 143619.234375, 99516.914063, 124483.968750, 144633.265625, 0.162, 0.258, 0.952,0.0,0.0,0.0,0.0,0.0, 14:49:45.062
79055.257813, 83653.257813, 158054.281250, 126906.875000, 143572.140625, 99665.710938, 124491.812500, 144652.593750, 0.000, 0.000, 0.000,0.0,0.0,0.0,0.0,0.0, 14:49:45.063
79009.812500, 83605.937500, 157996.859375, 126899.429688, 143516.437500, 99654.218750, 124452.406250, 144613.718750, 0.000, 0.000, 0.000,0.0,0.0,0.0,0.0,0.0, 14:49:45.064
79065.093750, 83658.125000, 158040.484375, 126817.468750, 143553.312500, 99509.382813, 124436.757813, 144592.062500, 0.000, 0.000, 0.000,0.0,0.0,0.0,0.0,0.0, 14:49:45.068
79111.671875, 83705.578125, 158091.890625, 126803.093750, 143602.750000, 99492.687500, 124462.218750, 144624.250000, 0.000, 0.000, 0.000,0.0,0.0,0.0,0.0,0.0, 14:49:45.068
79060.421875, 83654.843750, 158055.921875, 126882.828125, 143580.265625, 99645.148438, 124486.625000, 144662.031250, 0.000, 0.000, 0.000,0.0,0.0,0.0,0.0,0.0, 14:49:45.068
78998.484375, 83591.320313, 157991.281250, 126903.476563, 143519.468750, 99675.140625, 124453.617188, 144631.390625, 0.000, 0.000, 0.000,0.0,0.0,0.0,0.0,0.0, 14:49:45.068
79036.328125, 83629.585938, 158011.937500, 126821.734375, 143532.171875, 99528.132813, 124421.335938, 144587.484375, 0.000, 0.000, 0.000,0.0,0.0,0.0,0.0,0.0, 14:49:45.069
79097.281250, 83691.093750, 158078.609375, 126789.015625, 143594.343750, 99474.601563, 124447.851563, 144607.796875, 0.000, 0.000, 0.000,0.0,0.0,0.0,0.0,0.0, 14:49:45.069
79058.585938, 83659.335938, 158062.515625, 126862.882813, 143584.031250, 99609.453125, 124479.187500, 144646.562500, 0.160, 0.260, 0.954,0.0,0.0,0.0,0.0,0.0, 14:49:45.069
79007.539063, 83607.882813, 158010.843750, 126909.890625, 143536.765625, 99682.476563, 124471.023438, 144641.312500, 0.000, 0.000, 0.000,0.0,0.0,0.0,0.0,0.0, 14:49:45.070
79046.468750, 83641.117188, 158029.109375, 126851.265625, 143550.656250, 99563.406250, 124450.890625, 144608.453125, 0.000, 0.000, 0.000,0.0,0.0,0.0,0.0,0.0, 14:49:45.070
79118.023438, 83710.070313, 158099.453125, 126801.484375, 143611.984375, 99471.562500, 124461.484375, 144615.937500, 0.000, 0.000, 0.000,0.0,0.0,0.0,0.0,0.0, 14:49:45.070
79093.031250, 83690.828125, 158095.984375, 126863.648438, 143613.625000, 99592.929688, 124494.320313, 144659.531250, 0.000, 0.000, 0.000,0.0,0.0,0.0,0.0,0.0, 14:49:45.070
79020.093750, 83616.914063, 158030.671875, 126919.835938, 143554.156250, 99691.570313, 124483.140625, 144652.125000, 0.000, 0.000, 0.000,0.0,0.0,0.0,0.0,0.0, 14:49:45.071
79024.078125, 83613.914063, 158019.156250, 126866.554688, 143537.000000, 99586.070313, 124444.742188, 144603.312500, 0.000, 0.000, 0.000,0.0,0.0,0.0,0.0,0.0, 14:49:45.071
79092.296875, 83685.640625, 158077.093750, 126798.132813, 143583.062500, 99459.515625, 124439.085938, 144591.703125, 0.000, 0.000, 0.000,0.0,0.0,0.0,0.0,0.0, 14:49:45.072
79098.437500, 83692.351563, 158097.546875, 126848.179688, 143611.421875, 99551.648438, 124480.523438, 144638.484375, 0.000, 0.000, 0.000,0.0,0.0,0.0,0.0,0.0, 14:49:45.072
79031.429688, 83627.531250, 158038.968750, 126919.031250, 143556.171875, 99681.937500, 124479.070313, 144647.953125, 0.000, 0.000, 0.000,0.0,0.0,0.0,0.0,0.0, 14:49:45.073
79023.945313, 83623.773438, 158019.468750, 126888.078125, 143530.765625, 99619.148438, 124446.218750, 144611.578125, 0.156, 0.256, 0.954,0.0,0.0,0.0,0.0,0.0, 14:49:45.074
79084.695313, 83686.109375, 158071.687500, 126804.664063, 143574.609375, 99475.851563, 124433.093750, 144590.765625, 0.000, 0.000, 0.000,0.0,0.0,0.0,0.0,0.0, 14:49:45.074
79107.109375, 83702.343750, 158104.140625, 126831.195313, 143610.312500, 99531.398438, 124473.218750, 144632.593750, 0.000, 0.000, 0.000,0.0,0.0,0.0,0.0,0.0, 14:49:45.075
79049.445313, 83639.195313, 158058.359375, 126917.109375, 143569.140625, 99677.421875, 124487.164063, 144658.546875, 0.000, 0.000, 0.000,0.0,0.0,0.0,0.0,0.0, 14:49:45.075
79008.515625, 83599.414063, 158011.187500, 126899.093750, 143523.609375, 99638.507813, 124445.609375, 144614.328125, 0.000, 0.000, 0.000,0.0,0.0,0.0,0.0,0.0, 14:49:45.076
79066.210938, 83661.171875, 158056.015625, 126815.414063, 143559.390625, 99485.734375, 124430.257813, 144583.687500, 0.000, 0.000, 0.000,0.0,0.0,0.0,0.0,0.0, 14:49:45.076
79117.484375, 83714.656250, 158114.093750, 126827.148438, 143615.578125, 99505.601563, 124472.296875, 144629.890625, 0.000, 0.000, 0.000,0.0,0.0,0.0,0.0,0.0, 14:49:45.077
79050.742188, 83645.609375, 158062.046875, 126908.710938, 143571.484375, 99654.734375, 124481.304688, 144652.421875, 0.000, 0.000, 0.000,0.0,0.0,0.0,0.0,0.0, 14:49:45.077
79011.875000, 83605.625000, 158016.687500, 126918.273438, 143526.625000, 99657.484375, 124456.523438, 144626.578125, 0.000, 0.000, 0.000,0.0,0.0,0.0,0.0,0.0, 14:49:45.078
79061.671875, 83653.500000, 158055.343750, 126837.312500, 143557.343750, 99506.562500, 124436.718750, 144593.343750, 0.000, 0.000, 0.000,0.0,0.0,0.0,0.0,0.0, 14:49:45.081
79111.335938, 83702.515625, 158111.718750, 126816.664063, 143610.828125, 99483.382813, 124464.656250, 144618.859375, 0.152, 0.254, 0.958,0.0,0.0,0.0,0.0,0.0, 14:49:45.082
79069.382813, 83667.046875, 158084.093750, 126894.734375, 143589.796875, 99633.164063, 124492.796875, 144658.859375, 0.000, 0.000, 0.000,0.0,0.0,0.0,0.0,0.0, 14:49:45.082
79011.578125, 83606.671875, 158027.312500, 126924.648438, 143540.531250, 99678.718750, 124474.937500, 144641.578125, 0.000, 0.000, 0.000,0.0,0.0,0.0,0.0,0.0, 14:49:45.083
79057.554688, 83652.093750, 158055.343750, 126853.882813, 143559.656250, 99543.312500, 124451.289063, 144608.671875, 0.000, 0.000, 0.000,0.0,0.0,0.0,0.0,0.0, 14:49:45.083
79119.960938, 83715.820313, 158119.156250, 126815.343750, 143616.703125, 99476.414063, 124469.375000, 144621.281250, 0.000, 0.000, 0.000,0.0,0.0,0.0,0.0,0.0, 14:49:45.083
79079.281250, 83676.367188, 158094.906250, 126882.531250, 143601.906250, 99610.257813, 124493.710938, 144654.046875, 0.000, 0.000, 0.000,0.0,0.0,0.0,0.0,0.0, 14:49:45.084
79005.101563, 83604.593750, 158021.375000, 126920.421875, 143536.796875, 99680.750000, 124470.468750, 144637.156250, 0.000, 0.000, 0.000,0.0,0.0,0.0,0.0,0.0, 14:49:45.084
79033.085938, 83629.765625, 158026.734375, 126854.703125, 143538.359375, 99567.320313, 124439.914063, 144601.750000, 0.000, 0.000, 0.000,0.0,0.0,0.0,0.0,0.0, 14:49:45.085
79102.281250, 83695.968750, 158089.687500, 126798.398438, 143595.921875, 99468.031250, 124451.492188, 144606.375000, 0.000, 0.000, 0.000,0.0,0.0,0.0,0.0,0.0, 14:49:45.085
79093.765625, 83685.195313, 158097.062500, 126861.257813, 143608.484375, 99585.554688, 124492.710938, 144654.859375, 0.150, 0.248, 0.952,0.0,0.0,0.0,0.0,0.0, 14:49:45.086
79019.742188, 83615.703125, 158032.234375, 126923.414063, 143549.531250, 99690.656250, 124484.617188, 144652.390625, 0.000, 0.000, 0.000,0.0,0.0,0.0,0.0,0.0, 14:49:45.086
79018.578125, 83615.101563, 158016.843750, 126874.242188, 143528.406250, 99594.046875, 124442.906250, 144608.390625, 0.000, 0.000, 0.000,0.0,0.0,0.0,0.0,0.0, 14:49:45.088
79088.921875, 83685.687500, 158078.765625, 126799.921875, 143578.546875, 99464.562500, 124437.429688, 144596.640625, 0.000, 0.000, 0.000,0.0,0.0,0.0,0.0,0.0, 14:49:45.089
79096.382813, 83696.726563, 158101.546875, 126842.703125, 143606.796875, 99549.679688, 124480.929688, 144642.875000, 0.000, 0.000, 0.000,0.0,0.0,0.0,0.0,0.0, 14:49:45.089
79022.804688, 83621.156250, 158034.218750, 126913.468750, 143548.703125, 99678.296875, 124477.062500, 144648.328125, 0.000, 0.000, 0.000,0.0,0.0,0.0,0.0,0.0, 14:49:45.090
79020.835938, 83612.843750, 158008.281250, 126882.804688, 143521.640625, 99616.312500, 124446.218750, 144610.062500, 0.000, 0.000, 0.000,0.0,0.0,0.0,0.0,0.0, 14:49:45.090
79103.335938, 83689.820313, 158071.515625, 126810.429688, 143577.703125, 99480.101563, 124443.265625, 144597.875000, 0.000, 0.000, 0.000,0.0,0.0,0.0,0.0,0.0, 14:49:45.091
79123.320313, 83712.554688, 158103.859375, 126833.960938, 143610.468750, 99531.171875, 124476.570313, 144637.625000, 0.000, 0.000, 0.000,0.0,0.0,0.0,0.0,0.0, 14:49:45.091
79050.335938, 83643.554688, 158049.062500, 126914.695313, 143560.468750, 99673.109375, 124479.812500, 144655.656250, 0.000, 0.000, 0.000,0.0,0.0,0.0,0.0,0.0, 14:49:45.092
79015.914063, 83607.523438, 158011.000000, 126903.500000, 143519.578125, 99642.710938, 124442.460938, 144617.562500, 0.158, 0.248, 0.950,0.0,0.0,0.0,0.0,0.0, 14:49:45.093
79071.546875, 83662.953125, 158054.640625, 126818.007813, 143557.359375, 99494.648438, 124428.890625, 144586.718750, 0.000, 0.000, 0.000,0.0,0.0,0.0,0.0,0.0, 14:49:45.094
79111.117188, 83705.648438, 158101.500000, 126813.421875, 143604.968750, 99495.500000, 124462.710938, 144615.312500, 0.000, 0.000, 0.000,0.0,0.0,0.0,0.0,0.0, 14:49:45.094
79053.578125, 83650.593750, 158056.531250, 126892.390625, 143568.921875, 99640.406250, 124476.593750, 144642.984375, 0.000, 0.000, 0.000,0.0,0.0,0.0,0.0,0.0, 14:49:45.094
79013.750000, 83608.437500, 158004.390625, 126909.421875, 143519.546875, 99657.796875, 124448.671875, 144616.250000, 0.000, 0.000, 0.000,0.0,0.0,0.0,0.0,0.0, 14:49:45.095
79063.703125, 83653.679688, 158035.875000, 126828.304688, 143543.687500, 99512.937500, 124430.187500, 144584.531250, 0.000, 0.000, 0.000,0.0,0.0,0.0,0.0,0.0, 14:49:45.096
79115.335938, 83706.632813, 158093.687500, 126801.507813, 143599.203125, 99472.007813, 124453.968750, 144606.265625, 0.000, 0.000, 0.000,0.0,0.0,0.0,0.0,0.0, 14:49:45.096
79076.757813, 83670.828125, 158076.625000, 126882.000000, 143587.093750, 99618.234375, 124482.250000, 144650.843750, 0.000, 0.000, 0.000,0.0,0.0,0.0,0.0,0.0, 14:49:45.099
79015.960938, 83613.000000, 158017.968750, 126919.906250, 143530.734375, 99677.289063, 124461.257813, 144639.562500, 0.000, 0.000, 0.000,0.0,0.0,0.0,0.0,0.0, 14:49:45.101
79056.015625, 83650.148438, 158035.593750, 126850.484375, 143543.546875, 99545.929688, 124434.679688, 144603.312500, 0.156, 0.254, 0.952,0.0,0.0,0.0,0.0,0.0, 14:49:45.102
79122.445313, 83716.867188, 158099.734375, 126808.664063, 143602.593750, 99473.664063, 124452.093750, 144615.531250, 0.000, 0.000, 0.000,0.0,0.0,0.0,0.0,0.0, 14:49:45.102
79088.335938, 83684.500000, 158084.859375, 126877.906250, 143594.343750, 99605.273438, 124482.070313, 144653.375000, 0.000, 0.000, 0.000,0.0,0.0,0.0,0.0,0.0, 14:49:45.103
79020.320313, 83617.695313, 158021.843750, 126927.687500, 143535.671875, 99687.796875, 124467.453125, 144642.937500, 0.000, 0.000, 0.000,0.0,0.0,0.0,0.0,0.0, 14:49:45.109
79045.867188, 83637.453125, 158026.250000, 126870.601563, 143535.875000, 99574.937500, 124438.304688, 144602.640625, 0.000, 0.000, 0.000,0.0,0.0,0.0,0.0,0.0, 14:49:45.110
79124.367188, 83711.171875, 158095.156250, 126805.554688, 143595.671875, 99468.078125, 124448.453125, 144605.484375, 0.000, 0.000, 0.000,0.0,0.0,0.0,0.0,0.0, 14:49:45.110
79111.875000, 83701.671875, 158101.500000, 126857.968750, 143612.765625, 99579.078125, 124492.195313, 144653.421875, 0.000, 0.000, 0.000,0.0,0.0,0.0,0.0,0.0, 14:49:45.111
79030.554688, 83626.390625, 158031.046875, 126923.414063, 143545.421875, 99686.406250, 124476.992188, 144646.265625, 0.000, 0.000, 0.000,0.0,0.0,0.0,0.0,0.0, 14:49:45.111
79033.015625, 83627.531250, 158019.468750, 126883.093750, 143524.812500, 99604.218750, 124442.929688, 144608.343750, 0.000, 0.000, 0.000,0.0,0.0,0.0,0.0,0.0, 14:49:45.111
79105.656250, 83696.078125, 158079.625000, 126808.640625, 143576.359375, 99472.835938, 124440.179688, 144597.234375, 0.000, 0.000, 0.000,0.0,0.0,0.0,0.0,0.0, 14:49:45.111
79116.765625, 83708.351563, 158107.734375, 126846.906250, 143610.531250, 99551.625000, 124481.445313, 144644.437500, 0.160, 0.254, 0.948,0.0,0.0,0.0,0.0,0.0, 14:49:45.112
79046.203125, 83637.898438, 158048.375000, 126919.390625, 143557.937500, 99685.023438, 124482.875000, 144658.265625, 0.000, 0.000, 0.000,0.0,0.0,0.0,0.0,0.0, 14:49:45.112
79017.523438, 83606.382813, 158012.546875, 126889.554688, 143520.234375, 99624.406250, 124439.000000, 144609.078125, 0.000, 0.000, 0.000,0.0,0.0,0.0,0.0,0.0, 14:49:45.113
79084.023438, 83680.007813, 158068.156250, 126811.859375, 143565.203125, 99479.093750, 124426.882813, 144591.187500, 0.000, 0.000, 0.000,0.0,0.0,0.0,0.0,0.0, 14:49:45.113
79119.851563, 83717.203125, 158111.140625, 126830.546875, 143610.015625, 99517.296875, 124469.171875, 144633.234375, 0.000, 0.000, 0.000,0.0,0.0,0.0,0.0,0.0, 14:49:45.113
79056.351563, 83653.726563, 158060.093750, 126912.460938, 143571.703125, 99660.476563, 124484.039063, 144657.625000, 0.000, 0.000, 0.000,0.0,0.0,0.0,0.0,0.0, 14:49:45.114
79021.750000, 83617.898438, 158013.890625, 126907.703125, 143518.718750, 99645.390625, 124438.078125, 144618.890625, 0.000, 0.000, 0.000,0.0,0.0,0.0,0.0,0.0, 14:49:45.116
79083.304688, 83679.382813, 158059.500000, 126826.117188, 143555.531250, 99502.851563, 124425.023438, 144596.375000, 0.000, 0.000, 0.000,0.0,0.0,0.0,0.0,0.0, 14:49:45.117
79120.453125, 83715.351563, 158105.859375, 126814.984375, 143603.187500, 99495.789063, 124458.218750, 144622.218750, 0.000, 0.000, 0.000,0.0,0.0,0.0,0.0,0.0, 14:49:45.117
79054.875000, 83652.828125, 158058.968750, 126888.476563, 143564.578125, 99638.750000, 124472.296875, 144644.031250, 0.158, 0.254, 0.952,0.0,0.0,0.0,0.0,0.0, 14:49:45.119
79010.929688, 83602.515625, 158008.437500, 126907.296875, 143518.015625, 99659.296875, 124450.304688, 144619.531250, 0.000, 0.000, 0.000,0.0,0.0,0.0,0.0,0.0, 14:49:45.120
79067.531250, 83660.585938, 158051.125000, 126838.593750, 143551.546875, 99524.226563, 124437.898438, 144595.578125, 0.000, 0.000, 0.000,0.0,0.0,0.0,0.0,0.0, 14:49:45.121
79124.234375, 83719.351563, 158114.421875, 126814.945313, 143608.078125, 99477.304688, 124458.507813, 144614.953125, 0.000, 0.000, 0.000,0.0,0.0,0.0,0.0,0.0, 14:49:45.122
79082.859375, 83677.867188, 158085.812500, 126887.851563, 143588.468750, 99617.609375, 124485.289063, 144647.984375, 0.000, 0.000, 0.000,0.0,0.0,0.0,0.0,0.0, 14:49:45.122
79021.773438, 83615.929688, 158018.265625, 126921.742188, 143527.453125, 99673.960938, 124460.500000, 144626.671875, 0.000, 0.000, 0.000,0.0,0.0,0.0,0.0,0.0, 14:49:45.123
79053.960938, 83648.851563, 158031.953125, 126850.796875, 143535.031250, 99543.132813, 124431.757813, 144588.937500, 0.000, 0.000, 0.000,0.0,0.0,0.0,0.0,0.0, 14:49:45.123
79129.578125, 83727.531250, 158106.515625, 126806.109375, 143600.750000, 99463.359375, 124455.601563, 144606.453125, 0.000, 0.000, 0.000,0.0,0.0,0.0,0.0,0.0, 14:49:45.124
79101.437500, 83701.335938, 158097.484375, 126871.085938, 143602.593750, 99588.906250, 124490.023438, 144647.281250, 0.000, 0.000, 0.000,0.0,0.0,0.0,0.0,0.0, 14:49:45.124
79034.671875, 83630.500000, 158032.765625, 126925.585938, 143548.906250, 99681.890625, 124481.421875, 144644.593750, 0.000, 0.000, 0.000,0.0,0.0,0.0,0.0,0.0, 14:49:45.125
79039.992188, 83629.226563, 158028.421875, 126871.382813, 143537.843750, 99578.109375, 124440.875000, 144605.390625, 0.166, 0.250, 0.958,0.0,0.0,0.0,0.0,0.0, 14:49:45.125
79098.507813, 83691.945313, 158083.843750, 126804.210938, 143585.718750, 99457.679688, 124437.835938, 144593.234375, 0.000, 0.000, 0.000,0.0,0.0,0.0,0.0,0.0, 14:49:45.125
79099.601563, 83695.343750, 158097.390625, 126852.515625, 143603.984375, 99556.164063, 124477.507813, 144641.203125, 0.000, 0.000, 0.000,0.0,0.0,0.0,0.0,0.0, 14:49:45.126
79034.671875, 83634.523438, 158039.593750, 126919.656250, 143553.890625, 99677.289063, 124477.578125, 144650.140625, 0.000, 0.000, 0.000,0.0,0.0,0.0,0.0,0.0, 14:49:45.126
79024.210938, 83627.507813, 158018.406250, 126880.164063, 143531.046875, 99599.500000, 124442.703125, 144610.781250, 0.000, 0.000, 0.000,0.0,0.0,0.0,0.0,0.0, 14:49:45.126
79092.781250, 83695.968750, 158076.468750, 126804.929688, 143580.500000, 99464.367188, 124439.039063, 144598.421875, 0.000, 0.000, 0.000,0.0,0.0,0.0,0.0,0.0, 14:49:45.127
79109.593750, 83710.320313, 158101.296875, 126836.507813, 143609.421875, 99533.789063, 124477.734375, 144642.296875, 0.000, 0.000, 0.000,0.0,0.0,0.0,0.0,0.0, 14:49:45.127
79040.617188, 83642.328125, 158041.843750, 126912.953125, 143560.312500, 99668.148438, 124485.171875, 144658.031250, 0.000, 0.000, 0.000,0.0,0.0,0.0,0.0,0.0, 14:49:45.127
79019.585938, 83620.554688, 158014.687500, 126895.164063, 143528.531250, 99622.976563, 124452.406250, 144621.812500, 0.000, 0.000, 0.000,0.0,0.0,0.0,0.0,0.0, 14:49:45.128
79085.382813, 83688.257813, 158069.234375, 126814.984375, 143569.359375, 99481.195313, 124438.304688, 144597.046875, 0.000, 0.000, 0.000,0.0,0.0,0.0,0.0,0.0, 14:49:45.129
79116.546875, 83724.132813, 158111.734375, 126826.273438, 143613.281250, 99510.562500, 124473.218750, 144634.125000, 0.162, 0.254, 0.956,0.0,0.0,0.0,0.0,0.0, 14:49:45.129
79055.007813, 83663.093750, 158063.328125, 126907.609375, 143571.859375, 99654.890625, 124479.921875, 144655.828125, 0.000, 0.000, 0.000,0.0,0.0,0.0,0.0,0.0, 14:49:45.130
79017.523438, 83623.703125, 158022.171875, 126911.390625, 143531.250000, 99648.789063, 124453.078125, 144628.125000, 0.000, 0.000, 0.000,0.0,0.0,0.0,0.0,0.0, 14:49:45.130
79070.296875, 83672.921875, 158064.765625, 126833.296875, 143565.562500, 99504.421875, 124438.328125, 144600.265625, 0.000, 0.000, 0.000,0.0,0.0,0.0,0.0,0.0, 14:49:45.131
79111.468750, 83719.351563, 158115.984375, 126817.781250, 143612.296875, 99484.726563, 124465.867188, 144624.046875, 0.000, 0.000, 0.000,0.0,0.0,0.0,0.0,0.0, 14:49:45.131
79064.062500, 83670.937500, 158081.984375, 126895.968750, 143586.750000, 99635.335938, 124489.109375, 144657.781250, 0.000, 0.000, 0.000,0.0,0.0,0.0,0.0,0.0, 14:49:45.131
79005.390625, 83614.250000, 158020.250000, 126915.523438, 143524.140625, 99667.187500, 124456.500000, 144629.265625, 0.000, 0.000, 0.000,0.0,0.0,0.0,0.0,0.0, 14:49:45.132
79049.375000, 83657.500000, 158047.078125, 126833.765625, 143541.250000, 99521.179688, 124426.750000, 144591.437500, 0.000, 0.000, 0.000,0.0,0.0,0.0,0.0,0.0, 14:49:45.132
79125.820313, 83731.734375, 158125.843750, 126809.265625, 143615.468750, 99474.851563, 124465.507813, 144623.000000, 0.000, 0.000, 0.000,0.0,0.0,0.0,0.0,0.0, 14:49:45.132
79087.085938, 83692.859375, 158104.359375, 126887.296875, 143605.125000, 99615.437500, 124496.437500, 144661.484375, 0.162, 0.254, 0.952,0.0,0.0,0.0,0.0,0.0, 14:49:45.133
79021.593750, 83624.398438, 158035.906250, 126927.843750, 143545.625000, 99684.437500, 124479.164063, 144646.093750, 0.000, 0.000, 0.000,0.0,0.0,0.0,0.0,0.0, 14:49:45.133
79045.132813, 83645.343750, 158042.578125, 126859.828125, 143547.562500, 99560.921875, 124447.734375, 144606.453125, 0.000, 0.000, 0.000,0.0,0.0,0.0,0.0,0.0, 14:49:45.134
79121.867188, 83720.218750, 158113.468750, 126809.289063, 143613.578125, 99469.507813, 124463.468750, 144616.812500, 0.000, 0.000, 0.000,0.0,0.0,0.0,0.0,0.0, 14:49:45.135
79095.156250, 83696.195313, 158109.937500, 126875.156250, 143617.078125, 99592.304688, 124498.343750, 144658.921875, 0.000, 0.000, 0.000,0.0,0.0,0.0,0.0,0.0, 14:49:45.531
79027.296875, 83637.585938, 158050.812500, 126942.640625, 143565.000000, 99693.000000, 124495.773438, 144658.656250, 0.000, 0.000, 0.000,0.0,0.0,0.0,0.0,0.0, 14:49:45.532
79037.328125, 83643.171875, 158041.718750, 126887.968750, 143544.109375, 99590.718750, 124452.992188, 144615.015625, 0.000, 0.000, 0.000,0.0,0.0,0.0,0.0,0.0, 14:49:45.532
79114.195313, 83715.015625, 158105.812500, 126817.421875, 143595.375000, 99468.679688, 124453.703125, 144607.218750, 0.000, 0.000, 0.000,0.0,0.0,0.0,0.0,0.0, 14:49:45.532
79120.007813, 83721.515625, 158126.968750, 126865.835938, 143624.921875, 99564.968750, 124498.359375, 144654.875000, 0.000, 0.000, 0.000,0.0,0.0,0.0,0.0,0.0, 14:49:45.533
79049.445313, 83654.593750, 158062.843750, 126939.507813, 143568.140625, 99689.445313, 124495.835938, 144659.390625, 0.000, 0.000, 0.000,0.0,0.0,0.0,0.0,0.0, 14:49:45.533
79048.570313, 83654.953125, 158044.578125, 126908.257813, 143542.609375, 99619.218750, 124461.906250, 144621.125000, 0.156, 0.244, 0.950,0.0,0.0,0.0,0.0,0.0, 14:49:45.534
79112.789063, 83718.500000, 158097.796875, 126827.992188, 143587.203125, 99483.546875, 124454.218750, 144606.437500, 0.000, 0.000, 0.000,0.0,0.0,0.0,0.0,0.0, 14:49:45.534
79136.546875, 83744.250000, 158128.500000, 126852.468750, 143619.562500, 99537.656250, 124490.273438, 144646.734375, 0.000, 0.000, 0.000,0.0,0.0,0.0,0.0,0.0, 14:49:45.534
79060.507813, 83670.757813, 158065.156250, 126929.335938, 143566.406250, 99676.617188, 124492.039063, 144661.625000, 0.000, 0.000, 0.000,0.0,0.0,0.0,0.0,0.0, 14:49:45.535
79024.164063, 83634.500000, 158018.875000, 126909.531250, 143519.718750, 99635.109375, 124449.750000, 144619.109375, 0.000, 0.000, 0.000,0.0,0.0,0.0,0.0,0.0, 14:49:45.535
79090.953125, 83697.781250, 158072.296875, 126827.054688, 143569.578125, 99488.437500, 124441.523438, 144598.609375, 0.000, 0.000, 0.000,0.0,0.0,0.0,0.0,0.0, 14:49:45.536
79113.906250, 83720.265625, 158109.328125, 126826.164063, 143607.359375, 99501.914063, 124469.039063, 144626.687500, 0.000, 0.000, 0.000,0.0,0.0,0.0,0.0,0.0, 14:49:45.536
79061.601563, 83666.015625, 158069.156250, 126904.101563, 143576.781250, 99647.468750, 124489.554688, 144657.671875, 0.000, 0.000, 0.000,0.0,0.0,0.0,0.0,0.0, 14:49:45.537
79030.648438, 83629.656250, 158031.765625, 126915.546875, 143540.156250, 99659.093750, 124473.304688, 144639.453125, 0.000, 0.000, 0.000,0.0,0.0,0.0,0.0,0.0, 14:49:45.537
79075.687500, 83674.804688, 158061.968750, 126831.351563, 143561.156250, 99511.546875, 124445.992188, 144600.562500, 0.158, 0.236, 0.948,0.0,0.0,0.0,0.0,0.0, 14:49:45.538
79123.320313, 83726.796875, 158112.031250, 126807.406250, 143607.609375, 99478.671875, 124466.265625, 144619.718750, 0.000, 0.000, 0.000,0.0,0.0,0.0,0.0,0.0, 14:49:45.538
79080.109375, 83689.085938, 158086.796875, 126891.187500, 143591.984375, 99629.117188, 124494.921875, 144659.953125, 0.000, 0.000, 0.000,0.0,0.0,0.0,0.0,0.0, 14:49:45.539
79020.609375, 83631.867188, 158025.359375, 126921.179688, 143534.718750, 99668.593750, 124467.359375, 144635.703125, 0.000, 0.000, 0.000,0.0,0.0,0.0,0.0,0.0, 14:49:45.539
79067.773438, 83674.625000, 158055.656250, 126850.101563, 143553.453125, 99532.515625, 124444.984375, 144602.968750, 0.000, 0.000, 0.000,0.0,0.0,0.0,0.0,0.0, 14:49:45.540
79127.164063, 83732.421875, 158118.468750, 126812.078125, 143609.015625, 99468.390625, 124464.054688, 144618.000000, 0.000, 0.000, 0.000,0.0,0.0,0.0,0.0,0.0, 14:49:45.540
79091.398438, 83695.453125, 158094.468750, 126882.492188, 143593.640625, 99599.234375, 124487.343750, 144649.890625, 0.000, 0.000, 0.000,0.0,0.0,0.0,0.0,0.0, 14:49:45.540
79031.539063, 83638.414063, 158033.750000, 126930.007813, 143535.812500, 99671.031250, 124468.546875, 144635.390625, 0.000, 0.000, 0.000,0.0,0.0,0.0,0.0,0.0, 14:49:45.541
79061.359375, 83666.351563, 158046.140625, 126866.906250, 143541.921875, 99557.843750, 124442.375000, 144602.078125, 0.000, 0.000, 0.000,0.0,0.0,0.0,0.0,0.0, 14:49:45.541
79140.796875, 83742.304688, 158120.187500, 126817.132813, 143606.687500, 99464.945313, 124459.671875, 144610.578125, 0.000, 0.000, 0.000,0.0,0.0,0.0,0.0,0.0, 14:49:45.542
79127.718750, 83727.867188, 158124.437500, 126875.515625, 143616.453125, 99582.093750, 124495.546875, 144652.968750, 0.156, 0.236, 0.944,0.0,0.0,0.0,0.0,0.0, 14:49:45.542
79053.781250, 83654.796875, 158056.531250, 126934.632813, 143556.578125, 99681.578125, 124484.281250, 144643.812500, 0.000, 0.000, 0.000,0.0,0.0,0.0,0.0,0.0, 14:49:45.542
79064.195313, 83665.367188, 158051.734375, 126892.390625, 143548.375000, 99592.281250, 124458.796875, 144609.187500, 0.000, 0.000, 0.000,0.0,0.0,0.0,0.0,0.0, 14:49:45.543
79143.656250, 83746.101563, 158122.406250, 126827.187500, 143608.921875, 99473.101563, 124466.312500, 144610.703125, 0.000, 0.000, 0.000,0.0,0.0,0.0,0.0,0.0, 14:49:45.543
79137.218750, 83742.218750, 158132.187500, 126864.179688, 143625.625000, 99552.859375, 124496.734375, 144648.953125, 0.000, 0.000, 0.000,0.0,0.0,0.0,0.0,0.0, 14:49:45.543
79062.835938, 83668.414063, 158067.421875, 126934.929688, 143572.171875, 99678.671875, 124497.804688, 144658.515625, 0.000, 0.000, 0.000,0.0,0.0,0.0,0.0,0.0, 14:49:45.544
79044.531250, 83648.406250, 158034.218750, 126902.453125, 143535.250000, 99617.296875, 124456.320313, 144617.171875, 0.000, 0.000, 0.000,0.0,0.0,0.0,0.0,0.0, 14:49:45.544
79120.523438, 83728.023438, 158095.250000, 126825.898438, 143583.531250, 99482.156250, 124447.601563, 144602.687500, 0.000, 0.000, 0.000,0.0,0.0,0.0,0.0,0.0, 14:49:45.545
79144.953125, 83755.875000, 158129.046875, 126844.539063, 143621.578125, 99529.210938, 124485.734375, 144642.484375, 0.000, 0.000, 0.000,0.0,0.0,0.0,0.0,0.0, 14:49:45.545
79076.000000, 83687.226563, 158075.703125, 126928.531250, 143580.718750, 99675.164063, 124499.835938, 144665.671875, 0.162, 0.238, 0.944,0.0,0.0,0.0,0.0,0.0, 14:49:45.546
79035.789063, 83643.820313, 158027.312500, 126918.210938, 143531.671875, 99646.445313, 124462.648438, 144624.906250, 0.000, 0.000, 0.000,0.0,0.0,0.0,0.0,0.0, 14:49:45.546
79101.726563, 83711.929688, 158078.609375, 126835.796875, 143570.750000, 99494.632813, 124446.593750, 144600.500000, 0.000, 0.000, 0.000,0.0,0.0,0.0,0.0,0.0, 14:49:45.547
79148.617188, 83758.312500, 158133.718750, 126834.882813, 143623.671875, 99501.671875, 124481.640625, 144636.140625, 0.000, 0.000, 0.000,0.0,0.0,0.0,0.0,0.0, 14:49:45.547
79094.507813, 83700.421875, 158092.390625, 126916.976563, 143590.890625, 99651.023438, 124501.445313, 144664.109375, 0.000, 0.000, 0.000,0.0,0.0,0.0,0.0,0.0, 14:49:45.548
79052.890625, 83659.226563, 158040.484375, 126926.234375, 143540.859375, 99660.617188, 124470.757813, 144634.359375, 0.000, 0.000, 0.000,0.0,0.0,0.0,0.0,0.0, 14:49:45.549
79095.687500, 83702.992188, 158068.562500, 126843.617188, 143562.656250, 99513.468750, 124443.937500, 144597.656250, 0.000, 0.000, 0.000,0.0,0.0,0.0,0.0,0.0, 14:49:45.549
79145.757813, 83755.046875, 158123.250000, 126817.914063, 143614.250000, 99473.242188, 124466.289063, 144617.500000, 0.000, 0.000, 0.000,0.0,0.0,0.0,0.0,0.0, 14:49:45.549
79106.265625, 83713.289063, 158099.468750, 126899.500000, 143601.031250, 99627.625000, 124499.859375, 144661.453125, 0.000, 0.000, 0.000,0.0,0.0,0.0,0.0,0.0, 14:49:45.550
79038.203125, 83644.000000, 158029.328125, 126932.554688, 143538.812500, 99679.593750, 124472.859375, 144641.531250, 0.000, 0.000, 0.000,0.0,0.0,0.0,0.0,0.0, 14:49:45.550
79075.101563, 83682.781250, 158046.656250, 126859.351563, 143547.562500, 99543.695313, 124443.085938, 144602.859375, 0.158, 0.244, 0.944,0.0,0.0,0.0,0.0,0.0, 14:49:45.550
79152.796875, 83757.859375, 158122.937500, 126819.789063, 143614.171875, 99474.398438, 124467.671875, 144619.968750, 0.000, 0.000, 0.000,0.0,0.0,0.0,0.0,0.0, 14:49:45.550
79124.125000, 83734.929688, 158115.031250, 126889.843750, 143614.843750, 99608.687500, 124505.937500, 144664.000000, 0.000, 0.000, 0.000,0.0,0.0,0.0,0.0,0.0, 14:49:45.551
79052.906250, 83667.875000, 158047.125000, 126939.148438, 143552.750000, 99691.390625, 124491.164063, 144649.625000, 0.000, 0.000, 0.000,0.0,0.0,0.0,0.0,0.0, 14:49:45.552
79082.726563, 83692.125000, 158055.859375, 126882.710938, 143554.406250, 99578.046875, 124459.960938, 144613.859375, 0.000, 0.000, 0.000,0.0,0.0,0.0,0.0,0.0, 14:49:45.552
79159.484375, 83763.023438, 158126.296875, 126825.828125, 143615.578125, 99472.765625, 124469.750000, 144618.484375, 0.000, 0.000, 0.000,0.0,0.0,0.0,0.0,0.0, 14:49:45.552
79137.156250, 83742.710938, 158121.437500, 126873.617188, 143619.468750, 99577.484375, 124498.070313, 144655.593750, 0.000, 0.000, 0.000,0.0,0.0,0.0,0.0,0.0, 14:49:45.553
79055.882813, 83668.859375, 158044.671875, 126933.335938, 143552.578125, 99687.343750, 124485.578125, 144653.250000, 0.000, 0.000, 0.000,0.0,0.0,0.0,0.0,0.0, 14:49:45.553
79059.656250, 83673.617188, 158034.921875, 126891.273438, 143541.750000, 99603.171875, 124459.359375, 144621.234375, 0.000, 0.000, 0.000,0.0,0.0,0.0,0.0,0.0, 14:49:45.553
79131.429688, 83740.179688, 158098.781250, 126817.289063, 143596.187500, 99476.812500, 124460.968750, 144614.531250, 0.000, 0.000, 0.000,0.0,0.0,0.0,0.0,0.0, 14:49:45.553
79142.515625, 83750.109375, 158128.437500, 126857.859375, 143629.734375, 99558.867188, 124504.640625, 144663.015625, 0.158, 0.246, 0.950,0.0,0.0,0.0,0.0,0.0, 14:49:45.554
79071.570313, 83679.140625, 158068.093750, 126935.304688, 143580.562500, 99694.210938, 124509.960938, 144673.609375, 0.000, 0.000, 0.000,0.0,0.0,0.0,0.0,0.0, 14:49:45.554
79050.046875, 83654.328125, 158035.765625, 126911.125000, 143540.859375, 99642.757813, 124470.781250, 144633.750000, 0.000, 0.000, 0.000,0.0,0.0,0.0,0.0,0.0, 14:49:45.554
79112.476563, 83721.562500, 158089.250000, 126829.757813, 143582.421875, 99497.804688, 124455.250000, 144611.281250, 0.000, 0.000, 0.000,0.0,0.0,0.0,0.0,0.0, 14:49:45.555
79136.281250, 83745.773438, 158120.765625, 126839.820313, 143616.906250, 99526.031250, 124482.875000, 144640.078125, 0.000, 0.000, 0.000,0.0,0.0,0.0,0.0,0.0, 14:49:45.555
79078.367188, 83686.984375, 158071.687500, 126921.382813, 143577.156250, 99669.687500, 124493.156250, 144661.250000, 0.000, 0.000, 0.000,0.0,0.0,0.0,0.0,0.0, 14:49:45.556
79052.281250, 83664.656250, 158042.234375, 126925.382813, 143545.296875, 99661.085938, 124470.531250, 144635.765625, 0.000, 0.000, 0.000,0.0,0.0,0.0,0.0,0.0, 14:49:45.556
79101.617188, 83710.898438, 158079.406250, 126842.257813, 143574.750000, 99510.632813, 124447.515625, 144599.375000, 0.000, 0.000, 0.000,0.0,0.0,0.0,0.0,0.0, 14:49:45.556
79133.890625, 83746.015625, 158119.921875, 126833.046875, 143613.109375, 99497.867188, 124469.507813, 144619.890625, 0.000, 0.000, 0.000,0.0,0.0,0.0,0.0,0.0, 14:49:45.557
79082.343750, 83702.343750, 158083.250000, 126915.906250, 143586.953125, 99651.625000, 124493.000000, 144655.187500, 0.156, 0.246, 0.952,0.0,0.0,0.0,0.0,0.0, 14:49:45.557
79036.234375, 83649.945313, 158031.921875, 126935.437500, 143537.062500, 99675.812500, 124469.531250, 144634.312500, 0.000, 0.000, 0.000,0.0,0.0,0.0,0.0,0.0, 14:49:45.558
79083.171875, 83692.906250, 158065.718750, 126859.351563, 143562.656250, 99537.656250, 124454.375000, 144605.640625, 0.000, 0.000, 0.000,0.0,0.0,0.0,0.0,0.0, 14:49:45.558
79136.820313, 83746.750000, 158123.031250, 126828.507813, 143615.390625, 99489.492188, 124478.156250, 144624.750000, 0.000, 0.000, 0.000,0.0,0.0,0.0,0.0,0.0, 14:49:45.559
79087.796875, 83703.234375, 158092.593750, 126901.757813, 143586.062500, 99626.859375, 124492.148438, 144655.640625, 0.000, 0.000, 0.000,0.0,0.0,0.0,0.0,0.0, 14:49:45.559
79031.203125, 83643.085938, 158035.453125, 126942.617188, 143535.906250, 99689.695313, 124474.421875, 144645.781250, 0.000, 0.000, 0.000,0.0,0.0,0.0,0.0,0.0, 14:49:45.560
79076.531250, 83675.429688, 158058.718750, 126880.210938, 143555.062500, 99567.742188, 124453.750000, 144615.156250, 0.000, 0.000, 0.000,0.0,0.0,0.0,0.0,0.0, 14:49:45.560
79140.687500, 83741.453125, 158119.921875, 126828.289063, 143606.640625, 99482.335938, 124466.335938, 144618.546875, 0.000, 0.000, 0.000,0.0,0.0,0.0,0.0,0.0, 14:49:45.561
79106.148438, 83717.648438, 158100.000000, 126882.554688, 143595.687500, 99598.187500, 124488.125000, 144648.906250, 0.000, 0.000, 0.000,0.0,0.0,0.0,0.0,0.0, 14:49:45.561
79036.500000, 83649.609375, 158032.578125, 126937.992188, 143532.843750, 99692.195313, 124473.437500, 144642.375000, 0.000, 0.000, 0.000,0.0,0.0,0.0,0.0,0.0, 14:49:45.562
79054.203125, 83666.421875, 158036.859375, 126886.156250, 143529.671875, 99583.117188, 124439.328125, 144603.359375, 0.158, 0.244, 0.950,0.0,0.0,0.0,0.0,0.0, 14:49:45.562
79134.539063, 83746.085938, 158112.187500, 126827.171875, 143593.765625, 99473.125000, 124449.570313, 144605.125000, 0.000, 0.000, 0.000,0.0,0.0,0.0,0.0,0.0, 14:49:45.562
79121.351563, 83733.609375, 158114.796875, 126877.929688, 143602.484375, 99570.851563, 124482.828125, 144642.937500, 0.000, 0.000, 0.000,0.0,0.0,0.0,0.0,0.0, 14:49:45.562
79049.000000, 83663.445313, 158049.500000, 126947.015625, 143543.656250, 99685.226563, 124478.875000, 144645.312500, 0.000, 0.000, 0.000,0.0,0.0,0.0,0.0,0.0, 14:49:45.563
79050.335938, 83660.273438, 158035.906250, 126907.859375, 143529.218750, 99606.945313, 124451.468750, 144609.078125, 0.000, 0.000, 0.000,0.0,0.0,0.0,0.0,0.0, 14:49:45.563
79112.273438, 83722.632813, 158088.031250, 126826.835938, 143572.109375, 99466.492188, 124438.414063, 144586.296875, 0.000, 0.000, 0.000,0.0,0.0,0.0,0.0,0.0, 14:49:45.563
79117.570313, 83732.226563, 158108.171875, 126855.398438, 143598.859375, 99527.617188, 124473.304688, 144620.453125, 0.000, 0.000, 0.000,0.0,0.0,0.0,0.0,0.0, 14:49:45.563
79056.593750, 83669.703125, 158056.093750, 126934.367188, 143559.218750, 99670.757813, 124486.492188, 144644.015625, 0.000, 0.000, 0.000,0.0,0.0,0.0,0.0,0.0, 14:49:45.564
79047.523438, 83655.757813, 158030.218750, 126921.515625, 143535.812500, 99638.015625, 124461.640625, 144621.187500, 0.000, 0.000, 0.000,0.0,0.0,0.0,0.0,0.0, 14:49:45.564
79112.632813, 83721.296875, 158085.875000, 126846.164063, 143580.046875, 99499.281250, 124454.664063, 144604.765625, 0.158, 0.242, 0.952,0.0,0.0,0.0,0.0,0.0, 14:49:45.565
79130.335938, 83739.984375, 158120.171875, 126855.218750, 143610.781250, 99522.476563, 124479.859375, 144634.625000, 0.000, 0.000, 0.000,0.0,0.0,0.0,0.0,0.0, 14:49:45.565
79058.250000, 83669.843750, 158064.250000, 126931.304688, 143562.500000, 99662.046875, 124486.156250, 144651.859375, 0.000, 0.000, 0.000,0.0,0.0,0.0,0.0,0.0, 14:49:45.566
79016.070313, 83632.289063, 158017.125000, 126930.656250, 143516.437500, 99652.093750, 124457.500000, 144619.890625, 0.000, 0.000, 0.000,0.0,0.0,0.0,0.0,0.0, 14:49:45.566
79069.625000, 83684.414063, 158057.703125, 126845.453125, 143546.406250, 99503.460938, 124433.992188, 144589.203125, 0.000, 0.000, 0.000,0.0,0.0,0.0,0.0,0.0, 14:49:45.567
79112.765625, 83725.429688, 158108.281250, 126827.414063, 143591.453125, 99484.078125, 124454.281250, 144612.453125, 0.000, 0.000, 0.000,0.0,0.0,0.0,0.0,0.0, 14:49:45.568
79059.640625, 83678.828125, 158073.093750, 126907.476563, 143567.734375, 99634.257813, 124479.226563, 144644.437500, 0.000, 0.000, 0.000,0.0,0.0,0.0,0.0,0.0, 14:49:45.569
79025.507813, 83641.164063, 158027.781250, 126934.453125, 143528.062500, 99668.976563, 124467.140625, 144631.140625, 0.000, 0.000, 0.000,0.0,0.0,0.0,0.0,0.0, 14:49:45.569
79066.523438, 83679.250000, 158052.625000, 126856.023438, 143547.140625, 99527.710938, 124440.453125, 144596.046875, 0.000, 0.000, 0.000,0.0,0.0,0.0,0.0,0.0, 14:49:45.570
79130.804688, 83742.570313, 158121.265625, 126828.039063, 143609.109375, 99477.687500, 124469.531250, 144618.218750, 0.000, 0.000, 0.000,0.0,0.0,0.0,0.0,0.0, 14:49:45.570
79087.242188, 83693.289063, 158090.265625, 126899.007813, 143589.093750, 99613.203125, 124492.242188, 144649.203125, 0.160, 0.248, 0.954,0.0,0.0,0.0,0.0,0.0, 14:49:45.570
79018.687500, 83625.789063, 158021.015625, 126933.179688, 143527.234375, 99677.398438, 124467.562500, 144630.687500, 0.000, 0.000, 0.000,0.0,0.0,0.0,0.0,0.0, 14:49:45.571
79054.898438, 83663.445313, 158040.781250, 126868.539063, 143540.968750, 99557.171875, 124441.320313, 144596.984375, 0.000, 0.000, 0.000,0.0,0.0,0.0,0.0,0.0, 14:49:45.572
79126.804688, 83733.070313, 158112.843750, 126822.296875, 143600.468750, 99473.460938, 124456.500000, 144610.859375, 0.000, 0.000, 0.000,0.0,0.0,0.0,0.0,0.0, 14:49:45.573
79093.906250, 83706.007813, 158099.515625, 126884.078125, 143594.281250, 99591.882813, 124482.359375, 144645.484375, 0.000, 0.000, 0.000,0.0,0.0,0.0,0.0,0.0, 14:49:45.573
79021.843750, 83637.070313, 158030.937500, 126937.945313, 143532.968750, 99687.148438, 124469.257813, 144640.031250, 0.000, 0.000, 0.000,0.0,0.0,0.0,0.0,0.0, 14:49:45.573
79042.117188, 83654.242188, 158032.765625, 126888.476563, 143530.625000, 99592.867188, 124443.242188, 144608.781250, 0.000, 0.000, 0.000,0.0,0.0,0.0,0.0,0.0, 14:49:45.574
79108.093750, 83719.906250, 158094.468750, 126823.929688, 143586.625000, 99477.195313, 124449.164063, 144605.812500, 0.000, 0.000, 0.000,0.0,0.0,0.0,0.0,0.0, 14:49:45.574
79095.351563, 83704.867188, 158096.968750, 126866.304688, 143596.609375, 99564.476563, 124479.093750, 144637.437500, 0.000, 0.000, 0.000,0.0,0.0,0.0,0.0,0.0, 14:49:45.577
79033.421875, 83644.937500, 158043.343750, 126936.578125, 143550.765625, 99689.406250, 124482.937500, 144650.656250, 0.154, 0.246, 0.958,0.0,0.0,0.0,0.0,0.0, 14:49:45.579
79018.578125, 83631.554688, 158021.515625, 126902.382813, 143522.468750, 99620.781250, 124445.882813, 144612.359375, 0.000, 0.000, 0.000,0.0,0.0,0.0,0.0,0.0, 14:49:45.582
79084.734375, 83694.179688, 158071.984375, 126822.273438, 143561.875000, 99478.179688, 124430.703125, 144590.187500, 0.000, 0.000, 0.000,0.0,0.0,0.0,0.0,0.0, 14:49:45.583
79101.835938, 83709.937500, 158097.093750, 126846.859375, 143591.609375, 99528.671875, 124466.265625, 144623.828125, 0.000, 0.000, 0.000,0.0,0.0,0.0,0.0,0.0, 14:49:45.583
79027.515625, 83639.625000, 158039.703125, 126923.906250, 143546.406250, 99665.398438, 124473.484375, 144639.156250, 0.000, 0.000, 0.000,0.0,0.0,0.0,0.0,0.0, 14:49:45.583
78995.781250, 83606.828125, 157998.781250, 126905.062500, 143508.046875, 99625.679688, 124437.945313, 144600.625000, 0.000, 0.000, 0.000,0.0,0.0,0.0,0.0,0.0, 14:49:45.584
79060.289063, 83667.695313, 158048.546875, 126820.460938, 143545.421875, 99479.320313, 124422.078125, 144576.937500, 0.000, 0.000, 0.000,0.0,0.0,0.0,0.0,0.0, 14:49:45.584
79096.070313, 83713.273438, 158091.015625, 126822.718750, 143585.015625, 99496.257813, 124453.437500, 144607.906250, 0.000, 0.000, 0.000,0.0,0.0,0.0,0.0,0.0, 14:49:45.585
79047.476563, 83671.539063, 158057.046875, 126910.250000, 143559.750000, 99651.046875, 124478.875000, 144644.296875, 0.000, 0.000, 0.000,0.0,0.0,0.0,0.0,0.0, 14:49:45.585
79005.007813, 83628.960938, 158009.890625, 126920.171875, 143515.343750, 99658.023438, 124453.640625, 144616.312500, 0.000, 0.000, 0.000,0.0,0.0,0.0,0.0,0.0, 14:49:45.585
79062.765625, 83680.726563, 158050.656250, 126840.601563, 143545.109375, 99514.257813, 124431.843750, 144589.406250, 0.156, 0.250, 0.960,0.0,0.0,0.0,0.0,0.0, 14:49:45.586
79112.585938, 83728.648438, 158109.234375, 126826.453125, 143600.078125, 99494.671875, 124463.828125, 144617.953125, 0.000, 0.000, 0.000,0.0,0.0,0.0,0.0,0.0, 14:49:45.586
79057.492188, 83669.906250, 158071.156250, 126904.171875, 143572.296875, 99637.343750, 124481.710938, 144644.437500, 0.000, 0.000, 0.000,0.0,0.0,0.0,0.0,0.0, 14:49:45.586
79002.218750, 83612.554688, 158006.375000, 126925.585938, 143508.343750, 99670.601563, 124447.710938, 144616.421875, 0.000, 0.000, 0.000,0.0,0.0,0.0,0.0,0.0, 14:49:45.586
79043.117188, 83656.187500, 158034.515625, 126850.976563, 143530.875000, 99538.664063, 124430.617188, 144584.953125, 0.000, 0.000, 0.000,0.0,0.0,0.0,0.0,0.0, 14:49:45.588
79099.265625, 83713.289063, 158092.078125, 126810.781250, 143583.890625, 99469.304688, 124446.218750, 144596.937500, 0.000, 0.000, 0.000,0.0,0.0,0.0,0.0,0.0, 14:49:45.589
79069.718750, 83683.945313, 158078.218750, 126882.960938, 143578.812500, 99602.234375, 124477.953125, 144638.000000, 0.000, 0.000, 0.000,0.0,0.0,0.0,0.0,0.0, 14:49:45.590
78997.500000, 83615.664063, 158009.125000, 126925.695313, 143511.421875, 99672.039063, 124454.421875, 144620.718750, 0.000, 0.000, 0.000,0.0,0.0,0.0,0.0,0.0, 14:49:45.590
79028.101563, 83640.804688, 158022.453125, 126865.703125, 143524.593750, 99556.742188, 124436.429688, 144586.437500, 0.000, 0.000, 0.000,0.0,0.0,0.0,0.0,0.0, 14:49:45.591
79102.015625, 83712.578125, 158087.453125, 126806.226563, 143579.109375, 99457.968750, 124442.484375, 144588.953125, 0.000, 0.000, 0.000,0.0,0.0,0.0,0.0,0.0, 14:49:46.012
79090.929688, 83700.062500, 158085.078125, 126861.500000, 143576.765625, 99570.109375, 124462.648438, 144627.531250, 0.154, 0.242, 0.964,0.0,0.0,0.0,0.0,0.0, 14:49:46.013
79033.914063, 83644.156250, 158030.343750, 126931.437500, 143531.656250, 99680.328125, 124463.625000, 144635.500000, 0.000, 0.000, 0.000,0.0,0.0,0.0,0.0,0.0, 14:49:46.014
79042.093750, 83654.351563, 158023.156250, 126886.492188, 143519.109375, 99589.671875, 124434.054688, 144598.843750, 0.000, 0.000, 0.000,0.0,0.0,0.0,0.0,0.0, 14:49:46.014
79125.281250, 83738.328125, 158099.218750, 126824.734375, 143586.312500, 99475.875000, 124448.671875, 144604.296875, 0.000, 0.000, 0.000,0.0,0.0,0.0,0.0,0.0, 14:49:46.014
79118.218750, 83740.960938, 158104.984375, 126862.375000, 143595.718750, 99555.445313, 124472.210938, 144638.609375, 0.000, 0.000, 0.000,0.0,0.0,0.0,0.0,0.0, 14:49:46.015
79056.304688, 83683.406250, 158042.359375, 126935.773438, 143541.328125, 99674.070313, 124470.578125, 144638.296875, 0.000, 0.000, 0.000,0.0,0.0,0.0,0.0,0.0, 14:49:46.015
79052.593750, 83672.921875, 158017.265625, 126902.468750, 143507.359375, 99609.921875, 124430.078125, 144597.718750, 0.000, 0.000, 0.000,0.0,0.0,0.0,0.0,0.0, 14:49:46.015
79135.429688, 83759.445313, 158077.875000, 126823.343750, 143554.234375, 99469.953125, 124423.039063, 144580.593750, 0.000, 0.000, 0.000,0.0,0.0,0.0,0.0,0.0, 14:49:46.016
79171.843750, 83800.843750, 158112.500000, 126848.804688, 143594.031250, 99517.273438, 124463.429688, 144617.343750, 0.000, 0.000, 0.000,0.0,0.0,0.0,0.0,0.0, 14:49:46.016
79111.828125, 83744.898438, 158055.906250, 126928.890625, 143541.265625, 99656.320313, 124464.703125, 144634.359375, 0.150, 0.248, 0.962,0.0,0.0,0.0,0.0,0.0, 14:49:46.017
79102.015625, 83736.070313, 158025.890625, 126929.312500, 143509.296875, 99637.750000, 124439.554688, 144609.437500, 0.000, 0.000, 0.000,0.0,0.0,0.0,0.0,0.0, 14:49:46.017
79177.117188, 83807.414063, 158076.109375, 126852.875000, 143550.046875, 99496.101563, 124429.203125, 144586.281250, 0.000, 0.000, 0.000,0.0,0.0,0.0,0.0,0.0, 14:49:46.017
79220.437500, 83843.539063, 158117.281250, 126847.976563, 143589.656250, 99497.359375, 124458.867188, 144612.500000, 0.000, 0.000, 0.000,0.0,0.0,0.0,0.0,0.0, 14:49:46.017
79179.171875, 83816.398438, 158082.500000, 126929.539063, 143566.171875, 99645.664063, 124487.164063, 144647.078125, 0.000, 0.000, 0.000,0.0,0.0,0.0,0.0,0.0, 14:49:46.018
79154.812500, 83809.429688, 158048.703125, 126952.203125, 143522.687500, 99670.429688, 124460.140625, 144629.328125, 0.000, 0.000, 0.000,0.0,0.0,0.0,0.0,0.0, 14:49:46.018
79208.187500, 83862.671875, 158083.625000, 126872.273438, 143549.687500, 99527.773438, 124437.562500, 144595.937500, 0.000, 0.000, 0.000,0.0,0.0,0.0,0.0,0.0, 14:49:46.019
79261.718750, 83912.085938, 158137.531250, 126846.679688, 143605.296875, 99494.359375, 124467.046875, 144619.156250, 0.000, 0.000, 0.000,0.0,0.0,0.0,0.0,0.0, 14:49:46.019
79218.867188, 83871.382813, 158110.718750, 126927.546875, 143591.156250, 99637.476563, 124494.742188, 144653.578125, 0.000, 0.000, 0.000,0.0,0.0,0.0,0.0,0.0, 14:49:46.019
79168.937500, 83822.929688, 158055.859375, 126962.914063, 143538.140625, 99686.296875, 124473.867188, 144634.640625, 0.000, 0.000, 0.000,0.0,0.0,0.0,0.0,0.0, 14:49:46.020
79196.453125, 83854.648438, 158073.234375, 126893.351563, 143544.843750, 99555.585938, 124443.039063, 144598.125000, 0.156, 0.252, 0.954,0.0,0.0,0.0,0.0,0.0, 14:49:46.020
79256.468750, 83912.781250, 158129.890625, 126844.851563, 143595.015625, 99475.671875, 124455.562500, 144602.750000, 0.000, 0.000, 0.000,0.0,0.0,0.0,0.0,0.0, 14:49:46.020
79235.500000, 83889.312500, 158118.984375, 126912.687500, 143594.062500, 99606.882813, 124492.773438, 144644.375000, 0.000, 0.000, 0.000,0.0,0.0,0.0,0.0,0.0, 14:49:46.020
79169.539063, 83835.828125, 158061.000000, 126964.187500, 143540.531250, 99690.992188, 124481.890625, 144639.921875, 0.000, 0.000, 0.000,0.0,0.0,0.0,0.0,0.0, 14:49:46.021
79196.898438, 83862.539063, 158073.312500, 126910.671875, 143544.625000, 99584.750000, 124455.046875, 144607.328125, 0.000, 0.000, 0.000,0.0,0.0,0.0,0.0,0.0, 14:49:46.021
79265.226563, 83928.476563, 158141.984375, 126854.437500, 143604.718750, 99484.414063, 124466.351563, 144611.156250, 0.000, 0.000, 0.000,0.0,0.0,0.0,0.0,0.0, 14:49:46.021
79244.734375, 83908.625000, 158140.546875, 126905.023438, 143611.343750, 99587.031250, 124498.789063, 144650.890625, 0.000, 0.000, 0.000,0.0,0.0,0.0,0.0,0.0, 14:49:46.021
79156.843750, 83823.375000, 158068.046875, 126968.562500, 143548.187500, 99694.476563, 124486.023438, 144647.671875, 0.000, 0.000, 0.000,0.0,0.0,0.0,0.0,0.0, 14:49:46.022
79146.984375, 83809.250000, 158045.328125, 126917.601563, 143525.781250, 99602.765625, 124446.867188, 144605.609375, 0.000, 0.000, 0.000,0.0,0.0,0.0,0.0,0.0, 14:49:46.022
79213.125000, 83871.296875, 158105.796875, 126840.828125, 143578.500000, 99471.539063, 124444.000000, 144594.906250, 0.146, 0.248, 0.952,0.0,0.0,0.0,0.0,0.0, 14:49:46.023
79226.601563, 83883.281250, 158139.843750, 126884.414063, 143615.859375, 99557.281250, 124492.328125, 144647.765625, 0.000, 0.000, 0.000,0.0,0.0,0.0,0.0,0.0, 14:49:46.023
79143.609375, 83802.632813, 158079.843750, 126960.671875, 143566.343750, 99693.179688, 124496.328125, 144661.062500, 0.000, 0.000, 0.000,0.0,0.0,0.0,0.0,0.0, 14:49:46.023
79109.593750, 83768.773438, 158046.281250, 126932.531250, 143532.484375, 99637.906250, 124458.664063, 144618.109375, 0.000, 0.000, 0.000,0.0,0.0,0.0,0.0,0.0, 14:49:46.023
79172.312500, 83830.078125, 158098.843750, 126851.867188, 143573.078125, 99493.351563, 124444.585938, 144595.984375, 0.000, 0.000, 0.000,0.0,0.0,0.0,0.0,0.0, 14:49:46.023
79189.453125, 83839.601563, 158127.546875, 126861.476563, 143598.984375, 99523.914063, 124470.421875, 144624.718750, 0.000, 0.000, 0.000,0.0,0.0,0.0,0.0,0.0, 14:49:46.024
79133.445313, 83773.976563, 158085.515625, 126948.492188, 143566.406250, 99672.882813, 124489.085938, 144653.156250, 0.000, 0.000, 0.000,0.0,0.0,0.0,0.0,0.0, 14:49:46.024
79101.414063, 83742.531250, 158050.156250, 126950.484375, 143530.968750, 99661.171875, 124463.718750, 144623.734375, 0.000, 0.000, 0.000,0.0,0.0,0.0,0.0,0.0, 14:49:46.024
79152.843750, 83789.890625, 158094.328125, 126869.343750, 143565.406250, 99516.039063, 124446.640625, 144595.953125, 0.000, 0.000, 0.000,0.0,0.0,0.0,0.0,0.0, 14:49:46.024
79190.570313, 83831.312500, 158142.359375, 126858.843750, 143610.109375, 99509.742188, 124474.179688, 144624.562500, 0.000, 0.000, 0.000,0.0,0.0,0.0,0.0,0.0, 14:49:46.024
79119.046875, 83767.453125, 158092.625000, 126934.234375, 143568.484375, 99654.664063, 124486.273438, 144648.765625, 0.146, 0.244, 0.950,0.0,0.0,0.0,0.0,0.0, 14:49:46.024
79067.101563, 83710.859375, 158033.828125, 126945.234375, 143514.953125, 99669.265625, 124456.070313, 144620.046875, 0.000, 0.000, 0.000,0.0,0.0,0.0,0.0,0.0, 14:49:46.024
79118.734375, 83755.515625, 158068.609375, 126863.851563, 143543.953125, 99530.078125, 124437.742188, 144592.421875, 0.000, 0.000, 0.000,0.0,0.0,0.0,0.0,0.0, 14:49:46.025
79178.906250, 83811.062500, 158132.078125, 126836.109375, 143600.468750, 99487.054688, 124465.867188, 144617.406250, 0.000, 0.000, 0.000,0.0,0.0,0.0,0.0,0.0, 14:49:46.025
79136.234375, 83769.398438, 158109.187500, 126916.867188, 143584.250000, 99630.195313, 124490.695313, 144656.625000, 0.000, 0.000, 0.000,0.0,0.0,0.0,0.0,0.0, 14:49:46.025
79072.515625, 83706.093750, 158051.843750, 126961.281250, 143534.093750, 99693.562500, 124473.953125, 144645.421875, 0.000, 0.000, 0.000,0.0,0.0,0.0,0.0,0.0, 14:49:46.025
79099.734375, 83731.757813, 158066.562500, 126891.898438, 143542.093750, 99568.257813, 124444.296875, 144605.875000, 0.000, 0.000, 0.000,0.0,0.0,0.0,0.0,0.0, 14:49:46.025
79167.867188, 83797.562500, 158130.578125, 126840.695313, 143596.875000, 99483.562500, 124453.812500, 144612.765625, 0.000, 0.000, 0.000,0.0,0.0,0.0,0.0,0.0, 14:49:46.025
79149.179688, 83773.421875, 158122.843750, 126909.375000, 143597.968750, 99610.164063, 124487.921875, 144652.734375, 0.000, 0.000, 0.000,0.0,0.0,0.0,0.0,0.0, 14:49:46.025
79080.578125, 83703.726563, 158060.671875, 126969.484375, 143542.875000, 99701.539063, 124478.671875, 144645.531250, 0.148, 0.238, 0.950,0.0,0.0,0.0,0.0,0.0, 14:49:46.026
79095.828125, 83718.210938, 158060.156250, 126912.171875, 143535.718750, 99591.500000, 124443.804688, 144606.421875, 0.000, 0.000, 0.000,0.0,0.0,0.0,0.0,0.0, 14:49:46.026
79160.171875, 83786.406250, 158124.484375, 126846.726563, 143586.312500, 99478.382813, 124446.796875, 144602.796875, 0.000, 0.000, 0.000,0.0,0.0,0.0,0.0,0.0, 14:49:46.026
79131.296875, 83754.640625, 158112.875000, 126885.640625, 143583.125000, 99566.695313, 124473.171875, 144628.453125, 0.000, 0.000, 0.000,0.0,0.0,0.0,0.0,0.0, 14:49:46.027
79069.875000, 83697.023438, 158053.062500, 126955.109375, 143539.828125, 99682.539063, 124478.468750, 144638.843750, 0.000, 0.000, 0.000,0.0,0.0,0.0,0.0,0.0, 14:49:46.027
79074.968750, 83703.304688, 158044.281250, 126916.710938, 143528.171875, 99607.953125, 124449.125000, 144608.718750, 0.000, 0.000, 0.000,0.0,0.0,0.0,0.0,0.0, 14:49:46.027
79144.218750, 83771.671875, 158106.578125, 126839.101563, 143582.843750, 99478.875000, 124448.453125, 144600.562500, 0.000, 0.000, 0.000,0.0,0.0,0.0,0.0,0.0, 14:49:46.027
79164.312500, 83790.789063, 158136.593750, 126868.609375, 143620.171875, 99544.429688, 124492.820313, 144644.765625, 0.000, 0.000, 0.000,0.0,0.0,0.0,0.0,0.0, 14:49:46.027
79095.890625, 83725.812500, 158081.718750, 126948.468750, 143574.062500, 99681.757813, 124500.015625, 144659.015625, 0.000, 0.000, 0.000,0.0,0.0,0.0,0.0,0.0, 14:49:46.027
79063.726563, 83688.328125, 158037.265625, 126923.015625, 143526.937500, 99633.164063, 124457.570313, 144611.062500, 0.000, 0.000, 0.000,0.0,0.0,0.0,0.0,0.0, 14:49:46.028
79126.492188, 83748.203125, 158088.234375, 126838.679688, 143560.281250, 99483.054688, 124435.484375, 144586.812500, 0.156, 0.234, 0.950,0.0,0.0,0.0,0.0,0.0, 14:49:46.028
79154.945313, 83779.742188, 158130.968750, 126847.039063, 143607.156250, 99505.179688, 124477.218750, 144626.328125, 0.000, 0.000, 0.000,0.0,0.0,0.0,0.0,0.0, 14:49:46.028
79087.937500, 83711.773438, 158076.312500, 126925.359375, 143560.046875, 99651.648438, 124480.882813, 144648.765625, 0.000, 0.000, 0.000,0.0,0.0,0.0,0.0,0.0, 14:49:46.028
79063.953125, 83686.429688, 158037.515625, 126933.335938, 143522.468750, 99649.664063, 124453.773438, 144623.812500, 0.000, 0.000, 0.000,0.0,0.0,0.0,0.0,0.0, 14:49:46.029
79120.296875, 83740.203125, 158084.625000, 126860.312500, 143567.125000, 99517.156250, 124449.992188, 144604.375000, 0.000, 0.000, 0.000,0.0,0.0,0.0,0.0,0.0, 14:49:46.029
79154.609375, 83775.585938, 158127.546875, 126838.945313, 143606.531250, 99499.390625, 124473.265625, 144631.156250, 0.000, 0.000, 0.000,0.0,0.0,0.0,0.0,0.0, 14:49:46.029
79106.554688, 83729.031250, 158093.703125, 126914.296875, 143584.656250, 99646.195313, 124498.898438, 144669.500000, 0.000, 0.000, 0.000,0.0,0.0,0.0,0.0,0.0, 14:49:46.029
79045.132813, 83664.367188, 158028.171875, 126934.546875, 143520.359375, 99676.687500, 124459.914063, 144638.625000, 0.000, 0.000, 0.000,0.0,0.0,0.0,0.0,0.0, 14:49:46.029
79095.804688, 83709.601563, 158058.593750, 126856.585938, 143540.734375, 99540.609375, 124435.328125, 144605.968750, 0.000, 0.000, 0.000,0.0,0.0,0.0,0.0,0.0, 14:49:46.030
79165.632813, 83780.015625, 158131.750000, 126826.070313, 143613.125000, 99490.070313, 124472.593750, 144632.031250, 0.000, 0.000, 0.000,0.0,0.0,0.0,0.0,0.0, 14:49:46.030
79116.257813, 83734.281250, 158104.812500, 126901.000000, 143594.078125, 99625.609375, 124493.335938, 144660.734375, 0.158, 0.236, 0.954,0.0,0.0,0.0,0.0,0.0, 14:49:46.030
79043.835938, 83667.382813, 158035.406250, 126943.531250, 143525.640625, 99685.398438, 124462.937500, 144637.015625, 0.000, 0.000, 0.000,0.0,0.0,0.0,0.0,0.0, 14:49:46.030
79074.031250, 83697.023438, 158051.109375, 126876.789063, 143538.625000, 99562.109375, 124441.296875, 144602.281250, 0.000, 0.000, 0.000,0.0,0.0,0.0,0.0,0.0, 14:49:46.031
79150.250000, 83766.578125, 158120.078125, 126825.226563, 143605.609375, 99475.406250, 124468.523438, 144617.453125, 0.000, 0.000, 0.000,0.0,0.0,0.0,0.0,0.0, 14:49:46.031
79128.164063, 83744.585938, 158114.796875, 126887.406250, 143602.109375, 99597.226563, 124497.242188, 144659.453125, 0.000, 0.000, 0.000,0.0,0.0,0.0,0.0,0.0, 14:49:46.031
79047.257813, 83672.882813, 158042.609375, 126943.445313, 143535.796875, 99690.656250, 124473.351563, 144648.656250, 0.000, 0.000, 0.000,0.0,0.0,0.0,0.0,0.0, 14:49:46.031
79057.492188, 83679.453125, 158038.046875, 126893.328125, 143527.437500, 99588.664063, 124439.171875, 144606.171875, 0.000, 0.000, 0.000,0.0,0.0,0.0,0.0,0.0, 14:49:46.032
79133.484375, 83748.656250, 158107.406250, 126824.125000, 143589.031250, 99466.648438, 124448.320313, 144602.953125, 0.000, 0.000, 0.000,0.0,0.0,0.0,0.0,0.0, 14:49:46.032
79133.976563, 83757.835938, 158121.125000, 126867.085938, 143607.828125, 99554.757813, 124485.109375, 144644.437500, 0.000, 0.000, 0.000,0.0,0.0,0.0,0.0,0.0, 14:49:46.032
79081.812500, 83707.593750, 158077.515625, 126949.320313, 143568.015625, 99689.000000, 124496.929688, 144666.828125, 0.156, 0.230, 0.954,0.0,0.0,0.0,0.0,0.0, 14:49:46.033
79068.109375, 83692.234375, 158052.984375, 126916.125000, 143542.875000, 99623.601563, 124463.828125, 144627.890625, 0.000, 0.000, 0.000,0.0,0.0,0.0,0.0,0.0, 14:49:46.033
79127.046875, 83751.804688, 158098.281250, 126830.765625, 143580.046875, 99481.890625, 124449.945313, 144605.171875, 0.000, 0.000, 0.000,0.0,0.0,0.0,0.0,0.0, 14:49:46.033
79149.648438, 83771.476563, 158130.546875, 126855.531250, 143614.890625, 99533.765625, 124488.062500, 144646.375000, 0.000, 0.000, 0.000,0.0,0.0,0.0,0.0,0.0, 14:49:46.034
79086.367188, 83707.460938, 158078.812500, 126942.523438, 143570.843750, 99676.257813, 124494.296875, 144665.375000, 0.000, 0.000, 0.000,0.0,0.0,0.0,0.0,0.0, 14:49:46.034
79050.093750, 83674.023438, 158031.609375, 126926.812500, 143521.546875, 99638.421875, 124450.687500, 144622.546875, 0.000, 0.000, 0.000,0.0,0.0,0.0,0.0,0.0, 14:49:46.034
79113.617188, 83731.617188, 158081.125000, 126841.359375, 143561.609375, 99494.945313, 124438.460938, 144598.421875, 0.000, 0.000, 0.000,0.0,0.0,0.0,0.0,0.0, 14:49:46.034
79160.000000, 83778.742188, 158136.265625, 126848.179688, 143619.937500, 99519.195313, 124487.343750, 144640.640625, 0.000, 0.000, 0.000,0.0,0.0,0.0,0.0,0.0, 14:49:46.035
79097.812500, 83723.195313, 158091.468750, 126934.367188, 143578.656250, 99669.039063, 124499.007813, 144667.656250, 0.000, 0.000, 0.000,0.0,0.0,0.0,0.0,0.0, 14:49:46.035
79044.054688, 83670.984375, 158036.687500, 126936.539063, 143520.500000, 99663.945313, 124457.929688, 144630.125000, 0.000, 0.000, 0.000,0.0,0.0,0.0,0.0,0.0, 14:49:46.035
79093.031250, 83718.656250, 158073.562500, 126854.351563, 143554.125000, 99522.750000, 124443.023438, 144600.140625, 0.156, 0.230, 0.958,0.0,0.0,0.0,0.0,0.0, 14:49:46.036
79143.257813, 83765.953125, 158126.343750, 126830.789063, 143606.000000, 99493.554688, 124470.757813, 144619.453125, 0.000, 0.000, 0.000,0.0,0.0,0.0,0.0,0.0, 14:49:46.036
79092.898438, 83721.359375, 158093.062500, 126909.218750, 143581.187500, 99633.257813, 124491.210938, 144650.734375, 0.000, 0.000, 0.000,0.0,0.0,0.0,0.0,0.0, 14:49:46.036
79035.562500, 83662.867188, 158030.218750, 126937.093750, 143517.328125, 99672.039063, 124458.625000, 144626.875000, 0.000, 0.000, 0.000,0.0,0.0,0.0,0.0,0.0, 14:49:46.036
79086.343750, 83713.445313, 158062.343750, 126866.039063, 143542.656250, 99547.359375, 124443.648438, 144601.625000, 0.000, 0.000, 0.000,0.0,0.0,0.0,0.0,0.0, 14:49:46.037
79152.664063, 83770.601563, 158122.656250, 126822.835938, 143596.750000, 99481.484375, 124461.906250, 144615.781250, 0.000, 0.000, 0.000,0.0,0.0,0.0,0.0,0.0, 14:49:46.037
79131.031250, 83748.320313, 158114.718750, 126899.429688, 143599.140625, 99620.203125, 124496.507813, 144664.937500, 0.000, 0.000, 0.000,0.0,0.0,0.0,0.0,0.0, 14:49:46.037
79067.820313, 83686.429688, 158053.578125, 126949.656250, 143542.421875, 99702.273438, 124482.468750, 144660.328125, 0.000, 0.000, 0.000,0.0,0.0,0.0,0.0,0.0, 14:49:46.037
79079.867188, 83693.554688, 158050.781250, 126880.414063, 143538.734375, 99583.726563, 124449.500000, 144613.859375, 0.000, 0.000, 0.000,0.0,0.0,0.0,0.0,0.0, 14:49:46.038
79135.500000, 83750.148438, 158107.609375, 126815.007813, 143594.375000, 99480.257813, 124459.132813, 144610.281250, 0.162, 0.226, 0.958,0.0,0.0,0.0,0.0,0.0, 14:49:46.038
79114.976563, 83727.953125, 158108.953125, 126873.187500, 143603.375000, 99592.640625, 124496.015625, 144653.312500, 0.000, 0.000, 0.000,0.0,0.0,0.0,0.0,0.0, 14:49:46.038
79042.851563, 83666.351563, 158039.656250, 126938.164063, 143531.296875, 99692.687500, 124468.632813, 144644.843750, 0.000, 0.000, 0.000,0.0,0.0,0.0,0.0,0.0, 14:49:46.039
79049.890625, 83684.500000, 158023.968750, 126887.476563, 143512.343750, 99591.234375, 124428.914063, 144598.031250, 0.000, 0.000, 0.000,0.0,0.0,0.0,0.0,0.0, 14:49:46.039
79124.078125, 83760.273438, 158093.375000, 126817.398438, 143569.984375, 99470.867188, 124433.812500, 144598.093750, 0.000, 0.000, 0.000,0.0,0.0,0.0,0.0,0.0, 14:49:46.039
79132.859375, 83770.515625, 158123.906250, 126865.593750, 143607.421875, 99562.867188, 124484.148438, 144653.484375, 0.000, 0.000, 0.000,0.0,0.0,0.0,0.0,0.0, 14:49:46.040
79073.632813, 83707.437500, 158067.484375, 126945.007813, 143561.093750, 99693.562500, 124491.296875, 144666.812500, 0.000, 0.000, 0.000,0.0,0.0,0.0,0.0,0.0, 14:49:46.040
79054.273438, 83683.164063, 158034.140625, 126912.257813, 143523.250000, 99630.375000, 124447.828125, 144624.125000, 0.000, 0.000, 0.000,0.0,0.0,0.0,0.0,0.0, 14:49:46.040
79127.476563, 83749.125000, 158094.234375, 126831.101563, 143572.359375, 99492.328125, 124443.265625, 144609.812500, 0.000, 0.000, 0.000,0.0,0.0,0.0,0.0,0.0, 14:49:46.041
79156.890625, 83776.593750, 158138.296875, 126853.898438, 143619.984375, 99542.617188, 124488.171875, 144651.343750, 0.000, 0.000, 0.000,0.0,0.0,0.0,0.0,0.0, 14:49:46.041
79089.320313, 83709.562500, 158082.015625, 126935.531250, 143575.171875, 99678.539063, 124495.187500, 144665.984375, 0.170, 0.226, 0.952,0.0,0.0,0.0,0.0,0.0, 14:49:46.041
79057.804688, 83679.539063, 158043.187500, 126926.390625, 143535.140625, 99655.070313, 124462.734375, 144632.078125, 0.000, 0.000, 0.000,0.0,0.0,0.0,0.0,0.0, 14:49:46.041
79107.382813, 83730.101563, 158086.500000, 126840.960938, 143567.734375, 99510.789063, 124446.218750, 144606.171875, 0.000, 0.000, 0.000,0.0,0.0,0.0,0.0,0.0, 14:49:46.042
79148.460938, 83770.242188, 158134.968750, 126839.195313, 143611.890625, 99511.507813, 124478.000000, 144637.781250, 0.000, 0.000, 0.000,0.0,0.0,0.0,0.0,0.0, 14:49:46.042
79086.773438, 83711.101563, 158090.343750, 126921.898438, 143575.671875, 99657.976563, 124494.359375, 144665.734375, 0.000, 0.000, 0.000,0.0,0.0,0.0,0.0,0.0, 14:49:46.042
79038.070313, 83661.546875, 158034.468750, 126933.273438, 143518.843750, 99669.015625, 124460.968750, 144635.812500, 0.000, 0.000, 0.000,0.0,0.0,0.0,0.0,0.0, 14:49:46.043
79095.265625, 83720.039063, 158074.484375, 126855.820313, 143555.500000, 99532.359375, 124451.875000, 144612.359375, 0.000, 0.000, 0.000,0.0,0.0,0.0,0.0,0.0, 14:49:46.043
79145.085938, 83774.781250, 158130.812500, 126830.320313, 143609.843750, 99496.304688, 124478.648438, 144634.921875, 0.000, 0.000, 0.000,0.0,0.0,0.0,0.0,0.0, 14:49:46.043
79094.304688, 83724.156250, 158093.593750, 126905.843750, 143583.218750, 99637.679688, 124495.320313, 144663.171875, 0.000, 0.000, 0.000,0.0,0.0,0.0,0.0,0.0, 14:49:46.044
79044.054688, 83664.742188, 158036.812500, 126939.351563, 143534.937500, 99686.609375, 124477.601563, 144647.234375, 0.172, 0.220, 0.952,0.0,0.0,0.0,0.0,0.0, 14:49:46.044
79080.109375, 83698.382813, 158057.937500, 126866.929688, 143547.484375, 99556.273438, 124451.312500, 144614.234375, 0.000, 0.000, 0.000,0.0,0.0,0.0,0.0,0.0, 14:49:46.044
79148.734375, 83770.179688, 158129.312500, 126825.265625, 143611.984375, 99487.921875, 124475.500000, 144632.359375, 0.000, 0.000, 0.000,0.0,0.0,0.0,0.0,0.0, 14:49:46.045
79121.398438, 83742.843750, 158117.546875, 126899.765625, 143603.562500, 99617.851563, 124501.406250, 144671.328125, 0.000, 0.000, 0.000,0.0,0.0,0.0,0.0,0.0, 14:49:46.045
79051.906250, 83671.765625, 158048.593750, 126949.500000, 143540.531250, 99694.070313, 124479.093750, 144654.109375, 0.000, 0.000, 0.000,0.0,0.0,0.0,0.0,0.0, 14:49:46.045
79064.953125, 83687.703125, 158054.281250, 126887.945313, 143542.765625, 99581.242188, 124451.734375, 144613.296875, 0.000, 0.000, 0.000,0.40699887,0.9513869,0.7916472,0.7707452,0.41751397, 14:49:46.147
79145.757813, 83769.460938, 158131.640625, 126826.476563, 143612.953125, 99480.773438, 124473.328125, 144623.625000, 0.000, 0.000, 0.000,0.40699887,0.9513869,0.7916472,0.7707452,0.41751397, 14:49:46.147
79131.859375, 83756.296875, 158133.203125, 126883.851563, 143621.750000, 99593.492188, 124509.117188, 144667.687500, 0.000, 0.000, 0.000,0.40699887,0.9513869,0.7916472,0.7707452,0.41751397, 14:49:46.147
79052.101563, 83680.835938, 158057.500000, 126949.945313, 143551.890625, 99698.320313, 124489.062500, 144660.328125, 0.000, 0.000, 0.000,0.40699887,0.9513869,0.7916472,0.7707452,0.41751397, 14:49:46.147
79054.320313, 83683.187500, 158046.140625, 126905.265625, 143532.859375, 99611.531250, 124452.585938, 144623.984375, 0.000, 0.000, 0.000,0.40699887,0.9513869,0.7916472,0.7707452,0.41751397, 14:49:46.148
79118.531250, 83748.382813, 158104.437500, 126825.828125, 143583.109375, 99485.578125, 124451.851563, 144615.921875, 0.178, 0.218, 0.948,0.40699887,0.9513869,0.7916472,0.7707452,0.41751397, 14:49:46.148
79131.187500, 83761.906250, 158127.546875, 126862.171875, 143607.031250, 99562.179688, 124487.031250, 144662.515625, 0.000, 0.000, 0.000,0.40699887,0.9513869,0.7916472,0.7707452,0.41751397, 14:49:46.148
79060.328125, 83688.640625, 158066.093750, 126940.359375, 143554.500000, 99693.937500, 124484.929688, 144675.171875, 0.000, 0.000, 0.000,0.40699887,0.9513869,0.7916472,0.7707452,0.41751397, 14:49:46.149
79044.281250, 83668.523438, 158037.093750, 126915.367188, 143526.062500, 99639.695313, 124454.976563, 144638.453125, 0.000, 0.000, 0.000,0.40699887,0.9513869,0.7916472,0.7707452,0.41751397, 14:49:46.149
79122.265625, 83740.828125, 158102.468750, 126835.218750, 143575.281250, 99503.617188, 124450.578125, 144627.625000, 0.000, 0.000, 0.000,0.40699887,0.9513869,0.7916472,0.7707452,0.41751397, 14:49:46.150
79151.593750, 83772.343750, 158144.781250, 126852.937500, 143617.593750, 99545.367188, 124487.234375, 144667.750000, 0.000, 0.000, 0.000,0.40699887,0.9513869,0.7916472,0.7707452,0.41751397, 14:49:46.150
79083.929688, 83715.218750, 158091.046875, 126938.929688, 143572.937500, 99685.804688, 124491.656250, 144681.078125, 0.000, 0.000, 0.000,0.40699887,0.9513869,0.7916472,0.7707452,0.41751397, 14:49:46.150
79048.976563, 83679.945313, 158043.750000, 126934.593750, 143524.218750, 99662.335938, 124454.375000, 144637.593750, 0.000, 0.000, 0.000,0.40699887,0.9513869,0.7916472,0.7707452,0.41751397, 14:49:46.151
79110.242188, 83739.867188, 158091.796875, 126849.945313, 143565.000000, 99513.804688, 124444.203125, 144610.593750, 0.000, 0.000, 0.000,0.40699887,0.9513869,0.7916472,0.7707452,0.41751397, 14:49:46.151
79153.093750, 83783.406250, 158142.437500, 126839.929688, 143608.140625, 99506.875000, 124469.507813, 144637.500000, 0.000, 0.000, 0.000,0.40699887,0.9513869,0.7916472,0.7707452,0.41751397, 14:49:46.151
79093.906250, 83724.468750, 158095.984375, 126917.265625, 143570.296875, 99648.093750, 124480.328125, 144656.750000, 0.178, 0.214, 0.964,0.40699887,0.9513869,0.7916472,0.7707452,0.41751397, 14:49:46.151
79041.468750, 83669.234375, 158039.718750, 126935.148438, 143518.921875, 99667.093750, 124451.554688, 144625.578125, 0.000, 0.000, 0.000,0.40699887,0.9513869,0.7916472,0.7707452,0.41751397, 14:49:46.151
79096.046875, 83714.164063, 158080.265625, 126857.257813, 143553.578125, 99528.468750, 124442.390625, 144600.671875, 0.000, 0.000, 0.000,0.40699887,0.9513869,0.7916472,0.7707452,0.41751397, 14:49:46.152
79159.976563, 83778.492188, 158147.968750, 126828.710938, 143611.546875, 99485.085938, 124470.687500, 144626.156250, 0.000, 0.000, 0.000,0.40699887,0.9513869,0.7916472,0.7707452,0.41751397, 14:49:46.152
79121.171875, 83739.960938, 158122.156250, 126909.828125, 143592.656250, 99621.812500, 124493.375000, 144658.625000, 0.000, 0.000, 0.000,0.40699887,0.9513869,0.7916472,0.7707452,0.41751397, 14:49:46.152
79063.125000, 83678.492188, 158061.453125, 126952.718750, 143539.906250, 99681.265625, 124476.773438, 144645.515625, 0.000, 0.000, 0.000,0.40699887,0.9513869,0.7916472,0.7707452,0.41751397, 14:49:46.152
79093.789063, 83708.148438, 158077.312500, 126878.421875, 143551.328125, 99559.695313, 124452.250000, 144612.656250, 0.000, 0.000, 0.000,0.40699887,0.9513869,0.7916472,0.7707452,0.41751397, 14:49:46.153
79157.898438, 83777.484375, 158145.156250, 126825.671875, 143612.875000, 99482.898438, 124468.906250, 144624.453125, 0.000, 0.000, 0.000,0.40699887,0.9513869,0.7916472,0.7707452,0.41751397, 14:49:46.153
79135.406250, 83761.687500, 158139.437500, 126896.976563, 143616.796875, 99613.023438, 124504.554688, 144671.750000, 0.000, 0.000, 0.000,0.40699887,0.9513869,0.7916472,0.7707452,0.41751397, 14:49:46.153
79059.835938, 83693.062500, 158065.703125, 126956.203125, 143547.125000, 99701.609375, 124483.875000, 144661.843750, 0.182, 0.216, 0.964,0.40699887,0.9513869,0.7916472,0.7707452,0.41751397, 14:49:46.153
79067.750000, 83697.218750, 158056.906250, 126893.421875, 143535.515625, 99592.578125, 124448.164063, 144621.687500, 0.000, 0.000, 0.000,0.40699887,0.9513869,0.7916472,0.7707452,0.41751397, 14:49:46.153
79134.757813, 83760.679688, 158118.578125, 126823.234375, 143597.796875, 99483.703125, 124458.890625, 144622.203125, 0.000, 0.000, 0.000,0.40699887,0.9513869,0.7916472,0.7707452,0.41751397, 14:49:46.153
79131.945313, 83758.039063, 158130.296875, 126875.757813, 143613.593750, 99581.664063, 124494.945313, 144666.125000, 0.000, 0.000, 0.000,0.40699887,0.9513869,0.7916472,0.7707452,0.41751397, 14:49:46.154
79066.234375, 83692.703125, 158071.281250, 126949.585938, 143560.093750, 99698.367188, 124490.695313, 144671.281250, 0.000, 0.000, 0.000,0.40699887,0.9513869,0.7916472,0.7707452,0.41751397, 14:49:46.154
79070.679688, 83696.906250, 158061.765625, 126911.835938, 143547.968750, 99625.210938, 124465.617188, 144639.765625, 0.000, 0.000, 0.000,0.40699887,0.9513869,0.7916472,0.7707452,0.41751397, 14:49:46.154
79144.039063, 83761.078125, 158125.125000, 126836.085938, 143606.734375, 99499.476563, 124474.203125, 144633.078125, 0.000, 0.000, 0.000,0.40699887,0.9513869,0.7916472,0.7707452,0.41751397, 14:49:46.154
79149.914063, 83764.320313, 158144.937500, 126866.328125, 143626.968750, 99560.968750, 124502.812500, 144669.203125, 0.000, 0.000, 0.000,0.40699887,0.9513869,0.7916472,0.7707452,0.41751397, 14:49:46.154
79068.132813, 83691.453125, 158079.421875, 126945.164063, 143565.453125, 99690.718750, 124494.273438, 144676.328125, 0.000, 0.000, 0.000,0.04857441,0.104360335,0.070020735,0.09793648,0.051160984, 14:49:46.459
79044.593750, 83672.343750, 158042.671875, 126926.210938, 143527.187500, 99643.312500, 124457.437500, 144638.468750, 0.000, 0.000, 0.000,0.04857441,0.104360335,0.070020735,0.09793648,0.051160984, 14:49:46.459
79121.281250, 83749.835938, 158106.437500, 126848.132813, 143583.218750, 99505.289063, 124461.750000, 144629.437500, 0.176, 0.214, 0.958,0.04857441,0.104360335,0.070020735,0.09793648,0.051160984, 14:49:46.460
79152.601563, 83777.218750, 158148.218750, 126857.992188, 143623.140625, 99533.187500, 124491.765625, 144663.593750, 0.000, 0.000, 0.000,0.04857441,0.104360335,0.070020735,0.09793648,0.051160984, 14:49:46.460
79090.664063, 83715.484375, 158099.937500, 126942.953125, 143581.703125, 99677.468750, 124496.398438, 144681.421875, 0.000, 0.000, 0.000,0.04857441,0.104360335,0.070020735,0.09793648,0.051160984, 14:49:46.460
79043.390625, 83666.843750, 158049.765625, 126941.742188, 143531.921875, 99668.593750, 124465.328125, 144646.812500, 0.000, 0.000, 0.000,0.04857441,0.104360335,0.070020735,0.09793648,0.051160984, 14:49:46.461
79099.218750, 83721.875000, 158093.765625, 126852.851563, 143568.359375, 99522.906250, 124450.281250, 144621.281250, 0.000, 0.000, 0.000,0.04857441,0.104360335,0.070020735,0.09793648,0.051160984, 14:49:46.461
79149.109375, 83766.890625, 158148.203125, 126839.085938, 143623.046875, 99510.500000, 124482.429688, 144650.515625, 0.000, 0.000, 0.000,0.04857441,0.104360335,0.070020735,0.09793648,0.051160984, 14:49:46.461
79093.859375, 83707.328125, 158102.734375, 126920.867188, 143586.578125, 99655.468750, 124496.171875, 144676.375000, 0.000, 0.000, 0.000,0.04857441,0.104360335,0.070020735,0.09793648,0.051160984, 14:49:46.462
79036.835938, 83654.351563, 158036.796875, 126938.054688, 143524.718750, 99678.789063, 124463.695313, 144647.546875, 0.000, 0.000, 0.000,0.04857441,0.104360335,0.070020735,0.09793648,0.051160984, 14:49:46.463
79083.398438, 83706.406250, 158070.375000, 126857.523438, 143551.968750, 99544.851563, 124446.125000, 144619.640625, 0.000, 0.000, 0.000,0.04857441,0.104360335,0.070020735,0.09793648,0.051160984, 14:49:46.463
79144.414063, 83766.890625, 158140.843750, 126827.523438, 143615.406250, 99500.039063, 124475.945313, 144643.390625, 0.182, 0.212, 0.954,0.04857441,0.104360335,0.070020735,0.09793648,0.051160984, 14:49:46.463
79108.406250, 83730.187500, 158115.156250, 126903.921875, 143598.484375, 99632.273438, 124499.367188, 144675.593750, 0.000, 0.000, 0.000,0.04857441,0.104360335,0.070020735,0.09793648,0.051160984, 14:49:46.464
79054.812500, 83677.257813, 158055.578125, 126947.601563, 143545.625000, 99694.859375, 124481.351563, 144663.296875, 0.000, 0.000, 0.000,0.04857441,0.104360335,0.070020735,0.09793648,0.051160984, 14:49:46.464
79089.007813, 83708.375000, 158077.203125, 126883.273438, 143558.281250, 99582.156250, 124459.648438, 144632.015625, 0.000, 0.000, 0.000,0.04857441,0.104360335,0.070020735,0.09793648,0.051160984, 14:49:46.464
79151.570313, 83768.101563, 158140.078125, 126825.781250, 143612.718750, 99490.023438, 124471.742188, 144634.375000, 0.000, 0.000, 0.000,0.04857441,0.104360335,0.070020735,0.09793648,0.051160984, 14:49:46.464
79132.367188, 83752.742188, 158134.312500, 126891.117188, 143612.765625, 99606.273438, 124500.351563, 144673.531250, 0.000, 0.000, 0.000,0.04857441,0.104360335,0.070020735,0.09793648,0.051160984, 14:49:46.465
79064.625000, 83685.085938, 158067.859375, 126959.289063, 143554.187500, 99704.578125, 124489.265625, 144670.859375, 0.000, 0.000, 0.000,0.04857441,0.104360335,0.070020735,0.09793648,0.051160984, 14:49:46.465
79071.390625, 83687.875000, 158061.812500, 126903.679688, 143545.718750, 99606.414063, 124461.570313, 144631.625000, 0.000, 0.000, 0.000,0.04857441,0.104360335,0.070020735,0.09793648,0.051160984, 14:49:46.465
79140.414063, 83758.039063, 158126.734375, 126829.742188, 143601.437500, 99488.796875, 124467.250000, 144629.031250, 0.000, 0.000, 0.000,0.04857441,0.104360335,0.070020735,0.09793648,0.051160984, 14:49:46.465
79141.914063, 83757.835938, 158141.625000, 126876.070313, 143615.187500, 99580.507813, 124494.632813, 144671.968750, 0.000, 0.000, 0.000,0.04857441,0.104360335,0.070020735,0.09793648,0.051160984, 14:49:46.465
79067.367188, 83686.250000, 158077.796875, 126952.898438, 143561.718750, 99703.617188, 124489.710938, 144676.046875, 0.186, 0.208, 0.954,0.04857441,0.104360335,0.070020735,0.09793648,0.051160984, 14:49:46.465
79059.835938, 83679.382813, 158053.578125, 126921.359375, 143533.375000, 99632.671875, 124450.304688, 144634.781250, 0.000, 0.000, 0.000,0.04857441,0.104360335,0.070020735,0.09793648,0.051160984, 14:49:46.466
79132.523438, 83750.617188, 158115.906250, 126841.898438, 143595.406250, 99500.460938, 124460.609375, 144625.593750, 0.000, 0.000, 0.000,0.04857441,0.104360335,0.070020735,0.09793648,0.051160984, 14:49:46.466
79149.421875, 83766.335938, 158144.328125, 126864.492188, 143625.875000, 99555.312500, 124498.187500, 144664.828125, 0.000, 0.000, 0.000,0.04857441,0.104360335,0.070020735,0.09793648,0.051160984, 14:49:46.466
79078.500000, 83694.828125, 158080.968750, 126942.125000, 143565.812500, 99687.210938, 124489.984375, 144670.343750, 0.000, 0.000, 0.000,0.04857441,0.104360335,0.070020735,0.09793648,0.051160984, 14:49:46.466
79048.039063, 83663.757813, 158039.718750, 126927.703125, 143525.390625, 99646.460938, 124453.656250, 144630.359375, 0.000, 0.000, 0.000,0.04857441,0.104360335,0.070020735,0.09793648,0.051160984, 14:49:46.466
79121.257813, 83737.656250, 158103.875000, 126850.437500, 143582.640625, 99508.976563, 124456.945313, 144619.265625, 0.000, 0.000, 0.000,0.04857441,0.104360335,0.070020735,0.09793648,0.051160984, 14:49:46.466
79160.195313, 83775.812500, 158155.156250, 126858.257813, 143631.093750, 99527.484375, 124496.421875, 144657.000000, 0.000, 0.000, 0.000,0.04857441,0.104360335,0.070020735,0.09793648,0.051160984, 14:49:46.466
79094.773438, 83708.171875, 158104.343750, 126943.132813, 143584.312500, 99671.250000, 124503.617188, 144678.187500, 0.000, 0.000, 0.000,0.04857441,0.104360335,0.070020735,0.09793648,0.051160984, 14:49:46.467
79048.929688, 83662.625000, 158050.875000, 126951.914063, 143530.937500, 99671.007813, 124466.914063, 144645.312500, 0.000, 0.000, 0.000,0.04857441,0.104360335,0.070020735,0.09793648,0.051160984, 14:49:46.467
79095.867188, 83710.921875, 158085.078125, 126863.335938, 143558.453125, 99524.445313, 124446.218750, 144614.687500, 0.188, 0.214, 0.956,0.04857441,0.104360335,0.070020735,0.09793648,0.051160984, 14:49:46.467
79148.281250, 83758.757813, 158146.281250, 126849.406250, 143617.187500, 99502.359375, 124479.695313, 144643.250000, 0.000, 0.000, 0.000,0.04857441,0.104360335,0.070020735,0.09793648,0.051160984, 14:49:46.467
79102.734375, 83721.875000, 158115.546875, 126937.515625, 143593.406250, 99649.929688, 124502.187500, 144678.046875, 0.000, 0.000, 0.000,0.04857441,0.104360335,0.070020735,0.09793648,0.051160984, 14:49:46.467
79042.093750, 83666.398438, 158044.625000, 126960.898438, 143525.781250, 99686.046875, 124465.953125, 144648.687500, 0.000, 0.000, 0.000,0.04857441,0.104360335,0.070020735,0.09793648,0.051160984, 14:49:46.468
79075.484375, 83695.234375, 158060.671875, 126876.367188, 143535.828125, 99544.476563, 124436.226563, 144608.765625, 0.000, 0.000, 0.000,0.04857441,0.104360335,0.070020735,0.09793648,0.051160984, 14:49:46.468
79141.507813, 83760.726563, 158131.015625, 126833.671875, 143601.921875, 99484.726563, 124465.976563, 144630.484375, 0.000, 0.000, 0.000,0.04857441,0.104360335,0.070020735,0.09793648,0.051160984, 14:49:46.468
79109.835938, 83728.312500, 158117.953125, 126913.000000, 143595.796875, 99625.117188, 124499.078125, 144671.859375, 0.000, 0.000, 0.000,0.04857441,0.104360335,0.070020735,0.09793648,0.051160984, 14:49:46.468
79040.484375, 83659.445313, 158049.093750, 126960.117188, 143530.890625, 99696.914063, 124475.562500, 144653.312500, 0.000, 0.000, 0.000,0.04857441,0.104360335,0.070020735,0.09793648,0.051160984, 14:49:46.468
79068.781250, 83683.117188, 158060.890625, 126895.117188, 143538.781250, 99580.328125, 124450.820313, 144620.671875, 0.000, 0.000, 0.000,0.04857441,0.104360335,0.070020735,0.09793648,0.051160984, 14:49:46.468
79143.257813, 83759.312500, 158133.828125, 126839.796875, 143602.281250, 99486.742188, 124468.054688, 144630.562500, 0.174, 0.218, 0.954,0.04857441,0.104360335,0.070020735,0.09793648,0.051160984, 14:49:46.469
79120.164063, 83738.820313, 158129.156250, 126901.039063, 143603.406250, 99595.257813, 124500.125000, 144666.875000, 0.000, 0.000, 0.000,0.04857441,0.104360335,0.070020735,0.09793648,0.051160984, 14:49:46.469
79049.781250, 83666.820313, 158057.609375, 126960.789063, 143537.062500, 99691.992188, 124480.171875, 144655.812500, 0.000, 0.000, 0.000,0.04857441,0.104360335,0.070020735,0.09793648,0.051160984, 14:49:46.470
79059.031250, 83671.539063, 158047.296875, 126911.320313, 143524.921875, 99601.585938, 124447.375000, 144615.093750, 0.000, 0.000, 0.000,0.04857441,0.104360335,0.070020735,0.09793648,0.051160984, 14:49:46.470
79133.265625, 83742.570313, 158113.859375, 126840.468750, 143584.515625, 99478.828125, 124454.929688, 144611.046875, 0.000, 0.000, 0.000,0.04857441,0.104360335,0.070020735,0.09793648,0.051160984, 14:49:46.470
79135.406250, 83745.750000, 158131.296875, 126885.664063, 143605.140625, 99559.382813, 124492.640625, 144651.234375, 0.000, 0.000, 0.000,0.04857441,0.104360335,0.070020735,0.09793648,0.051160984, 14:49:46.470
79064.468750, 83678.734375, 158068.093750, 126960.718750, 143546.828125, 99684.351563, 124485.445313, 144656.156250, 0.000, 0.000, 0.000,0.04857441,0.104360335,0.070020735,0.09793648,0.051160984, 14:49:46.471
79046.429688, 83661.031250, 158036.953125, 126928.156250, 143515.453125, 99622.523438, 124447.937500, 144617.031250, 0.000, 0.000, 0.000,0.04857441,0.104360335,0.070020735,0.09793648,0.051160984, 14:49:46.471
79112.296875, 83719.796875, 158091.140625, 126843.101563, 143563.656250, 99486.648438, 124443.375000, 144603.625000, 0.000, 0.000, 0.000,0.04857441,0.104360335,0.070020735,0.09793648,0.051160984, 14:49:46.471
79137.289063, 83745.078125, 158128.015625, 126865.570313, 143599.781250, 99537.882813, 124482.250000, 144643.671875, 0.000, 0.000, 0.000,0.04857441,0.104360335,0.070020735,0.09793648,0.051160984, 14:49:46.471
79061.828125, 83669.218750, 158064.875000, 126945.703125, 143542.875000, 99672.257813, 124479.742188, 144654.203125, 0.172, 0.222, 0.960,0.04857441,0.104360335,0.070020735,0.09793648,0.051160984, 14:49:46.471
79032.054688, 83641.476563, 158030.250000, 126936.203125, 143508.359375, 99643.156250, 124447.289063, 144618.625000, 0.000, 0.000, 0.000,0.04857441,0.104360335,0.070020735,0.09793648,0.051160984, 14:49:46.471
79093.054688, 83709.828125, 158081.515625, 126850.210938, 143552.109375, 99500.109375, 124439.734375, 144595.828125, 0.000, 0.000, 0.000,0.04857441,0.104360335,0.070020735,0.09793648,0.051160984, 14:49:46.471
79131.812500, 83745.257813, 158130.000000, 126845.226563, 143599.625000, 99505.226563, 124475.765625, 144628.125000, 0.000, 0.000, 0.000,0.04857441,0.104360335,0.070020735,0.09793648,0.051160984, 14:49:46.472
79068.085938, 83683.187500, 158078.859375, 126924.890625, 143553.890625, 99644.539063, 124482.312500, 144648.171875, 0.000, 0.000, 0.000,0.04857441,0.104360335,0.070020735,0.09793648,0.051160984, 14:49:46.472
79028.281250, 83643.062500, 158027.250000, 126938.500000, 143505.546875, 99658.960938, 124454.265625, 144625.140625, 0.000, 0.000, 0.000,0.04857441,0.104360335,0.070020735,0.09793648,0.051160984, 14:49:46.472
79086.664063, 83694.335938, 158066.328125, 126856.781250, 143540.078125, 99521.789063, 124439.804688, 144598.640625, 0.000, 0.000, 0.000,0.04857441,0.104360335,0.070020735,0.09793648,0.051160984, 14:49:46.472
79147.234375, 83755.648438, 158129.640625, 126836.062500, 143600.921875, 99493.289063, 124474.671875, 144627.203125, 0.000, 0.000, 0.000,0.04857441,0.104360335,0.070020735,0.09793648,0.051160984, 14:49:46.472
79088.156250, 83696.976563, 158086.703125, 126912.734375, 143565.937500, 99630.976563, 124484.414063, 144652.968750, 0.000, 0.000, 0.000,0.04857441,0.104360335,0.070020735,0.09793648,0.051160984, 14:49:46.472
79030.671875, 83644.804688, 158028.906250, 126951.351563, 143513.453125, 99680.882813, 124463.492188, 144636.437500, 0.176, 0.222, 0.958,0.04857441,0.104360335,0.070020735,0.09793648,0.051160984, 14:49:46.473
79060.351563, 83677.351563, 158045.296875, 126876.367188, 143524.375000, 99551.023438, 124434.437500, 144597.187500, 0.000, 0.000, 0.000,0.04857441,0.104360335,0.070020735,0.09793648,0.051160984, 14:49:46.473
79126.671875, 83738.484375, 158110.718750, 126825.781250, 143582.390625, 99474.046875, 124453.640625, 144609.796875, 0.000, 0.000, 0.000,0.04857441,0.104360335,0.070020735,0.09793648,0.051160984, 14:49:46.473
79095.671875, 83710.453125, 158093.765625, 126893.195313, 143570.234375, 99599.750000, 124477.109375, 144645.546875, 0.000, 0.000, 0.000,0.04857441,0.104360335,0.070020735,0.09793648,0.051160984, 14:49:46.473
79033.281250, 83650.015625, 158029.125000, 126947.578125, 143511.140625, 99682.226563, 124461.703125, 144637.234375, 0.000, 0.000, 0.000,0.04857441,0.104360335,0.070020735,0.09793648,0.051160984, 14:49:46.474
79055.546875, 83669.414063, 158040.500000, 126891.585938, 143519.250000, 99581.867188, 124438.390625, 144604.140625, 0.000, 0.000, 0.000,0.04857441,0.104360335,0.070020735,0.09793648,0.051160984, 14:49:46.474
79123.250000, 83737.992188, 158110.843750, 126829.625000, 143580.765625, 99481.328125, 124449.210938, 144608.515625, 0.000, 0.000, 0.000,0.04857441,0.104360335,0.070020735,0.09793648,0.051160984, 14:49:46.474
79105.593750, 83717.156250, 158103.375000, 126878.578125, 143579.593750, 99579.320313, 124474.132813, 144638.562500, 0.000, 0.000, 0.000,0.04857441,0.104360335,0.070020735,0.09793648,0.051160984, 14:49:46.474
79030.218750, 83641.164063, 158028.234375, 126942.460938, 143514.265625, 99679.523438, 124457.679688, 144627.937500, 0.000, 0.000, 0.000,0.04857441,0.104360335,0.070020735,0.09793648,0.051160984, 14:49:46.474
79030.109375, 83643.000000, 158011.375000, 126895.992188, 143495.921875, 99589.984375, 124423.617188, 144588.062500, 0.000, 0.000, 0.000,0.04857441,0.104360335,0.070020735,0.09793648,0.051160984, 14:49:46.475
79103.781250, 83717.648438, 158077.562500, 126821.828125, 143552.421875, 99467.585938, 124431.289063, 144585.421875, 0.172, 0.218, 0.954,0.04857441,0.104360335,0.070020735,0.09793648,0.051160984, 14:49:46.475
79105.726563, 83714.234375, 158096.781250, 126858.640625, 143575.828125, 99540.898438, 124463.695313, 144620.453125, 0.000, 0.000, 0.000,0.04857441,0.104360335,0.070020735,0.09793648,0.051160984, 14:49:46.475
79038.335938, 83650.195313, 158036.078125, 126935.734375, 143513.890625, 99665.507813, 124452.765625, 144627.625000, 0.000, 0.000, 0.000,0.04857441,0.104360335,0.070020735,0.09793648,0.051160984, 14:49:46.476
79032.992188, 83647.421875, 158018.468750, 126912.734375, 143496.937500, 99618.750000, 124434.640625, 144601.453125, 0.000, 0.000, 0.000,0.04857441,0.104360335,0.070020735,0.09793648,0.051160984, 14:49:46.476
79099.531250, 83710.117188, 158076.734375, 126828.843750, 143548.468750, 99482.898438, 124434.664063, 144586.703125, 0.000, 0.000, 0.000,0.04857441,0.104360335,0.070020735,0.09793648,0.051160984, 14:49:46.477
79120.007813, 83736.585938, 158114.359375, 126841.921875, 143590.015625, 99519.906250, 124472.773438, 144624.000000, 0.000, 0.000, 0.000,0.04857441,0.104360335,0.070020735,0.09793648,0.051160984, 14:49:46.478
79048.101563, 83663.382813, 158054.703125, 126922.945313, 143537.062500, 99655.765625, 124470.062500, 144635.343750, 0.000, 0.000, 0.000,0.04857441,0.104360335,0.070020735,0.09793648,0.051160984, 14:49:46.478
79017.703125, 83632.734375, 158009.937500, 126921.718750, 143493.234375, 99637.812500, 124435.132813, 144602.109375, 0.000, 0.000, 0.000,0.04857441,0.104360335,0.070020735,0.09793648,0.051160984, 14:49:46.478
79092.179688, 83702.789063, 158065.625000, 126843.398438, 143544.906250, 99502.273438, 124437.390625, 144591.531250, 0.000, 0.000, 0.000,0.04857441,0.104360335,0.070020735,0.09793648,0.051160984, 14:49:46.479
79133.218750, 83741.609375, 158117.437500, 126835.687500, 143591.718750, 99501.828125, 124468.835938, 144622.359375, 0.174, 0.222, 0.954,0.05513991,0.097276986,0.022094142,0.032365333,0.022181077, 14:49:46.926
79065.742188, 83678.085938, 158065.515625, 126913.203125, 143547.968750, 99641.414063, 124475.117188, 144642.046875, 0.000, 0.000, 0.000,0.05513991,0.097276986,0.022094142,0.032365333,0.022181077, 14:49:46.927
79017.234375, 83630.859375, 158010.203125, 126928.984375, 143493.921875, 99659.812500, 124444.945313, 144615.000000, 0.000, 0.000, 0.000,0.05513991,0.097276986,0.022094142,0.032365333,0.022181077, 14:49:46.928
79068.062500, 83682.203125, 158047.968750, 126853.320313, 143522.984375, 99524.804688, 124426.234375, 144590.343750, 0.000, 0.000, 0.000,0.05513991,0.097276986,0.022094142,0.032365333,0.022181077, 14:49:46.929
79133.062500, 83747.359375, 158118.015625, 126828.132813, 143589.484375, 99484.125000, 124459.695313, 144618.484375, 0.000, 0.000, 0.000,0.05513991,0.097276986,0.022094142,0.032365333,0.022181077, 14:49:46.929
79082.460938, 83696.976563, 158081.031250, 126904.929688, 143558.390625, 99618.679688, 124474.312500, 144647.031250, 0.000, 0.000, 0.000,0.05513991,0.097276986,0.022094142,0.032365333,0.022181077, 14:49:46.929
79016.875000, 83632.578125, 158010.046875, 126941.343750, 143489.046875, 99667.632813, 124441.414063, 144617.812500, 0.000, 0.000, 0.000,0.05513991,0.097276986,0.022094142,0.032365333,0.022181077, 14:49:46.930
79049.265625, 83661.437500, 158025.953125, 126867.695313, 143499.156250, 99538.570313, 124416.171875, 144578.718750, 0.000, 0.000, 0.000,0.05513991,0.097276986,0.022094142,0.032365333,0.022181077, 14:49:46.930
79123.406250, 83737.609375, 158098.625000, 126815.390625, 143563.937500, 99456.656250, 124438.617188, 144595.156250, 0.000, 0.000, 0.000,0.05513991,0.097276986,0.022094142,0.032365333,0.022181077, 14:49:46.931
79091.351563, 83711.437500, 158087.984375, 126882.554688, 143562.296875, 99581.820313, 124470.515625, 144633.078125, 0.000, 0.000, 0.000,0.05513991,0.097276986,0.022094142,0.032365333,0.022181077, 14:49:46.931
79024.078125, 83645.007813, 158023.859375, 126941.343750, 143505.484375, 99674.492188, 124459.226563, 144629.140625, 0.178, 0.226, 0.952,0.05513991,0.097276986,0.022094142,0.032365333,0.022181077, 14:49:46.931
79033.890625, 83653.343750, 158019.921875, 126882.335938, 143495.625000, 99571.140625, 124428.023438, 144591.484375, 0.000, 0.000, 0.000,0.05513991,0.097276986,0.022094142,0.032365333,0.022181077, 14:49:46.931
79100.851563, 83721.453125, 158087.093750, 126812.195313, 143556.218750, 99460.296875, 124438.078125, 144591.734375, 0.000, 0.000, 0.000,0.05513991,0.097276986,0.022094142,0.032365333,0.022181077, 14:49:46.932
79101.750000, 83720.359375, 158098.875000, 126865.750000, 143572.671875, 99564.476563, 124473.484375, 144635.515625, 0.000, 0.000, 0.000,0.05513991,0.097276986,0.022094142,0.032365333,0.022181077, 14:49:46.932
79028.812500, 83642.953125, 158029.437500, 126935.304688, 143510.625000, 99677.578125, 124460.718750, 144634.125000, 0.000, 0.000, 0.000,0.05513991,0.097276986,0.022094142,0.032365333,0.022181077, 14:49:46.932
79019.539063, 83636.132813, 158009.484375, 126897.820313, 143490.187500, 99598.296875, 124425.117188, 144592.328125, 0.000, 0.000, 0.000,0.05513991,0.097276986,0.022094142,0.032365333,0.022181077, 14:49:46.932
79100.828125, 83716.398438, 158078.171875, 126821.085938, 143548.421875, 99467.226563, 124429.187500, 144586.515625, 0.000, 0.000, 0.000,0.05513991,0.097276986,0.022094142,0.032365333,0.022181077, 14:49:46.933
79114.664063, 83727.242188, 158107.234375, 126858.820313, 143576.781250, 99536.492188, 124468.726563, 144628.046875, 0.000, 0.000, 0.000,0.05513991,0.097276986,0.022094142,0.032365333,0.022181077, 14:49:46.933
79044.234375, 83655.828125, 158043.609375, 126937.609375, 143522.328125, 99664.460938, 124465.820313, 144634.765625, 0.000, 0.000, 0.000,0.05513991,0.097276986,0.022094142,0.032365333,0.022181077, 14:49:46.933
79032.882813, 83646.820313, 158019.812500, 126922.054688, 143499.000000, 99623.132813, 124443.109375, 144605.750000, 0.000, 0.000, 0.000,0.05513991,0.097276986,0.022094142,0.032365333,0.022181077, 14:49:46.933
79097.546875, 83717.046875, 158077.562500, 126839.062500, 143546.515625, 99483.835938, 124436.718750, 144591.281250, 0.178, 0.220, 0.952,0.05513991,0.097276986,0.022094142,0.032365333,0.022181077, 14:49:46.933
79125.375000, 83740.695313, 158117.234375, 126845.898438, 143587.375000, 99512.000000, 124471.320313, 144626.671875, 0.000, 0.000, 0.000,0.05513991,0.097276986,0.022094142,0.032365333,0.022181077, 14:49:46.934
79050.921875, 83667.804688, 158057.984375, 126926.367188, 143536.062500, 99650.531250, 124470.312500, 144640.078125, 0.000, 0.000, 0.000,0.05513991,0.097276986,0.022094142,0.032365333,0.022181077, 14:49:46.934
79021.257813, 83643.156250, 158015.140625, 126930.078125, 143495.531250, 99641.523438, 124440.625000, 144613.078125, 0.000, 0.000, 0.000,0.05513991,0.097276986,0.022094142,0.032365333,0.022181077, 14:49:46.934
79084.851563, 83706.453125, 158063.015625, 126846.859375, 143538.937500, 99504.617188, 124433.523438, 144594.875000, 0.000, 0.000, 0.000,0.05513991,0.097276986,0.022094142,0.032365333,0.022181077, 14:49:46.934
79132.859375, 83751.132813, 158118.968750, 126834.164063, 143593.640625, 99493.804688, 124467.609375, 144624.593750, 0.000, 0.000, 0.000,0.05513991,0.097276986,0.022094142,0.032365333,0.022181077, 14:49:46.935
79069.226563, 83688.617188, 158069.562500, 126911.945313, 143552.984375, 99633.500000, 124478.132813, 144644.859375, 0.000, 0.000, 0.000,0.05513991,0.097276986,0.022094142,0.032365333,0.022181077, 14:49:46.935
79020.703125, 83638.234375, 158008.875000, 126933.539063, 143488.625000, 99659.765625, 124440.070313, 144617.500000, 0.000, 0.000, 0.000,0.05513991,0.097276986,0.022094142,0.032365333,0.022181077, 14:49:46.935
79064.062500, 83677.710938, 158036.078125, 126853.898438, 143511.562500, 99524.445313, 124419.664063, 144583.953125, 0.000, 0.000, 0.000,0.05513991,0.097276986,0.022094142,0.032365333,0.022181077, 14:49:46.936
79123.179688, 83737.546875, 158098.843750, 126813.914063, 143567.187500, 99467.296875, 124446.726563, 144600.453125, 0.182, 0.218, 0.954,0.05513991,0.097276986,0.022094142,0.032365333,0.022181077, 14:49:46.937
79087.796875, 83704.507813, 158080.062500, 126888.390625, 143553.046875, 99605.937500, 124473.148438, 144637.281250, 0.000, 0.000, 0.000,0.05513991,0.097276986,0.022094142,0.032365333,0.022181077, 14:49:46.937
79029.195313, 83649.078125, 158019.156250, 126936.023438, 143494.656250, 99673.265625, 124446.304688, 144625.656250, 0.000, 0.000, 0.000,0.05513991,0.097276986,0.022094142,0.032365333,0.022181077, 14:49:46.937
79056.914063, 83676.703125, 158033.515625, 126865.945313, 143501.906250, 99551.914063, 124420.218750, 144591.000000, 0.000, 0.000, 0.000,0.05513991,0.097276986,0.022094142,0.032365333,0.022181077, 14:49:46.938
79124.750000, 83745.320313, 158102.109375, 126808.414063, 143563.484375, 99462.445313, 124437.765625, 144600.453125, 0.000, 0.000, 0.000,0.05513991,0.097276986,0.022094142,0.032365333,0.022181077, 14:49:46.938
79111.046875, 83729.695313, 158102.578125, 126876.968750, 143570.718750, 99584.101563, 124475.046875, 144642.921875, 0.000, 0.000, 0.000,0.05513991,0.097276986,0.022094142,0.032365333,0.022181077, 14:49:46.938
79039.718750, 83663.601563, 158033.625000, 126943.109375, 143511.296875, 99678.093750, 124463.453125, 144634.875000, 0.000, 0.000, 0.000,0.05513991,0.097276986,0.022094142,0.032365333,0.022181077, 14:49:46.938
79038.898438, 83669.617188, 158024.453125, 126888.546875, 143499.140625, 99578.109375, 124425.093750, 144590.609375, 0.000, 0.000, 0.000,0.05513991,0.097276986,0.022094142,0.032365333,0.022181077, 14:49:46.938
79109.257813, 83734.460938, 158088.312500, 126816.570313, 143556.953125, 99463.875000, 124432.070313, 144585.968750, 0.000, 0.000, 0.000,0.05513991,0.097276986,0.022094142,0.032365333,0.022181077, 14:49:46.939
79108.875000, 83733.500000, 158099.843750, 126861.632813, 143575.109375, 99552.585938, 124469.195313, 144628.640625, 0.000, 0.000, 0.000,0.05513991,0.097276986,0.022094142,0.032365333,0.022181077, 14:49:46.939
79036.703125, 83665.054688, 158035.515625, 126938.750000, 143517.218750, 99672.679688, 124463.203125, 144633.156250, 0.176, 0.232, 0.956,0.05513991,0.097276986,0.022094142,0.032365333,0.022181077, 14:49:46.940
79028.679688, 83656.789063, 158018.156250, 126902.875000, 143498.000000, 99602.921875, 124430.343750, 144599.671875, 0.000, 0.000, 0.000,0.05513991,0.097276986,0.022094142,0.032365333,0.022181077, 14:49:46.940
79104.921875, 83730.390625, 158086.218750, 126823.164063, 143558.796875, 99476.476563, 124437.093750, 144597.593750, 0.000, 0.000, 0.000,0.05513991,0.097276986,0.022094142,0.032365333,0.022181077, 14:49:46.940
79123.984375, 83745.546875, 158117.546875, 126852.937500, 143590.484375, 99535.820313, 124473.015625, 144637.078125, 0.000, 0.000, 0.000,0.05513991,0.097276986,0.022094142,0.032365333,0.022181077, 14:49:46.940
79059.812500, 83677.148438, 158059.703125, 126937.476563, 143536.750000, 99673.664063, 124473.843750, 144650.406250, 0.000, 0.000, 0.000,0.05513991,0.097276986,0.022094142,0.032365333,0.022181077, 14:49:46.941
79028.296875, 83643.171875, 158016.015625, 126922.898438, 143493.093750, 99639.828125, 124436.671875, 144612.156250, 0.000, 0.000, 0.000,0.05513991,0.097276986,0.022094142,0.032365333,0.022181077, 14:49:46.941
79087.195313, 83703.125000, 158064.375000, 126834.429688, 143532.031250, 99494.632813, 124424.515625, 144589.296875, 0.000, 0.000, 0.000,0.05513991,0.097276986,0.022094142,0.032365333,0.022181077, 14:49:46.941
79125.484375, 83748.273438, 158112.906250, 126837.562500, 143581.546875, 99507.953125, 124462.601563, 144626.312500, 0.000, 0.000, 0.000,0.05513991,0.097276986,0.022094142,0.032365333,0.022181077, 14:49:46.941
79077.476563, 83702.656250, 158072.359375, 126926.585938, 143550.984375, 99655.046875, 124481.914063, 144655.093750, 0.000, 0.000, 0.000,0.05513991,0.097276986,0.022094142,0.032365333,0.022181077, 14:49:46.941
79036.007813, 83659.648438, 158025.125000, 126938.210938, 143509.328125, 99658.984375, 124456.718750, 144628.281250, 0.176, 0.224, 0.948,0.05513991,0.097276986,0.022094142,0.032365333,0.022181077, 14:49:46.941
79088.468750, 83712.039063, 158061.578125, 126853.234375, 143533.890625, 99513.828125, 124431.640625, 144597.046875, 0.000, 0.000, 0.000,0.05513991,0.097276986,0.022094142,0.032365333,0.022181077, 14:49:46.942
79131.632813, 83757.570313, 158114.562500, 126833.273438, 143581.953125, 99487.546875, 124456.742188, 144616.609375, 0.000, 0.000, 0.000,0.05513991,0.097276986,0.022094142,0.032365333,0.022181077, 14:49:46.942
79082.257813, 83711.570313, 158081.234375, 126916.375000, 143555.187500, 99628.453125, 124475.273438, 144644.812500, 0.000, 0.000, 0.000,0.05513991,0.097276986,0.022094142,0.032365333,0.022181077, 14:49:46.942
79023.609375, 83651.062500, 158017.437500, 126945.789063, 143493.281250, 99666.515625, 124444.203125, 144617.187500, 0.000, 0.000, 0.000,0.05513991,0.097276986,0.022094142,0.032365333,0.022181077, 14:49:46.942
79053.960938, 83677.578125, 158035.234375, 126863.375000, 143502.421875, 99529.500000, 124415.101563, 144576.000000, 0.000, 0.000, 0.000,0.05513991,0.097276986,0.022094142,0.032365333,0.022181077, 14:49:46.943
79121.281250, 83745.773438, 158106.750000, 126825.914063, 143568.296875, 99464.031250, 124444.093750, 144597.468750, 0.000, 0.000, 0.000,0.05513991,0.097276986,0.022094142,0.032365333,0.022181077, 14:49:46.943
79100.500000, 83732.960938, 158103.265625, 126906.429688, 143573.312500, 99603.328125, 124483.875000, 144648.437500, 0.000, 0.000, 0.000,0.05513991,0.097276986,0.022094142,0.032365333,0.022181077, 14:49:46.943
79029.257813, 83663.742188, 158035.812500, 126955.109375, 143511.984375, 99679.835938, 124462.843750, 144635.578125, 0.000, 0.000, 0.000,0.05513991,0.097276986,0.022094142,0.032365333,0.022181077, 14:49:46.943
79051.789063, 83679.382813, 158040.500000, 126887.515625, 143514.531250, 99567.453125, 124434.500000, 144598.140625, 0.000, 0.000, 0.000,0.05513991,0.097276986,0.022094142,0.032365333,0.022181077, 14:49:46.943
79121.843750, 83748.609375, 158106.828125, 126824.734375, 143580.968750, 99475.453125, 124452.875000, 144607.593750, 0.178, 0.222, 0.946,0.05513991,0.097276986,0.022094142,0.032365333,0.022181077, 14:49:46.944
