%OpenBCI Raw EEG Data
%
%Sample Rate = 250.0 Hz
%First Column = SampleIndex
%5 Columns before Timestamp are Frequency Power factors DELTA THETA ALPHA BETA GAMMA
%Last Column = Timestamp 
%Other Columns = EEG data in microvolts followed by Accel Data (in G) interleaved with Aux Data
0.000000, 0.000000, 0.000000, 0.000000, 0.000000, 0.000000, 0.000000, 0.000000, 433, 759, 1018,0.0,0.0,0.0,0.0,0.0, 23:05:20.837
87412.570313, 95296.500000, 126375.507813, 120983.484375, 107481.914063, 102930.539063, 140422.296875, 115721.929688, 437, 614, 1018,0.0,0.0,0.0,0.0,0.0, 23:05:21.319
87405.531250, 95280.210938, 126510.578125, 121195.289063, 107464.257813, 102929.757813, 140432.562500, 115712.492188, 431, 506, 1019,0.0,0.0,0.0,0.0,0.0, 23:05:21.320
87425.898438, 95303.945313, 126397.187500, 121053.000000, 107463.296875, 102885.187500, 140316.531250, 115665.445313, 432, 433, 1018,0.0,0.0,0.0,0.0,0.0, 23:05:21.321
87452.132813, 95323.570313, 126267.054688, 120839.226563, 107491.859375, 102891.757813, 140325.125000, 115686.523438, 438, 384, 1019,0.0,0.0,0.0,0.0,0.0, 23:05:21.322
87430.117188, 95304.351563, 126363.484375, 120952.523438, 107488.710938, 102924.351563, 140424.875000, 115726.421875, 444, 351, 1018,0.0,0.0,0.0,0.0,0.0, 23:05:21.323
87397.953125, 95276.523438, 126503.203125, 121177.945313, 107459.250000, 102926.492188, 140445.343750, 115720.500000, 438, 326, 1019,0.0,0.0,0.0,0.0,0.0, 23:05:21.323
87410.093750, 95295.046875, 126425.906250, 121094.859375, 107456.476563, 102881.210938, 140342.828125, 115668.195313, 437, 310, 1019,0.0,0.0,0.0,0.0,0.0, 23:05:21.324
87444.445313, 95326.406250, 126274.500000, 120852.570313, 107483.210938, 102875.507813, 140320.640625, 115671.812500, 443, 299, 1019,0.0,0.0,0.0,0.0,0.0, 23:05:21.325
87435.531250, 95313.914063, 126326.000000, 120893.851563, 107488.953125, 102913.687500, 140397.718750, 115709.101563, 448, 293, 1018,0.0,0.0,0.0,0.0,0.0, 23:05:21.325
87403.742188, 95278.218750, 126482.234375, 121128.078125, 107472.640625, 102928.859375, 140447.421875, 115718.125000, 442, 287, 1019,0.0,0.0,0.0,0.0,0.0, 23:05:21.326
87411.882813, 95289.929688, 126478.820313, 121137.781250, 107460.882813, 102890.085938, 140365.531250, 115675.703125, 440, 283, 1019,0.0,0.0,0.0,0.0,0.0, 23:05:21.326
87441.429688, 95319.726563, 126303.375000, 120876.554688, 107483.750000, 102868.851563, 140308.468750, 115667.234375, 443, 281, 1018,0.0,0.0,0.0,0.0,0.0, 23:05:21.328
87438.593750, 95315.140625, 126303.937500, 120844.320313, 107492.304688, 102903.429688, 140388.437500, 115708.828125, 449, 281, 1019,0.0,0.0,0.0,0.0,0.0, 23:05:21.328
87402.671875, 95279.382813, 126475.796875, 121086.234375, 107470.695313, 102925.960938, 140459.906250, 115726.085938, 446, 279, 1019,0.0,0.0,0.0,0.0,0.0, 23:05:21.329
87408.054688, 95284.164063, 126510.218750, 121155.656250, 107458.445313, 102899.492188, 140401.562500, 115695.328125, 441, 278, 1019,0.0,0.0,0.0,0.0,0.0, 23:05:21.329
87449.945313, 95322.046875, 126328.007813, 120895.820313, 107476.593750, 102866.835938, 140315.796875, 115668.304688, 443, 277, 1018,0.0,0.0,0.0,0.0,0.0, 23:05:21.329
87449.429688, 95318.875000, 126300.000000, 120814.976563, 107483.476563, 102893.812500, 140364.500000, 115703.687500, 450, 278, 1018,0.0,0.0,0.0,0.0,0.0, 23:05:21.330
87414.406250, 95281.664063, 126458.921875, 121034.382813, 107459.609375, 102917.734375, 140429.093750, 115721.414063, 449, 278, 1018,0.0,0.0,0.0,0.0,0.0, 23:05:21.330
87401.820313, 95269.500000, 126520.796875, 121145.531250, 107441.257813, 102894.148438, 140383.593750, 115688.203125, 441, 277, 1018,0.0,0.0,0.0,0.0,0.0, 23:05:21.330
87432.531250, 95303.453125, 126349.671875, 120909.945313, 107453.414063, 102858.234375, 140291.656250, 115660.593750, 442, 277, 1019,0.0,0.0,0.0,0.0,0.0, 23:05:21.331
87437.804688, 95309.492188, 126283.906250, 120772.234375, 107473.820313, 102878.039063, 140344.078125, 115693.273438, 448, 278, 1018,0.0,0.0,0.0,0.0,0.0, 23:05:21.331
87403.546875, 95272.359375, 126421.820313, 120952.523438, 107458.351563, 102902.484375, 140435.484375, 115716.812500, 450, 278, 1019,0.0,0.0,0.0,0.0,0.0, 23:05:21.332
87390.000000, 95258.484375, 126560.000000, 121154.500000, 107437.921875, 102889.929688, 140429.953125, 115696.421875, 442, 277, 1018,0.0,0.0,0.0,0.0,0.0, 23:05:21.332
87421.718750, 95300.343750, 126415.273438, 120962.515625, 107454.710938, 102854.390625, 140326.125000, 115660.375000, 442, 276, 1019,0.0,0.0,0.0,0.0,0.0, 23:05:21.333
87435.281250, 95310.093750, 126312.968750, 120778.515625, 107474.828125, 102864.109375, 140354.375000, 115681.718750, 447, 277, 1018,0.0,0.0,0.0,0.0,0.0, 23:05:21.333
87409.757813, 95278.375000, 126408.031250, 120900.914063, 107456.429688, 102889.523438, 140432.968750, 115707.687500, 451, 278, 1018,0.0,0.0,0.0,0.0,0.0, 23:05:21.333
87389.062500, 95254.726563, 126559.554688, 121128.210938, 107435.085938, 102886.664063, 140447.875000, 115699.601563, 442, 277, 1018,0.0,0.0,0.0,0.0,0.0, 23:05:21.334
87420.171875, 95288.296875, 126448.195313, 120994.484375, 107440.406250, 102848.796875, 140338.890625, 115660.375000, 442, 276, 1018,0.0,0.0,0.0,0.0,0.0, 23:05:21.335
87443.062500, 95313.445313, 126299.242188, 120756.679688, 107473.640625, 102855.125000, 140336.156250, 115679.210938, 446, 276, 1018,0.0,0.0,0.0,0.0,0.0, 23:05:21.335
87427.929688, 95293.906250, 126361.718750, 120825.125000, 107468.726563, 102886.304688, 140426.531250, 115717.078125, 451, 278, 1018,0.0,0.0,0.0,0.0,0.0, 23:05:21.336
87392.320313, 95252.671875, 126545.734375, 121087.601563, 107433.273438, 102887.023438, 140463.140625, 115714.257813, 443, 276, 1019,0.0,0.0,0.0,0.0,0.0, 23:05:21.336
87413.625000, 95274.953125, 126498.109375, 121035.140625, 107431.914063, 102848.914063, 140357.890625, 115670.359375, 441, 276, 1018,0.0,0.0,0.0,0.0,0.0, 23:05:21.336
87441.273438, 95308.976563, 126338.671875, 120783.812500, 107457.148438, 102840.773438, 140325.390625, 115675.773438, 445, 276, 1019,0.0,0.0,0.0,0.0,0.0, 23:05:21.337
87421.601563, 95292.500000, 126383.757813, 120812.875000, 107451.601563, 102873.695313, 140406.453125, 115713.210938, 451, 277, 1018,0.0,0.0,0.0,0.0,0.0, 23:05:21.337
87389.750000, 95260.023438, 126553.648438, 121058.984375, 107420.359375, 102886.484375, 140446.000000, 115719.023438, 445, 277, 1019,0.0,0.0,0.0,0.0,0.0, 23:05:21.337
87400.054688, 95272.382813, 126554.320313, 121075.015625, 107414.031250, 102848.445313, 140355.375000, 115665.781250, 442, 276, 1018,0.0,0.0,0.0,0.0,0.0, 23:05:21.337
87438.882813, 95314.476563, 126369.335938, 120802.726563, 107453.507813, 102830.695313, 140296.000000, 115651.210938, 444, 276, 1019,0.0,0.0,0.0,0.0,0.0, 23:05:21.338
87429.156250, 95302.851563, 126383.375000, 120781.421875, 107458.710938, 102863.304688, 140374.046875, 115694.031250, 450, 277, 1018,0.0,0.0,0.0,0.0,0.0, 23:05:21.338
87399.812500, 95267.578125, 126538.789063, 121007.398438, 107433.093750, 102880.765625, 140433.031250, 115709.921875, 446, 277, 1019,0.0,0.0,0.0,0.0,0.0, 23:05:21.338
87406.312500, 95270.507813, 126588.187500, 121092.250000, 107420.179688, 102853.359375, 140381.265625, 115676.890625, 441, 276, 1018,0.0,0.0,0.0,0.0,0.0, 23:05:21.339
87441.070313, 95306.359375, 126400.046875, 120824.851563, 107436.945313, 102825.601563, 140296.328125, 115657.218750, 443, 276, 1018,0.0,0.0,0.0,0.0,0.0, 23:05:21.339
87440.515625, 95307.859375, 126363.304688, 120730.867188, 107452.367188, 102853.312500, 140360.843750, 115698.500000, 449, 277, 1019,0.0,0.0,0.0,0.0,0.0, 23:05:21.340
87415.656250, 95284.273438, 126509.171875, 120938.671875, 107443.671875, 102879.804688, 140447.625000, 115725.906250, 448, 277, 1018,0.0,0.0,0.0,0.0,0.0, 23:05:21.341
87407.453125, 95272.812500, 126611.968750, 121096.625000, 107425.562500, 102860.289063, 140423.953125, 115696.000000, 442, 276, 1019,0.0,0.0,0.0,0.0,0.0, 23:05:21.341
87445.968750, 95314.359375, 126421.171875, 120844.835938, 107441.453125, 102826.734375, 140309.515625, 115657.687500, 442, 276, 1018,0.0,0.0,0.0,0.0,0.0, 23:05:21.341
87447.484375, 95313.601563, 126344.054688, 120696.664063, 107455.695313, 102841.023438, 140350.156250, 115680.914063, 447, 276, 1019,0.0,0.0,0.0,0.0,0.0, 23:05:21.342
87412.257813, 95279.335938, 126467.867188, 120865.578125, 107439.914063, 102871.890625, 140434.546875, 115712.453125, 450, 277, 1018,0.0,0.0,0.0,0.0,0.0, 23:05:21.342
87388.500000, 95263.445313, 126614.984375, 121085.187500, 107416.000000, 102859.390625, 140432.562500, 115698.679688, 442, 276, 1018,0.0,0.0,0.0,0.0,0.0, 23:05:21.342
87417.625000, 95295.992188, 126489.546875, 120921.546875, 107424.445313, 102816.343750, 140321.312500, 115658.468750, 441, 276, 1018,5.822168E-4,7.712272E-4,9.4798894E-4,0.002982369,0.003787895, 23:05:21.349
87435.125000, 95311.500000, 126389.679688, 120742.578125, 107447.960938, 102826.539063, 140337.359375, 115669.468750, 446, 276, 1019,5.822168E-4,7.712272E-4,9.4798894E-4,0.002982369,0.003787895, 23:05:21.350
87414.429688, 95289.148438, 126489.414063, 120869.671875, 107442.304688, 102861.070313, 140421.953125, 115701.500000, 448, 277, 1017,5.822168E-4,7.712272E-4,9.4798894E-4,0.002982369,0.003787895, 23:05:21.350
87399.562500, 95268.968750, 126628.820313, 121089.546875, 107418.929688, 102862.054688, 140437.125000, 115699.289063, 441, 276, 1019,5.822168E-4,7.712272E-4,9.4798894E-4,0.002982369,0.003787895, 23:05:21.350
87425.960938, 95299.031250, 126533.351563, 120973.937500, 107418.859375, 102821.578125, 140331.312500, 115654.781250, 441, 276, 1018,5.822168E-4,7.712272E-4,9.4798894E-4,0.002982369,0.003787895, 23:05:21.351
87448.093750, 95317.804688, 126402.265625, 120753.148438, 107442.773438, 102819.273438, 140322.843750, 115663.031250, 445, 276, 1018,5.822168E-4,7.712272E-4,9.4798894E-4,0.002982369,0.003787895, 23:05:21.351
87435.062500, 95303.054688, 126451.164063, 120806.523438, 107448.875000, 102855.882813, 140402.968750, 115700.804688, 449, 277, 1018,5.822168E-4,7.712272E-4,9.4798894E-4,0.002982369,0.003787895, 23:05:21.352
87404.835938, 95273.437500, 126620.523438, 121053.515625, 107431.375000, 102870.460938, 140457.937500, 115712.023438, 443, 276, 1019,5.822168E-4,7.712272E-4,9.4798894E-4,0.002982369,0.003787895, 23:05:21.352
87428.289063, 95300.679688, 126579.468750, 121013.054688, 107429.117188, 102833.664063, 140362.171875, 115672.601563, 441, 276, 1017,5.822168E-4,7.712272E-4,9.4798894E-4,0.002982369,0.003787895, 23:05:21.353
87452.468750, 95321.359375, 126421.085938, 120764.546875, 107448.203125, 102818.062500, 140318.343750, 115671.906250, 444, 275, 1018,5.822168E-4,7.712272E-4,9.4798894E-4,0.002982369,0.003787895, 23:05:21.353
87439.890625, 95303.898438, 126453.804688, 120780.304688, 107445.320313, 102844.640625, 140391.953125, 115701.765625, 448, 276, 1018,5.822168E-4,7.712272E-4,9.4798894E-4,0.002982369,0.003787895, 23:05:21.354
87411.210938, 95277.859375, 126614.109375, 121016.367188, 107430.750000, 102866.125000, 140459.187500, 115716.226563, 444, 276, 1019,5.822168E-4,7.712272E-4,9.4798894E-4,0.002982369,0.003787895, 23:05:21.355
87416.195313, 95287.492188, 126630.117188, 121053.445313, 107416.867188, 102831.523438, 140389.312500, 115674.210938, 442, 276, 1018,5.822168E-4,7.712272E-4,9.4798894E-4,0.002982369,0.003787895, 23:05:21.356
87453.250000, 95325.132813, 126441.781250, 120780.640625, 107431.445313, 102807.539063, 140318.875000, 115657.132813, 443, 275, 1019,5.822168E-4,7.712272E-4,9.4798894E-4,0.002982369,0.003787895, 23:05:21.356
87444.312500, 95313.312500, 126449.179688, 120746.625000, 107436.609375, 102832.843750, 140391.890625, 115689.140625, 449, 277, 1018,5.822168E-4,7.712272E-4,9.4798894E-4,0.002982369,0.003787895, 23:05:21.356
87421.695313, 95288.570313, 126606.289063, 120975.523438, 107418.726563, 102859.570313, 140455.546875, 115708.742188, 446, 276, 1018,5.822168E-4,7.712272E-4,9.4798894E-4,0.002982369,0.003787895, 23:05:21.357
87423.796875, 95290.289063, 126662.031250, 121077.585938, 107407.078125, 102836.351563, 140406.968750, 115678.234375, 441, 276, 1018,5.822168E-4,7.712272E-4,9.4798894E-4,0.002982369,0.003787895, 23:05:21.357
87454.687500, 95324.085938, 126481.117188, 120827.804688, 107425.875000, 102806.148438, 140320.109375, 115653.421875, 443, 275, 1019,5.822168E-4,7.712272E-4,9.4798894E-4,0.002982369,0.003787895, 23:05:21.358
87454.484375, 95325.406250, 126449.468750, 120740.539063, 107444.828125, 102831.140625, 140382.578125, 115689.828125, 449, 277, 1018,5.822168E-4,7.712272E-4,9.4798894E-4,0.002982369,0.003787895, 23:05:21.358
87411.726563, 95286.492188, 126602.335938, 120954.921875, 107420.398438, 102850.679688, 140454.640625, 115704.765625, 448, 277, 1018,5.822168E-4,7.712272E-4,9.4798894E-4,0.002982369,0.003787895, 23:05:21.359
87401.531250, 95280.679688, 126679.492188, 121095.781250, 107401.359375, 102833.351563, 140420.187500, 115680.039063, 442, 276, 1018,5.822168E-4,7.712272E-4,9.4798894E-4,0.002982369,0.003787895, 23:05:21.359
87432.960938, 95315.906250, 126516.750000, 120879.953125, 107415.726563, 102797.187500, 140325.125000, 115649.953125, 441, 275, 1018,5.822168E-4,7.712272E-4,9.4798894E-4,0.002982369,0.003787895, 23:05:21.360
87438.007813, 95317.984375, 126456.640625, 120748.234375, 107434.171875, 102812.007813, 140366.015625, 115678.546875, 448, 276, 1019,5.822168E-4,7.712272E-4,9.4798894E-4,0.002982369,0.003787895, 23:05:21.361
87410.312500, 95288.164063, 126565.789063, 120901.070313, 107427.937500, 102841.867188, 140447.937500, 115706.546875, 450, 277, 1018,5.822168E-4,7.712272E-4,9.4798894E-4,0.002982369,0.003787895, 23:05:21.361
87388.234375, 95266.414063, 126696.031250, 121105.101563, 107404.734375, 102834.718750, 140456.953125, 115693.164063, 443, 276, 1018,5.822168E-4,7.712272E-4,9.4798894E-4,0.002982369,0.003787895, 23:05:21.362
87405.796875, 95291.492188, 126565.203125, 120942.648438, 107389.984375, 102784.671875, 140330.750000, 115639.765625, 443, 276, 1019,5.822168E-4,7.712272E-4,9.4798894E-4,0.002982369,0.003787895, 23:05:21.362
87423.750000, 95310.648438, 126437.015625, 120738.171875, 107417.851563, 102789.031250, 140337.343750, 115654.203125, 447, 276, 1019,5.822168E-4,7.712272E-4,9.4798894E-4,0.002982369,0.003787895, 23:05:21.362
87397.953125, 95289.773438, 126510.468750, 120839.132813, 107420.046875, 102823.921875, 140430.734375, 115685.093750, 451, 277, 1019,5.822168E-4,7.712272E-4,9.4798894E-4,0.002982369,0.003787895, 23:05:21.363
87375.492188, 95264.898438, 126653.226563, 121062.718750, 107398.273438, 102830.492188, 140451.234375, 115681.742188, 443, 276, 1018,5.822168E-4,7.712272E-4,9.4798894E-4,0.002982369,0.003787895, 23:05:21.363
87402.781250, 95288.812500, 126588.968750, 120988.109375, 107392.687500, 102788.781250, 140347.250000, 115639.804688, 443, 276, 1018,5.822168E-4,7.712272E-4,9.4798894E-4,0.002982369,0.003787895, 23:05:21.364
87433.695313, 95318.382813, 126442.562500, 120757.125000, 107420.804688, 102787.468750, 140335.312500, 115653.304688, 445, 276, 1018,5.822168E-4,7.712272E-4,9.4798894E-4,0.002982369,0.003787895, 23:05:21.364
87409.039063, 95301.039063, 126495.671875, 120812.046875, 107420.710938, 102818.937500, 140429.843750, 115694.210938, 450, 277, 1019,5.822168E-4,7.712272E-4,9.4798894E-4,0.002982369,0.003787895, 23:05:21.364
87379.226563, 95269.078125, 126648.242188, 121047.007813, 107398.203125, 102829.843750, 140474.093750, 115698.171875, 445, 277, 1018,5.822168E-4,7.712272E-4,9.4798894E-4,0.002982369,0.003787895, 23:05:21.365
87388.609375, 95279.804688, 126620.976563, 121028.500000, 107385.507813, 102793.234375, 140382.203125, 115653.781250, 443, 276, 1019,5.822168E-4,7.712272E-4,9.4798894E-4,0.002982369,0.003787895, 23:05:21.365
87417.046875, 95306.492188, 126460.843750, 120781.265625, 107408.664063, 102778.054688, 140335.406250, 115644.476563, 444, 276, 1018,5.822168E-4,7.712272E-4,9.4798894E-4,0.002982369,0.003787895, 23:05:21.365
87395.429688, 95285.054688, 126490.062500, 120788.710938, 107413.000000, 102809.125000, 140409.609375, 115677.429688, 451, 277, 1019,5.822168E-4,7.712272E-4,9.4798894E-4,0.002982369,0.003787895, 23:05:21.365
87368.828125, 95255.132813, 126654.906250, 121034.671875, 107398.093750, 102834.585938, 140472.531250, 115705.945313, 446, 277, 1018,5.822168E-4,7.712272E-4,9.4798894E-4,0.002982369,0.003787895, 23:05:21.366
87388.921875, 95272.117188, 126664.718750, 121073.492188, 107384.195313, 102799.781250, 140400.687500, 115659.234375, 442, 276, 1018,5.822168E-4,7.712272E-4,9.4798894E-4,0.002982369,0.003787895, 23:05:21.367
87421.359375, 95306.429688, 126491.468750, 120820.804688, 107399.367188, 102768.132813, 140326.078125, 115627.984375, 443, 276, 1018,5.822168E-4,7.712272E-4,9.4798894E-4,0.002982369,0.003787895, 23:05:21.367
87416.085938, 95302.671875, 126473.742188, 120762.937500, 107413.945313, 102796.070313, 140395.062500, 115667.593750, 449, 277, 1018,5.822168E-4,7.712272E-4,9.4798894E-4,0.002982369,0.003787895, 23:05:21.368
87386.820313, 95270.976563, 126631.609375, 120992.468750, 107394.921875, 102825.195313, 140468.171875, 115691.734375, 448, 277, 1019,5.822168E-4,7.712272E-4,9.4798894E-4,0.002982369,0.003787895, 23:05:21.368
87390.687500, 95273.054688, 126682.281250, 121094.687500, 107384.976563, 102807.914063, 140419.375000, 115658.984375, 442, 276, 1018,5.822168E-4,7.712272E-4,9.4798894E-4,0.002982369,0.003787895, 23:05:21.368
87421.937500, 95309.890625, 126500.117188, 120851.273438, 107397.046875, 102772.179688, 140323.234375, 115628.210938, 442, 276, 1018,5.822168E-4,7.712272E-4,9.4798894E-4,0.002982369,0.003787895, 23:05:21.369
87425.671875, 95316.460938, 126439.257813, 120735.984375, 107416.359375, 102790.062500, 140374.812500, 115658.179688, 449, 276, 1018,5.822168E-4,7.712272E-4,9.4798894E-4,0.002982369,0.003787895, 23:05:21.369
87387.296875, 95278.304688, 126589.570313, 120946.804688, 107400.617188, 102816.320313, 140466.093750, 115684.843750, 449, 277, 1018,5.822168E-4,7.712272E-4,9.4798894E-4,0.002982369,0.003787895, 23:05:21.369
87374.015625, 95265.296875, 126711.656250, 121141.960938, 107382.937500, 102802.085938, 140444.921875, 115660.195313, 442, 276, 1018,5.822168E-4,7.712272E-4,9.4798894E-4,0.002982369,0.003787895, 23:05:21.369
87404.171875, 95301.554688, 126545.781250, 120932.523438, 107396.796875, 102760.664063, 140331.671875, 115620.007813, 442, 276, 1018,5.822168E-4,7.712272E-4,9.4798894E-4,0.002982369,0.003787895, 23:05:21.370
87414.179688, 95310.765625, 126450.562500, 120766.273438, 107415.617188, 102775.101563, 140359.187500, 115645.351563, 447, 276, 1018,5.822168E-4,7.712272E-4,9.4798894E-4,0.002982369,0.003787895, 23:05:21.370
87385.906250, 95282.156250, 126555.882813, 120915.468750, 107403.835938, 102804.859375, 140448.343750, 115677.179688, 449, 277, 1018,5.822168E-4,7.712272E-4,9.4798894E-4,0.002982369,0.003787895, 23:05:21.370
87367.492188, 95261.546875, 126702.960938, 121145.375000, 107381.289063, 102801.054688, 140466.187500, 115666.046875, 442, 276, 1018,5.822168E-4,7.712272E-4,9.4798894E-4,0.002982369,0.003787895, 23:05:21.370
87395.093750, 95292.101563, 126590.195313, 121007.109375, 107380.796875, 102756.484375, 140351.875000, 115620.789063, 442, 276, 1018,5.822168E-4,7.712272E-4,9.4798894E-4,0.002982369,0.003787895, 23:05:21.370
87417.085938, 95310.429688, 126471.351563, 120805.382813, 107403.367188, 102761.406250, 140357.218750, 115639.960938, 445, 276, 1018,5.822168E-4,7.712272E-4,9.4798894E-4,0.002982369,0.003787895, 23:05:21.371
87386.578125, 95280.562500, 126565.875000, 120916.492188, 107398.945313, 102793.789063, 140448.546875, 115674.093750, 449, 277, 1018,5.822168E-4,7.712272E-4,9.4798894E-4,0.002982369,0.003787895, 23:05:21.371
87357.789063, 95254.750000, 126710.265625, 121141.648438, 107375.203125, 102797.929688, 140463.875000, 115663.656250, 443, 276, 1018,5.822168E-4,7.712272E-4,9.4798894E-4,0.002982369,0.003787895, 23:05:21.371
87387.406250, 95282.890625, 126637.109375, 121061.421875, 107374.132813, 102761.625000, 140363.500000, 115623.242188, 442, 276, 1019,5.822168E-4,7.712272E-4,9.4798894E-4,0.002982369,0.003787895, 23:05:21.371
87420.171875, 95313.734375, 126486.953125, 120825.390625, 107403.523438, 102756.195313, 140342.781250, 115632.609375, 446, 276, 1019,5.822168E-4,7.712272E-4,9.4798894E-4,0.002982369,0.003787895, 23:05:21.372
87403.367188, 95298.539063, 126532.820313, 120867.945313, 107411.906250, 102791.351563, 140432.859375, 115677.781250, 450, 277, 1018,5.822168E-4,7.712272E-4,9.4798894E-4,0.002982369,0.003787895, 23:05:21.373
87366.351563, 95262.882813, 126696.101563, 121113.187500, 107381.421875, 102802.796875, 140478.734375, 115688.203125, 444, 276, 1018,5.822168E-4,7.712272E-4,9.4798894E-4,0.002982369,0.003787895, 23:05:21.374
87364.585938, 95268.335938, 126687.382813, 121119.226563, 107359.382813, 102760.796875, 140375.812500, 115637.531250, 441, 276, 1018,5.822168E-4,7.712272E-4,9.4798894E-4,0.002982369,0.003787895, 23:05:21.374
87398.890625, 95302.492188, 126514.578125, 120859.703125, 107388.078125, 102745.515625, 140315.546875, 115630.085938, 443, 275, 1019,5.822168E-4,7.712272E-4,9.4798894E-4,0.002982369,0.003787895, 23:05:21.374
87392.101563, 95293.617188, 126533.492188, 120851.992188, 107399.882813, 102780.156250, 140399.343750, 115666.984375, 450, 277, 1019,5.822168E-4,7.712272E-4,9.4798894E-4,0.002982369,0.003787895, 23:05:21.375
87363.289063, 95263.578125, 126704.812500, 121104.226563, 107383.562500, 102802.062500, 140468.968750, 115683.171875, 446, 276, 1019,5.822168E-4,7.712272E-4,9.4798894E-4,0.002982369,0.003787895, 23:05:21.375
87366.414063, 95266.929688, 126742.789063, 121180.468750, 107368.859375, 102770.453125, 140404.640625, 115648.476563, 442, 276, 1018,5.822168E-4,7.712272E-4,9.4798894E-4,0.002982369,0.003787895, 23:05:21.375
87400.679688, 95305.328125, 126560.843750, 120920.851563, 107392.195313, 102745.265625, 140321.812500, 115627.109375, 444, 276, 1019,5.822168E-4,7.712272E-4,9.4798894E-4,0.002982369,0.003787895, 23:05:21.375
87411.273438, 95312.867188, 126528.304688, 120837.078125, 107410.429688, 102773.429688, 140385.015625, 115660.195313, 449, 277, 1018,5.822168E-4,7.712272E-4,9.4798894E-4,0.002982369,0.003787895, 23:05:21.376
87382.039063, 95278.304688, 126676.875000, 121050.406250, 107395.125000, 102801.906250, 140471.140625, 115685.000000, 447, 277, 1019,5.822168E-4,7.712272E-4,9.4798894E-4,0.002982369,0.003787895, 23:05:21.376
87371.625000, 95267.914063, 126745.203125, 121171.171875, 107377.015625, 102780.515625, 140432.906250, 115652.523438, 442, 276, 1018,5.822168E-4,7.712272E-4,9.4798894E-4,0.002982369,0.003787895, 23:05:21.376
87398.914063, 95299.296875, 126593.750000, 120956.820313, 107382.781250, 102741.625000, 140334.171875, 115615.757813, 443, 275, 1019,5.822168E-4,7.712272E-4,9.4798894E-4,0.002982369,0.003787895, 23:05:21.377
87407.164063, 95306.742188, 126536.867188, 120835.695313, 107397.445313, 102760.062500, 140373.171875, 115643.742188, 448, 277, 1018,5.822168E-4,7.712272E-4,9.4798894E-4,0.002982369,0.003787895, 23:05:21.377
87380.054688, 95280.835938, 126652.578125, 121001.882813, 107382.742188, 102790.531250, 140454.328125, 115674.898438, 449, 277, 1019,5.822168E-4,7.712272E-4,9.4798894E-4,0.002982369,0.003787895, 23:05:21.377
87363.398438, 95263.890625, 126755.757813, 121170.187500, 107361.726563, 102776.890625, 140437.328125, 115650.851563, 442, 276, 1018,5.822168E-4,7.712272E-4,9.4798894E-4,0.002982369,0.003787895, 23:05:21.377
87393.554688, 95297.062500, 126615.187500, 120980.265625, 107378.648438, 102736.906250, 140343.265625, 115618.148438, 442, 276, 1019,5.822168E-4,7.712272E-4,9.4798894E-4,0.002982369,0.003787895, 23:05:21.378
87395.406250, 95303.390625, 126546.562500, 120833.546875, 107394.742188, 102740.054688, 140376.812500, 115637.218750, 447, 276, 1019,0.0,0.0,0.0,0.0,0.0, 23:05:21.798
87369.234375, 95276.789063, 126647.773438, 120970.632813, 107378.804688, 102769.312500, 140453.015625, 115663.164063, 450, 277, 1019,0.0,0.0,0.0,0.0,0.0, 23:05:21.799
87349.453125, 95255.914063, 126785.507813, 121187.648438, 107356.093750, 102766.054688, 140456.125000, 115653.710938, 443, 276, 1019,0.0,0.0,0.0,0.0,0.0, 23:05:21.799
87378.664063, 95287.960938, 126669.726563, 121046.515625, 107361.773438, 102726.867188, 140346.578125, 115615.312500, 442, 276, 1018,0.0,0.0,0.0,0.0,0.0, 23:05:21.799
87408.210938, 95313.515625, 126538.812500, 120826.843750, 107396.375000, 102736.367188, 140354.406250, 115640.570313, 446, 276, 1019,0.0,0.0,0.0,0.0,0.0, 23:05:21.799
87379.203125, 95286.687500, 126611.812500, 120910.304688, 107391.234375, 102763.367188, 140448.390625, 115668.242188, 450, 277, 1019,0.0,0.0,0.0,0.0,0.0, 23:05:21.800
87335.078125, 95241.742188, 126793.171875, 121174.656250, 107351.265625, 102755.367188, 140479.812500, 115644.210938, 444, 276, 1019,0.0,0.0,0.0,0.0,0.0, 23:05:21.800
87357.367188, 95265.968750, 126728.171875, 121110.148438, 107347.828125, 102713.390625, 140368.812500, 115594.859375, 443, 276, 1018,0.0,0.0,0.0,0.0,0.0, 23:05:21.801
87394.515625, 95302.335938, 126562.257813, 120858.156250, 107392.531250, 102714.242188, 140350.734375, 115605.945313, 445, 276, 1019,0.0,0.0,0.0,0.0,0.0, 23:05:21.801
87376.007813, 95284.523438, 126605.125000, 120892.046875, 107388.773438, 102748.171875, 140433.437500, 115641.617188, 450, 277, 1019,0.0,0.0,0.0,0.0,0.0, 23:05:21.801
87341.250000, 95247.867188, 126759.734375, 121126.539063, 107356.453125, 102760.843750, 140472.468750, 115648.726563, 445, 276, 1018,0.0,0.0,0.0,0.0,0.0, 23:05:21.802
87346.164063, 95254.656250, 126775.828125, 121159.437500, 107351.085938, 102723.359375, 140396.359375, 115605.585938, 442, 276, 1018,0.0,0.0,0.0,0.0,0.0, 23:05:21.802
87392.656250, 95299.562500, 126595.648438, 120894.031250, 107379.367188, 102710.351563, 140331.203125, 115602.187500, 444, 276, 1019,0.0,0.0,0.0,0.0,0.0, 23:05:21.803
87387.875000, 95294.335938, 126596.007813, 120853.015625, 107384.703125, 102744.125000, 140412.781250, 115646.960938, 449, 277, 1018,0.0,0.0,0.0,0.0,0.0, 23:05:21.803
87341.921875, 95252.359375, 126769.367188, 121091.781250, 107362.062500, 102759.148438, 140484.531250, 115654.648438, 446, 277, 1018,0.0,0.0,0.0,0.0,0.0, 23:05:21.804
87328.773438, 95245.164063, 126824.085938, 121178.796875, 107343.890625, 102724.320313, 140420.828125, 115606.328125, 442, 276, 1018,0.0,0.0,0.0,0.0,0.0, 23:05:21.804
87368.695313, 95287.046875, 126646.234375, 120925.460938, 107362.398438, 102696.695313, 140330.640625, 115586.835938, 444, 276, 1018,0.0,0.0,0.0,0.0,0.0, 23:05:21.804
87376.031250, 95286.312500, 126609.929688, 120840.031250, 107380.367188, 102720.476563, 140395.234375, 115627.000000, 449, 276, 1019,0.0,0.0,0.0,0.0,0.0, 23:05:21.805
87345.406250, 95256.109375, 126742.859375, 121035.453125, 107367.046875, 102749.828125, 140471.703125, 115658.515625, 449, 277, 1019,0.0,0.0,0.0,0.0,0.0, 23:05:21.805
87335.484375, 95248.554688, 126826.632813, 121173.968750, 107356.007813, 102734.781250, 140443.203125, 115634.015625, 442, 276, 1018,0.0,0.0,0.0,0.0,0.0, 23:05:21.805
87369.570313, 95286.085938, 126666.437500, 120952.617188, 107372.546875, 102702.085938, 140348.968750, 115602.703125, 443, 276, 1018,0.0,0.0,0.0,0.0,0.0, 23:05:21.806
87364.898438, 95283.312500, 126608.726563, 120824.789063, 107386.742188, 102716.789063, 140402.187500, 115629.437500, 448, 277, 1018,0.0,0.0,0.0,0.0,0.0, 23:05:21.806
87338.992188, 95258.414063, 126719.429688, 120983.484375, 107377.421875, 102744.640625, 140487.453125, 115658.000000, 449, 277, 1019,0.0,0.0,0.0,0.0,0.0, 23:05:21.807
87330.187500, 95246.437500, 126832.531250, 121164.820313, 107360.054688, 102738.757813, 140475.750000, 115639.453125, 442, 276, 1018,0.0,0.0,0.0,0.0,0.0, 23:05:21.807
87358.078125, 95277.343750, 126704.007813, 120993.789063, 107359.851563, 102696.023438, 140361.546875, 115596.695313, 442, 276, 1019,0.0,0.0,0.0,0.0,0.0, 23:05:21.807
87374.554688, 95292.906250, 126611.203125, 120817.078125, 107379.046875, 102704.007813, 140378.468750, 115618.062500, 446, 276, 1018,0.0,0.0,0.0,0.0,0.0, 23:05:21.808
87349.585938, 95267.984375, 126697.328125, 120926.195313, 107375.250000, 102736.703125, 140460.750000, 115655.476563, 450, 277, 1019,0.0,0.0,0.0,0.0,0.0, 23:05:21.808
87321.132813, 95237.335938, 126845.007813, 121149.046875, 107350.195313, 102735.523438, 140476.812500, 115646.984375, 444, 276, 1019,0.0,0.0,0.0,0.0,0.0, 23:05:21.808
87346.343750, 95266.867188, 126757.656250, 121042.226563, 107346.078125, 102692.070313, 140369.953125, 115598.812500, 443, 276, 1018,0.0,0.0,0.0,0.0,0.0, 23:05:21.809
87365.570313, 95283.851563, 126637.781250, 120838.289063, 107367.296875, 102688.468750, 140362.203125, 115605.320313, 446, 276, 1018,0.0,0.0,0.0,0.0,0.0, 23:05:21.809
87343.398438, 95261.835938, 126690.132813, 120900.734375, 107363.898438, 102715.070313, 140437.437500, 115633.750000, 450, 277, 1018,0.0,0.0,0.0,0.0,0.0, 23:05:21.809
87322.539063, 95241.156250, 126812.460938, 121105.281250, 107346.351563, 102724.453125, 140473.906250, 115636.835938, 444, 276, 1019,0.0,0.0,0.0,0.0,0.0, 23:05:21.810
87331.484375, 95251.531250, 126769.726563, 121061.937500, 107342.101563, 102688.046875, 140392.328125, 115593.609375, 443, 276, 1019,0.0,0.0,0.0,0.0,0.0, 23:05:21.810
87362.484375, 95283.117188, 126635.031250, 120838.867188, 107367.851563, 102680.890625, 140367.093750, 115597.273438, 445, 276, 1018,0.0,0.0,0.0,0.0,0.0, 23:05:21.810
87352.000000, 95273.257813, 126691.445313, 120879.257813, 107377.976563, 102716.078125, 140458.578125, 115639.898438, 450, 277, 1018,0.0,0.0,0.0,0.0,0.0, 23:05:21.811
87326.093750, 95246.968750, 126847.328125, 121114.289063, 107361.617188, 102735.343750, 140515.843750, 115651.765625, 445, 276, 1018,0.0,0.0,0.0,0.0,0.0, 23:05:21.811
87331.976563, 95253.812500, 126847.460938, 121138.132813, 107347.757813, 102702.257813, 140444.640625, 115613.742188, 442, 276, 1018,0.0,0.0,0.0,0.0,0.0, 23:05:21.811
87363.000000, 95287.070313, 126681.101563, 120889.789063, 107363.289063, 102677.765625, 140386.468750, 115600.984375, 444, 276, 1018,0.0,0.0,0.0,0.0,0.0, 23:05:21.812
87361.117188, 95286.507813, 126688.742188, 120861.015625, 107372.703125, 102702.867188, 140457.375000, 115627.515625, 449, 277, 1019,0.0,0.0,0.0,0.0,0.0, 23:05:21.812
87330.367188, 95255.687500, 126819.304688, 121067.328125, 107356.695313, 102723.226563, 140516.109375, 115639.179688, 447, 277, 1018,0.0,0.0,0.0,0.0,0.0, 23:05:21.812
87330.742188, 95252.562500, 126850.640625, 121143.296875, 107346.195313, 102699.265625, 140461.515625, 115607.265625, 442, 276, 1018,0.0,0.0,0.0,0.0,0.0, 23:05:21.813
87369.164063, 95287.468750, 126696.414063, 120914.484375, 107367.093750, 102671.054688, 140388.062500, 115594.390625, 443, 276, 1019,0.0,0.0,0.0,0.0,0.0, 23:05:21.813
87376.898438, 95293.125000, 126665.070313, 120826.734375, 107387.367188, 102697.859375, 140444.406250, 115632.117188, 448, 276, 1018,0.0,0.0,0.0,0.0,0.0, 23:05:21.813
87342.992188, 95259.312500, 126796.390625, 121019.335938, 107365.976563, 102722.828125, 140522.781250, 115651.898438, 449, 277, 1018,0.0,0.0,0.0,0.0,0.0, 23:05:21.813
87330.070313, 95247.617188, 126889.906250, 121173.812500, 107340.000000, 102700.273438, 140489.062500, 115617.945313, 443, 276, 1018,0.0,0.0,0.0,0.0,0.0, 23:05:21.814
87373.906250, 95287.156250, 126726.359375, 120956.843750, 107354.710938, 102662.718750, 140379.234375, 115580.421875, 443, 276, 1018,0.0,0.0,0.0,0.0,0.0, 23:05:21.814
87380.007813, 95289.796875, 126653.695313, 120816.132813, 107379.007813, 102677.671875, 140420.406250, 115604.671875, 447, 276, 1019,0.0,0.0,0.0,0.0,0.0, 23:05:21.814
87343.234375, 95257.234375, 126764.250000, 120971.820313, 107361.976563, 102705.726563, 140499.468750, 115627.625000, 450, 277, 1018,0.0,0.0,0.0,0.0,0.0, 23:05:21.814
87334.609375, 95248.265625, 126882.554688, 121160.554688, 107346.351563, 102703.625000, 140495.625000, 115620.632813, 443, 276, 1018,0.0,0.0,0.0,0.0,0.0, 23:05:21.814
87365.835938, 95280.093750, 126754.796875, 120997.250000, 107355.804688, 102665.000000, 140386.828125, 115584.242188, 442, 276, 1018,0.0,0.0,0.0,0.0,0.0, 23:05:21.815
87371.109375, 95286.132813, 126656.804688, 120820.179688, 107375.968750, 102672.664063, 140408.218750, 115604.382813, 447, 276, 1018,0.0,0.0,0.0,0.0,0.0, 23:05:21.815
87345.671875, 95263.531250, 126759.132813, 120951.031250, 107362.242188, 102704.585938, 140496.093750, 115636.835938, 450, 277, 1018,0.0,0.0,0.0,0.0,0.0, 23:05:21.816
87328.867188, 95246.414063, 126901.734375, 121175.914063, 107332.539063, 102706.750000, 140508.062500, 115629.593750, 443, 276, 1018,0.0,0.0,0.0,0.0,0.0, 23:05:21.816
87348.937500, 95267.289063, 126824.601563, 121084.984375, 107332.046875, 102662.117188, 140399.218750, 115586.812500, 442, 276, 1019,0.0,0.0,0.0,0.0,0.0, 23:05:21.816
87384.406250, 95303.875000, 126686.132813, 120858.070313, 107372.414063, 102664.843750, 140387.375000, 115603.929688, 445, 276, 1018,0.0,0.0,0.0,0.0,0.0, 23:05:21.817
87372.921875, 95292.281250, 126744.492188, 120914.015625, 107369.484375, 102700.070313, 140470.500000, 115639.156250, 450, 277, 1019,0.0,0.0,0.0,0.0,0.0, 23:05:21.817
87345.921875, 95261.726563, 126899.835938, 121148.281250, 107342.281250, 102710.937500, 140510.390625, 115636.343750, 445, 276, 1018,0.0,0.0,0.0,0.0,0.0, 23:05:21.817
87359.625000, 95277.187500, 126857.523438, 121115.937500, 107337.523438, 102672.492188, 140414.125000, 115594.101563, 443, 276, 1018,0.0,0.0,0.0,0.0,0.0, 23:05:21.818
87389.484375, 95306.625000, 126700.453125, 120874.742188, 107363.179688, 102654.695313, 140375.031250, 115591.640625, 444, 276, 1018,0.0,0.0,0.0,0.0,0.0, 23:05:21.818
87375.203125, 95290.914063, 126737.093750, 120895.125000, 107364.007813, 102681.382813, 140448.328125, 115617.476563, 450, 277, 1019,0.0,0.0,0.0,0.0,0.0, 23:05:21.818
87346.570313, 95262.304688, 126886.085938, 121122.289063, 107344.226563, 102703.625000, 140503.375000, 115633.304688, 446, 277, 1018,0.0,0.0,0.0,0.0,0.0, 23:05:21.819
87351.281250, 95267.625000, 126903.968750, 121164.890625, 107332.890625, 102679.375000, 140433.281250, 115596.828125, 443, 276, 1019,0.0,0.0,0.0,0.0,0.0, 23:05:21.819
87390.312500, 95304.750000, 126734.367188, 120911.335938, 107360.390625, 102658.179688, 140365.750000, 115583.796875, 444, 276, 1018,0.0,0.0,0.0,0.0,0.0, 23:05:21.819
87389.750000, 95302.828125, 126726.320313, 120860.507813, 107367.960938, 102688.742188, 140436.875000, 115624.718750, 450, 277, 1019,0.0,0.0,0.0,0.0,0.0, 23:05:21.820
87355.289063, 95268.476563, 126872.164063, 121076.601563, 107348.093750, 102710.445313, 140519.093750, 115644.281250, 447, 276, 1019,0.0,0.0,0.0,0.0,0.0, 23:05:21.820
87350.859375, 95265.234375, 126926.742188, 121179.554688, 107324.601563, 102680.515625, 140466.265625, 115602.859375, 443, 276, 1019,0.0,0.0,0.0,0.0,0.0, 23:05:21.820
87381.125000, 95300.859375, 126746.859375, 120933.148438, 107340.742188, 102642.578125, 140360.656250, 115565.085938, 443, 276, 1018,0.0,0.0,0.0,0.0,0.0, 23:05:21.821
87382.867188, 95305.171875, 126704.593750, 120833.773438, 107364.523438, 102665.757813, 140428.609375, 115603.351563, 449, 276, 1019,0.0,0.0,0.0,0.0,0.0, 23:05:21.821
87349.070313, 95272.070313, 126848.312500, 121033.890625, 107345.921875, 102687.421875, 140518.187500, 115621.500000, 449, 277, 1018,0.0,0.0,0.0,0.0,0.0, 23:05:21.821
87345.945313, 95270.664063, 126939.484375, 121185.500000, 107322.906250, 102671.820313, 140489.093750, 115591.390625, 443, 276, 1019,0.0,0.0,0.0,0.0,0.0, 23:05:21.822
87388.859375, 95310.117188, 126781.125000, 120969.625000, 107338.460938, 102634.335938, 140385.734375, 115556.101563, 443, 276, 1018,0.0,0.0,0.0,0.0,0.0, 23:05:21.822
87398.023438, 95314.226563, 126713.531250, 120820.117188, 107365.796875, 102646.156250, 140431.000000, 115584.375000, 448, 276, 1019,0.0,0.0,0.0,0.0,0.0, 23:05:21.822
87364.851563, 95282.507813, 126823.617188, 120965.984375, 107347.734375, 102673.539063, 140512.531250, 115612.984375, 450, 277, 1018,0.0,0.0,0.0,0.0,0.0, 23:05:21.823
87344.375000, 95261.546875, 126964.476563, 121178.125000, 107327.578125, 102671.570313, 140520.937500, 115602.773438, 443, 276, 1019,0.0,0.0,0.0,0.0,0.0, 23:05:21.823
87382.039063, 95295.789063, 126861.031250, 121036.750000, 107339.039063, 102635.656250, 140419.625000, 115569.000000, 443, 276, 1019,0.0,0.0,0.0,0.0,0.0, 23:05:21.823
87397.820313, 95309.085938, 126763.757813, 120848.773438, 107364.679688, 102643.117188, 140433.687500, 115590.726563, 447, 276, 1019,0.0,0.0,0.0,0.0,0.0, 23:05:21.823
87372.226563, 95284.320313, 126848.492188, 120943.671875, 107354.929688, 102674.882813, 140515.750000, 115620.203125, 450, 277, 1018,0.0,0.0,0.0,0.0,0.0, 23:05:21.824
87352.070313, 95262.257813, 126980.882813, 121148.773438, 107338.484375, 102681.453125, 140542.828125, 115617.726563, 443, 276, 1019,0.0,0.0,0.0,0.0,0.0, 23:05:21.824
87364.945313, 95277.820313, 126930.210938, 121080.710938, 107334.437500, 102639.117188, 140450.640625, 115573.398438, 443, 276, 1018,0.0,0.0,0.0,0.0,0.0, 23:05:21.824
87386.507813, 95304.351563, 126794.218750, 120853.843750, 107355.492188, 102632.500000, 140423.875000, 115578.476563, 446, 276, 1018,0.0,0.0,0.0,0.0,0.0, 23:05:21.825
87378.195313, 95298.984375, 126824.398438, 120878.585938, 107364.296875, 102671.171875, 140511.062500, 115618.664063, 450, 277, 1018,0.0,0.0,0.0,0.0,0.0, 23:05:21.825
87348.828125, 95271.382813, 126971.828125, 121105.007813, 107346.171875, 102683.890625, 140569.609375, 115623.648438, 445, 276, 1018,0.0,0.0,0.0,0.0,0.0, 23:05:21.825
87354.570313, 95283.046875, 126945.945313, 121087.734375, 107329.921875, 102647.140625, 140487.328125, 115582.632813, 443, 276, 1018,0.0,0.0,0.0,0.0,0.0, 23:05:21.826
87388.343750, 95320.757813, 126776.093750, 120827.875000, 107347.289063, 102632.054688, 140426.796875, 115573.203125, 444, 276, 1018,0.0,0.0,0.0,0.0,0.0, 23:05:21.826
87376.562500, 95309.039063, 126798.382813, 120818.820313, 107352.968750, 102662.945313, 140504.156250, 115608.671875, 450, 277, 1019,0.0,0.0,0.0,0.0,0.0, 23:05:21.826
87348.398438, 95279.781250, 126948.468750, 121041.937500, 107338.125000, 102684.851563, 140573.296875, 115623.804688, 447, 277, 1018,0.0,0.0,0.0,0.0,0.0, 23:05:21.827
87349.187500, 95280.679688, 126972.390625, 121095.734375, 107323.554688, 102651.140625, 140513.609375, 115585.601563, 443, 276, 1019,0.0,0.0,0.0,0.0,0.0, 23:05:21.827
87376.070313, 95306.179688, 126815.101563, 120857.304688, 107338.640625, 102618.039063, 140436.140625, 115559.609375, 443, 276, 1019,0.0,0.0,0.0,0.0,0.0, 23:05:21.827
87376.296875, 95302.648438, 126791.945313, 120788.953125, 107350.328125, 102645.820313, 140496.484375, 115594.546875, 449, 276, 1019,0.0,0.0,0.0,0.0,0.0, 23:05:21.828
87348.289063, 95273.992188, 126924.578125, 120983.593750, 107340.250000, 102678.007813, 140572.531250, 115624.250000, 448, 277, 1018,0.0,0.0,0.0,0.0,0.0, 23:05:21.828
87339.796875, 95264.179688, 126999.859375, 121104.984375, 107330.031250, 102658.562500, 140545.437500, 115604.312500, 443, 276, 1019,0.0,0.0,0.0,0.0,0.0, 23:05:21.828
87366.015625, 95292.281250, 126864.742188, 120904.625000, 107339.601563, 102621.929688, 140455.265625, 115572.750000, 443, 276, 1018,0.0,0.0,0.0,0.0,0.0, 23:05:21.829
87376.789063, 95309.375000, 126796.703125, 120776.843750, 107354.820313, 102642.382813, 140501.812500, 115597.984375, 448, 276, 1019,0.0,0.0,0.0,0.0,0.0, 23:05:21.829
87335.859375, 95268.453125, 126918.250000, 120948.929688, 107332.312500, 102665.828125, 140588.406250, 115617.945313, 449, 277, 1018,0.0,0.0,0.0,0.0,0.0, 23:05:21.829
87320.593750, 95249.945313, 127012.554688, 121109.484375, 107309.242188, 102650.093750, 140568.968750, 115590.343750, 442, 276, 1019,0.0,0.0,0.0,0.0,0.0, 23:05:21.830
87353.046875, 95285.414063, 126884.835938, 120932.898438, 107322.078125, 102615.695313, 140481.265625, 115555.296875, 443, 276, 1018,0.0,0.0,0.0,0.0,0.0, 23:05:21.830
87367.375000, 95302.109375, 126808.750000, 120778.453125, 107352.945313, 102632.367188, 140524.875000, 115583.570313, 446, 276, 1018,0.0,0.0,0.0,0.0,0.0, 23:05:21.830
87334.070313, 95273.460938, 126889.820313, 120889.789063, 107330.929688, 102660.484375, 140599.062500, 115608.562500, 449, 277, 1018,0.0,0.0,0.0,0.0,0.0, 23:05:21.831
87298.312500, 95239.906250, 127029.539063, 121101.992188, 107293.289063, 102652.531250, 140601.156250, 115591.125000, 442, 276, 1018,0.0,0.0,0.0,0.0,0.0, 23:05:21.831
87327.859375, 95273.570313, 126922.234375, 120969.312500, 107301.578125, 102613.210938, 140494.328125, 115546.023438, 442, 275, 1018,0.0,0.0,0.0,0.0,0.0, 23:05:21.831
87356.515625, 95303.187500, 126806.000000, 120770.070313, 107332.226563, 102618.109375, 140506.093750, 115566.898438, 445, 276, 1019,0.0,0.0,0.0,0.0,0.0, 23:05:21.832
87326.789063, 95278.601563, 126888.140625, 120869.398438, 107319.195313, 102644.726563, 140595.187500, 115593.945313, 449, 276, 1019,0.0,0.0,0.0,0.0,0.0, 23:05:21.832
87293.039063, 95247.460938, 127020.804688, 121083.171875, 107292.703125, 102648.234375, 140622.031250, 115576.304688, 443, 276, 1018,0.0,0.0,0.0,0.0,0.0, 23:05:21.832
87316.257813, 95272.007813, 126956.585938, 121013.101563, 107293.421875, 102615.445313, 140537.078125, 115545.148438, 442, 275, 1018,0.0,0.0,0.0,0.0,0.0, 23:05:21.832
87348.867188, 95304.304688, 126823.859375, 120796.421875, 107315.351563, 102614.664063, 140528.718750, 115563.718750, 445, 276, 1018,0.0,0.0,0.0,0.0,0.0, 23:05:21.833
87340.914063, 95296.031250, 126850.664063, 120816.382813, 107317.070313, 102646.671875, 140612.406250, 115597.070313, 450, 276, 1019,0.0,0.0,0.0,0.0,0.0, 23:05:21.833
87302.023438, 95255.710938, 127003.101563, 121046.289063, 107295.453125, 102659.835938, 140671.703125, 115607.890625, 445, 276, 1018,0.0,0.0,0.0,0.0,0.0, 23:05:21.833
87308.929688, 95261.609375, 126989.554688, 121048.570313, 107293.109375, 102623.695313, 140588.437500, 115560.031250, 441, 275, 1019,0.0,0.0,0.0,0.0,0.0, 23:05:21.834
87344.156250, 95295.359375, 126822.250000, 120798.859375, 107324.648438, 102607.085938, 140535.515625, 115548.390625, 443, 276, 1018,0.0,0.0,0.0,0.0,0.0, 23:05:21.834
87340.375000, 95289.593750, 126834.632813, 120784.265625, 107332.671875, 102638.445313, 140615.796875, 115587.351563, 449, 276, 1018,0.0,0.0,0.0,0.0,0.0, 23:05:21.835
87312.351563, 95261.523438, 126967.781250, 120989.671875, 107314.210938, 102659.390625, 140682.515625, 115606.015625, 446, 276, 1017,0.0,0.0,0.0,0.0,0.0, 23:05:21.835
87310.984375, 95257.921875, 127018.968750, 121074.234375, 107308.929688, 102634.492188, 140637.218750, 115577.671875, 443, 276, 1018,0.0,0.0,0.0,0.0,0.0, 23:05:21.836
87337.515625, 95283.765625, 126865.968750, 120846.804688, 107324.710938, 102599.664063, 140553.109375, 115551.070313, 444, 276, 1018,0.0,0.0,0.0,0.0,0.0, 23:05:21.836
87336.890625, 95280.718750, 126840.421875, 120774.429688, 107338.507813, 102624.726563, 140618.062500, 115583.343750, 449, 276, 1018,0.0,0.0,0.0,0.0,0.0, 23:05:21.836
87299.921875, 95244.828125, 126965.031250, 120965.710938, 107321.718750, 102650.765625, 140697.609375, 115609.054688, 448, 277, 1018,0.0,0.0,0.0,0.0,0.0, 23:05:21.836
87276.023438, 95222.718750, 127038.414063, 121093.054688, 107291.093750, 102625.437500, 140659.796875, 115577.828125, 442, 276, 1018,0.0,0.0,0.0,0.0,0.0, 23:05:21.837
87314.312500, 95264.765625, 126875.648438, 120866.539063, 107306.406250, 102592.421875, 140551.046875, 115544.570313, 443, 276, 1018,0.0,0.0,0.0,0.0,0.0, 23:05:21.837
87317.492188, 95268.789063, 126836.937500, 120757.773438, 107326.101563, 102607.039063, 140602.968750, 115573.757813, 448, 276, 1019,0.0,0.0,0.0,0.0,0.0, 23:05:21.837
87284.367188, 95238.898438, 126956.718750, 120925.546875, 107312.460938, 102633.507813, 140685.546875, 115604.109375, 449, 277, 1018,0.0,0.0,0.0,0.0,0.0, 23:05:21.838
87274.750000, 95228.304688, 127060.812500, 121098.593750, 107302.812500, 102623.875000, 140688.609375, 115587.664063, 443, 276, 1019,0.0,0.0,0.0,0.0,0.0, 23:05:21.838
87302.132813, 95260.226563, 126948.851563, 120944.546875, 107311.570313, 102585.875000, 140592.625000, 115548.835938, 443, 276, 1019,0.0,0.0,0.0,0.0,0.0, 23:05:22.279
87307.898438, 95270.171875, 126880.320313, 120795.710938, 107325.742188, 102593.367188, 140610.703125, 115565.687500, 446, 276, 1018,0.0,0.0,0.0,0.0,0.0, 23:05:22.280
87285.390625, 95252.851563, 126973.820313, 120917.257813, 107316.109375, 102623.132813, 140679.609375, 115591.171875, 450, 277, 1018,0.0,0.0,0.0,0.0,0.0, 23:05:22.280
87274.398438, 95240.867188, 127091.007813, 121110.640625, 107305.046875, 102628.414063, 140700.984375, 115590.234375, 444, 276, 1019,0.0,0.0,0.0,0.0,0.0, 23:05:22.280
87304.101563, 95273.304688, 126982.109375, 120975.976563, 107307.125000, 102592.625000, 140601.281250, 115550.648438, 442, 276, 1019,0.0,0.0,0.0,0.0,0.0, 23:05:22.280
87328.242188, 95294.445313, 126869.812500, 120776.015625, 107330.343750, 102595.601563, 140607.359375, 115563.500000, 446, 276, 1019,0.0,0.0,0.0,0.0,0.0, 23:05:22.281
87310.406250, 95275.468750, 126936.914063, 120854.289063, 107324.242188, 102625.820313, 140690.718750, 115599.554688, 451, 277, 1019,0.0,0.0,0.0,0.0,0.0, 23:05:22.281
87297.687500, 95260.648438, 127052.562500, 121052.390625, 107307.929688, 102636.789063, 140726.265625, 115600.398438, 444, 276, 1019,0.0,0.0,0.0,0.0,0.0, 23:05:22.281
87314.156250, 95273.796875, 127015.679688, 121011.804688, 107301.757813, 102599.734375, 140650.515625, 115559.500000, 443, 276, 1018,0.0,0.0,0.0,0.0,0.0, 23:05:22.281
87332.460938, 95290.890625, 126871.851563, 120776.929688, 107329.476563, 102584.757813, 140628.140625, 115555.031250, 445, 276, 1019,0.0,0.0,0.0,0.0,0.0, 23:05:22.281
87320.554688, 95275.132813, 126885.351563, 120775.164063, 107334.187500, 102613.437500, 140710.234375, 115589.851563, 450, 277, 1018,0.0,0.0,0.0,0.0,0.0, 23:05:22.282
87294.890625, 95246.570313, 127043.781250, 121011.359375, 107320.804688, 102635.046875, 140779.234375, 115606.617188, 446, 277, 1018,0.0,0.0,0.0,0.0,0.0, 23:05:22.282
87297.171875, 95248.695313, 127035.914063, 121027.625000, 107312.664063, 102600.921875, 140699.078125, 115565.492188, 443, 276, 1018,0.0,0.0,0.0,0.0,0.0, 23:05:22.282
87318.539063, 95267.687500, 126871.718750, 120779.164063, 107334.390625, 102581.695313, 140632.875000, 115556.437500, 444, 276, 1018,0.0,0.0,0.0,0.0,0.0, 23:05:22.282
87308.015625, 95258.351563, 126891.515625, 120762.757813, 107342.101563, 102612.875000, 140706.109375, 115589.781250, 449, 277, 1018,0.0,0.0,0.0,0.0,0.0, 23:05:22.282
87267.000000, 95219.570313, 127043.000000, 120987.085938, 107309.312500, 102629.171875, 140772.718750, 115601.406250, 447, 277, 1018,0.0,0.0,0.0,0.0,0.0, 23:05:22.283
87268.273438, 95222.656250, 127090.046875, 121073.273438, 107297.242188, 102606.843750, 140721.140625, 115571.812500, 442, 276, 1018,0.0,0.0,0.0,0.0,0.0, 23:05:22.283
87301.085938, 95257.562500, 126925.625000, 120834.304688, 107319.484375, 102581.203125, 140633.734375, 115550.867188, 444, 276, 1019,0.0,0.0,0.0,0.0,0.0, 23:05:22.283
87301.593750, 95255.218750, 126898.804688, 120754.218750, 107333.898438, 102606.507813, 140699.953125, 115582.343750, 449, 276, 1018,0.0,0.0,0.0,0.0,0.0, 23:05:22.283
87270.617188, 95224.773438, 127028.265625, 120948.617188, 107320.062500, 102633.890625, 140786.140625, 115605.921875, 449, 277, 1018,0.0,0.0,0.0,0.0,0.0, 23:05:22.284
87263.757813, 95223.140625, 127096.218750, 121073.117188, 107302.429688, 102616.343750, 140753.437500, 115575.835938, 443, 276, 1018,0.0,0.0,0.0,0.0,0.0, 23:05:22.284
87302.648438, 95268.203125, 126941.093750, 120856.796875, 107310.835938, 102582.570313, 140651.796875, 115544.968750, 443, 276, 1018,0.0,0.0,0.0,0.0,0.0, 23:05:22.284
87310.742188, 95281.171875, 126878.000000, 120721.343750, 107321.046875, 102593.539063, 140686.250000, 115563.562500, 448, 276, 1018,0.0,0.0,0.0,0.0,0.0, 23:05:22.284
87279.359375, 95253.835938, 126992.078125, 120879.820313, 107302.093750, 102615.562500, 140763.562500, 115586.500000, 450, 277, 1018,0.0,0.0,0.0,0.0,0.0, 23:05:22.285
87259.929688, 95238.585938, 127107.750000, 121065.914063, 107276.234375, 102604.023438, 140759.015625, 115571.234375, 442, 276, 1018,0.0,0.0,0.0,0.0,0.0, 23:05:22.285
87306.890625, 95283.671875, 126973.640625, 120890.835938, 107286.734375, 102566.765625, 140650.656250, 115532.203125, 442, 276, 1018,0.0,0.0,0.0,0.0,0.0, 23:05:22.285
87343.664063, 95315.750000, 126862.375000, 120696.664063, 107320.335938, 102582.921875, 140679.500000, 115563.585938, 446, 276, 1019,0.0,0.0,0.0,0.0,0.0, 23:05:22.286
87327.796875, 95299.031250, 126956.273438, 120811.710938, 107313.312500, 102611.984375, 140773.265625, 115595.867188, 450, 277, 1018,0.0,0.0,0.0,0.0,0.0, 23:05:22.286
87321.023438, 95291.203125, 127093.984375, 121024.523438, 107288.570313, 102612.320313, 140790.187500, 115593.804688, 442, 276, 1018,0.0,0.0,0.0,0.0,0.0, 23:05:22.286
87350.210938, 95321.312500, 127013.156250, 120925.414063, 107300.304688, 102569.828125, 140695.000000, 115543.781250, 443, 276, 1018,0.0,0.0,0.0,0.0,0.0, 23:05:22.286
87384.742188, 95354.750000, 126905.710938, 120727.734375, 107336.585938, 102573.914063, 140702.453125, 115561.328125, 445, 276, 1018,0.0,0.0,0.0,0.0,0.0, 23:05:22.287
87360.382813, 95333.406250, 126966.531250, 120791.859375, 107321.226563, 102597.765625, 140768.890625, 115589.429688, 450, 277, 1018,0.0,0.0,0.0,0.0,0.0, 23:05:22.287
87343.750000, 95316.398438, 127114.500000, 121023.312500, 107294.937500, 102604.359375, 140795.906250, 115580.664063, 444, 276, 1018,0.0,0.0,0.0,0.0,0.0, 23:05:22.287
87374.062500, 95345.539063, 127087.296875, 120997.117188, 107298.000000, 102576.531250, 140711.984375, 115549.773438, 442, 275, 1018,0.0,0.0,0.0,0.0,0.0, 23:05:22.287
87410.851563, 95387.046875, 126942.171875, 120763.585938, 107330.812500, 102568.281250, 140680.875000, 115551.585938, 444, 276, 1018,0.0,0.0,0.0,0.0,0.0, 23:05:22.288
87407.140625, 95389.484375, 126960.070313, 120759.632813, 107346.640625, 102607.062500, 140770.640625, 115591.796875, 450, 276, 1019,0.0,0.0,0.0,0.0,0.0, 23:05:22.288
87374.664063, 95358.234375, 127124.804688, 121001.210938, 107318.921875, 102625.414063, 140837.281250, 115604.468750, 445, 276, 1018,0.0,0.0,0.0,0.0,0.0, 23:05:22.288
87378.531250, 95362.351563, 127148.046875, 121052.281250, 107295.632813, 102592.382813, 140760.796875, 115566.429688, 443, 276, 1018,0.0,0.0,0.0,0.0,0.0, 23:05:22.289
87417.289063, 95404.531250, 126991.117188, 120817.429688, 107313.601563, 102571.726563, 140687.109375, 115549.664063, 444, 276, 1019,0.0,0.0,0.0,0.0,0.0, 23:05:22.289
87417.289063, 95404.953125, 126983.359375, 120774.648438, 107327.976563, 102594.437500, 140746.812500, 115578.718750, 450, 277, 1019,0.0,0.0,0.0,0.0,0.0, 23:05:22.289
87393.242188, 95381.125000, 127100.218750, 120967.500000, 107316.039063, 102610.906250, 140798.140625, 115593.695313, 447, 277, 1018,0.0,0.0,0.0,0.0,0.0, 23:05:22.289
87383.445313, 95370.953125, 127149.125000, 121060.757813, 107304.843750, 102591.375000, 140758.515625, 115570.156250, 442, 276, 1018,0.0,0.0,0.0,0.0,0.0, 23:05:22.290
87415.750000, 95405.312500, 126991.210938, 120829.078125, 107328.289063, 102566.093750, 140672.859375, 115550.867188, 444, 276, 1018,0.0,0.0,0.0,0.0,0.0, 23:05:22.290
87411.632813, 95399.789063, 126962.640625, 120740.789063, 107327.242188, 102582.031250, 140720.312500, 115575.523438, 449, 276, 1019,0.0,0.0,0.0,0.0,0.0, 23:05:22.290
87373.390625, 95358.976563, 127069.101563, 120908.453125, 107306.164063, 102603.757813, 140789.937500, 115594.453125, 449, 277, 1018,0.0,0.0,0.0,0.0,0.0, 23:05:22.290
87348.062500, 95333.429688, 127158.109375, 121064.109375, 107286.226563, 102588.109375, 140769.828125, 115567.656250, 443, 276, 1019,0.0,0.0,0.0,0.0,0.0, 23:05:22.291
87370.554688, 95354.171875, 127018.234375, 120871.343750, 107306.992188, 102550.914063, 140669.453125, 115530.734375, 443, 276, 1019,0.0,0.0,0.0,0.0,0.0, 23:05:22.291
87364.156250, 95347.617188, 126947.640625, 120727.398438, 107326.703125, 102562.968750, 140697.468750, 115549.640625, 447, 276, 1019,0.0,0.0,0.0,0.0,0.0, 23:05:22.291
87326.945313, 95311.921875, 127032.984375, 120853.304688, 107314.250000, 102590.593750, 140777.109375, 115577.359375, 449, 277, 1018,0.0,0.0,0.0,0.0,0.0, 23:05:22.291
87301.257813, 95282.890625, 127145.101563, 121035.851563, 107292.210938, 102581.671875, 140784.218750, 115562.023438, 443, 276, 1018,0.0,0.0,0.0,0.0,0.0, 23:05:22.292
87322.070313, 95309.375000, 127029.453125, 120882.859375, 107290.070313, 102542.734375, 140674.765625, 115521.945313, 443, 276, 1018,0.0,0.0,0.0,0.0,0.0, 23:05:22.292
87337.804688, 95325.648438, 126941.718750, 120708.625000, 107317.937500, 102555.812500, 140697.093750, 115543.000000, 446, 276, 1017,0.0,0.0,0.0,0.0,0.0, 23:05:22.293
87310.468750, 95295.789063, 127043.039063, 120830.484375, 107317.921875, 102582.906250, 140797.125000, 115573.695313, 450, 277, 1018,0.0,0.0,0.0,0.0,0.0, 23:05:22.293
87283.562500, 95264.875000, 127167.453125, 121035.812500, 107291.875000, 102583.148438, 140821.218750, 115560.835938, 444, 276, 1018,0.0,0.0,0.0,0.0,0.0, 23:05:22.294
87305.710938, 95288.882813, 127082.898438, 120935.539063, 107293.710938, 102553.085938, 140724.859375, 115530.398438, 443, 276, 1018,0.0,0.0,0.0,0.0,0.0, 23:05:22.294
87326.656250, 95311.273438, 126954.593750, 120717.367188, 107322.656250, 102549.109375, 140710.531250, 115540.835938, 446, 276, 1018,0.0,0.0,0.0,0.0,0.0, 23:05:22.294
87310.984375, 95296.414063, 126986.539063, 120745.125000, 107328.312500, 102579.437500, 140782.390625, 115569.890625, 450, 277, 1018,0.0,0.0,0.0,0.0,0.0, 23:05:22.294
87282.460938, 95266.640625, 127109.445313, 120943.515625, 107311.570313, 102590.953125, 140831.093750, 115575.703125, 445, 276, 1019,0.0,0.0,0.0,0.0,0.0, 23:05:22.295
87292.726563, 95279.046875, 127077.437500, 120912.765625, 107310.679688, 102561.335938, 140751.906250, 115544.765625, 443, 276, 1019,0.0,0.0,0.0,0.0,0.0, 23:05:22.295
87317.398438, 95298.718750, 126941.140625, 120683.476563, 107327.304688, 102553.312500, 140705.968750, 115536.992188, 444, 276, 1019,0.0,0.0,0.0,0.0,0.0, 23:05:22.295
87289.906250, 95267.375000, 126981.734375, 120695.304688, 107324.109375, 102574.703125, 140778.234375, 115562.117188, 450, 277, 1018,0.0,0.0,0.0,0.0,0.0, 23:05:22.295
87262.640625, 95243.593750, 127107.460938, 120896.914063, 107302.984375, 102593.718750, 140830.156250, 115572.953125, 447, 277, 1018,0.0,0.0,0.0,0.0,0.0, 23:05:22.296
87269.632813, 95253.539063, 127133.343750, 120952.882813, 107288.820313, 102565.828125, 140771.187500, 115540.453125, 443, 276, 1018,0.0,0.0,0.0,0.0,0.0, 23:05:22.296
87299.476563, 95282.289063, 126971.765625, 120709.671875, 107311.257813, 102542.398438, 140699.359375, 115526.375000, 444, 276, 1019,0.0,0.0,0.0,0.0,0.0, 23:05:22.296
87287.109375, 95265.968750, 126980.007813, 120673.132813, 107327.257813, 102564.640625, 140772.531250, 115555.343750, 449, 277, 1018,0.0,0.0,0.0,0.0,0.0, 23:05:22.296
87254.296875, 95230.523438, 127126.906250, 120893.023438, 107300.906250, 102583.796875, 140834.453125, 115566.132813, 448, 277, 1019,0.0,0.0,0.0,0.0,0.0, 23:05:22.297
87256.203125, 95229.000000, 127187.101563, 121002.257813, 107285.085938, 102560.906250, 140786.859375, 115536.187500, 442, 276, 1018,0.0,0.0,0.0,0.0,0.0, 23:05:22.297
87296.812500, 95273.617188, 127024.421875, 120772.726563, 107309.445313, 102532.789063, 140689.031250, 115515.398438, 443, 276, 1019,0.0,0.0,0.0,0.0,0.0, 23:05:22.297
87295.828125, 95273.257813, 126969.195313, 120655.742188, 107324.671875, 102551.945313, 140732.703125, 115550.625000, 448, 276, 1019,0.0,0.0,0.0,0.0,0.0, 23:05:22.297
87262.726563, 95240.710938, 127082.359375, 120821.281250, 107300.171875, 102579.148438, 140807.140625, 115578.140625, 449, 277, 1018,0.0,0.0,0.0,0.0,0.0, 23:05:22.298
87254.054688, 95230.812500, 127173.445313, 120973.226563, 107281.640625, 102566.765625, 140794.687500, 115553.640625, 442, 276, 1018,0.0,0.0,0.0,0.0,0.0, 23:05:22.298
87287.046875, 95263.039063, 127022.343750, 120766.828125, 107296.015625, 102527.179688, 140701.750000, 115502.906250, 442, 276, 1018,0.0,0.0,0.0,0.0,0.0, 23:05:22.298
87295.140625, 95270.062500, 126951.687500, 120616.984375, 107316.843750, 102538.132813, 140749.890625, 115529.992188, 447, 276, 1019,0.0,0.0,0.0,0.0,0.0, 23:05:22.298
87273.992188, 95251.867188, 127056.226563, 120756.906250, 107314.718750, 102573.070313, 140846.546875, 115572.531250, 450, 277, 1018,0.0,0.0,0.0,0.0,0.0, 23:05:22.299
87258.460938, 95232.328125, 127176.546875, 120947.031250, 107293.601563, 102570.070313, 140855.031250, 115560.593750, 443, 276, 1019,0.0,0.0,0.0,0.0,0.0, 23:05:22.299
87282.242188, 95254.617188, 127087.726563, 120823.179688, 107292.929688, 102526.757813, 140749.640625, 115510.328125, 443, 276, 1018,0.0,0.0,0.0,0.0,0.0, 23:05:22.299
87304.929688, 95273.953125, 126977.593750, 120622.617188, 107316.914063, 102527.851563, 140754.390625, 115518.570313, 446, 276, 1019,0.0,0.0,0.0,0.0,0.0, 23:05:22.299
87281.125000, 95252.179688, 127045.164063, 120702.609375, 107318.078125, 102560.820313, 140850.109375, 115555.500000, 450, 277, 1018,0.0,0.0,0.0,0.0,0.0, 23:05:22.300
87252.085938, 95226.007813, 127188.304688, 120923.312500, 107297.132813, 102568.109375, 140897.812500, 115558.203125, 443, 276, 1019,0.0,0.0,0.0,0.0,0.0, 23:05:22.300
87269.414063, 95247.796875, 127122.812500, 120848.773438, 107292.679688, 102530.218750, 140808.984375, 115515.820313, 443, 276, 1019,0.0,0.0,0.0,0.0,0.0, 23:05:22.300
87290.554688, 95266.750000, 126993.507813, 120629.367188, 107317.671875, 102522.437500, 140796.296875, 115518.414063, 445, 276, 1019,0.0,0.0,0.0,0.0,0.0, 23:05:22.300
87276.453125, 95253.140625, 127027.281250, 120653.703125, 107322.882813, 102554.625000, 140894.640625, 115558.226563, 450, 277, 1018,0.0,0.0,0.0,0.0,0.0, 23:05:22.301
87248.312500, 95226.406250, 127160.343750, 120865.710938, 107297.218750, 102566.921875, 140954.812500, 115565.757813, 444, 276, 1019,0.0,0.0,0.0,0.0,0.0, 23:05:22.301
87257.789063, 95237.179688, 127143.179688, 120863.093750, 107288.570313, 102535.117188, 140872.718750, 115526.929688, 442, 276, 1018,0.0,0.0,0.0,0.0,0.0, 23:05:22.301
87281.953125, 95261.210938, 126999.750000, 120637.101563, 107306.296875, 102519.062500, 140820.875000, 115519.085938, 444, 275, 1019,0.0,0.0,0.0,0.0,0.0, 23:05:22.302
87271.625000, 95250.101563, 127010.476563, 120623.109375, 107299.789063, 102546.156250, 140876.484375, 115548.437500, 449, 276, 1019,0.0,0.0,0.0,0.0,0.0, 23:05:22.302
87241.359375, 95221.156250, 127133.882813, 120824.515625, 107287.187500, 102564.687500, 140937.515625, 115560.906250, 446, 276, 1018,0.0,0.0,0.0,0.0,0.0, 23:05:22.302
87244.484375, 95226.046875, 127181.648438, 120904.875000, 107279.968750, 102538.937500, 140897.218750, 115528.164063, 442, 276, 1018,0.0,0.0,0.0,0.0,0.0, 23:05:22.302
87283.984375, 95265.679688, 127014.476563, 120662.218750, 107300.593750, 102516.632813, 140813.656250, 115510.031250, 444, 275, 1019,0.0,0.0,0.0,0.0,0.0, 23:05:22.303
87290.312500, 95267.804688, 126990.914063, 120590.984375, 107323.148438, 102544.679688, 140884.781250, 115548.570313, 448, 276, 1019,0.0,0.0,0.0,0.0,0.0, 23:05:22.303
87260.781250, 95240.085938, 127108.484375, 120772.820313, 107313.781250, 102568.734375, 140965.937500, 115573.867188, 448, 277, 1018,0.0,0.0,0.0,0.0,0.0, 23:05:22.303
87257.164063, 95234.164063, 127178.539063, 120894.929688, 107290.179688, 102549.617188, 140936.296875, 115549.242188, 442, 276, 1018,0.0,0.0,0.0,0.0,0.0, 23:05:22.303
87289.148438, 95265.882813, 127024.421875, 120674.117188, 107299.453125, 102516.296875, 140826.781250, 115517.343750, 443, 276, 1018,0.0,0.0,0.0,0.0,0.0, 23:05:22.304
87292.632813, 95274.125000, 126977.593750, 120560.234375, 107317.562500, 102534.648438, 140884.093750, 115548.257813, 448, 276, 1019,0.0,0.0,0.0,0.0,0.0, 23:05:22.304
87254.882813, 95238.117188, 127093.531250, 120729.523438, 107300.710938, 102553.687500, 140970.765625, 115561.890625, 448, 277, 1018,0.0,0.0,0.0,0.0,0.0, 23:05:22.304
87240.890625, 95224.148438, 127199.726563, 120902.171875, 107284.726563, 102542.468750, 140960.421875, 115538.578125, 441, 276, 1018,0.0,0.0,0.0,0.0,0.0, 23:05:22.305
87277.164063, 95256.562500, 127081.890625, 120739.093750, 107295.429688, 102505.679688, 140852.234375, 115506.304688, 442, 275, 1018,0.0,0.0,0.0,0.0,0.0, 23:05:22.305
87291.132813, 95267.398438, 127017.492188, 120601.093750, 107318.320313, 102518.421875, 140883.359375, 115532.046875, 446, 276, 1019,0.0,0.0,0.0,0.0,0.0, 23:05:22.305
87265.164063, 95241.609375, 127090.179688, 120711.195313, 107311.726563, 102545.929688, 140958.609375, 115556.320313, 449, 276, 1019,0.0,0.0,0.0,0.0,0.0, 23:05:22.305
87247.125000, 95223.476563, 127210.281250, 120907.312500, 107299.343750, 102544.812500, 140985.281250, 115553.281250, 442, 276, 1019,0.0,0.0,0.0,0.0,0.0, 23:05:22.306
87275.890625, 95249.140625, 127125.359375, 120798.414063, 107301.046875, 102507.132813, 140881.859375, 115507.148438, 441, 275, 1018,0.0,0.0,0.0,0.0,0.0, 23:05:22.306
87299.609375, 95271.312500, 126989.375000, 120578.406250, 107329.203125, 102510.375000, 140865.406250, 115517.609375, 445, 275, 1018,0.0,0.0,0.0,0.0,0.0, 23:05:22.306
87284.585938, 95257.875000, 127036.781250, 120635.085938, 107331.687500, 102543.343750, 140935.703125, 115555.343750, 449, 276, 1018,0.0,0.0,0.0,0.0,0.0, 23:05:22.306
87266.437500, 95239.531250, 127164.343750, 120841.039063, 107317.609375, 102552.328125, 140963.484375, 115560.546875, 443, 276, 1019,0.0,0.0,0.0,0.0,0.0, 23:05:22.307
87278.796875, 95255.578125, 127127.617188, 120794.882813, 107317.093750, 102516.742188, 140877.468750, 115520.539063, 441, 275, 1018,0.0,0.0,0.0,0.0,0.0, 23:05:22.307
87311.703125, 95285.390625, 126988.390625, 120561.929688, 107348.476563, 102510.640625, 140836.265625, 115523.023438, 444, 275, 1019,0.0,0.0,0.0,0.0,0.0, 23:05:22.307
87298.531250, 95267.554688, 127029.226563, 120588.039063, 107358.015625, 102539.671875, 140907.531250, 115558.984375, 448, 276, 1018,0.0,0.0,0.0,0.0,0.0, 23:05:22.307
87261.273438, 95226.585938, 127198.679688, 120836.765625, 107337.140625, 102549.039063, 140954.437500, 115557.484375, 444, 276, 1019,0.0,0.0,0.0,0.0,0.0, 23:05:22.308
87269.968750, 95236.554688, 127189.601563, 120846.648438, 107325.429688, 102516.562500, 140851.656250, 115518.078125, 442, 275, 1018,0.0,0.0,0.0,0.0,0.0, 23:05:22.308
87300.343750, 95267.046875, 127034.929688, 120610.007813, 107358.351563, 102497.031250, 140793.046875, 115510.796875, 443, 275, 1019,0.0,0.0,0.0,0.0,0.0, 23:05:22.308
87297.664063, 95262.906250, 127032.960938, 120578.757813, 107376.593750, 102522.843750, 140865.968750, 115546.156250, 449, 276, 1018,0.0,0.0,0.0,0.0,0.0, 23:05:22.309
87266.125000, 95232.796875, 127145.968750, 120766.921875, 107352.875000, 102541.460938, 140918.046875, 115554.734375, 447, 276, 1018,0.0,0.0,0.0,0.0,0.0, 23:05:22.309
87263.015625, 95230.921875, 127191.281250, 120852.007813, 107344.117188, 102515.312500, 140866.187500, 115517.453125, 441, 275, 1018,0.0,0.0,0.0,0.0,0.0, 23:05:22.309
87287.742188, 95261.296875, 127046.234375, 120636.335938, 107368.429688, 102482.812500, 140784.734375, 115491.882813, 443, 275, 1019,0.0,0.0,0.0,0.0,0.0, 23:05:22.309
87285.031250, 95261.859375, 127023.484375, 120568.812500, 107389.664063, 102505.835938, 140851.281250, 115526.281250, 448, 276, 1019,0.0,0.0,0.0,0.0,0.0, 23:05:22.310
87256.671875, 95233.156250, 127146.914063, 120761.171875, 107379.367188, 102528.609375, 140931.968750, 115544.906250, 448, 276, 1019,0.0,0.0,0.0,0.0,0.0, 23:05:22.310
87250.656250, 95223.617188, 127234.101563, 120906.148438, 107370.734375, 102510.281250, 140911.562500, 115518.531250, 441, 276, 1018,0.0,0.0,0.0,0.0,0.0, 23:05:22.310
87280.382813, 95249.562500, 127095.859375, 120712.804688, 107388.953125, 102470.828125, 140811.296875, 115485.984375, 442, 275, 1019,0.0,0.0,0.0,0.0,0.0, 23:05:22.311
87290.867188, 95259.421875, 127025.984375, 120579.585938, 107414.703125, 102490.500000, 140840.328125, 115515.421875, 447, 276, 1018,0.0,0.0,0.0,0.0,0.0, 23:05:22.311
87263.242188, 95235.437500, 127127.421875, 120730.773438, 107408.820313, 102523.515625, 140913.125000, 115545.039063, 449, 276, 1019,0.0,0.0,0.0,0.0,0.0, 23:05:22.311
87254.992188, 95225.382813, 127224.312500, 120900.937500, 107407.234375, 102519.960938, 140908.234375, 115534.289063, 442, 276, 1018,0.0,0.0,0.0,0.0,0.0, 23:05:22.759
87284.250000, 95256.781250, 127083.343750, 120723.421875, 107418.234375, 102481.960938, 140805.453125, 115492.484375, 442, 275, 1019,0.0,0.0,0.0,0.0,0.0, 23:05:22.760
87294.531250, 95262.437500, 126993.531250, 120554.265625, 107437.703125, 102489.359375, 140857.250000, 115509.523438, 446, 276, 1018,0.0,0.0,0.0,0.0,0.0, 23:05:22.760
87267.820313, 95233.093750, 127091.703125, 120679.968750, 107433.585938, 102515.132813, 140966.046875, 115535.898438, 449, 276, 1019,0.0,0.0,0.0,0.0,0.0, 23:05:22.760
87248.312500, 95212.773438, 127229.882813, 120898.187500, 107423.617188, 102511.218750, 140981.093750, 115523.890625, 443, 276, 1018,0.0,0.0,0.0,0.0,0.0, 23:05:22.761
87278.554688, 95242.101563, 127137.140625, 120788.687500, 107439.023438, 102477.804688, 140870.046875, 115487.523438, 441, 275, 1019,0.0,0.0,0.0,0.0,0.0, 23:05:22.761
87300.140625, 95261.632813, 127015.484375, 120581.843750, 107471.117188, 102481.671875, 140863.296875, 115501.296875, 445, 276, 1018,0.0,0.0,0.0,0.0,0.0, 23:05:22.761
87277.390625, 95241.789063, 127076.320313, 120650.289063, 107470.335938, 102508.718750, 140936.484375, 115529.656250, 450, 276, 1019,0.0,0.0,0.0,0.0,0.0, 23:05:22.761
87253.789063, 95215.093750, 127219.015625, 120875.078125, 107455.156250, 102517.546875, 140970.343750, 115530.867188, 444, 276, 1018,0.0,0.0,0.0,0.0,0.0, 23:05:22.761
87266.617188, 95230.968750, 127179.945313, 120840.031250, 107456.789063, 102483.390625, 140864.406250, 115491.703125, 442, 275, 1019,0.0,0.0,0.0,0.0,0.0, 23:05:22.761
87291.851563, 95257.562500, 127028.828125, 120599.054688, 107484.929688, 102476.218750, 140812.906250, 115493.179688, 444, 275, 1019,0.0,0.0,0.0,0.0,0.0, 23:05:22.761
87276.812500, 95241.828125, 127065.882813, 120621.718750, 107491.320313, 102501.695313, 140884.781250, 115518.414063, 449, 276, 1019,0.0,0.0,0.0,0.0,0.0, 23:05:22.762
87248.914063, 95211.406250, 127200.218750, 120839.609375, 107480.257813, 102515.312500, 140934.828125, 115525.882813, 445, 276, 1018,0.0,0.0,0.0,0.0,0.0, 23:05:22.762
87249.453125, 95217.734375, 127207.234375, 120873.109375, 107474.718750, 102484.132813, 140860.312500, 115486.968750, 442, 276, 1019,0.0,0.0,0.0,0.0,0.0, 23:05:22.762
87285.726563, 95256.289063, 127023.664063, 120610.500000, 107506.679688, 102467.703125, 140785.343750, 115477.843750, 444, 276, 1018,0.0,0.0,0.0,0.0,0.0, 23:05:22.762
87276.671875, 95241.898438, 127043.648438, 120593.734375, 107521.812500, 102492.335938, 140861.843750, 115512.578125, 450, 276, 1019,0.0,0.0,0.0,0.0,0.0, 23:05:22.762
87243.593750, 95209.687500, 127189.710938, 120817.500000, 107499.679688, 102510.054688, 140922.562500, 115529.140625, 447, 276, 1018,0.0,0.0,0.0,0.0,0.0, 23:05:22.762
87251.304688, 95221.757813, 127215.195313, 120887.976563, 107495.101563, 102490.656250, 140874.031250, 115505.671875, 441, 276, 1019,0.0,0.0,0.0,0.0,0.0, 23:05:22.763
87290.625000, 95264.335938, 127029.539063, 120632.117188, 107523.625000, 102462.625000, 140794.343750, 115480.554688, 443, 275, 1018,0.0,0.0,0.0,0.0,0.0, 23:05:22.763
87287.625000, 95260.492188, 127015.882813, 120560.367188, 107545.390625, 102487.414063, 140870.718750, 115513.117188, 448, 276, 1018,0.0,0.0,0.0,0.0,0.0, 23:05:22.763
87249.000000, 95217.890625, 127169.843750, 120771.765625, 107527.468750, 102509.726563, 140960.046875, 115529.593750, 448, 276, 1019,0.0,0.0,0.0,0.0,0.0, 23:05:22.763
87238.164063, 95203.187500, 127258.265625, 120922.375000, 107513.093750, 102491.953125, 140934.312500, 115502.164063, 442, 276, 1018,0.0,0.0,0.0,0.0,0.0, 23:05:22.763
87284.117188, 95250.304688, 127099.210938, 120711.773438, 107538.750000, 102460.703125, 140827.859375, 115474.515625, 442, 275, 1018,0.0,0.0,0.0,0.0,0.0, 23:05:22.763
87300.031250, 95264.453125, 127027.460938, 120569.171875, 107570.289063, 102476.734375, 140878.062500, 115493.718750, 447, 276, 1018,0.0,0.0,0.0,0.0,0.0, 23:05:22.763
87261.343750, 95222.718750, 127120.960938, 120704.195313, 107545.054688, 102495.257813, 140963.031250, 115496.335938, 449, 277, 1018,0.0,0.0,0.0,0.0,0.0, 23:05:22.764
87244.328125, 95209.507813, 127266.203125, 120922.820313, 107529.570313, 102497.695313, 140974.906250, 115492.171875, 443, 276, 1019,0.0,0.0,0.0,0.0,0.0, 23:05:22.764
87282.265625, 95251.531250, 127152.921875, 120775.453125, 107546.734375, 102459.367188, 140858.828125, 115449.414063, 442, 275, 1019,0.0,0.0,0.0,0.0,0.0, 23:05:22.764
87303.164063, 95270.929688, 127050.085938, 120591.929688, 107577.914063, 102471.210938, 140871.796875, 115468.773438, 446, 276, 1019,0.0,0.0,0.0,0.0,0.0, 23:05:22.764
87276.117188, 95246.546875, 127123.843750, 120685.265625, 107580.554688, 102501.992188, 140973.984375, 115504.218750, 450, 276, 1019,0.0,0.0,0.0,0.0,0.0, 23:05:22.764
87245.250000, 95212.367188, 127266.265625, 120906.148438, 107551.937500, 102498.101563, 141000.671875, 115494.562500, 443, 276, 1018,0.0,0.0,0.0,0.0,0.0, 23:05:22.764
87278.015625, 95246.812500, 127176.523438, 120803.218750, 107559.250000, 102459.273438, 140897.953125, 115450.914063, 441, 275, 1019,0.0,0.0,0.0,0.0,0.0, 23:05:22.764
87297.554688, 95265.296875, 127043.984375, 120583.500000, 107591.234375, 102456.078125, 140891.906250, 115459.359375, 446, 276, 1018,0.0,0.0,0.0,0.0,0.0, 23:05:22.765
87270.531250, 95233.781250, 127101.937500, 120643.023438, 107588.351563, 102483.390625, 140970.218750, 115492.664063, 450, 277, 1019,0.0,0.0,0.0,0.0,0.0, 23:05:22.765
87252.375000, 95211.250000, 127254.312500, 120880.132813, 107574.609375, 102497.406250, 141017.625000, 115504.710938, 444, 276, 1018,0.0,0.0,0.0,0.0,0.0, 23:05:22.765
87257.273438, 95215.343750, 127217.187500, 120855.968750, 107560.656250, 102457.757813, 140905.859375, 115448.343750, 442, 276, 1018,0.0,0.0,0.0,0.0,0.0, 23:05:22.765
87312.703125, 95264.429688, 127039.015625, 120592.125000, 107596.578125, 102452.390625, 140864.468750, 115448.585938, 444, 276, 1018,0.0,0.0,0.0,0.0,0.0, 23:05:22.766
87297.281250, 95251.460938, 127065.390625, 120594.382813, 107605.671875, 102486.320313, 140959.687500, 115483.679688, 449, 276, 1019,0.0,0.0,0.0,0.0,0.0, 23:05:22.766
87283.828125, 95237.515625, 127230.750000, 120835.359375, 107608.289063, 102519.046875, 141027.359375, 115511.484375, 445, 276, 1018,0.0,0.0,0.0,0.0,0.0, 23:05:22.766
87279.226563, 95235.679688, 127258.515625, 120889.671875, 107601.382813, 102486.007813, 140965.000000, 115479.390625, 442, 275, 1018,0.0,0.0,0.0,0.0,0.0, 23:05:22.766
87305.328125, 95260.937500, 127078.398438, 120628.937500, 107622.437500, 102463.859375, 140894.906250, 115469.937500, 443, 276, 1018,0.0,0.0,0.0,0.0,0.0, 23:05:22.766
87316.687500, 95269.031250, 127077.125000, 120586.117188, 107636.367188, 102497.343750, 140966.859375, 115511.507813, 449, 276, 1018,0.0,0.0,0.0,0.0,0.0, 23:05:22.766
87271.554688, 95226.429688, 127215.710938, 120794.101563, 107618.726563, 102519.937500, 141045.140625, 115535.695313, 446, 276, 1018,0.0,0.0,0.0,0.0,0.0, 23:05:22.767
87264.828125, 95216.593750, 127260.140625, 120888.000000, 107576.414063, 102481.695313, 140964.984375, 115466.023438, 441, 275, 1019,0.0,0.0,0.0,0.0,0.0, 23:05:22.767
87281.390625, 95239.351563, 127090.898438, 120652.945313, 107577.734375, 102438.890625, 140824.875000, 115421.226563, 442, 275, 1019,0.0,0.0,0.0,0.0,0.0, 23:05:22.767
87308.820313, 95277.570313, 127064.570313, 120566.554688, 107631.695313, 102484.156250, 140888.312500, 115478.789063, 448, 276, 1019,0.0,0.0,0.0,0.0,0.0, 23:05:22.767
87282.929688, 95253.789063, 127179.992188, 120737.679688, 107619.625000, 102511.375000, 140973.187500, 115500.671875, 448, 277, 1018,0.0,0.0,0.0,0.0,0.0, 23:05:22.767
87249.515625, 95214.226563, 127288.843750, 120911.781250, 107585.226563, 102485.289063, 140955.687500, 115467.968750, 442, 276, 1019,0.0,0.0,0.0,0.0,0.0, 23:05:22.767
87255.039063, 95215.609375, 127143.109375, 120724.804688, 107578.562500, 102435.562500, 140845.718750, 115424.117188, 442, 275, 1018,0.0,0.0,0.0,0.0,0.0, 23:05:22.768
87274.820313, 95234.656250, 127072.390625, 120592.593750, 107598.523438, 102448.187500, 140866.437500, 115432.203125, 447, 276, 1019,0.0,0.0,0.0,0.0,0.0, 23:05:22.768
87261.343750, 95225.109375, 127154.421875, 120719.640625, 107594.882813, 102474.453125, 140932.062500, 115457.195313, 450, 277, 1018,0.0,0.0,0.0,0.0,0.0, 23:05:22.768
87237.671875, 95196.437500, 127278.476563, 120919.867188, 107583.570313, 102471.789063, 140956.750000, 115452.031250, 442, 276, 1019,0.0,0.0,0.0,0.0,0.0, 23:05:22.768
87283.875000, 95242.921875, 127179.679688, 120793.453125, 107609.453125, 102452.257813, 140858.609375, 115435.062500, 441, 275, 1018,0.0,0.0,0.0,0.0,0.0, 23:05:22.768
87311.546875, 95271.539063, 127049.054688, 120578.695313, 107639.406250, 102461.015625, 140858.046875, 115450.890625, 445, 276, 1018,0.0,0.0,0.0,0.0,0.0, 23:05:22.768
87261.968750, 95217.867188, 127126.125000, 120672.460938, 107612.671875, 102477.046875, 140943.656250, 115470.382813, 450, 277, 1018,0.0,0.0,0.0,0.0,0.0, 23:05:22.768
87234.226563, 95189.015625, 127274.429688, 120900.515625, 107593.898438, 102477.578125, 140976.343750, 115467.164063, 443, 276, 1018,0.0,0.0,0.0,0.0,0.0, 23:05:22.769
87257.320313, 95216.882813, 127211.710938, 120829.750000, 107585.070313, 102442.398438, 140863.015625, 115420.625000, 442, 275, 1019,0.0,0.0,0.0,0.0,0.0, 23:05:22.769
87290.867188, 95245.226563, 127068.031250, 120601.781250, 107617.812500, 102445.554688, 140825.796875, 115426.281250, 445, 276, 1019,0.0,0.0,0.0,0.0,0.0, 23:05:22.769
87258.164063, 95209.468750, 127098.671875, 120627.867188, 107608.421875, 102469.156250, 140891.843750, 115459.320313, 450, 276, 1019,0.0,0.0,0.0,0.0,0.0, 23:05:22.769
87226.960938, 95173.414063, 127252.656250, 120865.335938, 107577.242188, 102482.609375, 140932.125000, 115469.328125, 444, 276, 1019,0.0,0.0,0.0,0.0,0.0, 23:05:22.769
87262.078125, 95213.625000, 127241.460938, 120869.984375, 107584.554688, 102457.578125, 140845.437500, 115432.515625, 441, 275, 1018,0.0,0.0,0.0,0.0,0.0, 23:05:22.769
87292.679688, 95247.531250, 127068.414063, 120615.125000, 107618.304688, 102440.835938, 140780.218750, 115427.625000, 443, 276, 1018,0.0,0.0,0.0,0.0,0.0, 23:05:22.769
87266.039063, 95219.500000, 127075.609375, 120599.773438, 107618.750000, 102458.601563, 140832.812500, 115455.070313, 449, 276, 1018,0.0,0.0,0.0,0.0,0.0, 23:05:22.770
87236.109375, 95184.210938, 127220.468750, 120822.710938, 107599.101563, 102476.460938, 140889.234375, 115470.898438, 446, 276, 1018,0.0,0.0,0.0,0.0,0.0, 23:05:22.770
87227.164063, 95176.671875, 127244.679688, 120883.726563, 107578.093750, 102442.984375, 140816.828125, 115423.960938, 442, 276, 1019,0.0,0.0,0.0,0.0,0.0, 23:05:22.770
87256.445313, 95208.976563, 127085.601563, 120651.492188, 107593.671875, 102420.382813, 140738.406250, 115407.773438, 443, 276, 1018,0.0,0.0,0.0,0.0,0.0, 23:05:22.770
87256.890625, 95204.750000, 127063.406250, 120588.640625, 107609.898438, 102447.851563, 140796.250000, 115442.445313, 450, 276, 1019,0.0,0.0,0.0,0.0,0.0, 23:05:22.770
87211.406250, 95162.234375, 127199.328125, 120795.750000, 107584.015625, 102463.882813, 140857.921875, 115448.835938, 447, 277, 1018,0.0,0.0,0.0,0.0,0.0, 23:05:22.770
87200.429688, 95167.242188, 127274.117188, 120929.953125, 107573.757813, 102447.898438, 140824.796875, 115424.000000, 442, 276, 1018,0.0,0.0,0.0,0.0,0.0, 23:05:22.771
87233.984375, 95199.515625, 127102.968750, 120704.179688, 107586.476563, 102417.742188, 140724.156250, 115394.921875, 442, 275, 1019,0.0,0.0,0.0,0.0,0.0, 23:05:22.771
87252.265625, 95207.382813, 127047.132813, 120589.203125, 107613.992188, 102439.000000, 140780.453125, 115436.968750, 448, 276, 1019,0.0,0.0,0.0,0.0,0.0, 23:05:22.771
87216.617188, 95166.570313, 127175.968750, 120773.648438, 107597.960938, 102459.632813, 140859.390625, 115462.070313, 449, 277, 1018,0.0,0.0,0.0,0.0,0.0, 23:05:22.771
87193.234375, 95141.289063, 127267.226563, 120937.820313, 107572.234375, 102443.093750, 140830.718750, 115429.789063, 442, 276, 1019,0.0,0.0,0.0,0.0,0.0, 23:05:22.771
87226.695313, 95181.500000, 127111.593750, 120742.664063, 107578.406250, 102408.382813, 140717.390625, 115389.445313, 441, 275, 1019,0.0,0.0,0.0,0.0,0.0, 23:05:22.772
87239.171875, 95192.523438, 127016.820313, 120572.726563, 107603.062500, 102425.546875, 140751.718750, 115421.742188, 447, 276, 1018,0.0,0.0,0.0,0.0,0.0, 23:05:22.772
87201.507813, 95153.945313, 127127.304688, 120716.648438, 107586.562500, 102448.789063, 140841.781250, 115441.835938, 450, 277, 1019,0.0,0.0,0.0,0.0,0.0, 23:05:22.772
87174.367188, 95125.000000, 127256.679688, 120920.921875, 107556.257813, 102440.257813, 140837.531250, 115417.992188, 442, 276, 1018,0.0,0.0,0.0,0.0,0.0, 23:05:22.773
87208.812500, 95166.507813, 127155.921875, 120796.914063, 107567.539063, 102410.750000, 140739.046875, 115386.609375, 441, 275, 1019,0.0,0.0,0.0,0.0,0.0, 23:05:22.773
87218.804688, 95176.921875, 127029.296875, 120591.367188, 107588.820313, 102405.789063, 140733.968750, 115397.914063, 446, 276, 1018,0.0,0.0,0.0,0.0,0.0, 23:05:22.773
87192.679688, 95153.656250, 127101.984375, 120682.875000, 107585.804688, 102435.023438, 140812.281250, 115434.664063, 450, 277, 1018,0.0,0.0,0.0,0.0,0.0, 23:05:22.773
87167.640625, 95129.937500, 127257.437500, 120924.250000, 107572.664063, 102445.726563, 140850.093750, 115436.968750, 443, 276, 1018,0.0,0.0,0.0,0.0,0.0, 23:05:22.774
87187.492188, 95143.640625, 127193.960938, 120861.890625, 107568.210938, 102409.585938, 140745.125000, 115391.968750, 441, 275, 1018,0.0,0.0,0.0,0.0,0.0, 23:05:22.774
87224.304688, 95181.390625, 127026.187500, 120610.593750, 107608.492188, 102402.929688, 140715.718750, 115397.046875, 445, 275, 1019,0.0,0.0,0.0,0.0,0.0, 23:05:22.774
87204.078125, 95162.593750, 127066.578125, 120639.937500, 107615.351563, 102435.562500, 140796.562500, 115433.835938, 451, 277, 1018,0.0,0.0,0.0,0.0,0.0, 23:05:22.774
87170.617188, 95130.226563, 127204.421875, 120856.703125, 107589.828125, 102440.968750, 140829.546875, 115433.257813, 445, 276, 1018,0.0,0.0,0.0,0.0,0.0, 23:05:22.775
87194.781250, 95157.320313, 127184.101563, 120849.593750, 107592.578125, 102414.484375, 140749.171875, 115400.843750, 441, 276, 1018,0.0,0.0,0.0,0.0,0.0, 23:05:22.775
87228.640625, 95191.359375, 127013.312500, 120592.460938, 107624.296875, 102398.906250, 140699.515625, 115392.015625, 444, 275, 1019,0.0,0.0,0.0,0.0,0.0, 23:05:22.775
87208.812500, 95169.257813, 127024.335938, 120571.046875, 107617.968750, 102419.625000, 140768.625000, 115420.875000, 449, 276, 1018,0.0,0.0,0.0,0.0,0.0, 23:05:22.775
87170.015625, 95128.062500, 127179.429688, 120801.179688, 107589.828125, 102434.039063, 140824.796875, 115427.687500, 446, 276, 1018,0.0,0.0,0.0,0.0,0.0, 23:05:22.776
87164.289063, 95126.476563, 127225.921875, 120886.390625, 107577.195313, 102405.343750, 140764.890625, 115392.710938, 441, 276, 1018,0.0,0.0,0.0,0.0,0.0, 23:05:22.776
87200.210938, 95160.914063, 127058.734375, 120646.375000, 107603.570313, 102377.046875, 140681.140625, 115372.015625, 443, 275, 1018,0.0,0.0,0.0,0.0,0.0, 23:05:22.776
87200.656250, 95160.804688, 127034.390625, 120575.367188, 107621.007813, 102403.929688, 140738.531250, 115405.093750, 449, 276, 1019,0.0,0.0,0.0,0.0,0.0, 23:05:22.776
87172.562500, 95138.500000, 127167.515625, 120775.570313, 107610.164063, 102431.695313, 140807.734375, 115430.039063, 449, 277, 1018,0.0,0.0,0.0,0.0,0.0, 23:05:22.777
87168.226563, 95131.367188, 127239.445313, 120904.648438, 107595.859375, 102415.312500, 140777.812500, 115411.039063, 442, 276, 1018,0.0,0.0,0.0,0.0,0.0, 23:05:22.777
87205.148438, 95165.812500, 127085.640625, 120690.632813, 107606.632813, 102380.773438, 140685.359375, 115373.265625, 443, 275, 1019,0.0,0.0,0.0,0.0,0.0, 23:05:22.777
87204.007813, 95160.046875, 127025.789063, 120564.765625, 107613.140625, 102391.015625, 140721.421875, 115391.078125, 447, 276, 1018,0.0,0.0,0.0,0.0,0.0, 23:05:22.777
87169.429688, 95129.179688, 127124.421875, 120711.531250, 107601.984375, 102416.898438, 140792.765625, 115418.546875, 450, 277, 1019,0.0,0.0,0.0,0.0,0.0, 23:05:22.777
87168.265625, 95129.492188, 127255.609375, 120909.414063, 107597.804688, 102417.742188, 140797.703125, 115414.164063, 442, 276, 1018,0.0,0.0,0.0,0.0,0.0, 23:05:22.778
87203.296875, 95161.742188, 127129.476563, 120740.406250, 107614.015625, 102382.632813, 140693.031250, 115379.453125, 442, 276, 1018,0.0,0.0,0.0,0.0,0.0, 23:05:22.778
87219.921875, 95176.515625, 127033.187500, 120565.101563, 107646.890625, 102392.710938, 140719.515625, 115405.312500, 446, 276, 1018,0.0,0.0,0.0,0.0,0.0, 23:05:22.778
87179.648438, 95139.054688, 127145.234375, 120706.546875, 107626.148438, 102414.882813, 140800.546875, 115424.273438, 450, 277, 1018,0.0,0.0,0.0,0.0,0.0, 23:05:22.778
87158.437500, 95112.054688, 127287.726563, 120929.125000, 107603.953125, 102410.210938, 140800.203125, 115408.195313, 442, 276, 1018,0.0,0.0,0.0,0.0,0.0, 23:05:22.779
87186.843750, 95148.984375, 127192.929688, 120818.687500, 107617.093750, 102374.312500, 140702.703125, 115368.210938, 442, 275, 1018,0.0,0.0,0.0,0.0,0.0, 23:05:22.779
87220.593750, 95180.187500, 127040.023438, 120584.078125, 107651.382813, 102375.117188, 140689.343750, 115378.851563, 446, 276, 1019,0.0,0.0,0.0,0.0,0.0, 23:05:22.779
87212.679688, 95169.210938, 127094.562500, 120641.101563, 107659.585938, 102413.007813, 140781.203125, 115422.976563, 450, 277, 1018,0.0,0.0,0.0,0.0,0.0, 23:05:22.779
87172.851563, 95132.734375, 127265.687500, 120890.453125, 107626.148438, 102415.328125, 140811.609375, 115418.835938, 444, 276, 1019,0.0,0.0,0.0,0.0,0.0, 23:05:22.780
87188.250000, 95149.609375, 127197.695313, 120824.718750, 107619.648438, 102373.468750, 140707.328125, 115370.671875, 442, 276, 1018,0.0,0.0,0.0,0.0,0.0, 23:05:22.780
87217.265625, 95179.554688, 127040.851563, 120582.273438, 107654.601563, 102368.078125, 140679.015625, 115380.953125, 444, 276, 1018,0.0,0.0,0.0,0.0,0.0, 23:05:22.780
87213.554688, 95172.093750, 127091.054688, 120617.203125, 107670.117188, 102410.367188, 140771.906250, 115434.554688, 450, 277, 1017,0.0,0.0,0.0,0.0,0.0, 23:05:22.780
87194.132813, 95145.093750, 127236.671875, 120838.015625, 107661.507813, 102436.703125, 140833.218750, 115448.835938, 445, 276, 1018,0.0,0.0,0.0,0.0,0.0, 23:05:22.781
87193.171875, 95145.406250, 127241.343750, 120863.523438, 107657.710938, 102407.531250, 140770.296875, 115408.804688, 441, 276, 1018,0.0,0.0,0.0,0.0,0.0, 23:05:22.781
87223.187500, 95179.804688, 127069.796875, 120608.781250, 107681.828125, 102389.023438, 140706.531250, 115397.109375, 443, 275, 1018,0.0,0.0,0.0,0.0,0.0, 23:05:22.781
87211.007813, 95170.617188, 127081.039063, 120583.234375, 107681.914063, 102406.101563, 140764.062500, 115420.648438, 450, 276, 1018,0.0,0.0,0.0,0.0,0.0, 23:05:22.781
87183.023438, 95141.203125, 127207.906250, 120782.679688, 107655.515625, 102425.125000, 140812.562500, 115434.734375, 447, 276, 1019,0.0,0.0,0.0,0.0,0.0, 23:05:22.782
87185.078125, 95134.851563, 127263.945313, 120877.468750, 107646.312500, 102409.367188, 140771.109375, 115411.750000, 442, 276, 1018,0.0,0.0,0.0,0.0,0.0, 23:05:22.782
87213.421875, 95179.226563, 127103.796875, 120649.187500, 107671.476563, 102382.562500, 140696.984375, 115387.257813, 442, 275, 1018,0.0,0.0,0.0,0.0,0.0, 23:05:22.782
87207.585938, 95177.031250, 127059.960938, 120553.148438, 107687.054688, 102403.554688, 140754.625000, 115422.210938, 449, 276, 1018,0.0,0.0,0.0,0.0,0.0, 23:05:22.782
87178.195313, 95140.601563, 127188.890625, 120741.703125, 107668.906250, 102426.796875, 140820.875000, 115439.625000, 448, 277, 1018,0.0,0.0,0.0,0.0,0.0, 23:05:22.783
87193.171875, 95143.843750, 127287.304688, 120898.148438, 107664.929688, 102423.757813, 140807.671875, 115432.515625, 441, 276, 1018,0.0,0.0,0.0,0.0,0.0, 23:05:22.783
87222.921875, 95179.804688, 127138.929688, 120695.148438, 107681.960938, 102391.664063, 140705.875000, 115403.148438, 441, 275, 1018,0.0,0.0,0.0,0.0,0.0, 23:05:22.783
87210.289063, 95167.289063, 127051.023438, 120536.718750, 107696.289063, 102399.890625, 140728.328125, 115420.828125, 447, 276, 1018,0.0,0.0,0.0,0.0,0.0, 23:05:22.783
87176.273438, 95137.781250, 127170.156250, 120699.234375, 107686.968750, 102431.156250, 140816.921875, 115452.859375, 449, 276, 1018,20.965746,40.156216,20.857548,21.052795,7.533352, 23:05:23.238
87170.882813, 95124.843750, 127302.500000, 120901.054688, 107677.109375, 102427.960938, 140826.296875, 115448.078125, 442, 276, 1018,20.965746,40.156216,20.857548,21.052795,7.533352, 23:05:23.239
87198.085938, 95154.164063, 127162.468750, 120721.656250, 107677.671875, 102384.507813, 140714.984375, 115402.367188, 441, 275, 1018,20.965746,40.156216,20.857548,21.052795,7.533352, 23:05:23.239
87205.398438, 95162.570313, 127061.546875, 120534.546875, 107686.898438, 102382.679688, 140717.921875, 115407.570313, 447, 276, 1019,20.965746,40.156216,20.857548,21.052795,7.533352, 23:05:23.239
87191.851563, 95147.390625, 127143.375000, 120636.140625, 107692.625000, 102413.117188, 140807.484375, 115434.101563, 450, 277, 1018,20.965746,40.156216,20.857548,21.052795,7.533352, 23:05:23.239
87174.304688, 95128.640625, 127276.882813, 120844.343750, 107679.773438, 102418.039063, 140839.546875, 115428.359375, 443, 276, 1019,20.965746,40.156216,20.857548,21.052795,7.533352, 23:05:23.239
87192.968750, 95149.921875, 127175.968750, 120729.414063, 107677.062500, 102381.226563, 140744.609375, 115388.664063, 441, 276, 1018,20.965746,40.156216,20.857548,21.052795,7.533352, 23:05:23.240
87216.257813, 95167.960938, 127037.609375, 120504.664063, 107702.679688, 102384.328125, 140742.890625, 115406.789063, 446, 276, 1018,20.965746,40.156216,20.857548,21.052795,7.533352, 23:05:23.240
87198.312500, 95148.156250, 127090.468750, 120553.906250, 107705.429688, 102418.304688, 140831.562500, 115443.671875, 450, 277, 1018,20.965746,40.156216,20.857548,21.052795,7.533352, 23:05:23.240
87162.656250, 95115.718750, 127248.140625, 120782.656250, 107680.640625, 102422.867188, 140880.484375, 115439.265625, 444, 276, 1018,20.965746,40.156216,20.857548,21.052795,7.533352, 23:05:23.240
87181.609375, 95136.890625, 127221.679688, 120760.054688, 107682.343750, 102390.898438, 140804.906250, 115397.406250, 441, 275, 1019,20.965746,40.156216,20.857548,21.052795,7.533352, 23:05:23.240
87210.984375, 95160.757813, 127064.429688, 120514.250000, 107700.398438, 102378.765625, 140767.390625, 115395.460938, 444, 275, 1018,20.965746,40.156216,20.857548,21.052795,7.533352, 23:05:23.240
87197.546875, 95145.960938, 127119.664063, 120548.359375, 107711.484375, 102409.523438, 140859.687500, 115438.421875, 451, 277, 1018,20.965746,40.156216,20.857548,21.052795,7.533352, 23:05:23.240
87174.281250, 95120.281250, 127289.890625, 120795.617188, 107699.421875, 102426.351563, 140920.968750, 115452.273438, 446, 276, 1018,20.965746,40.156216,20.857548,21.052795,7.533352, 23:05:23.241
87176.179688, 95124.375000, 127276.437500, 120812.312500, 107692.289063, 102392.781250, 140842.140625, 115409.585938, 441, 276, 1018,20.965746,40.156216,20.857548,21.052795,7.533352, 23:05:23.241
87220.015625, 95172.671875, 127094.898438, 120553.820313, 107732.523438, 102378.984375, 140798.484375, 115406.054688, 443, 275, 1019,20.965746,40.156216,20.857548,21.052795,7.533352, 23:05:23.241
87211.070313, 95159.289063, 127070.156250, 120488.843750, 107736.992188, 102402.703125, 140888.765625, 115441.078125, 449, 276, 1019,20.965746,40.156216,20.857548,21.052795,7.533352, 23:05:23.241
87169.031250, 95113.351563, 127224.468750, 120710.500000, 107711.914063, 102417.500000, 140976.156250, 115450.914063, 448, 276, 1019,20.965746,40.156216,20.857548,21.052795,7.533352, 23:05:23.242
87161.164063, 95113.015625, 127297.312500, 120831.625000, 107699.593750, 102390.093750, 140932.031250, 115417.343750, 441, 276, 1018,20.965746,40.156216,20.857548,21.052795,7.533352, 23:05:23.242
87191.960938, 95140.914063, 127107.570313, 120582.023438, 107726.664063, 102358.000000, 140831.500000, 115387.773438, 443, 275, 1019,20.965746,40.156216,20.857548,21.052795,7.533352, 23:05:23.242
87215.898438, 95162.031250, 127069.148438, 120490.289063, 107769.851563, 102394.476563, 140911.859375, 115434.554688, 448, 276, 1017,20.965746,40.156216,20.857548,21.052795,7.533352, 23:05:23.242
87183.109375, 95128.507813, 127190.585938, 120667.226563, 107752.679688, 102411.820313, 140989.375000, 115449.101563, 449, 277, 1019,20.965746,40.156216,20.857548,21.052795,7.533352, 23:05:23.242
87173.054688, 95117.195313, 127278.585938, 120813.320313, 107739.718750, 102399.195313, 140981.359375, 115429.812500, 441, 276, 1018,18.318842,32.732697,17.582745,18.777594,6.6630096, 23:05:23.243
87196.703125, 95146.140625, 127136.648438, 120619.710938, 107742.218750, 102360.968750, 140878.281250, 115396.289063, 442, 275, 1018,18.318842,32.732697,17.582745,18.777594,6.6630096, 23:05:23.243
87203.671875, 95146.273438, 127062.085938, 120477.039063, 107763.164063, 102370.093750, 140896.578125, 115422.171875, 448, 276, 1018,18.318842,32.732697,17.582745,18.777594,6.6630096, 23:05:23.243
87183.289063, 95121.468750, 127170.109375, 120624.781250, 107762.742188, 102405.382813, 140982.078125, 115456.164063, 450, 277, 1018,18.318842,32.732697,17.582745,18.777594,6.6630096, 23:05:23.243
87178.773438, 95114.359375, 127305.164063, 120832.718750, 107763.835938, 102410.835938, 141000.437500, 115455.046875, 442, 276, 1019,18.318842,32.732697,17.582745,18.777594,6.6630096, 23:05:23.243
87196.031250, 95132.750000, 127177.890625, 120676.078125, 107771.523438, 102364.390625, 140882.796875, 115401.132813, 441, 275, 1018,18.318842,32.732697,17.582745,18.777594,6.6630096, 23:05:23.243
87217.132813, 95161.679688, 127039.843750, 120457.835938, 107797.898438, 102367.656250, 140878.375000, 115412.085938, 446, 276, 1018,18.318842,32.732697,17.582745,18.777594,6.6630096, 23:05:23.244
87202.023438, 95142.093750, 127144.898438, 120582.539063, 107805.703125, 102404.984375, 140988.921875, 115453.796875, 450, 277, 1018,18.318842,32.732697,17.582745,18.777594,6.6630096, 23:05:23.244
87182.328125, 95122.695313, 127282.812500, 120797.804688, 107789.968750, 102411.398438, 141029.531250, 115454.890625, 443, 276, 1019,18.318842,32.732697,17.582745,18.777594,6.6630096, 23:05:23.244
87186.242188, 95129.156250, 127207.687500, 120711.890625, 107772.929688, 102366.562500, 140934.609375, 115404.179688, 441, 275, 1018,18.318842,32.732697,17.582745,18.777594,6.6630096, 23:05:23.244
87205.460938, 95145.851563, 127053.414063, 120473.726563, 107785.453125, 102358.734375, 140903.203125, 115404.781250, 445, 276, 1019,18.318842,32.732697,17.582745,18.777594,6.6630096, 23:05:23.244
87189.007813, 95125.023438, 127104.890625, 120526.234375, 107794.859375, 102390.656250, 140991.875000, 115432.632813, 450, 277, 1019,18.318842,32.732697,17.582745,18.777594,6.6630096, 23:05:23.244
87183.242188, 95118.156250, 127273.085938, 120778.250000, 107790.750000, 102412.515625, 141059.156250, 115450.039063, 444, 276, 1019,18.318842,32.732697,17.582745,18.777594,6.6630096, 23:05:23.245
87184.117188, 95122.695313, 127246.265625, 120764.367188, 107784.242188, 102374.296875, 140975.515625, 115404.890625, 440, 275, 1018,18.318842,32.732697,17.582745,18.777594,6.6630096, 23:05:23.245
87204.906250, 95144.445313, 127094.000000, 120530.148438, 107809.101563, 102357.914063, 140943.687500, 115402.210938, 443, 275, 1018,18.318842,32.732697,17.582745,18.777594,6.6630096, 23:05:23.245
87211.875000, 95145.804688, 127113.382813, 120525.117188, 107839.500000, 102395.882813, 141039.281250, 115446.843750, 450, 276, 1018,18.318842,32.732697,17.582745,18.777594,6.6630096, 23:05:23.245
87184.296875, 95108.546875, 127258.578125, 120742.890625, 107823.156250, 102407.148438, 141094.843750, 115445.281250, 446, 276, 1018,18.318842,32.732697,17.582745,18.777594,6.6630096, 23:05:23.245
87182.460938, 95110.648438, 127272.367188, 120790.140625, 107801.273438, 102376.640625, 141003.765625, 115401.539063, 442, 275, 1018,18.318842,32.732697,17.582745,18.777594,6.6630096, 23:05:23.245
87214.539063, 95143.054688, 127093.734375, 120535.015625, 107827.468750, 102355.093750, 140910.875000, 115389.335938, 443, 275, 1019,18.318842,32.732697,17.582745,18.777594,6.6630096, 23:05:23.245
87209.062500, 95139.171875, 127087.429688, 120482.046875, 107841.281250, 102374.984375, 140964.843750, 115421.226563, 449, 276, 1019,18.318842,32.732697,17.582745,18.777594,6.6630096, 23:05:23.246
87163.531250, 95097.546875, 127231.195313, 120689.156250, 107815.242188, 102387.859375, 141027.453125, 115430.351563, 447, 276, 1018,18.318842,32.732697,17.582745,18.777594,6.6630096, 23:05:23.246
87146.164063, 95080.765625, 127315.937500, 120825.187500, 107787.257813, 102362.312500, 140983.109375, 115395.390625, 442, 276, 1019,18.318842,32.732697,17.582745,18.777594,6.6630096, 23:05:23.246
87192.054688, 95123.679688, 127129.921875, 120582.609375, 107810.039063, 102333.414063, 140891.843750, 115374.359375, 442, 275, 1019,18.318842,32.732697,17.582745,18.777594,6.6630096, 23:05:23.246
87196.210938, 95124.039063, 127085.796875, 120482.109375, 107837.351563, 102353.906250, 140973.437500, 115414.929688, 448, 276, 1019,18.318842,32.732697,17.582745,18.777594,6.6630096, 23:05:23.246
87174.125000, 95097.210938, 127195.750000, 120644.695313, 107835.453125, 102379.078125, 141061.828125, 115437.101563, 449, 277, 1018,18.318842,32.732697,17.582745,18.777594,6.6630096, 23:05:23.246
87174.953125, 95094.421875, 127282.789063, 120791.414063, 107827.515625, 102374.312500, 141045.921875, 115422.992188, 442, 276, 1018,18.318842,32.732697,17.582745,18.777594,6.6630096, 23:05:23.246
87199.781250, 95121.804688, 127137.031250, 120597.203125, 107821.570313, 102336.875000, 140920.859375, 115375.859375, 441, 275, 1018,18.318842,32.732697,17.582745,18.777594,6.6630096, 23:05:23.247
87190.929688, 95120.281250, 127054.171875, 120440.132813, 107831.000000, 102345.328125, 140938.250000, 115398.562500, 447, 276, 1019,18.318842,32.732697,17.582745,18.777594,6.6630096, 23:05:23.247
87163.148438, 95092.718750, 127152.070313, 120571.093750, 107816.851563, 102371.546875, 141021.265625, 115429.390625, 450, 277, 1018,18.318842,32.732697,17.582745,18.777594,6.6630096, 23:05:23.247
87136.664063, 95068.203125, 127297.875000, 120792.156250, 107796.156250, 102362.093750, 141044.000000, 115412.828125, 442, 276, 1019,18.318842,32.732697,17.582745,18.777594,6.6630096, 23:05:23.247
87177.656250, 95110.781250, 127183.789063, 120658.109375, 107820.765625, 102333.632813, 140952.046875, 115383.367188, 442, 275, 1018,18.318842,32.732697,17.582745,18.777594,6.6630096, 23:05:23.247
87197.414063, 95123.078125, 127063.648438, 120458.281250, 107852.820313, 102338.039063, 140964.843750, 115395.882813, 446, 276, 1019,18.318842,32.732697,17.582745,18.777594,6.6630096, 23:05:23.248
87164.804688, 95095.625000, 127127.375000, 120541.257813, 107838.757813, 102363.523438, 141041.421875, 115413.273438, 450, 277, 1018,18.318842,32.732697,17.582745,18.777594,6.6630096, 23:05:23.248
87128.328125, 95068.718750, 127271.546875, 120769.531250, 107807.734375, 102367.921875, 141065.750000, 115408.445313, 443, 276, 1019,18.318842,32.732697,17.582745,18.777594,6.6630096, 23:05:23.248
87148.039063, 95085.968750, 127198.117188, 120694.609375, 107804.312500, 102330.085938, 140959.906250, 115369.398438, 441, 275, 1018,18.318842,32.732697,17.582745,18.777594,6.6630096, 23:05:23.248
87172.132813, 95106.156250, 127047.289063, 120457.835938, 107832.726563, 102321.789063, 140935.328125, 115371.656250, 445, 275, 1019,18.318842,32.732697,17.582745,18.777594,6.6630096, 23:05:23.248
87146.679688, 95078.101563, 127105.937500, 120511.570313, 107832.273438, 102349.546875, 141014.203125, 115411.687500, 451, 277, 1019,18.318842,32.732697,17.582745,18.777594,6.6630096, 23:05:23.248
87128.351563, 95048.085938, 127264.460938, 120754.531250, 107808.984375, 102368.125000, 141043.843750, 115432.921875, 446, 276, 1019,18.318842,32.732697,17.582745,18.777594,6.6630096, 23:05:23.248
87149.539063, 95080.648438, 127230.375000, 120738.015625, 107809.882813, 102341.437500, 140949.625000, 115392.398438, 442, 276, 1018,18.318842,32.732697,17.582745,18.777594,6.6630096, 23:05:23.249
87173.585938, 95108.992188, 127055.265625, 120482.382813, 107837.414063, 102323.601563, 140899.953125, 115380.703125, 445, 276, 1019,18.318842,32.732697,17.582745,18.777594,6.6630096, 23:05:23.249
87159.375000, 95095.000000, 127068.453125, 120469.015625, 107833.437500, 102344.546875, 140971.078125, 115396.843750, 450, 277, 1018,18.318842,32.732697,17.582745,18.777594,6.6630096, 23:05:23.249
87130.429688, 95058.187500, 127225.585938, 120701.468750, 107812.453125, 102363.812500, 141036.312500, 115409.023438, 447, 277, 1018,18.318842,32.732697,17.582745,18.777594,6.6630096, 23:05:23.249
87128.304688, 95055.281250, 127261.507813, 120777.375000, 107797.851563, 102336.250000, 140977.296875, 115373.601563, 441, 276, 1018,18.318842,32.732697,17.582745,18.777594,6.6630096, 23:05:23.249
87165.250000, 95091.734375, 127071.765625, 120518.257813, 107819.132813, 102313.476563, 140891.125000, 115355.921875, 443, 276, 1018,18.318842,32.732697,17.582745,18.777594,6.6630096, 23:05:23.249
87163.507813, 95087.046875, 127052.539063, 120450.148438, 107834.195313, 102341.015625, 140957.375000, 115394.320313, 449, 277, 1019,18.318842,32.732697,17.582745,18.777594,6.6630096, 23:05:23.249
87141.085938, 95067.062500, 127195.367188, 120658.242188, 107821.437500, 102368.882813, 141034.109375, 115421.718750, 449, 277, 1019,18.318842,32.732697,17.582745,18.777594,6.6630096, 23:05:23.250
87123.273438, 95051.546875, 127285.515625, 120802.929688, 107801.632813, 102346.375000, 141002.875000, 115395.570313, 442, 276, 1018,18.318842,32.732697,17.582745,18.777594,6.6630096, 23:05:23.250
87160.601563, 95088.968750, 127114.921875, 120576.148438, 107816.187500, 102309.562500, 140889.046875, 115355.875000, 442, 276, 1018,18.318842,32.732697,17.582745,18.777594,6.6630096, 23:05:23.250
87165.835938, 95091.781250, 127040.648438, 120437.585938, 107827.875000, 102327.937500, 140927.671875, 115385.312500, 449, 276, 1018,18.318842,32.732697,17.582745,18.777594,6.6630096, 23:05:23.250
87132.507813, 95055.617188, 127156.367188, 120601.515625, 107808.851563, 102356.929688, 141005.890625, 115415.578125, 450, 277, 1018,18.318842,32.732697,17.582745,18.777594,6.6630096, 23:05:23.250
87116.234375, 95039.367188, 127264.390625, 120776.039063, 107791.484375, 102347.625000, 141004.656250, 115404.507813, 443, 276, 1019,18.318842,32.732697,17.582745,18.777594,6.6630096, 23:05:23.250
87140.460938, 95066.859375, 127134.304688, 120605.718750, 107790.007813, 102304.687500, 140888.937500, 115358.578125, 442, 276, 1018,18.318842,32.732697,17.582745,18.777594,6.6630096, 23:05:23.250
87188.539063, 95107.023438, 127052.656250, 120444.984375, 107839.945313, 102334.421875, 140928.328125, 115396.085938, 447, 276, 1018,18.318842,32.732697,17.582745,18.777594,6.6630096, 23:05:23.251
87159.304688, 95076.945313, 127158.000000, 120580.257813, 107830.531250, 102361.351563, 141015.453125, 115427.218750, 450, 277, 1018,18.318842,32.732697,17.582745,18.777594,6.6630096, 23:05:23.251
87139.031250, 95059.460938, 127313.164063, 120813.835938, 107803.640625, 102359.070313, 141029.015625, 115415.304688, 443, 276, 1018,18.318842,32.732697,17.582745,18.777594,6.6630096, 23:05:23.251
87156.531250, 95081.031250, 127205.671875, 120690.718750, 107800.539063, 102315.914063, 140911.984375, 115373.484375, 442, 276, 1018,18.318842,32.732697,17.582745,18.777594,6.6630096, 23:05:23.251
87165.007813, 95093.859375, 127052.023438, 120459.070313, 107811.000000, 102304.554688, 140892.734375, 115378.898438, 446, 276, 1018,18.318842,32.732697,17.582745,18.777594,6.6630096, 23:05:23.251
87140.734375, 95060.492188, 127096.796875, 120512.398438, 107798.031250, 102327.710938, 140966.609375, 115402.546875, 450, 277, 1018,18.318842,32.732697,17.582745,18.777594,6.6630096, 23:05:23.252
87128.687500, 95043.617188, 127279.414063, 120772.664063, 107786.140625, 102350.312500, 141029.421875, 115420.000000, 443, 276, 1019,18.318842,32.732697,17.582745,18.777594,6.6630096, 23:05:23.252
87128.148438, 95057.359375, 127229.476563, 120727.601563, 107766.851563, 102305.515625, 140917.843750, 115365.085938, 442, 276, 1018,18.318842,32.732697,17.582745,18.777594,6.6630096, 23:05:23.252
87181.632813, 95100.585938, 127062.976563, 120476.726563, 107808.875000, 102303.773438, 140881.296875, 115375.343750, 445, 275, 1019,18.318842,32.732697,17.582745,18.777594,6.6630096, 23:05:23.252
87159.328125, 95083.601563, 127116.062500, 120519.125000, 107805.140625, 102330.414063, 140957.515625, 115408.265625, 451, 277, 1018,18.318842,32.732697,17.582745,18.777594,6.6630096, 23:05:23.253
87110.914063, 95043.546875, 127256.234375, 120745.773438, 107774.382813, 102336.523438, 140994.390625, 115408.195313, 446, 276, 1019,18.318842,32.732697,17.582745,18.777594,6.6630096, 23:05:23.253
87149.695313, 95076.960938, 127247.601563, 120762.132813, 107783.750000, 102326.195313, 140925.234375, 115390.968750, 441, 276, 1018,18.318842,32.732697,17.582745,18.777594,6.6630096, 23:05:23.253
87168.875000, 95096.656250, 127078.515625, 120515.953125, 107792.382813, 102299.773438, 140846.656250, 115371.632813, 444, 275, 1019,18.318842,32.732697,17.582745,18.777594,6.6630096, 23:05:23.253
87153.695313, 95079.132813, 127072.835938, 120482.132813, 107800.046875, 102320.960938, 140903.937500, 115397.265625, 450, 276, 1019,18.318842,32.732697,17.582745,18.777594,6.6630096, 23:05:23.254
87141.023438, 95063.242188, 127218.750000, 120704.039063, 107789.945313, 102346.421875, 140974.062500, 115419.914063, 446, 276, 1018,18.318842,32.732697,17.582745,18.777594,6.6630096, 23:05:23.254
87130.335938, 95054.320313, 127280.953125, 120810.859375, 107768.867188, 102318.726563, 140924.015625, 115392.039063, 441, 275, 1019,18.318842,32.732697,17.582745,18.777594,6.6630096, 23:05:23.254
87154.140625, 95076.539063, 127096.734375, 120561.195313, 107780.867188, 102278.828125, 140825.187500, 115349.617188, 443, 276, 1018,18.318842,32.732697,17.582745,18.777594,6.6630096, 23:05:23.254
87157.382813, 95075.781250, 127059.625000, 120474.289063, 107804.671875, 102308.695313, 140897.656250, 115388.437500, 449, 276, 1019,18.318842,32.732697,17.582745,18.777594,6.6630096, 23:05:23.254
87128.593750, 95054.726563, 127197.000000, 120671.859375, 107797.679688, 102339.781250, 140982.687500, 115415.375000, 449, 277, 1018,18.318842,32.732697,17.582745,18.777594,6.6630096, 23:05:23.254
87119.851563, 95046.226563, 127283.164063, 120816.671875, 107784.648438, 102320.960938, 140961.421875, 115388.906250, 442, 276, 1019,18.318842,32.732697,17.582745,18.777594,6.6630096, 23:05:23.255
87143.437500, 95071.507813, 127129.117188, 120612.937500, 107790.031250, 102283.835938, 140850.984375, 115355.937500, 442, 275, 1018,18.318842,32.732697,17.582745,18.777594,6.6630096, 23:05:23.255
87148.398438, 95070.054688, 127059.539063, 120483.296875, 107805.117188, 102295.234375, 140880.328125, 115376.726563, 448, 276, 1019,18.318842,32.732697,17.582745,18.777594,6.6630096, 23:05:23.255
87116.054688, 95041.179688, 127154.398438, 120629.726563, 107789.875000, 102315.976563, 140949.359375, 115388.375000, 449, 277, 1019,18.318842,32.732697,17.582745,18.777594,6.6630096, 23:05:23.255
87104.656250, 95034.140625, 127266.265625, 120815.445313, 107788.492188, 102313.250000, 140961.984375, 115376.703125, 442, 276, 1018,18.318842,32.732697,17.582745,18.777594,6.6630096, 23:05:23.255
87123.812500, 95055.390625, 127151.718750, 120665.867188, 107787.796875, 102275.093750, 140856.531250, 115338.726563, 441, 275, 1019,18.318842,32.732697,17.582745,18.777594,6.6630096, 23:05:23.255
87136.929688, 95060.203125, 127049.859375, 120486.515625, 107806.078125, 102287.656250, 140869.234375, 115364.632813, 447, 276, 1018,18.318842,32.732697,17.582745,18.777594,6.6630096, 23:05:23.255
87119.476563, 95044.375000, 127146.820313, 120611.617188, 107805.585938, 102319.507813, 140969.140625, 115397.070313, 450, 276, 1018,18.318842,32.732697,17.582745,18.777594,6.6630096, 23:05:23.256
87099.179688, 95024.351563, 127287.304688, 120834.171875, 107786.031250, 102314.835938, 140991.875000, 115383.257813, 443, 276, 1018,18.318842,32.732697,17.582745,18.777594,6.6630096, 23:05:23.256
87118.289063, 95043.835938, 127185.687500, 120720.179688, 107784.351563, 102272.882813, 140875.750000, 115333.992188, 442, 275, 1018,18.318842,32.732697,17.582745,18.777594,6.6630096, 23:05:23.256
87139.812500, 95070.953125, 127059.757813, 120514.054688, 107813.007813, 102276.484375, 140870.359375, 115350.953125, 446, 276, 1019,18.318842,32.732697,17.582745,18.777594,6.6630096, 23:05:23.256
87134.492188, 95066.164063, 127115.750000, 120577.796875, 107817.234375, 102311.687500, 140947.953125, 115395.546875, 450, 277, 1018,18.318842,32.732697,17.582745,18.777594,6.6630096, 23:05:23.256
87097.343750, 95027.476563, 127257.843750, 120801.429688, 107800.625000, 102316.937500, 140984.921875, 115397.648438, 444, 276, 1019,18.318842,32.732697,17.582745,18.777594,6.6630096, 23:05:23.256
87098.289063, 95027.835938, 127219.554688, 120772.078125, 107787.726563, 102276.367188, 140884.046875, 115344.828125, 441, 275, 1018,18.318842,32.732697,17.582745,18.777594,6.6630096, 23:05:23.256
87125.484375, 95058.367188, 127060.875000, 120533.500000, 107813.343750, 102267.203125, 140836.296875, 115338.218750, 444, 275, 1019,18.318842,32.732697,17.582745,18.777594,6.6630096, 23:05:23.257
87120.210938, 95053.093750, 127081.218750, 120540.804688, 107823.226563, 102297.539063, 140912.453125, 115375.812500, 450, 276, 1019,18.318842,32.732697,17.582745,18.777594,6.6630096, 23:05:23.257
87095.851563, 95023.875000, 127214.304688, 120753.773438, 107800.492188, 102313.789063, 140967.625000, 115388.953125, 446, 276, 1018,18.318842,32.732697,17.582745,18.777594,6.6630096, 23:05:23.257
87102.085938, 95029.398438, 127241.570313, 120807.445313, 107791.710938, 102287.257813, 140904.812500, 115357.703125, 442, 276, 1018,18.318842,32.732697,17.582745,18.777594,6.6630096, 23:05:23.257
87142.273438, 95068.265625, 127077.507813, 120566.515625, 107825.726563, 102270.156250, 140837.203125, 115343.132813, 444, 276, 1019,18.318842,32.732697,17.582745,18.777594,6.6630096, 23:05:23.257
87142.429688, 95066.570313, 127060.523438, 120510.070313, 107845.085938, 102295.906250, 140903.734375, 115370.914063, 450, 277, 1018,18.318842,32.732697,17.582745,18.777594,6.6630096, 23:05:23.257
87100.226563, 95021.617188, 127218.835938, 120735.554688, 107824.367188, 102318.617188, 140982.625000, 115393.242188, 447, 276, 1019,18.318842,32.732697,17.582745,18.777594,6.6630096, 23:05:23.258
87099.421875, 95025.578125, 127278.632813, 120837.976563, 107814.328125, 102296.328125, 140940.468750, 115361.867188, 442, 276, 1018,18.318842,32.732697,17.582745,18.777594,6.6630096, 23:05:23.258
87137.468750, 95067.578125, 127100.976563, 120589.468750, 107844.726563, 102267.875000, 140855.375000, 115341.281250, 444, 275, 1019,18.318842,32.732697,17.582745,18.777594,6.6630096, 23:05:23.258
87136.867188, 95063.218750, 127067.226563, 120498.851563, 107857.648438, 102289.445313, 140922.015625, 115373.890625, 449, 277, 1018,18.318842,32.732697,17.582745,18.777594,6.6630096, 23:05:23.259
87125.195313, 95041.937500, 127190.046875, 120678.406250, 107856.062500, 102324.312500, 141012.500000, 115411.125000, 449, 277, 1019,18.318842,32.732697,17.582745,18.777594,6.6630096, 23:05:23.259
87110.531250, 95023.210938, 127303.820313, 120850.781250, 107844.007813, 102312.132813, 140994.515625, 115391.367188, 442, 276, 1018,18.318842,32.732697,17.582745,18.777594,6.6630096, 23:05:23.259
87139.078125, 95066.007813, 127160.234375, 120658.218750, 107852.664063, 102273.109375, 140875.984375, 115351.359375, 442, 275, 1019,18.318842,32.732697,17.582745,18.777594,6.6630096, 23:05:23.259
87154.257813, 95076.765625, 127055.671875, 120484.187500, 107871.570313, 102283.992188, 140899.484375, 115370.695313, 448, 276, 1019,18.318842,32.732697,17.582745,18.777594,6.6630096, 23:05:23.260
87127.250000, 95051.257813, 127165.820313, 120636.093750, 107859.945313, 102313.343750, 140984.703125, 115400.578125, 449, 277, 1019,6.7272515,5.397373,5.7614784,7.650942,3.7789066, 23:05:23.718
87106.218750, 95031.429688, 127306.234375, 120853.890625, 107843.203125, 102311.687500, 140991.046875, 115391.679688, 443, 276, 1018,6.7272515,5.397373,5.7614784,7.650942,3.7789066, 23:05:23.718
87115.140625, 95043.906250, 127170.046875, 120693.671875, 107848.304688, 102266.890625, 140879.000000, 115344.539063, 442, 275, 1019,6.7272515,5.397373,5.7614784,7.650942,3.7789066, 23:05:23.718
87120.593750, 95052.109375, 127042.507813, 120488.101563, 107857.804688, 102258.710938, 140877.312500, 115345.007813, 446, 276, 1018,6.7272515,5.397373,5.7614784,7.650942,3.7789066, 23:05:23.718
87108.140625, 95038.632813, 127097.578125, 120563.945313, 107857.156250, 102292.914063, 140953.156250, 115375.765625, 450, 277, 1019,6.7272515,5.397373,5.7614784,7.650942,3.7789066, 23:05:23.719
87091.132813, 95015.382813, 127276.617188, 120818.750000, 107850.765625, 102304.289063, 140996.312500, 115385.375000, 443, 276, 1019,6.7272515,5.397373,5.7614784,7.650942,3.7789066, 23:05:23.719
87114.554688, 95037.492188, 127200.867188, 120732.296875, 107848.929688, 102266.914063, 140890.500000, 115346.265625, 442, 276, 1019,6.7272515,5.397373,5.7614784,7.650942,3.7789066, 23:05:23.719
87133.734375, 95055.617188, 127046.304688, 120495.031250, 107866.679688, 102260.945313, 140867.265625, 115353.484375, 445, 276, 1019,6.7272515,5.397373,5.7614784,7.650942,3.7789066, 23:05:23.719
87118.578125, 95044.398438, 127103.328125, 120554.640625, 107870.296875, 102291.882813, 140956.468750, 115388.906250, 450, 276, 1019,6.7272515,5.397373,5.7614784,7.650942,3.7789066, 23:05:23.719
87094.109375, 95018.335938, 127265.195313, 120795.906250, 107851.140625, 102305.359375, 141014.609375, 115401.335938, 445, 276, 1018,6.7272515,5.397373,5.7614784,7.650942,3.7789066, 23:05:23.719
87104.859375, 95029.843750, 127223.468750, 120763.921875, 107836.773438, 102266.734375, 140915.390625, 115351.898438, 442, 276, 1019,6.7272515,5.397373,5.7614784,7.650942,3.7789066, 23:05:23.719
87134.226563, 95056.984375, 127047.085938, 120501.695313, 107855.882813, 102256.234375, 140866.875000, 115349.281250, 444, 276, 1018,6.7272515,5.397373,5.7614784,7.650942,3.7789066, 23:05:23.719
87108.140625, 95034.382813, 127083.609375, 120516.664063, 107863.437500, 102282.851563, 140953.812500, 115386.179688, 450, 277, 1018,6.7272515,5.397373,5.7614784,7.650942,3.7789066, 23:05:23.720
87075.710938, 95003.625000, 127242.710938, 120756.125000, 107840.101563, 102293.492188, 141007.859375, 115387.343750, 446, 276, 1018,6.7272515,5.397373,5.7614784,7.650942,3.7789066, 23:05:23.720
87076.382813, 95007.359375, 127260.296875, 120808.093750, 107827.625000, 102260.992188, 140948.171875, 115342.843750, 442, 276, 1019,6.7272515,5.397373,5.7614784,7.650942,3.7789066, 23:05:23.720
87119.429688, 95041.757813, 127067.093750, 120542.101563, 107855.523438, 102238.710938, 140881.906250, 115324.000000, 444, 276, 1018,6.7272515,5.397373,5.7614784,7.650942,3.7789066, 23:05:23.720
87126.515625, 95042.539063, 127072.992188, 120505.539063, 107884.804688, 102280.101563, 140978.109375, 115374.695313, 450, 276, 1019,6.7272515,5.397373,5.7614784,7.650942,3.7789066, 23:05:23.720
87092.453125, 95005.882813, 127222.953125, 120724.429688, 107872.132813, 102304.195313, 141049.453125, 115396.554688, 448, 277, 1019,6.7272515,5.397373,5.7614784,7.650942,3.7789066, 23:05:23.720
87087.804688, 95011.585938, 127259.179688, 120811.148438, 107855.570313, 102282.945313, 140997.796875, 115369.820313, 441, 276, 1018,6.7272515,5.397373,5.7614784,7.650942,3.7789066, 23:05:23.720
87115.453125, 95041.937500, 127105.781250, 120592.617188, 107872.507813, 102252.429688, 140912.875000, 115347.890625, 443, 276, 1018,6.7272515,5.397373,5.7614784,7.650942,3.7789066, 23:05:23.721
87130.937500, 95057.851563, 127053.234375, 120478.890625, 107892.492188, 102278.273438, 140956.562500, 115384.750000, 449, 276, 1018,6.7272515,5.397373,5.7614784,7.650942,3.7789066, 23:05:23.721
87094.171875, 95018.757813, 127164.234375, 120641.414063, 107867.992188, 102302.187500, 141040.328125, 115411.687500, 449, 277, 1018,6.7272515,5.397373,5.7614784,7.650942,3.7789066, 23:05:23.721
87080.429688, 95008.210938, 127282.851563, 120820.609375, 107848.171875, 102288.039063, 141030.656250, 115385.085938, 442, 276, 1018,6.7272515,5.397373,5.7614784,7.650942,3.7789066, 23:05:23.721
87112.414063, 95035.187500, 127116.710938, 120605.492188, 107860.976563, 102249.796875, 140914.468750, 115335.195313, 442, 276, 1017,6.7272515,5.397373,5.7614784,7.650942,3.7789066, 23:05:23.721
87125.687500, 95041.937500, 127040.359375, 120451.804688, 107903.023438, 102267.585938, 140967.828125, 115372.460938, 447, 276, 1018,6.7272515,5.397373,5.7614784,7.650942,3.7789066, 23:05:23.721
87080.960938, 95002.640625, 127146.195313, 120587.140625, 107895.039063, 102291.484375, 141055.125000, 115406.429688, 450, 277, 1018,6.7272515,5.397373,5.7614784,7.650942,3.7789066, 23:05:23.721
87076.289063, 94994.710938, 127276.726563, 120787.726563, 107874.429688, 102293.421875, 141054.500000, 115395.367188, 442, 276, 1018,6.7272515,5.397373,5.7614784,7.650942,3.7789066, 23:05:23.721
87120.593750, 95035.343750, 127147.648438, 120625.031250, 107883.507813, 102263.046875, 140931.140625, 115359.609375, 442, 275, 1018,6.7272515,5.397373,5.7614784,7.650942,3.7789066, 23:05:23.721
87136.640625, 95052.156250, 127019.664063, 120404.617188, 107908.632813, 102270.898438, 140930.765625, 115384.078125, 446, 276, 1018,6.7272515,5.397373,5.7614784,7.650942,3.7789066, 23:05:23.722
87091.804688, 95011.585938, 127125.500000, 120519.125000, 107901.609375, 102294.476563, 141028.453125, 115416.734375, 450, 276, 1019,6.7272515,5.397373,5.7614784,7.650942,3.7789066, 23:05:23.722
87079.820313, 94993.882813, 127272.101563, 120744.054688, 107880.242188, 102302.882813, 141060.046875, 115408.843750, 442, 276, 1018,6.7272515,5.397373,5.7614784,7.650942,3.7789066, 23:05:23.722
87105.437500, 95023.007813, 127196.195313, 120656.882813, 107873.023438, 102266.960938, 140959.796875, 115364.140625, 441, 275, 1018,6.7272515,5.397373,5.7614784,7.650942,3.7789066, 23:05:23.722
87118.578125, 95040.171875, 127063.960938, 120432.757813, 107891.601563, 102256.343750, 140934.406250, 115366.539063, 445, 275, 1018,6.7272515,5.397373,5.7614784,7.650942,3.7789066, 23:05:23.722
87098.757813, 95017.617188, 127108.039063, 120470.937500, 107880.531250, 102280.976563, 141002.468750, 115393.781250, 450, 277, 1018,6.7272515,5.397373,5.7614784,7.650942,3.7789066, 23:05:23.722
87074.773438, 94995.000000, 127253.546875, 120692.265625, 107866.296875, 102295.015625, 141046.921875, 115398.406250, 445, 276, 1019,6.7272515,5.397373,5.7614784,7.650942,3.7789066, 23:05:23.722
87083.867188, 95009.039063, 127239.265625, 120691.078125, 107865.265625, 102259.695313, 140958.500000, 115345.992188, 441, 276, 1018,6.7272515,5.397373,5.7614784,7.650942,3.7789066, 23:05:23.723
87120.546875, 95042.656250, 127064.234375, 120432.289063, 107900.046875, 102251.875000, 140923.468750, 115352.054688, 443, 275, 1019,6.7272515,5.397373,5.7614784,7.650942,3.7789066, 23:05:23.723
87105.351563, 95026.671875, 127083.835938, 120423.867188, 107903.156250, 102279.656250, 141002.421875, 115387.296875, 450, 276, 1018,6.7272515,5.397373,5.7614784,7.650942,3.7789066, 23:05:23.723
87082.304688, 94999.695313, 127249.304688, 120661.398438, 107885.609375, 102300.804688, 141066.640625, 115402.632813, 446, 276, 1018,6.7272515,5.397373,5.7614784,7.650942,3.7789066, 23:05:23.723
87080.132813, 94996.718750, 127295.125000, 120743.335938, 107862.671875, 102264.968750, 141008.281250, 115351.757813, 442, 275, 1018,6.7272515,5.397373,5.7614784,7.650942,3.7789066, 23:05:23.723
87106.242188, 95026.289063, 127118.187500, 120495.437500, 107872.265625, 102235.757813, 140924.093750, 115324.359375, 443, 276, 1018,6.7272515,5.397373,5.7614784,7.650942,3.7789066, 23:05:23.723
87109.218750, 95032.484375, 127105.250000, 120436.468750, 107892.671875, 102265.640625, 140999.812500, 115365.328125, 450, 276, 1019,6.7272515,5.397373,5.7614784,7.650942,3.7789066, 23:05:23.723
87080.406250, 95008.632813, 127241.906250, 120638.375000, 107876.937500, 102290.117188, 141081.921875, 115385.554688, 447, 276, 1018,6.7272515,5.397373,5.7614784,7.650942,3.7789066, 23:05:23.723
87079.796875, 95005.195313, 127310.593750, 120755.875000, 107857.515625, 102267.070313, 141055.421875, 115357.304688, 442, 276, 1019,6.7272515,5.397373,5.7614784,7.650942,3.7789066, 23:05:23.724
87112.187500, 95034.179688, 127134.664063, 120518.078125, 107874.187500, 102231.398438, 140953.375000, 115324.421875, 442, 276, 1018,6.7272515,5.397373,5.7614784,7.650942,3.7789066, 23:05:23.724
87129.625000, 95050.765625, 127071.023438, 120390.203125, 107904.718750, 102263.382813, 141000.359375, 115360.945313, 448, 276, 1019,6.7272515,5.397373,5.7614784,7.650942,3.7789066, 23:05:23.724
87096.539063, 95020.328125, 127188.867188, 120552.562500, 107888.000000, 102291.484375, 141072.046875, 115386.789063, 449, 277, 1018,6.7272515,5.397373,5.7614784,7.650942,3.7789066, 23:05:23.724
87076.781250, 95001.328125, 127309.226563, 120736.789063, 107867.906250, 102278.742188, 141057.078125, 115368.796875, 442, 276, 1019,6.7272515,5.397373,5.7614784,7.650942,3.7789066, 23:05:23.724
87112.187500, 95036.398438, 127168.882813, 120553.031250, 107885.742188, 102244.945313, 140952.703125, 115339.312500, 442, 275, 1018,6.7272515,5.397373,5.7614784,7.650942,3.7789066, 23:05:23.724
87134.945313, 95047.593750, 127078.851563, 120387.187500, 107915.757813, 102257.234375, 140987.312500, 115363.406250, 447, 276, 1019,6.7272515,5.397373,5.7614784,7.650942,3.7789066, 23:05:23.724
87111.070313, 95025.484375, 127172.390625, 120513.406250, 107904.960938, 102287.703125, 141068.734375, 115387.632813, 451, 277, 1018,6.7272515,5.397373,5.7614784,7.650942,3.7789066, 23:05:23.725
87086.750000, 95008.585938, 127312.421875, 120727.156250, 107886.320313, 102288.328125, 141089.703125, 115383.679688, 442, 276, 1019,6.7272515,5.397373,5.7614784,7.650942,3.7789066, 23:05:23.725
87110.648438, 95040.929688, 127207.617188, 120597.070313, 107886.859375, 102250.554688, 140987.093750, 115338.843750, 442, 276, 1019,6.7272515,5.397373,5.7614784,7.650942,3.7789066, 23:05:23.725
87135.921875, 95053.960938, 127075.007813, 120378.085938, 107915.914063, 102252.882813, 140991.828125, 115351.250000, 446, 276, 1019,6.7272515,5.397373,5.7614784,7.650942,3.7789066, 23:05:23.725
87111.718750, 95033.359375, 127157.929688, 120471.335938, 107907.601563, 102282.000000, 141077.125000, 115382.250000, 451, 277, 1018,6.7272515,5.397373,5.7614784,7.650942,3.7789066, 23:05:23.725
87084.093750, 95008.007813, 127283.437500, 120677.265625, 107885.140625, 102288.750000, 141105.265625, 115379.210938, 443, 276, 1018,6.7272515,5.397373,5.7614784,7.650942,3.7789066, 23:05:23.725
87107.898438, 95032.726563, 127224.023438, 120613.851563, 107892.562500, 102259.585938, 141008.718750, 115344.789063, 442, 276, 1018,6.7272515,5.397373,5.7614784,7.650942,3.7789066, 23:05:23.725
87136.281250, 95063.664063, 127079.140625, 120381.101563, 107925.148438, 102256.679688, 140979.984375, 115354.820313, 445, 276, 1019,6.7272515,5.397373,5.7614784,7.650942,3.7789066, 23:05:23.726
87108.992188, 95026.585938, 127151.132813, 120445.812500, 107903.890625, 102277.687500, 141051.265625, 115380.390625, 451, 277, 1018,6.7272515,5.397373,5.7614784,7.650942,3.7789066, 23:05:23.726
87089.929688, 95005.460938, 127312.265625, 120690.187500, 107887.171875, 102293.421875, 141095.421875, 115387.882813, 445, 276, 1018,6.7272515,5.397373,5.7614784,7.650942,3.7789066, 23:05:23.726
87094.640625, 95012.992188, 127297.804688, 120698.296875, 107882.078125, 102260.609375, 141011.984375, 115352.632813, 441, 275, 1018,6.7272515,5.397373,5.7614784,7.650942,3.7789066, 23:05:23.726
87121.734375, 95041.109375, 127121.968750, 120441.140625, 107906.351563, 102243.468750, 140941.937500, 115339.398438, 444, 275, 1019,6.7272515,5.397373,5.7614784,7.650942,3.7789066, 23:05:23.726
87116.992188, 95029.804688, 127118.726563, 120409.132813, 107909.054688, 102270.742188, 141011.312500, 115371.695313, 449, 276, 1018,6.7272515,5.397373,5.7614784,7.650942,3.7789066, 23:05:23.726
87098.554688, 95014.445313, 127275.117188, 120640.117188, 107900.609375, 102299.367188, 141092.828125, 115398.007813, 446, 276, 1019,6.7272515,5.397373,5.7614784,7.650942,3.7789066, 23:05:23.726
