%OpenBCI Raw EEG Data
%
%Sample Rate = 250.0 Hz
%First Column = SampleIndex
%Last Column = Timestamp 
%Other Columns = EEG data in microvolts followed by Accel Data (in G) interleaved with Aux Data
0, 0.00, 0.00, 0.00, 0.00, 0.00, 0.00, 0.00, 0.00, 0.206, 0.602, 0.722, 13:02:26.384
1, -60369.22, -69989.27, -187500.02, 187500.00, -72993.62, -187500.02, -92079.22, -74066.82, 0.000, 0.000, 0.000, 13:02:26.860
2, -60446.85, -70071.02, -187500.02, 187500.00, -72951.02, -187500.02, -91914.17, -73885.74, 0.000, 0.000, 0.000, 13:02:26.860
3, -60573.09, -70200.05, -187500.02, 187500.00, -73059.22, -187500.02, -91768.15, -73634.04, 0.000, 0.000, 0.000, 13:02:26.860
4, -60506.13, -70126.12, -187500.02, 187500.00, -73107.57, -187500.02, -91911.80, -73778.84, 0.000, 0.000, 0.000, 13:02:26.861
5, -60357.91, -69976.29, -187500.02, 187500.00, -73003.88, -187500.02, -92079.08, -74050.25, 0.000, 0.000, 0.000, 13:02:26.861
6, -60424.16, -70049.49, -187500.02, 187500.00, -72942.41, -187500.02, -91943.02, -73923.30, 0.000, 0.000, 0.000, 13:02:26.861
7, -60578.19, -70206.80, -187500.02, 187500.00, -73049.19, -187500.02, -91756.52, -73626.06, 0.244, 0.582, 0.738, 13:02:26.861
8, -60511.49, -70138.01, -187500.02, 187500.00, -73105.55, -187500.02, -91878.43, -73726.65, 0.000, 0.000, 0.000, 13:02:26.861
9, -60381.87, -70006.06, -187500.02, 187500.00, -73024.31, -187500.02, -92061.05, -74006.04, 0.000, 0.000, 0.000, 13:02:26.861
10, -60411.31, -70038.88, -187500.02, 187500.00, -72962.66, -187500.02, -91987.51, -73962.84, 0.000, 0.000, 0.000, 13:02:26.862
11, -60558.68, -70191.23, -187500.02, 187500.00, -73039.06, -187500.02, -91783.70, -73659.88, 0.000, 0.000, 0.000, 13:02:26.864
12, -60545.98, -70177.16, -187500.02, 187500.00, -73118.48, -187500.02, -91848.23, -73679.38, 0.000, 0.000, 0.000, 13:02:26.864
13, -60390.25, -70015.63, -187500.02, 187500.00, -73041.85, -187500.02, -92055.55, -73980.07, 0.000, 0.000, 0.000, 13:02:26.864
14, -60381.71, -70010.16, -187500.02, 187500.00, -72960.14, -187500.02, -92027.36, -74006.49, 0.000, 0.000, 0.000, 13:02:26.864
15, -60521.93, -70154.81, -187500.02, 187500.00, -73001.45, -187500.02, -91809.72, -73707.60, 0.000, 0.000, 0.000, 13:02:26.865
16, -60562.05, -70194.47, -187500.02, 187500.00, -73102.80, -187500.02, -91808.05, -73634.91, 0.000, 0.000, 0.000, 13:02:26.865
17, -60424.65, -70052.17, -187500.02, 187500.00, -73074.94, -187500.02, -92019.02, -73911.12, 0.258, 0.568, 0.750, 13:02:26.865
18, -60368.53, -69994.87, -187500.02, 187500.00, -72975.23, -187500.02, -92064.95, -74031.86, 0.000, 0.000, 0.000, 13:02:26.865
19, -60516.16, -70143.93, -187500.02, 187500.00, -72985.77, -187500.02, -91842.89, -73746.27, 0.000, 0.000, 0.000, 13:02:26.865
20, -60576.40, -70201.10, -187500.02, 187500.00, -73090.76, -187500.02, -91795.91, -73613.99, 0.000, 0.000, 0.000, 13:02:26.865
21, -60462.47, -70086.20, -187500.02, 187500.00, -73081.95, -187500.02, -91979.37, -73851.57, 0.000, 0.000, 0.000, 13:02:26.865
22, -60382.95, -70008.12, -187500.02, 187500.00, -73001.84, -187500.02, -92067.93, -74027.41, 0.000, 0.000, 0.000, 13:02:26.865
23, -60488.24, -70116.66, -187500.02, 187500.00, -72989.38, -187500.02, -91882.09, -73803.02, 0.000, 0.000, 0.000, 13:02:26.865
24, -60588.07, -70214.38, -187500.02, 187500.00, -73097.73, -187500.02, -91781.27, -73605.37, 0.000, 0.000, 0.000, 13:02:26.865
25, -60487.15, -70110.06, -187500.02, 187500.00, -73112.38, -187500.02, -91950.09, -73798.73, 0.000, 0.000, 0.000, 13:02:26.866
26, -60381.13, -70003.94, -187500.02, 187500.00, -73019.70, -187500.02, -92083.62, -74028.17, 0.274, 0.570, 0.746, 13:02:26.866
27, -60467.93, -70097.08, -187500.02, 187500.00, -72985.26, -187500.02, -91923.60, -73854.56, 0.000, 0.000, 0.000, 13:02:26.866
28, -60593.18, -70223.26, -187500.02, 187500.00, -73086.67, -187500.02, -91771.77, -73601.41, 0.000, 0.000, 0.000, 13:02:26.866
29, -60524.10, -70147.13, -187500.02, 187500.00, -73131.82, -187500.02, -91914.52, -73744.28, 0.000, 0.000, 0.000, 13:02:26.866
30, -60397.14, -70020.23, -187500.02, 187500.00, -73039.84, -187500.02, -92080.78, -74012.91, 0.000, 0.000, 0.000, 13:02:26.866
31, -60453.51, -70079.78, -187500.02, 187500.00, -72983.54, -187500.02, -91965.18, -73913.28, 0.000, 0.000, 0.000, 13:02:26.866
32, -60591.26, -70218.31, -187500.02, 187500.00, -73074.35, -187500.02, -91782.32, -73626.58, 0.000, 0.000, 0.000, 13:02:26.866
33, -60560.06, -70183.63, -187500.02, 187500.00, -73132.47, -187500.02, -91873.65, -73691.55, 0.000, 0.000, 0.000, 13:02:26.866
34, -60421.43, -70038.36, -187500.02, 187500.00, -73060.88, -187500.02, -92068.62, -73981.23, 0.000, 0.000, 0.000, 13:02:26.866
35, -60427.29, -70048.95, -187500.02, 187500.00, -72980.25, -187500.02, -92012.83, -73964.09, 0.000, 0.000, 0.000, 13:02:26.867
36, -60585.32, -70211.21, -187500.02, 187500.00, -73044.58, -187500.02, -91800.98, -73655.25, 0.278, 0.568, 0.746, 13:02:26.867
37, -60600.45, -70221.40, -187500.02, 187500.00, -73137.45, -187500.02, -91842.02, -73645.20, 0.000, 0.000, 0.000, 13:02:26.867
38, -60447.00, -70066.63, -187500.02, 187500.00, -73078.22, -187500.02, -92045.95, -73934.96, 0.000, 0.000, 0.000, 13:02:26.867
39, -60411.36, -70033.20, -187500.02, 187500.00, -72981.84, -187500.02, -92048.52, -74002.76, 0.000, 0.000, 0.000, 13:02:26.867
40, -60569.07, -70198.31, -187500.02, 187500.00, -73032.27, -187500.02, -91824.27, -73694.30, 0.000, 0.000, 0.000, 13:02:26.867
41, -60606.06, -70235.68, -187500.02, 187500.00, -73138.59, -187500.02, -91819.66, -73613.50, 0.000, 0.000, 0.000, 13:02:26.867
42, -60478.39, -70104.95, -187500.02, 187500.00, -73119.51, -187500.02, -92023.65, -73883.47, 0.000, 0.000, 0.000, 13:02:26.867
43, -60418.55, -70046.56, -187500.02, 187500.00, -73030.88, -187500.02, -92075.21, -74016.01, 0.000, 0.000, 0.000, 13:02:26.867
44, -60534.76, -70170.53, -187500.02, 187500.00, -73027.51, -187500.02, -91863.55, -73756.20, 0.000, 0.000, 0.000, 13:02:26.867
45, -60621.66, -70257.72, -187500.02, 187500.00, -73137.68, -187500.02, -91789.02, -73599.28, 0.278, 0.566, 0.740, 13:02:26.868
46, -60490.90, -70120.80, -187500.02, 187500.00, -73132.76, -187500.02, -91988.87, -73842.41, 0.000, 0.000, 0.000, 13:02:26.868
47, -60410.30, -70041.96, -187500.02, 187500.00, -73034.97, -187500.02, -92082.57, -74028.30, 0.000, 0.000, 0.000, 13:02:26.868
48, -60512.38, -70152.67, -187500.02, 187500.00, -73019.16, -187500.02, -91903.15, -73812.55, 0.000, 0.000, 0.000, 13:02:26.868
49, -60628.08, -70266.46, -187500.02, 187500.00, -73130.73, -187500.02, -91780.26, -73589.95, 0.000, 0.000, 0.000, 13:02:26.868
50, -60538.07, -70165.92, -187500.02, 187500.00, -73157.70, -187500.02, -91947.97, -73778.99, 0.000, 0.000, 0.000, 13:02:26.868
51, -60411.27, -70037.00, -187500.02, 187500.00, -73056.67, -187500.02, -92096.20, -74030.85, 0.000, 0.000, 0.000, 13:02:26.868
52, -60487.53, -70122.88, -187500.02, 187500.00, -73013.09, -187500.02, -91944.92, -73873.09, 0.000, 0.000, 0.000, 13:02:26.868
53, -60624.19, -70264.36, -187500.02, 187500.00, -73107.97, -187500.02, -91779.41, -73596.27, 0.000, 0.000, 0.000, 13:02:26.868
54, -60557.40, -70192.14, -187500.02, 187500.00, -73154.51, -187500.02, -91908.80, -73718.84, 0.000, 0.000, 0.000, 13:02:26.868
55, -60420.29, -70054.48, -187500.02, 187500.00, -73067.29, -187500.02, -92084.73, -73998.60, 0.282, 0.562, 0.748, 13:02:26.869
56, -60466.74, -70105.48, -187500.02, 187500.00, -73007.77, -187500.02, -91981.76, -73921.84, 0.000, 0.000, 0.000, 13:02:26.869
57, -60623.65, -70262.35, -187500.02, 187500.00, -73103.23, -187500.02, -91784.46, -73622.27, 0.000, 0.000, 0.000, 13:02:26.869
58, -60608.09, -70238.88, -187500.02, 187500.00, -73181.22, -187500.02, -91864.84, -73666.83, 0.000, 0.000, 0.000, 13:02:26.869
59, -60467.30, -70090.95, -187500.02, 187500.00, -73113.94, -187500.02, -92073.85, -73962.26, 0.000, 0.000, 0.000, 13:02:26.869
60, -60466.18, -70094.42, -187500.02, 187500.00, -73031.73, -187500.02, -92034.98, -73967.30, 0.000, 0.000, 0.000, 13:02:26.869
61, -60609.08, -70241.49, -187500.02, 187500.00, -73092.28, -187500.02, -91825.88, -73666.61, 0.000, 0.000, 0.000, 13:02:26.869
62, -60617.50, -70250.28, -187500.02, 187500.00, -73181.04, -187500.02, -91855.74, -73641.95, 0.000, 0.000, 0.000, 13:02:26.869
63, -60487.86, -70118.78, -187500.02, 187500.00, -73137.86, -187500.02, -92059.41, -73921.10, 0.000, 0.000, 0.000, 13:02:26.869
64, -60439.90, -70072.13, -187500.02, 187500.00, -73034.48, -187500.02, -92074.34, -74004.63, 0.000, 0.000, 0.000, 13:02:26.876
65, -60582.10, -70218.72, -187500.02, 187500.00, -73063.29, -187500.02, -91847.27, -73707.71, 0.276, 0.564, 0.750, 13:02:26.876
66, -60626.96, -70262.23, -187500.02, 187500.00, -73163.65, -187500.02, -91819.33, -73602.73, 0.000, 0.000, 0.000, 13:02:26.876
67, -60495.33, -70125.09, -187500.02, 187500.00, -73143.53, -187500.02, -92020.72, -73868.83, 0.000, 0.000, 0.000, 13:02:26.876
68, -60429.41, -70062.01, -187500.02, 187500.00, -73050.28, -187500.02, -92085.98, -74020.13, 0.000, 0.000, 0.000, 13:02:26.876
69, -60572.78, -70212.62, -187500.02, 187500.00, -73064.90, -187500.02, -91881.09, -73755.81, 0.000, 0.000, 0.000, 13:02:26.876
70, -60663.21, -70300.75, -187500.02, 187500.00, -73188.84, -187500.02, -91813.14, -73589.20, 0.000, 0.000, 0.000, 13:02:26.876
71, -60540.93, -70174.22, -187500.02, 187500.00, -73190.70, -187500.02, -92009.52, -73827.52, 0.000, 0.000, 0.000, 13:02:26.876
72, -60447.59, -70082.15, -187500.02, 187500.00, -73094.20, -187500.02, -92121.73, -74038.07, 0.000, 0.000, 0.000, 13:02:26.877
73, -60554.11, -70194.06, -187500.02, 187500.00, -73074.71, -187500.02, -91945.02, -73834.09, 0.000, 0.000, 0.000, 13:02:26.877
74, -60660.33, -70300.30, -187500.02, 187500.00, -73182.85, -187500.02, -91825.08, -73613.91, 0.274, 0.560, 0.750, 13:02:26.877
75, -60555.99, -70191.65, -187500.02, 187500.00, -73199.62, -187500.02, -91987.15, -73792.65, 0.000, 0.000, 0.000, 13:02:26.877
76, -60433.10, -70068.49, -187500.02, 187500.00, -73102.09, -187500.02, -92129.38, -74040.11, 0.000, 0.000, 0.000, 13:02:26.877
77, -60510.77, -70148.96, -187500.02, 187500.00, -73052.80, -187500.02, -91980.94, -73895.18, 0.000, 0.000, 0.000, 13:02:26.877
78, -60655.50, -70293.41, -187500.02, 187500.00, -73152.07, -187500.02, -91807.51, -73618.95, 0.000, 0.000, 0.000, 13:02:26.877
79, -60584.71, -70219.43, -187500.02, 187500.00, -73197.63, -187500.02, -91929.81, -73727.98, 0.000, 0.000, 0.000, 13:02:26.877
80, -60445.38, -70079.49, -187500.02, 187500.00, -73110.14, -187500.02, -92102.73, -74000.56, 0.000, 0.000, 0.000, 13:02:26.877
81, -60481.41, -70121.47, -187500.02, 187500.00, -73045.88, -187500.02, -92010.20, -73936.41, 0.000, 0.000, 0.000, 13:02:26.878
82, -60632.88, -70277.93, -187500.02, 187500.00, -73125.52, -187500.02, -91808.36, -73632.43, 0.000, 0.000, 0.000, 13:02:26.878
83, -60615.49, -70258.51, -187500.02, 187500.00, -73200.59, -187500.02, -91883.59, -73666.48, 0.000, 0.000, 0.000, 13:02:26.878
84, -60468.15, -70105.91, -187500.02, 187500.00, -73133.92, -187500.02, -92091.66, -73963.73, 0.270, 0.564, 0.740, 13:02:26.878
85, -60467.46, -70110.38, -187500.02, 187500.00, -73047.47, -187500.02, -92058.23, -73983.80, 0.000, 0.000, 0.000, 13:02:26.878
86, -60620.72, -70265.86, -187500.02, 187500.00, -73108.53, -187500.02, -91840.45, -73675.93, 0.000, 0.000, 0.000, 13:02:26.878
87, -60630.54, -70268.80, -187500.02, 187500.00, -73189.42, -187500.02, -91860.57, -73635.18, 0.000, 0.000, 0.000, 13:02:26.878
88, -60506.71, -70137.00, -187500.02, 187500.00, -73151.76, -187500.02, -92056.62, -73908.41, 0.000, 0.000, 0.000, 13:02:26.878
89, -60452.05, -70086.10, -187500.02, 187500.00, -73056.48, -187500.02, -92087.55, -74014.42, 0.000, 0.000, 0.000, 13:02:26.879
90, -60598.06, -70242.16, -187500.02, 187500.00, -73091.63, -187500.02, -91864.70, -73724.25, 0.000, 0.000, 0.000, 13:02:26.879
91, -60644.15, -70285.86, -187500.02, 187500.00, -73193.45, -187500.02, -91830.26, -73611.27, 0.000, 0.000, 0.000, 13:02:26.879
92, -60499.06, -70136.73, -187500.02, 187500.00, -73161.19, -187500.02, -92035.23, -73875.46, 0.000, 0.000, 0.000, 13:02:26.879
93, -60447.39, -70086.77, -187500.02, 187500.00, -73076.48, -187500.02, -92102.30, -74028.33, 0.274, 0.564, 0.746, 13:02:26.879
94, -60570.21, -70213.69, -187500.02, 187500.00, -73082.98, -187500.02, -91907.62, -73785.70, 0.000, 0.000, 0.000, 13:02:26.880
95, -60645.89, -70290.16, -187500.02, 187500.00, -73186.31, -187500.02, -91825.81, -73610.02, 0.000, 0.000, 0.000, 13:02:26.880
96, -60542.87, -70179.29, -187500.02, 187500.00, -73188.82, -187500.02, -92002.99, -73822.55, 0.000, 0.000, 0.000, 13:02:26.880
97, -60442.91, -70072.85, -187500.02, 187500.00, -73097.60, -187500.02, -92128.61, -74046.12, 0.000, 0.000, 0.000, 13:02:26.880
98, -60526.22, -70160.70, -187500.02, 187500.00, -73075.94, -187500.02, -91966.43, -73867.48, 0.000, 0.000, 0.000, 13:02:26.880
99, -60627.54, -70263.60, -187500.02, 187500.00, -73159.13, -187500.02, -91826.30, -73632.81, 0.000, 0.000, 0.000, 13:02:26.880
100, -60562.99, -70194.69, -187500.02, 187500.00, -73182.89, -187500.02, -91956.37, -73773.54, 0.000, 0.000, 0.000, 13:02:26.880
101, -60444.12, -70074.30, -187500.02, 187500.00, -73103.59, -187500.02, -92117.17, -74037.73, 0.000, 0.000, 0.000, 13:02:26.880
102, -60496.47, -70129.53, -187500.02, 187500.00, -73044.36, -187500.02, -91990.55, -73922.24, 0.000, 0.000, 0.000, 13:02:26.880
103, -60631.00, -70276.63, -187500.02, 187500.00, -73135.66, -187500.02, -91802.23, -73631.27, 0.282, 0.566, 0.746, 13:02:26.880
104, -60580.45, -70220.73, -187500.02, 187500.00, -73189.60, -187500.02, -91907.27, -73723.13, 0.000, 0.000, 0.000, 13:02:26.880
105, -60436.19, -70072.67, -187500.02, 187500.00, -73102.31, -187500.02, -92094.21, -74013.04, 0.000, 0.000, 0.000, 13:02:26.881
106, -60453.29, -70095.16, -187500.02, 187500.00, -73029.88, -187500.02, -92024.52, -73979.33, 0.000, 0.000, 0.000, 13:02:26.881
107, -60591.24, -70238.19, -187500.02, 187500.00, -73090.49, -187500.02, -91814.44, -73673.41, 0.000, 0.000, 0.000, 13:02:26.881
108, -60595.13, -70238.05, -187500.02, 187500.00, -73179.43, -187500.02, -91861.82, -73671.93, 0.000, 0.000, 0.000, 13:02:26.881
109, -60459.32, -70099.92, -187500.02, 187500.00, -73118.70, -187500.02, -92066.36, -73958.92, 0.000, 0.000, 0.000, 13:02:26.881
110, -60435.36, -70080.20, -187500.02, 187500.00, -73027.62, -187500.02, -92056.04, -74002.98, 0.000, 0.000, 0.000, 13:02:26.881
111, -60573.74, -70224.98, -187500.02, 187500.00, -73071.72, -187500.02, -91837.91, -73703.69, 0.000, 0.000, 0.000, 13:02:26.881
112, -60608.45, -70258.70, -187500.02, 187500.00, -73166.04, -187500.02, -91836.07, -73636.79, 0.000, 0.000, 0.000, 13:02:26.881
113, -60477.94, -70122.70, -187500.02, 187500.00, -73140.45, -187500.02, -92041.04, -73910.11, 0.280, 0.566, 0.740, 13:02:26.881
114, -60411.20, -70058.26, -187500.02, 187500.00, -73039.95, -187500.02, -92087.77, -74035.70, 0.000, 0.000, 0.000, 13:02:26.881
115, -60544.48, -70196.12, -187500.02, 187500.00, -73059.87, -187500.02, -91874.27, -73761.16, 0.000, 0.000, 0.000, 13:02:26.881
116, -60614.66, -70267.40, -187500.02, 187500.00, -73169.98, -187500.02, -91822.02, -73622.80, 0.000, 0.000, 0.000, 13:02:26.882
117, -60488.98, -70136.95, -187500.02, 187500.00, -73148.45, -187500.02, -92012.07, -73862.03, 0.000, 0.000, 0.000, 13:02:26.882
118, -60411.53, -70058.63, -187500.02, 187500.00, -73054.23, -187500.02, -92097.79, -74037.47, 0.000, 0.000, 0.000, 13:02:26.882
119, -60522.00, -70173.88, -187500.02, 187500.00, -73049.25, -187500.02, -91911.69, -73808.38, 0.000, 0.000, 0.000, 13:02:26.882
120, -60609.79, -70259.55, -187500.02, 187500.00, -73145.43, -187500.02, -91815.64, -73612.00, 0.000, 0.000, 0.000, 13:02:26.882
121, -60497.12, -70146.05, -187500.02, 187500.00, -73153.10, -187500.02, -91991.04, -73813.77, 0.000, 0.000, 0.000, 13:02:27.340
122, -60394.46, -70045.89, -187500.02, 187500.00, -73056.61, -187500.02, -92114.80, -74038.09, 0.284, 0.564, 0.740, 13:02:27.340
123, -60467.30, -70121.16, -187500.02, 187500.00, -73015.57, -187500.02, -91960.91, -73873.59, 0.000, 0.000, 0.000, 13:02:27.340
124, -60598.41, -70256.58, -187500.02, 187500.00, -73116.66, -187500.02, -91803.73, -73610.10, 0.000, 0.000, 0.000, 13:02:27.340
125, -60534.40, -70183.96, -187500.02, 187500.00, -73177.73, -187500.02, -91947.81, -73745.94, 0.000, 0.000, 0.000, 13:02:27.340
126, -60397.03, -70042.09, -187500.02, 187500.00, -73080.10, -187500.02, -92121.51, -74020.37, 0.000, 0.000, 0.000, 13:02:27.341
127, -60442.71, -70092.43, -187500.02, 187500.00, -73002.85, -187500.02, -92006.04, -73922.00, 0.000, 0.000, 0.000, 13:02:27.341
128, -60580.00, -70239.48, -187500.02, 187500.00, -73085.87, -187500.02, -91813.16, -73626.66, 0.000, 0.000, 0.000, 13:02:27.341
129, -60575.08, -70221.94, -187500.02, 187500.00, -73168.32, -187500.02, -91902.34, -73681.80, 0.000, 0.000, 0.000, 13:02:27.341
130, -60450.89, -70089.52, -187500.02, 187500.00, -73115.48, -187500.02, -92101.19, -73968.98, 0.000, 0.000, 0.000, 13:02:27.341
131, -60451.32, -70096.79, -187500.02, 187500.00, -73035.09, -187500.02, -92049.98, -73961.59, 0.000, 0.000, 0.000, 13:02:27.341
132, -60599.89, -70250.32, -187500.02, 187500.00, -73105.60, -187500.02, -91843.00, -73661.55, 0.288, 0.562, 0.740, 13:02:27.341
133, -60569.02, -70219.39, -187500.02, 187500.00, -73171.95, -187500.02, -91902.59, -73674.72, 0.000, 0.000, 0.000, 13:02:27.341
134, -60427.80, -70075.76, -187500.02, 187500.00, -73112.91, -187500.02, -92099.53, -73960.02, 0.000, 0.000, 0.000, 13:02:27.341
135, -60421.82, -70074.41, -187500.02, 187500.00, -73038.62, -187500.02, -92084.63, -74005.22, 0.000, 0.000, 0.000, 13:02:27.342
136, -60564.42, -70215.92, -187500.02, 187500.00, -73086.98, -187500.02, -91869.49, -73708.59, 0.000, 0.000, 0.000, 13:02:27.342
137, -60580.71, -70231.84, -187500.02, 187500.00, -73161.21, -187500.02, -91860.91, -73632.95, 0.000, 0.000, 0.000, 13:02:27.342
138, -60460.50, -70113.13, -187500.02, 187500.00, -73132.38, -187500.02, -92049.29, -73890.28, 0.000, 0.000, 0.000, 13:02:27.342
139, -60397.96, -70051.35, -187500.02, 187500.00, -73032.78, -187500.02, -92099.47, -74021.53, 0.000, 0.000, 0.000, 13:02:27.342
140, -60539.52, -70197.39, -187500.02, 187500.00, -73054.62, -187500.02, -91889.47, -73752.95, 0.000, 0.000, 0.000, 13:02:27.342
141, -60607.34, -70261.09, -187500.02, 187500.00, -73165.23, -187500.02, -91836.68, -73612.31, 0.280, 0.570, 0.736, 13:02:27.342
142, -60474.57, -70123.37, -187500.02, 187500.00, -73146.77, -187500.02, -92028.63, -73854.19, 0.000, 0.000, 0.000, 13:02:27.342
143, -60371.61, -70018.23, -187500.02, 187500.00, -73039.46, -187500.02, -92129.22, -74057.16, 0.000, 0.000, 0.000, 13:02:27.342
144, -60479.32, -70130.52, -187500.02, 187500.00, -73022.86, -187500.02, -91933.95, -73836.95, 0.000, 0.000, 0.000, 13:02:27.343
145, -60585.74, -70239.13, -187500.02, 187500.00, -73131.13, -187500.02, -91810.26, -73613.08, 0.000, 0.000, 0.000, 13:02:27.343
146, -60502.95, -70158.41, -187500.02, 187500.00, -73156.38, -187500.02, -91966.65, -73785.19, 0.000, 0.000, 0.000, 13:02:27.343
147, -60382.43, -70037.42, -187500.02, 187500.00, -73050.28, -187500.02, -92110.95, -74029.45, 0.000, 0.000, 0.000, 13:02:27.343
148, -60451.34, -70111.81, -187500.02, 187500.00, -73002.31, -187500.02, -91961.91, -73873.61, 0.000, 0.000, 0.000, 13:02:27.343
149, -60584.71, -70251.77, -187500.02, 187500.00, -73104.91, -187500.02, -91792.04, -73601.19, 0.000, 0.000, 0.000, 13:02:27.343
150, -60513.39, -70180.88, -187500.02, 187500.00, -73155.20, -187500.02, -91917.57, -73723.52, 0.000, 0.000, 0.000, 13:02:27.343
151, -60360.01, -70026.09, -187500.02, 187500.00, -73054.69, -187500.02, -92098.23, -74011.97, 0.276, 0.566, 0.732, 13:02:27.343
152, -60393.34, -70066.95, -187500.02, 187500.00, -72979.72, -187500.02, -91990.66, -73929.53, 0.000, 0.000, 0.000, 13:02:27.343
153, -60521.41, -70201.44, -187500.02, 187500.00, -73055.31, -187500.02, -91791.91, -73632.66, 0.000, 0.000, 0.000, 13:02:27.343
154, -60481.52, -70159.35, -187500.02, 187500.00, -73110.25, -187500.02, -91867.79, -73678.63, 0.000, 0.000, 0.000, 13:02:27.343
155, -60354.47, -70028.82, -187500.02, 187500.00, -73051.89, -187500.02, -92058.31, -73962.12, 0.000, 0.000, 0.000, 13:02:27.344
156, -60355.68, -70031.84, -187500.02, 187500.00, -72971.24, -187500.02, -92015.09, -73965.88, 0.000, 0.000, 0.000, 13:02:27.344
157, -60502.91, -70182.27, -187500.02, 187500.00, -73028.40, -187500.02, -91793.11, -73654.74, 0.000, 0.000, 0.000, 13:02:27.344
158, -60516.45, -70193.28, -187500.02, 187500.00, -73107.23, -187500.02, -91813.34, -73623.23, 0.000, 0.000, 0.000, 13:02:27.344
159, -60376.02, -70044.09, -187500.02, 187500.00, -73059.52, -187500.02, -92021.48, -73913.15, 0.000, 0.000, 0.000, 13:02:27.344
160, -60335.52, -70003.88, -187500.02, 187500.00, -72963.87, -187500.02, -92033.87, -73995.27, 0.276, 0.580, 0.734, 13:02:27.344
161, -60471.91, -70147.39, -187500.02, 187500.00, -72995.25, -187500.02, -91812.07, -73700.52, 0.000, 0.000, 0.000, 13:02:27.344
162, -60520.07, -70195.07, -187500.02, 187500.00, -73097.49, -187500.02, -91788.22, -73600.13, 0.000, 0.000, 0.000, 13:02:27.344
163, -60398.97, -70071.33, -187500.02, 187500.00, -73080.28, -187500.02, -91988.02, -73855.05, 0.000, 0.000, 0.000, 13:02:27.344
164, -60325.90, -69997.73, -187500.02, 187500.00, -72979.74, -187500.02, -92056.46, -74008.73, 0.000, 0.000, 0.000, 13:02:27.344
165, -60463.63, -70143.15, -187500.02, 187500.00, -72999.99, -187500.02, -91847.00, -73746.25, 0.000, 0.000, 0.000, 13:02:27.344
166, -60550.00, -70229.05, -187500.02, 187500.00, -73115.64, -187500.02, -91770.59, -73572.82, 0.000, 0.000, 0.000, 13:02:27.345
167, -60438.15, -70106.31, -187500.02, 187500.00, -73118.16, -187500.02, -91965.89, -73806.51, 0.000, 0.000, 0.000, 13:02:27.345
168, -60329.14, -69994.69, -187500.02, 187500.00, -73010.27, -187500.02, -92086.14, -74030.52, 0.000, 0.000, 0.000, 13:02:27.345
169, -60433.26, -70107.36, -187500.02, 187500.00, -72985.28, -187500.02, -91902.26, -73818.13, 0.000, 0.000, 0.000, 13:02:27.345
170, -60548.15, -70226.63, -187500.02, 187500.00, -73094.34, -187500.02, -91769.60, -73574.97, 0.278, 0.580, 0.732, 13:02:27.345
171, -60458.74, -70134.61, -187500.02, 187500.00, -73119.13, -187500.02, -91926.73, -73746.92, 0.000, 0.000, 0.000, 13:02:27.345
172, -60328.45, -70002.98, -187500.02, 187500.00, -73023.84, -187500.02, -92085.32, -74006.45, 0.000, 0.000, 0.000, 13:02:27.345
173, -60398.46, -70080.07, -187500.02, 187500.00, -72979.60, -187500.02, -91947.56, -73869.83, 0.000, 0.000, 0.000, 13:02:27.345
174, -60534.27, -70220.17, -187500.02, 187500.00, -73077.77, -187500.02, -91777.47, -73593.49, 0.000, 0.000, 0.000, 13:02:27.345
175, -60485.96, -70166.77, -187500.02, 187500.00, -73136.29, -187500.02, -91893.07, -73697.74, 0.000, 0.000, 0.000, 13:02:27.345
176, -60337.73, -70011.36, -187500.02, 187500.00, -73056.49, -187500.02, -92081.18, -73993.28, 0.000, 0.000, 0.000, 13:02:27.346
177, -60367.93, -70046.54, -187500.02, 187500.00, -72972.09, -187500.02, -91984.51, -73929.42, 0.000, 0.000, 0.000, 13:02:27.346
178, -60521.95, -70206.11, -187500.02, 187500.00, -73058.15, -187500.02, -91783.23, -73627.41, 0.000, 0.000, 0.000, 13:02:27.346
179, -60522.87, -70202.58, -187500.02, 187500.00, -73138.86, -187500.02, -91849.87, -73651.07, 0.000, 0.000, 0.000, 13:02:27.346
180, -60373.65, -70049.36, -187500.02, 187500.00, -73081.09, -187500.02, -92058.20, -73949.45, 0.282, 0.578, 0.724, 13:02:27.346
181, -60363.88, -70043.01, -187500.02, 187500.00, -72989.89, -187500.02, -92029.70, -73974.19, 0.000, 0.000, 0.000, 13:02:27.346
182, -60531.29, -70214.38, -187500.02, 187500.00, -73055.11, -187500.02, -91806.59, -73659.23, 0.000, 0.000, 0.000, 13:02:27.346
183, -60545.82, -70220.77, -187500.02, 187500.00, -73147.78, -187500.02, -91833.50, -73621.81, 0.000, 0.000, 0.000, 13:02:27.346
184, -60411.11, -70081.08, -187500.02, 187500.00, -73100.62, -187500.02, -92036.30, -73900.56, 0.000, 0.000, 0.000, 13:02:27.346
185, -60370.50, -70042.07, -187500.02, 187500.00, -73008.30, -187500.02, -92061.20, -73995.05, 0.000, 0.000, 0.000, 13:02:27.346
186, -60503.27, -70182.93, -187500.02, 187500.00, -73030.61, -187500.02, -91845.04, -73709.30, 0.000, 0.000, 0.000, 13:02:27.346
187, -60549.96, -70232.77, -187500.02, 187500.00, -73125.16, -187500.02, -91806.77, -73592.60, 0.000, 0.000, 0.000, 13:02:27.347
188, -60423.74, -70102.04, -187500.02, 187500.00, -73096.59, -187500.02, -91999.69, -73850.70, 0.000, 0.000, 0.000, 13:02:27.347
189, -60351.70, -70031.34, -187500.02, 187500.00, -73001.78, -187500.02, -92071.95, -74014.06, 0.292, 0.572, 0.728, 13:02:27.347
190, -60476.20, -70156.96, -187500.02, 187500.00, -73014.18, -187500.02, -91876.66, -73765.94, 0.000, 0.000, 0.000, 13:02:27.347
191, -60580.02, -70261.12, -187500.02, 187500.00, -73127.33, -187500.02, -91780.53, -73571.79, 0.000, 0.000, 0.000, 13:02:27.347
192, -60474.23, -70144.55, -187500.02, 187500.00, -73137.30, -187500.02, -91966.61, -73787.48, 0.000, 0.000, 0.000, 13:02:27.347
193, -60355.27, -70026.09, -187500.02, 187500.00, -73029.02, -187500.02, -92095.91, -74014.94, 0.000, 0.000, 0.000, 13:02:27.347
194, -60454.25, -70133.73, -187500.02, 187500.00, -73005.96, -187500.02, -91922.75, -73820.34, 0.000, 0.000, 0.000, 13:02:27.348
195, -60577.96, -70260.54, -187500.02, 187500.00, -73118.14, -187500.02, -91778.72, -73571.70, 0.000, 0.000, 0.000, 13:02:27.348
196, -60488.22, -70164.41, -187500.02, 187500.00, -73147.84, -187500.02, -91933.86, -73732.16, 0.000, 0.000, 0.000, 13:02:27.348
197, -60359.41, -70037.13, -187500.02, 187500.00, -73049.48, -187500.02, -92090.91, -73990.95, 0.000, 0.000, 0.000, 13:02:27.348
198, -60425.28, -70109.41, -187500.02, 187500.00, -73002.05, -187500.02, -91963.81, -73874.46, 0.000, 0.000, 0.000, 13:02:27.348
199, -60566.41, -70253.90, -187500.02, 187500.00, -73100.13, -187500.02, -91787.81, -73595.22, 0.292, 0.576, 0.732, 13:02:27.349
200, -60504.79, -70188.50, -187500.02, 187500.00, -73149.41, -187500.02, -91903.48, -73693.95, 0.000, 0.000, 0.000, 13:02:27.349
201, -60377.78, -70057.88, -187500.02, 187500.00, -73071.09, -187500.02, -92085.74, -73976.88, 0.000, 0.000, 0.000, 13:02:27.349
202, -60417.79, -70103.14, -187500.02, 187500.00, -73018.77, -187500.02, -92004.45, -73922.47, 0.000, 0.000, 0.000, 13:02:27.349
203, -60554.70, -70245.14, -187500.02, 187500.00, -73087.27, -187500.02, -91811.98, -73629.57, 0.000, 0.000, 0.000, 13:02:27.349
204, -60545.26, -70232.80, -187500.02, 187500.00, -73159.91, -187500.02, -91860.23, -73631.56, 0.000, 0.000, 0.000, 13:02:27.349
205, -60392.96, -70072.88, -187500.02, 187500.00, -73091.30, -187500.02, -92066.36, -73925.77, 0.000, 0.000, 0.000, 13:02:27.349
206, -60394.50, -70076.56, -187500.02, 187500.00, -73016.02, -187500.02, -92051.01, -73968.23, 0.000, 0.000, 0.000, 13:02:27.349
207, -60549.22, -70235.03, -187500.02, 187500.00, -73070.40, -187500.02, -91834.98, -73669.65, 0.000, 0.000, 0.000, 13:02:27.349
208, -60572.20, -70258.84, -187500.02, 187500.00, -73162.38, -187500.02, -91830.69, -73602.93, 0.286, 0.568, 0.734, 13:02:27.349
209, -60424.23, -70107.16, -187500.02, 187500.00, -73119.05, -187500.02, -92034.91, -73882.55, 0.000, 0.000, 0.000, 13:02:27.349
210, -60360.62, -70043.52, -187500.02, 187500.00, -73006.77, -187500.02, -92070.19, -73997.19, 0.000, 0.000, 0.000, 13:02:27.350
211, -60497.95, -70186.51, -187500.02, 187500.00, -73033.16, -187500.02, -91854.60, -73718.30, 0.000, 0.000, 0.000, 13:02:27.350
212, -60558.16, -70248.06, -187500.02, 187500.00, -73134.73, -187500.02, -91807.20, -73589.18, 0.000, 0.000, 0.000, 13:02:27.350
213, -60444.01, -70125.82, -187500.02, 187500.00, -73120.31, -187500.02, -91996.63, -73832.03, 0.000, 0.000, 0.000, 13:02:27.350
214, -60360.13, -70043.16, -187500.02, 187500.00, -73020.84, -187500.02, -92084.53, -74009.02, 0.000, 0.000, 0.000, 13:02:27.350
215, -60471.03, -70161.37, -187500.02, 187500.00, -73015.30, -187500.02, -91890.73, -73777.95, 0.000, 0.000, 0.000, 13:02:27.350
216, -60561.22, -70252.94, -187500.02, 187500.00, -73115.70, -187500.02, -91785.67, -73580.91, 0.000, 0.000, 0.000, 13:02:27.350
217, -60484.29, -70172.56, -187500.02, 187500.00, -73144.36, -187500.02, -91948.23, -73771.80, 0.000, 0.000, 0.000, 13:02:27.350
218, -60361.46, -70050.25, -187500.02, 187500.00, -73047.13, -187500.02, -92086.16, -74015.56, 0.284, 0.574, 0.736, 13:02:27.350
219, -60446.40, -70138.38, -187500.02, 187500.00, -73010.27, -187500.02, -91922.95, -73843.84, 0.000, 0.000, 0.000, 13:02:27.350
220, -60570.63, -70263.73, -187500.02, 187500.00, -73110.12, -187500.02, -91769.42, -73585.78, 0.000, 0.000, 0.000, 13:02:27.350
221, -60475.30, -70166.68, -187500.02, 187500.00, -73142.41, -187500.02, -91918.22, -73734.31, 0.000, 0.000, 0.000, 13:02:27.350
222, -60356.50, -70045.58, -187500.02, 187500.00, -73049.66, -187500.02, -92083.95, -74001.02, 0.000, 0.000, 0.000, 13:02:27.351
223, -60418.48, -70109.98, -187500.02, 187500.00, -73001.76, -187500.02, -91967.68, -73900.30, 0.000, 0.000, 0.000, 13:02:27.351
224, -60556.21, -70247.55, -187500.02, 187500.00, -73091.30, -187500.02, -91784.02, -73615.96, 0.000, 0.000, 0.000, 13:02:27.351
225, -60508.16, -70198.02, -187500.02, 187500.00, -73146.98, -187500.02, -91880.33, -73686.52, 0.000, 0.000, 0.000, 13:02:27.351
226, -60340.32, -70028.41, -187500.02, 187500.00, -73061.14, -187500.02, -92076.33, -73981.41, 0.000, 0.000, 0.000, 13:02:27.351
227, -60357.60, -70046.99, -187500.02, 187500.00, -72986.63, -187500.02, -92014.17, -73961.74, 0.278, 0.574, 0.726, 13:02:27.351
228, -60523.02, -70218.27, -187500.02, 187500.00, -73058.82, -187500.02, -91788.51, -73642.98, 0.000, 0.000, 0.000, 13:02:27.351
229, -60522.89, -70214.67, -187500.02, 187500.00, -73147.47, -187500.02, -91837.44, -73639.36, 0.000, 0.000, 0.000, 13:02:27.351
230, -60374.61, -70060.80, -187500.02, 187500.00, -73094.34, -187500.02, -92057.69, -73944.28, 0.000, 0.000, 0.000, 13:02:27.351
231, -60352.17, -70045.38, -187500.02, 187500.00, -73003.41, -187500.02, -92041.71, -73993.50, 0.000, 0.000, 0.000, 13:02:27.351
232, -60492.13, -70188.48, -187500.02, 187500.00, -73042.41, -187500.02, -91822.82, -73697.16, 0.000, 0.000, 0.000, 13:02:27.352
233, -60518.26, -70211.05, -187500.02, 187500.00, -73129.90, -187500.02, -91818.55, -73617.10, 0.000, 0.000, 0.000, 13:02:27.352
234, -60392.80, -70078.48, -187500.02, 187500.00, -73099.19, -187500.02, -92022.71, -73886.62, 0.000, 0.000, 0.000, 13:02:27.352
235, -60338.58, -70028.70, -187500.02, 187500.00, -73017.70, -187500.02, -92073.16, -74015.90, 0.000, 0.000, 0.000, 13:02:27.352
236, -60460.57, -70157.25, -187500.02, 187500.00, -73021.85, -187500.02, -91858.73, -73746.96, 0.000, 0.000, 0.000, 13:02:27.352
237, -60536.21, -70229.31, -187500.02, 187500.00, -73123.04, -187500.02, -91791.33, -73593.27, 0.282, 0.584, 0.730, 13:02:27.352
238, -60406.77, -70101.17, -187500.02, 187500.00, -73118.61, -187500.02, -91980.73, -73823.83, 0.000, 0.000, 0.000, 13:02:27.352
239, -60313.54, -70012.27, -187500.02, 187500.00, -73018.61, -187500.02, -92081.00, -74025.55, 0.000, 0.000, 0.000, 13:02:27.352
240, -60437.86, -70139.34, -187500.02, 187500.00, -73006.43, -187500.02, -91895.77, -73808.77, 0.000, 0.000, 0.000, 13:02:27.352
241, -60552.48, -70257.48, -187500.02, 187500.00, -73126.12, -187500.02, -91778.95, -73587.10, 0.000, 0.000, 0.000, 13:02:27.820
242, -60452.32, -70153.77, -187500.02, 187500.00, -73151.83, -187500.02, -91944.39, -73768.66, 0.000, 0.000, 0.000, 13:02:27.820
243, -60321.57, -70022.94, -187500.02, 187500.00, -73050.17, -187500.02, -92096.56, -74021.84, 0.000, 0.000, 0.000, 13:02:27.820
244, -60399.66, -70110.58, -187500.02, 187500.00, -73011.05, -187500.02, -91946.29, -73867.30, 0.000, 0.000, 0.000, 13:02:27.820
245, -60525.10, -70236.22, -187500.02, 187500.00, -73097.78, -187500.02, -91773.40, -73597.36, 0.000, 0.000, 0.000, 13:02:27.821
246, -60473.04, -70173.23, -187500.02, 187500.00, -73147.87, -187500.02, -91901.34, -73716.70, 0.000, 0.000, 0.000, 13:02:27.821
247, -60335.69, -70032.08, -187500.02, 187500.00, -73062.04, -187500.02, -92089.07, -74009.51, 0.290, 0.592, 0.738, 13:02:27.821
248, -60371.77, -70075.64, -187500.02, 187500.00, -72999.95, -187500.02, -91983.41, -73931.30, 0.000, 0.000, 0.000, 13:02:27.821
249, -60510.48, -70222.95, -187500.02, 187500.00, -73080.92, -187500.02, -91778.47, -73624.77, 0.000, 0.000, 0.000, 13:02:27.821
250, -60487.28, -70194.45, -187500.02, 187500.00, -73151.16, -187500.02, -91857.77, -73669.60, 0.000, 0.000, 0.000, 13:02:27.821
251, -60342.64, -70045.73, -187500.02, 187500.00, -73082.85, -187500.02, -92062.79, -73965.52, 0.000, 0.000, 0.000, 13:02:27.821
252, -60332.65, -70042.25, -187500.02, 187500.00, -72993.11, -187500.02, -92018.71, -73971.93, 0.000, 0.000, 0.000, 13:02:27.821
253, -60476.91, -70185.66, -187500.02, 187500.00, -73041.41, -187500.02, -91805.25, -73672.94, 0.000, 0.000, 0.000, 13:02:27.821
254, -60489.77, -70195.54, -187500.02, 187500.00, -73137.38, -187500.02, -91835.00, -73645.58, 0.000, 0.000, 0.000, 13:02:27.822
255, -60345.95, -70045.47, -187500.02, 187500.00, -73079.00, -187500.02, -92031.12, -73925.53, 0.000, 0.000, 0.000, 13:02:27.822
0, -60311.62, -70012.63, -187500.02, 187500.00, -72979.05, -187500.02, -92036.30, -74006.09, 0.290, 0.590, 0.734, 13:02:27.822
1, -60451.77, -70155.26, -187500.02, 187500.00, -73008.10, -187500.02, -91811.58, -73711.89, 0.000, 0.000, 0.000, 13:02:27.822
2, -60494.88, -70198.87, -187500.02, 187500.00, -73111.19, -187500.02, -91794.25, -73619.52, 0.000, 0.000, 0.000, 13:02:27.822
3, -60376.62, -70082.93, -187500.02, 187500.00, -73097.71, -187500.02, -91993.34, -73879.02, 0.000, 0.000, 0.000, 13:02:27.822
4, -60296.73, -70001.02, -187500.02, 187500.00, -73007.08, -187500.02, -92064.66, -74039.73, 0.000, 0.000, 0.000, 13:02:27.822
5, -60418.44, -70126.18, -187500.02, 187500.00, -72991.79, -187500.02, -91844.70, -73780.67, 0.000, 0.000, 0.000, 13:02:27.822
6, -60484.62, -70195.02, -187500.02, 187500.00, -73078.38, -187500.02, -91756.19, -73605.41, 0.000, 0.000, 0.000, 13:02:27.823
7, -60377.60, -70084.20, -187500.02, 187500.00, -73085.64, -187500.02, -91929.99, -73819.12, 0.000, 0.000, 0.000, 13:02:27.823
8, -60270.20, -69973.30, -187500.02, 187500.00, -72992.15, -187500.02, -92050.20, -74039.39, 0.000, 0.000, 0.000, 13:02:27.823
9, -60360.44, -70069.14, -187500.02, 187500.00, -72957.05, -187500.02, -91863.48, -73832.37, 0.000, 0.000, 0.000, 13:02:27.823
10, -60479.04, -70189.59, -187500.02, 187500.00, -73058.44, -187500.02, -91719.30, -73585.16, 0.292, 0.590, 0.728, 13:02:27.823
11, -60393.70, -70100.27, -187500.02, 187500.00, -73082.16, -187500.02, -91868.04, -73747.95, 0.000, 0.000, 0.000, 13:02:27.823
12, -60258.78, -69961.23, -187500.02, 187500.00, -72979.45, -187500.02, -92027.02, -74014.49, 0.000, 0.000, 0.000, 13:02:27.824
13, -60325.14, -70033.51, -187500.02, 187500.00, -72930.14, -187500.02, -91888.84, -73879.60, 0.000, 0.000, 0.000, 13:02:27.824
14, -60455.88, -70168.49, -187500.02, 187500.00, -73024.20, -187500.02, -91713.20, -73598.73, 0.000, 0.000, 0.000, 13:02:27.824
15, -60408.98, -70111.83, -187500.02, 187500.00, -73077.44, -187500.02, -91826.87, -73695.89, 0.000, 0.000, 0.000, 13:02:27.824
16, -60273.85, -69971.71, -187500.02, 187500.00, -72996.28, -187500.02, -92008.63, -73976.09, 0.000, 0.000, 0.000, 13:02:27.824
17, -60307.22, -70009.38, -187500.02, 187500.00, -72928.15, -187500.02, -91920.63, -73914.91, 0.000, 0.000, 0.000, 13:02:27.824
18, -60448.84, -70157.79, -187500.02, 187500.00, -72997.09, -187500.02, -91713.72, -73608.36, 0.000, 0.000, 0.000, 13:02:27.824
19, -60430.53, -70135.08, -187500.02, 187500.00, -73066.22, -187500.02, -91778.49, -73635.92, 0.286, 0.598, 0.728, 13:02:27.825
20, -60296.31, -69998.66, -187500.02, 187500.00, -73010.30, -187500.02, -91978.09, -73925.24, 0.000, 0.000, 0.000, 13:02:27.825
21, -60274.96, -69983.51, -187500.02, 187500.00, -72922.72, -187500.02, -91951.74, -73951.46, 0.000, 0.000, 0.000, 13:02:27.825
22, -60433.68, -70143.44, -187500.02, 187500.00, -72979.34, -187500.02, -91735.31, -73646.02, 0.000, 0.000, 0.000, 13:02:27.825
23, -60452.32, -70156.52, -187500.02, 187500.00, -73072.16, -187500.02, -91752.95, -73599.95, 0.000, 0.000, 0.000, 13:02:27.825
24, -60311.49, -70009.77, -187500.02, 187500.00, -73037.14, -187500.02, -91962.31, -73881.43, 0.000, 0.000, 0.000, 13:02:27.825
25, -60245.66, -69944.46, -187500.02, 187500.00, -72929.25, -187500.02, -92000.36, -73999.45, 0.000, 0.000, 0.000, 13:02:27.825
26, -60392.87, -70103.02, -187500.02, 187500.00, -72952.41, -187500.02, -91767.07, -73700.23, 0.000, 0.000, 0.000, 13:02:27.826
27, -60446.91, -70158.81, -187500.02, 187500.00, -73052.94, -187500.02, -91720.02, -73569.63, 0.000, 0.000, 0.000, 13:02:27.826
28, -60338.78, -70041.78, -187500.02, 187500.00, -73047.02, -187500.02, -91915.16, -73817.30, 0.000, 0.000, 0.000, 13:02:27.826
29, -60262.07, -69968.47, -187500.02, 187500.00, -72953.32, -187500.02, -92000.76, -73990.35, 0.282, 0.580, 0.730, 13:02:27.826
30, -60379.66, -70093.70, -187500.02, 187500.00, -72939.98, -187500.02, -91798.52, -73740.66, 0.000, 0.000, 0.000, 13:02:27.826
31, -60466.43, -70176.12, -187500.02, 187500.00, -73044.52, -187500.02, -91710.55, -73556.28, 0.000, 0.000, 0.000, 13:02:27.826
32, -60366.02, -70067.55, -187500.02, 187500.00, -73056.32, -187500.02, -91890.73, -73763.99, 0.000, 0.000, 0.000, 13:02:27.826
33, -60256.43, -69962.39, -187500.02, 187500.00, -72960.30, -187500.02, -92021.95, -73990.44, 0.000, 0.000, 0.000, 13:02:27.826
34, -60354.38, -70066.99, -187500.02, 187500.00, -72939.41, -187500.02, -91853.26, -73799.18, 0.000, 0.000, 0.000, 13:02:27.827
35, -60488.45, -70200.16, -187500.02, 187500.00, -73047.89, -187500.02, -91705.23, -73545.02, 0.000, 0.000, 0.000, 13:02:27.827
36, -60412.41, -70120.80, -187500.02, 187500.00, -73094.05, -187500.02, -91862.65, -73702.13, 0.000, 0.000, 0.000, 13:02:27.827
37, -60279.39, -69987.58, -187500.02, 187500.00, -73006.63, -187500.02, -92037.22, -73976.11, 0.000, 0.000, 0.000, 13:02:27.827
38, -60320.07, -70032.91, -187500.02, 187500.00, -72936.91, -187500.02, -91913.86, -73864.60, 0.280, 0.582, 0.724, 13:02:27.827
39, -60469.16, -70184.41, -187500.02, 187500.00, -73034.19, -187500.02, -91728.77, -73573.36, 0.000, 0.000, 0.000, 13:02:27.827
40, -60428.54, -70138.88, -187500.02, 187500.00, -73100.82, -187500.02, -91844.48, -73662.79, 0.000, 0.000, 0.000, 13:02:27.827
41, -60280.95, -69993.57, -187500.02, 187500.00, -73018.05, -187500.02, -92044.23, -73956.45, 0.000, 0.000, 0.000, 13:02:27.827
42, -60310.64, -70025.58, -187500.02, 187500.00, -72951.20, -187500.02, -91969.36, -73913.08, 0.000, 0.000, 0.000, 13:02:27.827
43, -60468.22, -70190.09, -187500.02, 187500.00, -73027.04, -187500.02, -91755.67, -73601.74, 0.000, 0.000, 0.000, 13:02:27.827
44, -60457.87, -70171.09, -187500.02, 187500.00, -73105.13, -187500.02, -91822.51, -73619.42, 0.000, 0.000, 0.000, 13:02:27.827
45, -60309.86, -70015.30, -187500.02, 187500.00, -73048.20, -187500.02, -92036.86, -73921.17, 0.000, 0.000, 0.000, 13:02:27.828
46, -60288.24, -69994.80, -187500.02, 187500.00, -72961.37, -187500.02, -92026.84, -73968.38, 0.000, 0.000, 0.000, 13:02:27.828
47, -60447.92, -70160.76, -187500.02, 187500.00, -73006.54, -187500.02, -91791.37, -73649.84, 0.000, 0.000, 0.000, 13:02:27.828
48, -60490.75, -70198.91, -187500.02, 187500.00, -73113.96, -187500.02, -91788.69, -73576.40, 0.288, 0.588, 0.720, 13:02:27.828
49, -60339.47, -70039.95, -187500.02, 187500.00, -73066.40, -187500.02, -92010.53, -73867.53, 0.000, 0.000, 0.000, 13:02:27.828
50, -60285.04, -69993.08, -187500.02, 187500.00, -72959.60, -187500.02, -92054.45, -73987.89, 0.000, 0.000, 0.000, 13:02:27.828
51, -60423.27, -70136.62, -187500.02, 187500.00, -72985.02, -187500.02, -91835.91, -73706.46, 0.000, 0.000, 0.000, 13:02:27.828
52, -60496.43, -70209.94, -187500.02, 187500.00, -73093.98, -187500.02, -91778.47, -73559.45, 0.000, 0.000, 0.000, 13:02:27.828
53, -60374.54, -70087.60, -187500.02, 187500.00, -73084.79, -187500.02, -91979.91, -73807.89, 0.000, 0.000, 0.000, 13:02:27.828
54, -60280.02, -69990.71, -187500.02, 187500.00, -72978.16, -187500.02, -92077.98, -74000.63, 0.000, 0.000, 0.000, 13:02:27.828
55, -60410.75, -70126.12, -187500.02, 187500.00, -72981.55, -187500.02, -91881.00, -73761.38, 0.000, 0.000, 0.000, 13:02:27.828
56, -60502.28, -70215.86, -187500.02, 187500.00, -73094.36, -187500.02, -91780.38, -73559.25, 0.000, 0.000, 0.000, 13:02:27.829
57, -60416.81, -70127.39, -187500.02, 187500.00, -73114.95, -187500.02, -91954.60, -73753.40, 0.000, 0.000, 0.000, 13:02:27.829
58, -60307.02, -70016.39, -187500.02, 187500.00, -73019.75, -187500.02, -92099.29, -73995.72, 0.288, 0.584, 0.720, 13:02:27.829
59, -60393.00, -70110.85, -187500.02, 187500.00, -72983.45, -187500.02, -91943.92, -73828.16, 0.000, 0.000, 0.000, 13:02:27.829
60, -60514.02, -70233.00, -187500.02, 187500.00, -73084.05, -187500.02, -91788.58, -73569.29, 0.000, 0.000, 0.000, 13:02:27.829
61, -60437.75, -70151.95, -187500.02, 187500.00, -73122.66, -187500.02, -91931.96, -73710.41, 0.000, 0.000, 0.000, 13:02:27.829
62, -60315.67, -70027.59, -187500.02, 187500.00, -73038.97, -187500.02, -92094.23, -73975.04, 0.000, 0.000, 0.000, 13:02:27.829
63, -60362.00, -70078.88, -187500.02, 187500.00, -72976.30, -187500.02, -91989.88, -73885.84, 0.000, 0.000, 0.000, 13:02:27.829
64, -60500.56, -70225.24, -187500.02, 187500.00, -73059.94, -187500.02, -91800.13, -73590.12, 0.000, 0.000, 0.000, 13:02:27.830
65, -60465.94, -70186.80, -187500.02, 187500.00, -73118.70, -187500.02, -91887.62, -73651.79, 0.000, 0.000, 0.000, 13:02:27.830
66, -60332.65, -70045.20, -187500.02, 187500.00, -73048.83, -187500.02, -92078.97, -73938.48, 0.000, 0.000, 0.000, 13:02:27.830
67, -60344.50, -70063.09, -187500.02, 187500.00, -72980.48, -187500.02, -92025.10, -73923.61, 0.290, 0.588, 0.714, 13:02:27.830
68, -60496.31, -70217.53, -187500.02, 187500.00, -73050.20, -187500.02, -91812.27, -73613.21, 0.000, 0.000, 0.000, 13:02:27.830
69, -60509.86, -70223.19, -187500.02, 187500.00, -73142.10, -187500.02, -91854.22, -73596.87, 0.000, 0.000, 0.000, 13:02:27.830
70, -60362.31, -70072.56, -187500.02, 187500.00, -73093.31, -187500.02, -92070.03, -73897.32, 0.000, 0.000, 0.000, 13:02:27.830
71, -60326.06, -70046.21, -187500.02, 187500.00, -72995.38, -187500.02, -92071.15, -73961.98, 0.000, 0.000, 0.000, 13:02:27.830
72, -60469.91, -70194.69, -187500.02, 187500.00, -73027.93, -187500.02, -91845.44, -73658.52, 0.000, 0.000, 0.000, 13:02:27.830
73, -60519.92, -70236.95, -187500.02, 187500.00, -73132.55, -187500.02, -91834.84, -73574.19, 0.000, 0.000, 0.000, 13:02:27.830
74, -60392.64, -70097.66, -187500.02, 187500.00, -73110.74, -187500.02, -92044.62, -73849.16, 0.000, 0.000, 0.000, 13:02:27.830
75, -60320.81, -70031.27, -187500.02, 187500.00, -73014.34, -187500.02, -92106.33, -73995.80, 0.000, 0.000, 0.000, 13:02:27.831
76, -60462.07, -70183.40, -187500.02, 187500.00, -73031.82, -187500.02, -91891.75, -73724.01, 0.000, 0.000, 0.000, 13:02:27.831
77, -60539.47, -70258.70, -187500.02, 187500.00, -73143.33, -187500.02, -91825.79, -73566.67, 0.294, 0.596, 0.722, 13:02:27.831
78, -60412.54, -70127.57, -187500.02, 187500.00, -73133.16, -187500.02, -92019.63, -73805.62, 0.000, 0.000, 0.000, 13:02:27.831
79, -60322.06, -70035.86, -187500.02, 187500.00, -73035.20, -187500.02, -92116.77, -73995.76, 0.000, 0.000, 0.000, 13:02:27.831
80, -60428.01, -70146.16, -187500.02, 187500.00, -73020.76, -187500.02, -91929.01, -73776.09, 0.000, 0.000, 0.000, 13:02:27.831
81, -60529.98, -70246.37, -187500.02, 187500.00, -73128.63, -187500.02, -91813.79, -73555.32, 0.000, 0.000, 0.000, 13:02:27.831
82, -60455.86, -70164.25, -187500.02, 187500.00, -73158.35, -187500.02, -91978.01, -73736.32, 0.000, 0.000, 0.000, 13:02:27.831
83, -60339.56, -70050.99, -187500.02, 187500.00, -73060.52, -187500.02, -92127.67, -73989.10, 0.000, 0.000, 0.000, 13:02:27.831
84, -60406.86, -70124.84, -187500.02, 187500.00, -73019.55, -187500.02, -91987.80, -73843.27, 0.000, 0.000, 0.000, 13:02:27.831
85, -60530.94, -70246.39, -187500.02, 187500.00, -73112.82, -187500.02, -91831.27, -73578.68, 0.000, 0.000, 0.000, 13:02:27.831
86, -60473.25, -70187.91, -187500.02, 187500.00, -73162.20, -187500.02, -91950.65, -73686.66, 0.294, 0.596, 0.722, 13:02:27.832
87, -60348.61, -70062.86, -187500.02, 187500.00, -73079.25, -187500.02, -92129.40, -73967.09, 0.000, 0.000, 0.000, 13:02:27.832
88, -60392.09, -70110.02, -187500.02, 187500.00, -73027.17, -187500.02, -92039.05, -73897.48, 0.000, 0.000, 0.000, 13:02:27.832
89, -60541.53, -70264.54, -187500.02, 187500.00, -73114.25, -187500.02, -91834.24, -73590.50, 0.000, 0.000, 0.000, 13:02:27.832
90, -60521.35, -70235.93, -187500.02, 187500.00, -73185.22, -187500.02, -91912.13, -73633.80, 0.000, 0.000, 0.000, 13:02:27.832
91, -60372.64, -70084.25, -187500.02, 187500.00, -73114.52, -187500.02, -92116.95, -73938.63, 0.000, 0.000, 0.000, 13:02:27.832
92, -60378.36, -70093.75, -187500.02, 187500.00, -73030.61, -187500.02, -92073.63, -73945.55, 0.000, 0.000, 0.000, 13:02:27.832
93, -60528.52, -70248.98, -187500.02, 187500.00, -73096.86, -187500.02, -91862.20, -73639.61, 0.000, 0.000, 0.000, 13:02:27.832
94, -60531.00, -70245.48, -187500.02, 187500.00, -73177.42, -187500.02, -91898.14, -73615.65, 0.000, 0.000, 0.000, 13:02:27.832
95, -60390.14, -70098.29, -187500.02, 187500.00, -73127.73, -187500.02, -92105.41, -73900.38, 0.000, 0.000, 0.000, 13:02:27.832
96, -60349.53, -70061.65, -187500.02, 187500.00, -73030.45, -187500.02, -92112.90, -73983.34, 0.294, 0.596, 0.724, 13:02:27.832
97, -60493.79, -70213.33, -187500.02, 187500.00, -73067.38, -187500.02, -91891.82, -73694.28, 0.000, 0.000, 0.000, 13:02:27.833
98, -60554.72, -70270.55, -187500.02, 187500.00, -73161.52, -187500.02, -91858.85, -73589.80, 0.000, 0.000, 0.000, 13:02:27.833
99, -60429.01, -70140.15, -187500.02, 187500.00, -73136.36, -187500.02, -92060.26, -73853.67, 0.000, 0.000, 0.000, 13:02:27.833
100, -60361.31, -70078.57, -187500.02, 187500.00, -73036.13, -187500.02, -92126.04, -74007.65, 0.000, 0.000, 0.000, 13:02:27.833
101, -60503.87, -70227.50, -187500.02, 187500.00, -73050.73, -187500.02, -91911.20, -73742.25, 0.000, 0.000, 0.000, 13:02:27.833
102, -60573.70, -70291.80, -187500.02, 187500.00, -73148.63, -187500.02, -91836.56, -73576.45, 0.000, 0.000, 0.000, 13:02:27.833
103, -60477.87, -70195.65, -187500.02, 187500.00, -73150.57, -187500.02, -92000.83, -73785.14, 0.000, 0.000, 0.000, 13:02:27.833
104, -60360.91, -70081.92, -187500.02, 187500.00, -73045.88, -187500.02, -92115.27, -74003.85, 0.000, 0.000, 0.000, 13:02:27.833
105, -60455.54, -70180.79, -187500.02, 187500.00, -73016.66, -187500.02, -91938.04, -73805.66, 0.000, 0.000, 0.000, 13:02:27.833
106, -60557.64, -70279.45, -187500.02, 187500.00, -73120.69, -187500.02, -91819.94, -73580.84, 0.284, 0.590, 0.720, 13:02:28.301
107, -60488.27, -70204.39, -187500.02, 187500.00, -73151.96, -187500.02, -91971.39, -73739.95, 0.000, 0.000, 0.000, 13:02:28.301
108, -60363.66, -70076.59, -187500.02, 187500.00, -73067.23, -187500.02, -92132.13, -73997.62, 0.000, 0.000, 0.000, 13:02:28.301
109, -60430.04, -70147.53, -187500.02, 187500.00, -73009.38, -187500.02, -91994.73, -73863.05, 0.000, 0.000, 0.000, 13:02:28.301
110, -60551.12, -70271.05, -187500.02, 187500.00, -73097.49, -187500.02, -91822.46, -73588.20, 0.000, 0.000, 0.000, 13:02:28.301
111, -60503.87, -70222.72, -187500.02, 187500.00, -73162.76, -187500.02, -91932.74, -73687.58, 0.000, 0.000, 0.000, 13:02:28.304
112, -60351.23, -70071.02, -187500.02, 187500.00, -73072.30, -187500.02, -92116.16, -73977.09, 0.000, 0.000, 0.000, 13:02:28.304
113, -60393.56, -70113.11, -187500.02, 187500.00, -72995.79, -187500.02, -92027.31, -73920.70, 0.000, 0.000, 0.000, 13:02:28.304
114, -60539.41, -70255.58, -187500.02, 187500.00, -73070.94, -187500.02, -91823.49, -73623.34, 0.000, 0.000, 0.000, 13:02:28.304
115, -60508.27, -70222.41, -187500.02, 187500.00, -73136.98, -187500.02, -91900.42, -73659.88, 0.290, 0.582, 0.718, 13:02:28.304
116, -60367.19, -70077.77, -187500.02, 187500.00, -73073.59, -187500.02, -92103.11, -73950.66, 0.000, 0.000, 0.000, 13:02:28.305
117, -60366.25, -70083.42, -187500.02, 187500.00, -72996.03, -187500.02, -92070.72, -73970.39, 0.000, 0.000, 0.000, 13:02:28.305
118, -60507.94, -70233.11, -187500.02, 187500.00, -73046.70, -187500.02, -91848.92, -73659.48, 0.000, 0.000, 0.000, 13:02:28.305
119, -60525.50, -70245.67, -187500.02, 187500.00, -73138.84, -187500.02, -91870.00, -73612.92, 0.000, 0.000, 0.000, 13:02:28.305
120, -60393.96, -70109.06, -187500.02, 187500.00, -73098.30, -187500.02, -92071.55, -73892.18, 0.000, 0.000, 0.000, 13:02:28.305
121, -60333.59, -70048.09, -187500.02, 187500.00, -72997.91, -187500.02, -92112.32, -74008.39, 0.000, 0.000, 0.000, 13:02:28.305
122, -60466.29, -70189.05, -187500.02, 187500.00, -73016.55, -187500.02, -91890.97, -73722.55, 0.000, 0.000, 0.000, 13:02:28.305
123, -60530.31, -70250.63, -187500.02, 187500.00, -73122.19, -187500.02, -91843.27, -73595.82, 0.000, 0.000, 0.000, 13:02:28.305
124, -60415.46, -70131.93, -187500.02, 187500.00, -73112.04, -187500.02, -92032.68, -73841.53, 0.000, 0.000, 0.000, 13:02:28.305
125, -60337.93, -70055.75, -187500.02, 187500.00, -73018.43, -187500.02, -92112.34, -74012.34, 0.294, 0.586, 0.714, 13:02:28.306
126, -60442.78, -70160.70, -187500.02, 187500.00, -73011.01, -187500.02, -91918.28, -73776.49, 0.000, 0.000, 0.000, 13:02:28.306
127, -60535.70, -70254.57, -187500.02, 187500.00, -73120.80, -187500.02, -91814.05, -73578.34, 0.000, 0.000, 0.000, 13:02:28.306
128, -60427.25, -70144.47, -187500.02, 187500.00, -73130.59, -187500.02, -91992.76, -73790.52, 0.000, 0.000, 0.000, 13:02:28.306
129, -60300.33, -70010.22, -187500.02, 187500.00, -73016.38, -187500.02, -92125.33, -74028.26, 0.000, 0.000, 0.000, 13:02:28.306
130, -60407.46, -70126.05, -187500.02, 187500.00, -72980.03, -187500.02, -91944.44, -73831.85, 0.000, 0.000, 0.000, 13:02:28.306
131, -60540.84, -70263.02, -187500.02, 187500.00, -73100.95, -187500.02, -91801.78, -73578.43, 0.000, 0.000, 0.000, 13:02:28.306
132, -60443.96, -70162.80, -187500.02, 187500.00, -73128.22, -187500.02, -91953.11, -73736.57, 0.000, 0.000, 0.000, 13:02:28.306
133, -60308.60, -70026.23, -187500.02, 187500.00, -73029.61, -187500.02, -92111.49, -74000.70, 0.000, 0.000, 0.000, 13:02:28.306
134, -60365.62, -70088.52, -187500.02, 187500.00, -72977.41, -187500.02, -91982.45, -73885.61, 0.296, 0.582, 0.720, 13:02:28.306
135, -60511.13, -70236.53, -187500.02, 187500.00, -73078.11, -187500.02, -91801.34, -73596.94, 0.000, 0.000, 0.000, 13:02:28.307
136, -60467.70, -70190.60, -187500.02, 187500.00, -73137.86, -187500.02, -91906.44, -73680.51, 0.000, 0.000, 0.000, 13:02:28.307
137, -60335.11, -70056.11, -187500.02, 187500.00, -73063.09, -187500.02, -92092.91, -73965.61, 0.000, 0.000, 0.000, 13:02:28.307
138, -60352.21, -70077.59, -187500.02, 187500.00, -72986.02, -187500.02, -92028.07, -73932.13, 0.000, 0.000, 0.000, 13:02:28.307
139, -60505.32, -70234.48, -187500.02, 187500.00, -73057.88, -187500.02, -91819.66, -73620.99, 0.000, 0.000, 0.000, 13:02:28.307
140, -60505.52, -70227.70, -187500.02, 187500.00, -73135.84, -187500.02, -91874.36, -73624.21, 0.000, 0.000, 0.000, 13:02:28.307
141, -60366.61, -70086.09, -187500.02, 187500.00, -73082.53, -187500.02, -92076.55, -73914.18, 0.000, 0.000, 0.000, 13:02:28.307
142, -60337.30, -70061.65, -187500.02, 187500.00, -72992.62, -187500.02, -92063.30, -73960.71, 0.000, 0.000, 0.000, 13:02:28.307
143, -60470.54, -70200.99, -187500.02, 187500.00, -73027.73, -187500.02, -91840.21, -73656.98, 0.000, 0.000, 0.000, 13:02:28.307
144, -60498.04, -70229.00, -187500.02, 187500.00, -73115.84, -187500.02, -91830.48, -73582.52, 0.292, 0.588, 0.724, 13:02:28.307
145, -60390.05, -70116.68, -187500.02, 187500.00, -73096.15, -187500.02, -92028.92, -73853.31, 0.000, 0.000, 0.000, 13:02:28.307
146, -60338.24, -70065.01, -187500.02, 187500.00, -73005.76, -187500.02, -92073.88, -73972.89, 0.000, 0.000, 0.000, 13:02:28.308
147, -60472.69, -70200.23, -187500.02, 187500.00, -73027.75, -187500.02, -91860.33, -73696.54, 0.000, 0.000, 0.000, 13:02:28.308
148, -60516.25, -70241.85, -187500.02, 187500.00, -73121.41, -187500.02, -91810.70, -73565.16, 0.000, 0.000, 0.000, 13:02:28.308
149, -60418.77, -70144.04, -187500.02, 187500.00, -73123.69, -187500.02, -91992.18, -73796.98, 0.000, 0.000, 0.000, 13:02:28.308
150, -60320.45, -70042.74, -187500.02, 187500.00, -73021.07, -187500.02, -92093.41, -73992.27, 0.000, 0.000, 0.000, 13:02:28.308
151, -60432.39, -70161.41, -187500.02, 187500.00, -73003.86, -187500.02, -91897.38, -73764.46, 0.000, 0.000, 0.000, 13:02:28.308
152, -60532.90, -70262.08, -187500.02, 187500.00, -73112.71, -187500.02, -91793.96, -73568.71, 0.000, 0.000, 0.000, 13:02:28.308
153, -60440.99, -70165.84, -187500.02, 187500.00, -73125.25, -187500.02, -91957.58, -73754.34, 0.288, 0.582, 0.724, 13:02:28.308
154, -60316.23, -70039.32, -187500.02, 187500.00, -73025.92, -187500.02, -92095.13, -73998.38, 0.000, 0.000, 0.000, 13:02:28.308
155, -60411.09, -70138.74, -187500.02, 187500.00, -72996.81, -187500.02, -91927.67, -73824.50, 0.000, 0.000, 0.000, 13:02:28.308
156, -60534.96, -70267.58, -187500.02, 187500.00, -73098.67, -187500.02, -91768.88, -73564.13, 0.000, 0.000, 0.000, 13:02:28.309
157, -60453.58, -70183.18, -187500.02, 187500.00, -73134.30, -187500.02, -91907.73, -73706.23, 0.000, 0.000, 0.000, 13:02:28.309
158, -60315.53, -70041.06, -187500.02, 187500.00, -73038.28, -187500.02, -92079.82, -73982.64, 0.000, 0.000, 0.000, 13:02:28.309
159, -60353.82, -70077.79, -187500.02, 187500.00, -72976.37, -187500.02, -91971.93, -73892.61, 0.000, 0.000, 0.000, 13:02:28.309
160, -60514.71, -70240.00, -187500.02, 187500.00, -73061.32, -187500.02, -91772.82, -73589.25, 0.000, 0.000, 0.000, 13:02:28.309
161, -60485.02, -70205.64, -187500.02, 187500.00, -73125.34, -187500.02, -91861.30, -73648.84, 0.000, 0.000, 0.000, 13:02:28.309
162, -60318.06, -70035.14, -187500.02, 187500.00, -73038.55, -187500.02, -92059.66, -73951.77, 0.000, 0.000, 0.000, 13:02:28.309
163, -60333.64, -70056.45, -187500.02, 187500.00, -72946.95, -187500.02, -91985.29, -73922.24, 0.280, 0.582, 0.726, 13:02:28.309
164, -60480.84, -70212.15, -187500.02, 187500.00, -73023.35, -187500.02, -91769.69, -73612.09, 0.000, 0.000, 0.000, 13:02:28.309
165, -60478.03, -70203.23, -187500.02, 187500.00, -73104.48, -187500.02, -91813.79, -73609.01, 0.000, 0.000, 0.000, 13:02:28.309
166, -60351.61, -70069.14, -187500.02, 187500.00, -73059.60, -187500.02, -92013.79, -73898.35, 0.000, 0.000, 0.000, 13:02:28.309
167, -60328.56, -70050.27, -187500.02, 187500.00, -72981.95, -187500.02, -92014.13, -73963.20, 0.000, 0.000, 0.000, 13:02:28.310
168, -60470.47, -70197.64, -187500.02, 187500.00, -73025.49, -187500.02, -91791.28, -73660.40, 0.000, 0.000, 0.000, 13:02:28.310
169, -60495.53, -70218.61, -187500.02, 187500.00, -73112.91, -187500.02, -91780.08, -73577.85, 0.000, 0.000, 0.000, 13:02:28.310
170, -60372.44, -70089.37, -187500.02, 187500.00, -73086.72, -187500.02, -91981.74, -73842.92, 0.000, 0.000, 0.000, 13:02:28.310
171, -60304.85, -70023.81, -187500.02, 187500.00, -72989.89, -187500.02, -92044.57, -73985.77, 0.000, 0.000, 0.000, 13:02:28.310
172, -60429.04, -70151.51, -187500.02, 187500.00, -73005.29, -187500.02, -91837.30, -73720.86, 0.000, 0.000, 0.000, 13:02:28.310
173, -60496.00, -70216.80, -187500.02, 187500.00, -73110.27, -187500.02, -91766.89, -73562.47, 0.278, 0.588, 0.726, 13:02:28.310
174, -60381.54, -70104.39, -187500.02, 187500.00, -73088.15, -187500.02, -91940.30, -73780.20, 0.000, 0.000, 0.000, 13:02:28.310
175, -60280.86, -70012.86, -187500.02, 187500.00, -72980.34, -187500.02, -92038.69, -73976.54, 0.000, 0.000, 0.000, 13:02:28.310
176, -60406.23, -70141.65, -187500.02, 187500.00, -72979.67, -187500.02, -91842.04, -73749.63, 0.000, 0.000, 0.000, 13:02:28.311
177, -60495.87, -70233.98, -187500.02, 187500.00, -73084.08, -187500.02, -91726.55, -73531.80, 0.000, 0.000, 0.000, 13:02:28.311
178, -60391.30, -70123.61, -187500.02, 187500.00, -73100.10, -187500.02, -91886.34, -73715.78, 0.000, 0.000, 0.000, 13:02:28.311
179, -60261.44, -69987.67, -187500.02, 187500.00, -72995.30, -187500.02, -92039.97, -73973.90, 0.000, 0.000, 0.000, 13:02:28.311
180, -60353.66, -70084.41, -187500.02, 187500.00, -72951.60, -187500.02, -91884.58, -73815.31, 0.000, 0.000, 0.000, 13:02:28.311
181, -60477.96, -70210.09, -187500.02, 187500.00, -73060.67, -187500.02, -91720.89, -73540.73, 0.000, 0.000, 0.000, 13:02:28.311
182, -60408.70, -70139.37, -187500.02, 187500.00, -73098.38, -187500.02, -91848.61, -73660.48, 0.280, 0.586, 0.728, 13:02:28.311
183, -60293.36, -70023.70, -187500.02, 187500.00, -73022.68, -187500.02, -92022.89, -73932.77, 0.000, 0.000, 0.000, 13:02:28.311
184, -60335.54, -70071.02, -187500.02, 187500.00, -72961.99, -187500.02, -91931.11, -73860.82, 0.000, 0.000, 0.000, 13:02:28.311
185, -60476.22, -70213.63, -187500.02, 187500.00, -73046.41, -187500.02, -91742.42, -73564.10, 0.000, 0.000, 0.000, 13:02:28.312
186, -60441.82, -70173.61, -187500.02, 187500.00, -73112.76, -187500.02, -91827.31, -73614.88, 0.000, 0.000, 0.000, 13:02:28.312
187, -60304.09, -70031.79, -187500.02, 187500.00, -73046.75, -187500.02, -92022.22, -73907.70, 0.000, 0.000, 0.000, 13:02:28.312
188, -60301.50, -70032.70, -187500.02, 187500.00, -72970.44, -187500.02, -91986.70, -73922.45, 0.000, 0.000, 0.000, 13:02:28.312
189, -60439.72, -70181.55, -187500.02, 187500.00, -73021.74, -187500.02, -91773.17, -73614.93, 0.000, 0.000, 0.000, 13:02:28.312
190, -60446.49, -70182.77, -187500.02, 187500.00, -73107.68, -187500.02, -91809.43, -73592.65, 0.000, 0.000, 0.000, 13:02:28.312
191, -60314.62, -70046.21, -187500.02, 187500.00, -73058.41, -187500.02, -92007.47, -73872.11, 0.000, 0.000, 0.000, 13:02:28.312
192, -60276.59, -70009.73, -187500.02, 187500.00, -72971.45, -187500.02, -92028.23, -73961.43, 0.284, 0.588, 0.726, 13:02:28.312
193, -60417.99, -70152.42, -187500.02, 187500.00, -73000.82, -187500.02, -91816.98, -73676.69, 0.000, 0.000, 0.000, 13:02:28.312
194, -60463.32, -70198.24, -187500.02, 187500.00, -73097.16, -187500.02, -91788.59, -73573.07, 0.000, 0.000, 0.000, 13:02:28.312
195, -60350.82, -70083.18, -187500.02, 187500.00, -73081.09, -187500.02, -91981.23, -73830.20, 0.000, 0.000, 0.000, 13:02:28.313
196, -60289.80, -70023.07, -187500.02, 187500.00, -72996.52, -187500.02, -92048.39, -73981.63, 0.000, 0.000, 0.000, 13:02:28.313
197, -60383.28, -70121.63, -187500.02, 187500.00, -72984.91, -187500.02, -91857.40, -73741.89, 0.000, 0.000, 0.000, 13:02:28.313
198, -60485.59, -70222.63, -187500.02, 187500.00, -73093.42, -187500.02, -91772.15, -73561.60, 0.000, 0.000, 0.000, 13:02:28.313
199, -60392.71, -70125.80, -187500.02, 187500.00, -73111.26, -187500.02, -91950.24, -73774.75, 0.000, 0.000, 0.000, 13:02:28.313
200, -60288.55, -70019.48, -187500.02, 187500.00, -73011.30, -187500.02, -92067.13, -73987.78, 0.000, 0.000, 0.000, 13:02:28.313
201, -60384.93, -70123.25, -187500.02, 187500.00, -72993.89, -187500.02, -91897.54, -73792.25, 0.286, 0.590, 0.722, 13:02:28.313
202, -60486.41, -70224.71, -187500.02, 187500.00, -73096.55, -187500.02, -91777.02, -73576.02, 0.000, 0.000, 0.000, 13:02:28.313
203, -60416.96, -70149.54, -187500.02, 187500.00, -73123.87, -187500.02, -91926.80, -73737.42, 0.000, 0.000, 0.000, 13:02:28.313
204, -60304.60, -70035.91, -187500.02, 187500.00, -73038.30, -187500.02, -92081.30, -73991.16, 0.000, 0.000, 0.000, 13:02:28.313
205, -60383.23, -70118.83, -187500.02, 187500.00, -73006.07, -187500.02, -91945.71, -73855.70, 0.000, 0.000, 0.000, 13:02:28.313
206, -60502.95, -70244.13, -187500.02, 187500.00, -73093.20, -187500.02, -91780.44, -73586.90, 0.000, 0.000, 0.000, 13:02:28.313
207, -60452.57, -70189.82, -187500.02, 187500.00, -73138.10, -187500.02, -91890.34, -73681.77, 0.000, 0.000, 0.000, 13:02:28.314
208, -60332.70, -70065.52, -187500.02, 187500.00, -73071.72, -187500.02, -92072.63, -73961.52, 0.000, 0.000, 0.000, 13:02:28.314
209, -60359.74, -70095.16, -187500.02, 187500.00, -73014.30, -187500.02, -91999.60, -73917.02, 0.000, 0.000, 0.000, 13:02:28.314
210, -60500.67, -70242.08, -187500.02, 187500.00, -73083.14, -187500.02, -91802.45, -73618.17, 0.000, 0.000, 0.000, 13:02:28.314
211, -60481.94, -70220.88, -187500.02, 187500.00, -73153.88, -187500.02, -91869.63, -73640.63, 0.280, 0.586, 0.716, 13:02:28.314
212, -60334.17, -70070.95, -187500.02, 187500.00, -73090.41, -187500.02, -92080.18, -73937.76, 0.000, 0.000, 0.000, 13:02:28.314
213, -60332.21, -70077.77, -187500.02, 187500.00, -73008.53, -187500.02, -92053.11, -73958.14, 0.000, 0.000, 0.000, 13:02:28.314
214, -60482.79, -70231.77, -187500.02, 187500.00, -73061.26, -187500.02, -91834.87, -73650.13, 0.000, 0.000, 0.000, 13:02:28.314
215, -60509.21, -70255.24, -187500.02, 187500.00, -73140.74, -187500.02, -91840.43, -73595.91, 0.000, 0.000, 0.000, 13:02:28.314
216, -60369.31, -70111.43, -187500.02, 187500.00, -73108.40, -187500.02, -92049.38, -73878.44, 0.000, 0.000, 0.000, 13:02:28.314
217, -60314.08, -70057.05, -187500.02, 187500.00, -73003.86, -187500.02, -92085.92, -73990.09, 0.000, 0.000, 0.000, 13:02:28.314
218, -60472.17, -70219.70, -187500.02, 187500.00, -73040.20, -187500.02, -91865.53, -73692.23, 0.000, 0.000, 0.000, 13:02:28.315
219, -60525.55, -70276.38, -187500.02, 187500.00, -73149.03, -187500.02, -91827.16, -73563.03, 0.000, 0.000, 0.000, 13:02:28.315
220, -60396.47, -70137.54, -187500.02, 187500.00, -73127.57, -187500.02, -92035.30, -73825.84, 0.280, 0.592, 0.712, 13:02:28.315
221, -60323.82, -70057.74, -187500.02, 187500.00, -73034.21, -187500.02, -92120.70, -74000.19, 0.000, 0.000, 0.000, 13:02:28.315
222, -60456.06, -70192.73, -187500.02, 187500.00, -73048.31, -187500.02, -91921.14, -73754.14, 0.000, 0.000, 0.000, 13:02:28.315
223, -60525.44, -70263.29, -187500.02, 187500.00, -73145.90, -187500.02, -91836.59, -73577.27, 0.000, 0.000, 0.000, 13:02:28.315
224, -60422.73, -70158.37, -187500.02, 187500.00, -73137.86, -187500.02, -92007.29, -73782.13, 0.000, 0.000, 0.000, 13:02:28.315
225, -60308.49, -70043.34, -187500.02, 187500.00, -73039.51, -187500.02, -92135.23, -74012.14, 0.000, 0.000, 0.000, 13:02:28.315
226, -60388.76, -70129.87, -187500.02, 187500.00, -73007.75, -187500.02, -91973.16, -73839.70, 0.000, 0.000, 0.000, 13:02:28.780
227, -60497.95, -70242.37, -187500.02, 187500.00, -73095.27, -187500.02, -91833.62, -73598.86, 0.000, 0.000, 0.000, 13:02:28.780
228, -60427.83, -70167.35, -187500.02, 187500.00, -73128.94, -187500.02, -91967.97, -73738.60, 0.000, 0.000, 0.000, 13:02:28.780
229, -60290.18, -70023.37, -187500.02, 187500.00, -73040.72, -187500.02, -92134.13, -74011.30, 0.000, 0.000, 0.000, 13:02:28.780
230, -60355.63, -70088.92, -187500.02, 187500.00, -72986.16, -187500.02, -92013.14, -73900.43, 0.280, 0.594, 0.710, 13:02:28.781
231, -60491.11, -70232.73, -187500.02, 187500.00, -73074.49, -187500.02, -91832.23, -73617.16, 0.000, 0.000, 0.000, 13:02:28.781
232, -60450.76, -70184.56, -187500.02, 187500.00, -73126.16, -187500.02, -91925.99, -73689.09, 0.000, 0.000, 0.000, 13:02:28.781
233, -60326.86, -70053.70, -187500.02, 187500.00, -73063.36, -187500.02, -92109.88, -73968.63, 0.000, 0.000, 0.000, 13:02:28.781
234, -60324.00, -70058.23, -187500.02, 187500.00, -72985.04, -187500.02, -92051.59, -73950.16, 0.000, 0.000, 0.000, 13:02:28.781
235, -60453.71, -70195.56, -187500.02, 187500.00, -73043.40, -187500.02, -91848.70, -73652.59, 0.000, 0.000, 0.000, 13:02:28.781
236, -60453.46, -70191.38, -187500.02, 187500.00, -73116.91, -187500.02, -91895.55, -73652.21, 0.000, 0.000, 0.000, 13:02:28.781
237, -60326.82, -70061.02, -187500.02, 187500.00, -73075.85, -187500.02, -92089.05, -73928.59, 0.000, 0.000, 0.000, 13:02:28.781
238, -60303.57, -70039.70, -187500.02, 187500.00, -72993.42, -187500.02, -92082.21, -73977.48, 0.000, 0.000, 0.000, 13:02:28.781
239, -60469.76, -70212.62, -187500.02, 187500.00, -73048.12, -187500.02, -91857.59, -73666.66, 0.000, 0.000, 0.000, 13:02:28.781
240, -60500.54, -70241.85, -187500.02, 187500.00, -73148.59, -187500.02, -91861.66, -73600.45, 0.284, 0.590, 0.720, 13:02:28.781
241, -60349.46, -70086.42, -187500.02, 187500.00, -73105.53, -187500.02, -92070.09, -73882.44, 0.000, 0.000, 0.000, 13:02:28.782
242, -60301.41, -70041.67, -187500.02, 187500.00, -73005.13, -187500.02, -92105.97, -73999.83, 0.000, 0.000, 0.000, 13:02:28.782
243, -60427.98, -70176.92, -187500.02, 187500.00, -73024.02, -187500.02, -91898.28, -73730.31, 0.000, 0.000, 0.000, 13:02:28.782
244, -60499.00, -70240.09, -187500.02, 187500.00, -73125.18, -187500.02, -91841.51, -73587.13, 0.000, 0.000, 0.000, 13:02:28.782
245, -60378.52, -70110.67, -187500.02, 187500.00, -73112.58, -187500.02, -92031.56, -73826.83, 0.000, 0.000, 0.000, 13:02:28.782
246, -60285.85, -70018.73, -187500.02, 187500.00, -73002.67, -187500.02, -92116.54, -74005.95, 0.000, 0.000, 0.000, 13:02:28.782
247, -60407.84, -70143.37, -187500.02, 187500.00, -73002.74, -187500.02, -91923.58, -73774.45, 0.000, 0.000, 0.000, 13:02:28.782
248, -60497.90, -70235.13, -187500.02, 187500.00, -73102.74, -187500.02, -91822.57, -73574.03, 0.000, 0.000, 0.000, 13:02:28.782
249, -60398.30, -70135.34, -187500.02, 187500.00, -73115.17, -187500.02, -91987.35, -73767.51, 0.286, 0.588, 0.722, 13:02:28.782
250, -60293.92, -70028.55, -187500.02, 187500.00, -73026.73, -187500.02, -92118.95, -73997.05, 0.000, 0.000, 0.000, 13:02:28.782
251, -60378.12, -70116.52, -187500.02, 187500.00, -72998.42, -187500.02, -91967.10, -73830.47, 0.000, 0.000, 0.000, 13:02:28.782
252, -60495.22, -70235.39, -187500.02, 187500.00, -73092.86, -187500.02, -91816.31, -73574.09, 0.000, 0.000, 0.000, 13:02:28.783
253, -60422.42, -70157.70, -187500.02, 187500.00, -73125.95, -187500.02, -91951.43, -73706.06, 0.000, 0.000, 0.000, 13:02:28.783
254, -60299.80, -70025.04, -187500.02, 187500.00, -73037.43, -187500.02, -92118.45, -73977.03, 0.000, 0.000, 0.000, 13:02:28.783
255, -60336.57, -70067.84, -187500.02, 187500.00, -72974.17, -187500.02, -92011.69, -73891.49, 0.000, 0.000, 0.000, 13:02:28.783
0, -60477.54, -70212.73, -187500.02, 187500.00, -73048.31, -187500.02, -91813.30, -73595.33, 0.000, 0.000, 0.000, 13:02:28.783
1, -60455.88, -70189.30, -187500.02, 187500.00, -73118.05, -187500.02, -91888.13, -73641.66, 0.000, 0.000, 0.000, 13:02:28.783
2, -60320.81, -70052.84, -187500.02, 187500.00, -73059.55, -187500.02, -92080.96, -73928.33, 0.000, 0.000, 0.000, 13:02:28.783
3, -60323.42, -70057.80, -187500.02, 187500.00, -72972.03, -187500.02, -92027.80, -73919.16, 0.290, 0.594, 0.730, 13:02:28.783
4, -60474.27, -70211.66, -187500.02, 187500.00, -73035.22, -187500.02, -91811.77, -73612.30, 0.000, 0.000, 0.000, 13:02:28.783
5, -60467.23, -70200.13, -187500.02, 187500.00, -73115.66, -187500.02, -91856.73, -73607.89, 0.000, 0.000, 0.000, 13:02:28.783
6, -60326.93, -70057.41, -187500.02, 187500.00, -73062.15, -187500.02, -92058.16, -73894.80, 0.000, 0.000, 0.000, 13:02:28.783
7, -60289.67, -70022.23, -187500.02, 187500.00, -72976.81, -187500.02, -92064.58, -73968.31, 0.000, 0.000, 0.000, 13:02:28.784
8, -60426.13, -70165.05, -187500.02, 187500.00, -73008.82, -187500.02, -91844.97, -73676.20, 0.000, 0.000, 0.000, 13:02:28.784
9, -60465.36, -70200.95, -187500.02, 187500.00, -73095.95, -187500.02, -91821.90, -73583.55, 0.000, 0.000, 0.000, 13:02:28.784
10, -60334.60, -70066.05, -187500.02, 187500.00, -73070.69, -187500.02, -92016.85, -73843.77, 0.000, 0.000, 0.000, 13:02:28.784
11, -60249.64, -69982.98, -187500.02, 187500.00, -72965.34, -187500.02, -92076.02, -73986.93, 0.000, 0.000, 0.000, 13:02:28.784
12, -60372.62, -70112.34, -187500.02, 187500.00, -72975.98, -187500.02, -91865.91, -73721.03, 0.280, 0.592, 0.730, 13:02:28.784
13, -60438.36, -70178.44, -187500.02, 187500.00, -73075.16, -187500.02, -91796.38, -73565.38, 0.000, 0.000, 0.000, 13:02:28.784
14, -60310.95, -70042.92, -187500.02, 187500.00, -73054.41, -187500.02, -91976.46, -73795.71, 0.000, 0.000, 0.000, 13:02:28.784
15, -60231.40, -69969.25, -187500.02, 187500.00, -72960.56, -187500.02, -92067.13, -73982.02, 0.000, 0.000, 0.000, 13:02:28.784
16, -60341.26, -70084.12, -187500.02, 187500.00, -72954.17, -187500.02, -91881.52, -73767.13, 0.000, 0.000, 0.000, 13:02:28.784
17, -60429.93, -70172.56, -187500.02, 187500.00, -73058.04, -187500.02, -91770.29, -73558.83, 0.000, 0.000, 0.000, 13:02:28.785
18, -60346.73, -70083.53, -187500.02, 187500.00, -73074.94, -187500.02, -91924.54, -73729.55, 0.000, 0.000, 0.000, 13:02:28.785
19, -60220.00, -69948.30, -187500.02, 187500.00, -72971.98, -187500.02, -92073.31, -73982.80, 0.000, 0.000, 0.000, 13:02:28.785
20, -60298.23, -70030.80, -187500.02, 187500.00, -72930.59, -187500.02, -91919.63, -73828.52, 0.000, 0.000, 0.000, 13:02:28.785
21, -60423.98, -70158.52, -187500.02, 187500.00, -73032.58, -187500.02, -91761.98, -73567.77, 0.000, 0.000, 0.000, 13:02:28.785
22, -60367.01, -70100.52, -187500.02, 187500.00, -73083.34, -187500.02, -91886.74, -73686.68, 0.284, 0.596, 0.724, 13:02:28.785
23, -60232.38, -69963.75, -187500.02, 187500.00, -73002.29, -187500.02, -92066.07, -73969.20, 0.000, 0.000, 0.000, 13:02:28.785
24, -60268.17, -70004.01, -187500.02, 187500.00, -72941.02, -187500.02, -91967.48, -73892.70, 0.000, 0.000, 0.000, 13:02:28.785
25, -60410.24, -70146.23, -187500.02, 187500.00, -73023.28, -187500.02, -91776.10, -73598.44, 0.000, 0.000, 0.000, 13:02:28.785
26, -60368.02, -70100.16, -187500.02, 187500.00, -73075.36, -187500.02, -91861.55, -73654.23, 0.000, 0.000, 0.000, 13:02:28.785
27, -60220.76, -69952.27, -187500.02, 187500.00, -72999.77, -187500.02, -92054.70, -73941.34, 0.000, 0.000, 0.000, 13:02:28.786
28, -60226.24, -69961.12, -187500.02, 187500.00, -72916.23, -187500.02, -92009.01, -73940.15, 0.000, 0.000, 0.000, 13:02:28.786
29, -60376.46, -70118.47, -187500.02, 187500.00, -72978.16, -187500.02, -91793.96, -73631.20, 0.000, 0.000, 0.000, 13:02:28.786
30, -60380.84, -70118.59, -187500.02, 187500.00, -73061.68, -187500.02, -91820.98, -73598.62, 0.000, 0.000, 0.000, 13:02:28.786
31, -60240.32, -69973.12, -187500.02, 187500.00, -73014.43, -187500.02, -92022.15, -73878.55, 0.278, 0.596, 0.724, 13:02:28.786
32, -60207.75, -69943.50, -187500.02, 187500.00, -72924.38, -187500.02, -92031.23, -73957.27, 0.000, 0.000, 0.000, 13:02:28.786
33, -60358.80, -70095.63, -187500.02, 187500.00, -72963.53, -187500.02, -91811.40, -73665.16, 0.000, 0.000, 0.000, 13:02:28.786
34, -60394.39, -70129.78, -187500.02, 187500.00, -73065.95, -187500.02, -91789.42, -73565.55, 0.000, 0.000, 0.000, 13:02:28.786
35, -60264.84, -69995.73, -187500.02, 187500.00, -73032.58, -187500.02, -91984.40, -73826.60, 0.000, 0.000, 0.000, 13:02:28.786
36, -60203.59, -69933.89, -187500.02, 187500.00, -72940.94, -187500.02, -92049.27, -73982.64, 0.000, 0.000, 0.000, 13:02:28.786
37, -60326.17, -70058.34, -187500.02, 187500.00, -72947.48, -187500.02, -91845.57, -73730.49, 0.000, 0.000, 0.000, 13:02:28.786
38, -60411.67, -70145.59, -187500.02, 187500.00, -73052.36, -187500.02, -91764.13, -73556.86, 0.000, 0.000, 0.000, 13:02:28.787
39, -60305.54, -70037.78, -187500.02, 187500.00, -73064.27, -187500.02, -91948.75, -73779.51, 0.000, 0.000, 0.000, 13:02:28.787
40, -60215.02, -69946.12, -187500.02, 187500.00, -72970.69, -187500.02, -92058.67, -73987.00, 0.000, 0.000, 0.000, 13:02:28.787
41, -60297.98, -70035.59, -187500.02, 187500.00, -72944.78, -187500.02, -91893.56, -73799.87, 0.274, 0.592, 0.722, 13:02:28.787
42, -60407.80, -70145.49, -187500.02, 187500.00, -73038.21, -187500.02, -91760.52, -73565.40, 0.000, 0.000, 0.000, 13:02:28.787
43, -60340.34, -70072.20, -187500.02, 187500.00, -73079.61, -187500.02, -91909.63, -73720.21, 0.000, 0.000, 0.000, 13:02:28.787
44, -60202.84, -69939.19, -187500.02, 187500.00, -72983.05, -187500.02, -92075.23, -73983.80, 0.000, 0.000, 0.000, 13:02:28.787
45, -60274.63, -70010.84, -187500.02, 187500.00, -72936.47, -187500.02, -91944.99, -73859.39, 0.000, 0.000, 0.000, 13:02:28.787
46, -60417.88, -70150.21, -187500.02, 187500.00, -73034.75, -187500.02, -91770.85, -73583.21, 0.000, 0.000, 0.000, 13:02:28.787
47, -60374.38, -70105.77, -187500.02, 187500.00, -73092.02, -187500.02, -91880.15, -73673.18, 0.000, 0.000, 0.000, 13:02:28.787
48, -60234.51, -69963.44, -187500.02, 187500.00, -73020.66, -187500.02, -92071.44, -73958.32, 0.000, 0.000, 0.000, 13:02:28.787
49, -60263.41, -69995.36, -187500.02, 187500.00, -72937.90, -187500.02, -91988.20, -73904.61, 0.000, 0.000, 0.000, 13:02:28.787
50, -60411.49, -70142.61, -187500.02, 187500.00, -73011.45, -187500.02, -91786.74, -73601.52, 0.000, 0.000, 0.000, 13:02:28.788
51, -60387.32, -70114.72, -187500.02, 187500.00, -73081.06, -187500.02, -91852.75, -73627.47, 0.274, 0.590, 0.724, 13:02:28.788
52, -60258.67, -69988.83, -187500.02, 187500.00, -73029.00, -187500.02, -92046.09, -73907.76, 0.000, 0.000, 0.000, 13:02:28.788
53, -60248.88, -69986.06, -187500.02, 187500.00, -72957.52, -187500.02, -92024.63, -73938.74, 0.000, 0.000, 0.000, 13:02:28.788
54, -60390.48, -70129.40, -187500.02, 187500.00, -72998.70, -187500.02, -91809.81, -73639.77, 0.000, 0.000, 0.000, 13:02:28.788
55, -60421.86, -70155.02, -187500.02, 187500.00, -73091.70, -187500.02, -91824.78, -73591.62, 0.000, 0.000, 0.000, 13:02:28.788
56, -60272.53, -70002.78, -187500.02, 187500.00, -73045.23, -187500.02, -92034.11, -73876.89, 0.000, 0.000, 0.000, 13:02:28.788
57, -60231.09, -69965.85, -187500.02, 187500.00, -72949.77, -187500.02, -92055.55, -73970.81, 0.000, 0.000, 0.000, 13:02:28.788
58, -60377.98, -70114.98, -187500.02, 187500.00, -72982.71, -187500.02, -91839.56, -73686.14, 0.000, 0.000, 0.000, 13:02:28.788
59, -60436.28, -70167.58, -187500.02, 187500.00, -73089.46, -187500.02, -91806.03, -73570.59, 0.000, 0.000, 0.000, 13:02:28.788
60, -60306.37, -70035.55, -187500.02, 187500.00, -73068.12, -187500.02, -92003.04, -73820.70, 0.274, 0.588, 0.730, 13:02:28.788
61, -60238.42, -69968.53, -187500.02, 187500.00, -72971.88, -187500.02, -92077.25, -73985.21, 0.000, 0.000, 0.000, 13:02:28.789
62, -60370.59, -70101.93, -187500.02, 187500.00, -72985.64, -187500.02, -91877.24, -73739.61, 0.000, 0.000, 0.000, 13:02:28.789
63, -60447.81, -70184.85, -187500.02, 187500.00, -73092.21, -187500.02, -91793.76, -73558.74, 0.000, 0.000, 0.000, 13:02:28.789
64, -60346.94, -70081.79, -187500.02, 187500.00, -73084.99, -187500.02, -91968.30, -73765.45, 0.000, 0.000, 0.000, 13:02:28.789
65, -60245.39, -69977.77, -187500.02, 187500.00, -72984.39, -187500.02, -92090.95, -73989.14, 0.000, 0.000, 0.000, 13:02:28.789
66, -60321.34, -70059.66, -187500.02, 187500.00, -72943.98, -187500.02, -91929.21, -73812.74, 0.000, 0.000, 0.000, 13:02:28.789
67, -60441.48, -70177.37, -187500.02, 187500.00, -73042.52, -187500.02, -91781.18, -73563.48, 0.000, 0.000, 0.000, 13:02:28.789
68, -60373.45, -70102.98, -187500.02, 187500.00, -73088.30, -187500.02, -91919.49, -73705.41, 0.000, 0.000, 0.000, 13:02:28.789
69, -60264.08, -69990.15, -187500.02, 187500.00, -73009.55, -187500.02, -92078.74, -73963.53, 0.000, 0.000, 0.000, 13:02:28.789
70, -60333.88, -70066.39, -187500.02, 187500.00, -72965.52, -187500.02, -91956.77, -73845.20, 0.290, 0.584, 0.726, 13:02:28.789
71, -60462.29, -70202.11, -187500.02, 187500.00, -73049.50, -187500.02, -91779.66, -73565.34, 0.000, 0.000, 0.000, 13:02:28.789
72, -60425.64, -70163.15, -187500.02, 187500.00, -73106.56, -187500.02, -91877.71, -73641.02, 0.000, 0.000, 0.000, 13:02:28.789
73, -60297.27, -70026.70, -187500.02, 187500.00, -73044.41, -187500.02, -92071.46, -73927.30, 0.000, 0.000, 0.000, 13:02:28.790
74, -60313.32, -70048.66, -187500.02, 187500.00, -72971.83, -187500.02, -92006.39, -73899.45, 0.000, 0.000, 0.000, 13:02:28.790
75, -60448.43, -70189.13, -187500.02, 187500.00, -73038.39, -187500.02, -91802.45, -73602.19, 0.000, 0.000, 0.000, 13:02:28.790
76, -60441.44, -70175.29, -187500.02, 187500.00, -73112.98, -187500.02, -91852.45, -73608.13, 0.000, 0.000, 0.000, 13:02:28.790
77, -60317.50, -70045.89, -187500.02, 187500.00, -73070.35, -187500.02, -92049.04, -73887.58, 0.000, 0.000, 0.000, 13:02:28.790
78, -60288.62, -70019.03, -187500.02, 187500.00, -72982.13, -187500.02, -92043.27, -73939.59, 0.000, 0.000, 0.000, 13:02:28.791
79, -60425.46, -70158.91, -187500.02, 187500.00, -73018.32, -187500.02, -91829.84, -73651.12, 0.296, 0.588, 0.724, 13:02:28.791
80, -60460.02, -70191.36, -187500.02, 187500.00, -73110.45, -187500.02, -91819.60, -73571.84, 0.000, 0.000, 0.000, 13:02:28.791
81, -60330.69, -70061.23, -187500.02, 187500.00, -73080.13, -187500.02, -92016.63, -73832.15, 0.000, 0.000, 0.000, 13:02:28.791
82, -60280.53, -70011.34, -187500.02, 187500.00, -72987.48, -187500.02, -92063.86, -73953.18, 0.000, 0.000, 0.000, 13:02:28.791
83, -60425.68, -70162.52, -187500.02, 187500.00, -73011.50, -187500.02, -91848.91, -73673.11, 0.000, 0.000, 0.000, 13:02:28.791
84, -60498.91, -70239.33, -187500.02, 187500.00, -73121.23, -187500.02, -91789.80, -73524.34, 0.000, 0.000, 0.000, 13:02:28.791
85, -60394.55, -70127.14, -187500.02, 187500.00, -73132.94, -187500.02, -91985.45, -73760.28, 0.000, 0.000, 0.000, 13:02:28.791
86, -60289.94, -70020.57, -187500.02, 187500.00, -73031.22, -187500.02, -92090.93, -73958.61, 0.000, 0.000, 0.000, 13:02:28.791
87, -60396.11, -70130.92, -187500.02, 187500.00, -73004.70, -187500.02, -91899.64, -73736.52, 0.000, 0.000, 0.000, 13:02:28.791
88, -60503.02, -70241.61, -187500.02, 187500.00, -73103.99, -187500.02, -91792.29, -73527.00, 0.000, 0.000, 0.000, 13:02:28.792
89, -60416.74, -70151.62, -187500.02, 187500.00, -73131.69, -187500.02, -91954.65, -73710.30, 0.286, 0.586, 0.720, 13:02:28.792
90, -60301.76, -70033.20, -187500.02, 187500.00, -73039.06, -187500.02, -92096.72, -73953.54, 0.000, 0.000, 0.000, 13:02:29.260
91, -60393.29, -70127.86, -187500.02, 187500.00, -73008.10, -187500.02, -91945.28, -73793.27, 0.000, 0.000, 0.000, 13:02:29.260
92, -60521.37, -70256.31, -187500.02, 187500.00, -73117.49, -187500.02, -91794.79, -73540.23, 0.000, 0.000, 0.000, 13:02:29.260
93, -60446.67, -70178.02, -187500.02, 187500.00, -73153.95, -187500.02, -91925.75, -73671.93, 0.000, 0.000, 0.000, 13:02:29.261
94, -60315.40, -70046.95, -187500.02, 187500.00, -73067.31, -187500.02, -92100.77, -73946.59, 0.000, 0.000, 0.000, 13:02:29.261
95, -60369.07, -70109.48, -187500.02, 187500.00, -73010.98, -187500.02, -91994.79, -73851.70, 0.000, 0.000, 0.000, 13:02:29.261
96, -60505.52, -70242.30, -187500.02, 187500.00, -73095.21, -187500.02, -91808.09, -73561.84, 0.000, 0.000, 0.000, 13:02:29.261
97, -60483.71, -70214.34, -187500.02, 187500.00, -73160.25, -187500.02, -91889.74, -73610.44, 0.000, 0.000, 0.000, 13:02:29.261
98, -60339.63, -70066.73, -187500.02, 187500.00, -73093.89, -187500.02, -92086.05, -73899.27, 0.000, 0.000, 0.000, 13:02:29.261
99, -60353.78, -70083.42, -187500.02, 187500.00, -73022.16, -187500.02, -92036.14, -73891.38, 0.280, 0.590, 0.718, 13:02:29.261
100, -60501.19, -70234.84, -187500.02, 187500.00, -73090.34, -187500.02, -91828.77, -73590.34, 0.000, 0.000, 0.000, 13:02:29.261
101, -60498.77, -70228.55, -187500.02, 187500.00, -73159.72, -187500.02, -91862.36, -73578.45, 0.000, 0.000, 0.000, 13:02:29.261
102, -60368.95, -70094.30, -187500.02, 187500.00, -73108.44, -187500.02, -92057.04, -73858.34, 0.000, 0.000, 0.000, 13:02:29.261
103, -60324.56, -70054.70, -187500.02, 187500.00, -73017.02, -187500.02, -92066.77, -73934.70, 0.000, 0.000, 0.000, 13:02:29.262
104, -60463.55, -70200.41, -187500.02, 187500.00, -73042.62, -187500.02, -91850.09, -73643.79, 0.000, 0.000, 0.000, 13:02:29.262
105, -60496.83, -70234.52, -187500.02, 187500.00, -73138.62, -187500.02, -91831.00, -73554.27, 0.000, 0.000, 0.000, 13:02:29.262
106, -60371.16, -70104.77, -187500.02, 187500.00, -73120.42, -187500.02, -92026.69, -73813.88, 0.000, 0.000, 0.000, 13:02:29.262
107, -60315.46, -70045.49, -187500.02, 187500.00, -73022.30, -187500.02, -92085.90, -73954.09, 0.000, 0.000, 0.000, 13:02:29.262
108, -60466.43, -70200.61, -187500.02, 187500.00, -73037.56, -187500.02, -91878.95, -73689.52, 0.276, 0.598, 0.722, 13:02:29.262
109, -60521.23, -70260.38, -187500.02, 187500.00, -73133.27, -187500.02, -91822.77, -73543.20, 0.000, 0.000, 0.000, 13:02:29.263
110, -60420.41, -70153.09, -187500.02, 187500.00, -73130.08, -187500.02, -92003.63, -73762.43, 0.000, 0.000, 0.000, 13:02:29.263
111, -60335.56, -70064.89, -187500.02, 187500.00, -73036.96, -187500.02, -92105.12, -73959.33, 0.000, 0.000, 0.000, 13:02:29.263
112, -60448.37, -70173.19, -187500.02, 187500.00, -73020.89, -187500.02, -91922.59, -73754.54, 0.000, 0.000, 0.000, 13:02:29.263
113, -60557.38, -70285.55, -187500.02, 187500.00, -73126.23, -187500.02, -91797.96, -73529.44, 0.000, 0.000, 0.000, 13:02:29.263
114, -60458.45, -70185.01, -187500.02, 187500.00, -73146.44, -187500.02, -91960.80, -73708.02, 0.000, 0.000, 0.000, 13:02:29.263
115, -60337.79, -70061.48, -187500.02, 187500.00, -73056.09, -187500.02, -92109.44, -73959.51, 0.000, 0.000, 0.000, 13:02:29.263
116, -60411.60, -70140.53, -187500.02, 187500.00, -73007.75, -187500.02, -91966.49, -73815.60, 0.000, 0.000, 0.000, 13:02:29.263
117, -60522.62, -70259.22, -187500.02, 187500.00, -73094.31, -187500.02, -91801.00, -73548.99, 0.000, 0.000, 0.000, 13:02:29.263
118, -60461.20, -70194.16, -187500.02, 187500.00, -73142.86, -187500.02, -91916.94, -73659.21, 0.278, 0.598, 0.718, 13:02:29.263
119, -60329.84, -70048.73, -187500.02, 187500.00, -73061.28, -187500.02, -92097.99, -73941.89, 0.000, 0.000, 0.000, 13:02:29.263
120, -60370.96, -70094.33, -187500.02, 187500.00, -73002.90, -187500.02, -92002.98, -73869.20, 0.000, 0.000, 0.000, 13:02:29.264
121, -60506.24, -70233.36, -187500.02, 187500.00, -73082.38, -187500.02, -91815.73, -73578.45, 0.000, 0.000, 0.000, 13:02:29.264
122, -60479.73, -70207.61, -187500.02, 187500.00, -73152.25, -187500.02, -91892.24, -73622.98, 0.000, 0.000, 0.000, 13:02:29.264
123, -60351.63, -70075.27, -187500.02, 187500.00, -73096.39, -187500.02, -92081.61, -73908.81, 0.000, 0.000, 0.000, 13:02:29.264
124, -60345.39, -70071.73, -187500.02, 187500.00, -73014.81, -187500.02, -92046.58, -73929.06, 0.000, 0.000, 0.000, 13:02:29.264
125, -60503.76, -70235.48, -187500.02, 187500.00, -73067.94, -187500.02, -91828.90, -73620.63, 0.000, 0.000, 0.000, 13:02:29.264
126, -60508.72, -70240.65, -187500.02, 187500.00, -73157.97, -187500.02, -91856.97, -73586.50, 0.000, 0.000, 0.000, 13:02:29.264
127, -60359.79, -70084.01, -187500.02, 187500.00, -73102.09, -187500.02, -92060.73, -73867.87, 0.276, 0.596, 0.718, 13:02:29.264
128, -60308.63, -70034.54, -187500.02, 187500.00, -72994.36, -187500.02, -92081.56, -73961.27, 0.000, 0.000, 0.000, 13:02:29.264
129, -60455.75, -70188.74, -187500.02, 187500.00, -73029.85, -187500.02, -91859.61, -73667.75, 0.000, 0.000, 0.000, 13:02:29.264
130, -60506.89, -70239.88, -187500.02, 187500.00, -73130.97, -187500.02, -91826.59, -73556.41, 0.000, 0.000, 0.000, 13:02:29.265
131, -60386.34, -70110.83, -187500.02, 187500.00, -73119.30, -187500.02, -92025.19, -73808.85, 0.000, 0.000, 0.000, 13:02:29.265
132, -60314.28, -70041.58, -187500.02, 187500.00, -73020.51, -187500.02, -92098.93, -73966.97, 0.000, 0.000, 0.000, 13:02:29.265
133, -60449.82, -70186.42, -187500.02, 187500.00, -73029.98, -187500.02, -91896.27, -73712.07, 0.000, 0.000, 0.000, 13:02:29.265
134, -60536.77, -70270.95, -187500.02, 187500.00, -73141.09, -187500.02, -91817.03, -73536.74, 0.000, 0.000, 0.000, 13:02:29.265
135, -60416.14, -70145.74, -187500.02, 187500.00, -73132.40, -187500.02, -92000.49, -73757.96, 0.000, 0.000, 0.000, 13:02:29.265
136, -60313.07, -70042.45, -187500.02, 187500.00, -73032.63, -187500.02, -92118.51, -73977.88, 0.000, 0.000, 0.000, 13:02:29.265
137, -60404.69, -70140.64, -187500.02, 187500.00, -73002.60, -187500.02, -91950.65, -73788.72, 0.270, 0.594, 0.728, 13:02:29.265
138, -60512.05, -70250.99, -187500.02, 187500.00, -73101.34, -187500.02, -91817.74, -73555.50, 0.000, 0.000, 0.000, 13:02:29.265
139, -60436.34, -70167.38, -187500.02, 187500.00, -73134.88, -187500.02, -91968.57, -73719.65, 0.000, 0.000, 0.000, 13:02:29.265
140, -60316.34, -70038.32, -187500.02, 187500.00, -73045.50, -187500.02, -92128.21, -73983.98, 0.000, 0.000, 0.000, 13:02:29.265
141, -60387.91, -70115.79, -187500.02, 187500.00, -72996.91, -187500.02, -91993.54, -73852.77, 0.000, 0.000, 0.000, 13:02:29.266
142, -60516.21, -70250.39, -187500.02, 187500.00, -73091.81, -187500.02, -91823.20, -73570.14, 0.000, 0.000, 0.000, 13:02:29.266
143, -60446.76, -70184.70, -187500.02, 187500.00, -73134.15, -187500.02, -91945.87, -73673.29, 0.000, 0.000, 0.000, 13:02:29.266
144, -60312.56, -70046.52, -187500.02, 187500.00, -73052.72, -187500.02, -92125.70, -73955.66, 0.000, 0.000, 0.000, 13:02:29.266
145, -60338.38, -70069.68, -187500.02, 187500.00, -72982.45, -187500.02, -92043.19, -73908.41, 0.000, 0.000, 0.000, 13:02:29.266
146, -60469.65, -70206.73, -187500.02, 187500.00, -73055.29, -187500.02, -91844.90, -73612.85, 0.278, 0.596, 0.724, 13:02:29.266
147, -60455.36, -70189.19, -187500.02, 187500.00, -73119.41, -187500.02, -91905.01, -73628.99, 0.000, 0.000, 0.000, 13:02:29.266
148, -60321.63, -70052.29, -187500.02, 187500.00, -73057.77, -187500.02, -92098.55, -73911.90, 0.000, 0.000, 0.000, 13:02:29.266
149, -60311.55, -70046.99, -187500.02, 187500.00, -72977.91, -187500.02, -92074.95, -73942.49, 0.000, 0.000, 0.000, 13:02:29.266
150, -60463.16, -70202.29, -187500.02, 187500.00, -73035.40, -187500.02, -91857.66, -73635.61, 0.000, 0.000, 0.000, 13:02:29.267
151, -60492.45, -70227.88, -187500.02, 187500.00, -73132.96, -187500.02, -91867.92, -73578.63, 0.000, 0.000, 0.000, 13:02:29.267
152, -60353.78, -70085.10, -187500.02, 187500.00, -73093.80, -187500.02, -92073.11, -73855.59, 0.000, 0.000, 0.000, 13:02:29.267
153, -60302.08, -70032.15, -187500.02, 187500.00, -72987.41, -187500.02, -92107.29, -73966.41, 0.000, 0.000, 0.000, 13:02:29.267
154, -60447.63, -70179.98, -187500.02, 187500.00, -73012.91, -187500.02, -91893.72, -73684.00, 0.000, 0.000, 0.000, 13:02:29.267
155, -60499.42, -70230.99, -187500.02, 187500.00, -73116.47, -187500.02, -91860.88, -73563.92, 0.000, 0.000, 0.000, 13:02:29.267
156, -60383.73, -70112.37, -187500.02, 187500.00, -73101.76, -187500.02, -92044.16, -73804.20, 0.278, 0.596, 0.720, 13:02:29.267
157, -60291.59, -70022.45, -187500.02, 187500.00, -73003.41, -187500.02, -92130.87, -73987.89, 0.000, 0.000, 0.000, 13:02:29.267
158, -60410.30, -70143.66, -187500.02, 187500.00, -72990.73, -187500.02, -91931.31, -73749.89, 0.000, 0.000, 0.000, 13:02:29.268
159, -60496.89, -70232.17, -187500.02, 187500.00, -73095.37, -187500.02, -91832.90, -73553.98, 0.000, 0.000, 0.000, 13:02:29.268
160, -60391.59, -70125.22, -187500.02, 187500.00, -73106.34, -187500.02, -92003.69, -73758.72, 0.000, 0.000, 0.000, 13:02:29.268
161, -60288.04, -70013.75, -187500.02, 187500.00, -73006.47, -187500.02, -92128.01, -73988.77, 0.000, 0.000, 0.000, 13:02:29.268
162, -60380.80, -70115.77, -187500.02, 187500.00, -72966.77, -187500.02, -91958.47, -73805.39, 0.000, 0.000, 0.000, 13:02:29.268
163, -60504.74, -70241.90, -187500.02, 187500.00, -73076.32, -187500.02, -91814.98, -73552.93, 0.000, 0.000, 0.000, 13:02:29.268
164, -60428.72, -70157.38, -187500.02, 187500.00, -73106.01, -187500.02, -91955.38, -73695.35, 0.000, 0.000, 0.000, 13:02:29.268
165, -60301.68, -70028.55, -187500.02, 187500.00, -73014.38, -187500.02, -92116.72, -73962.55, 0.000, 0.000, 0.000, 13:02:29.268
166, -60351.96, -70085.48, -187500.02, 187500.00, -72960.25, -187500.02, -92001.07, -73862.03, 0.278, 0.598, 0.720, 13:02:29.268
167, -60482.70, -70222.83, -187500.02, 187500.00, -73050.66, -187500.02, -91817.19, -73579.23, 0.000, 0.000, 0.000, 13:02:29.268
168, -60453.11, -70186.46, -187500.02, 187500.00, -73117.05, -187500.02, -91916.90, -73651.66, 0.000, 0.000, 0.000, 13:02:29.269
169, -60301.76, -70029.89, -187500.02, 187500.00, -73036.85, -187500.02, -92117.64, -73948.06, 0.000, 0.000, 0.000, 13:02:29.269
170, -60325.72, -70053.85, -187500.02, 187500.00, -72960.45, -187500.02, -92044.44, -73914.67, 0.000, 0.000, 0.000, 13:02:29.269
171, -60461.73, -70191.56, -187500.02, 187500.00, -73023.82, -187500.02, -91838.20, -73612.92, 0.000, 0.000, 0.000, 13:02:29.269
172, -60448.21, -70181.99, -187500.02, 187500.00, -73105.63, -187500.02, -91889.94, -73617.84, 0.000, 0.000, 0.000, 13:02:29.269
173, -60309.41, -70036.22, -187500.02, 187500.00, -73046.51, -187500.02, -92089.12, -73907.76, 0.000, 0.000, 0.000, 13:02:29.269
174, -60294.48, -70020.80, -187500.02, 187500.00, -72962.98, -187500.02, -92075.70, -73952.17, 0.000, 0.000, 0.000, 13:02:29.269
175, -60423.40, -70156.18, -187500.02, 187500.00, -72999.99, -187500.02, -91866.25, -73659.81, 0.284, 0.594, 0.716, 13:02:29.269
176, -60450.16, -70183.83, -187500.02, 187500.00, -73087.63, -187500.02, -91860.81, -73587.66, 0.000, 0.000, 0.000, 13:02:29.269
177, -60315.62, -70046.21, -187500.02, 187500.00, -73051.29, -187500.02, -92054.36, -73854.72, 0.000, 0.000, 0.000, 13:02:29.269
178, -60262.80, -69992.49, -187500.02, 187500.00, -72954.68, -187500.02, -92094.75, -73977.99, 0.000, 0.000, 0.000, 13:02:29.269
179, -60402.44, -70138.56, -187500.02, 187500.00, -72972.32, -187500.02, -91883.26, -73704.59, 0.000, 0.000, 0.000, 13:02:29.270
180, -60486.99, -70226.95, -187500.02, 187500.00, -73092.46, -187500.02, -91820.20, -73546.87, 0.000, 0.000, 0.000, 13:02:29.270
181, -60369.20, -70100.99, -187500.02, 187500.00, -73088.88, -187500.02, -92018.24, -73790.41, 0.000, 0.000, 0.000, 13:02:29.270
182, -60271.01, -69991.83, -187500.02, 187500.00, -72980.03, -187500.02, -92117.70, -73991.13, 0.000, 0.000, 0.000, 13:02:29.270
183, -60373.29, -70103.30, -187500.02, 187500.00, -72958.75, -187500.02, -91924.38, -73767.95, 0.000, 0.000, 0.000, 13:02:29.270
184, -60478.88, -70213.17, -187500.02, 187500.00, -73062.38, -187500.02, -91809.09, -73554.05, 0.000, 0.000, 0.000, 13:02:29.270
185, -60385.79, -70118.52, -187500.02, 187500.00, -73089.06, -187500.02, -91972.44, -73738.40, 0.288, 0.596, 0.714, 13:02:29.270
186, -60261.78, -69990.59, -187500.02, 187500.00, -72988.19, -187500.02, -92117.59, -73985.01, 0.000, 0.000, 0.000, 13:02:29.270
187, -60340.43, -70068.31, -187500.02, 187500.00, -72951.17, -187500.02, -91969.87, -73831.19, 0.000, 0.000, 0.000, 13:02:29.270
188, -60465.45, -70201.40, -187500.02, 187500.00, -73044.25, -187500.02, -91815.64, -73572.42, 0.000, 0.000, 0.000, 13:02:29.270
189, -60410.19, -70143.66, -187500.02, 187500.00, -73099.05, -187500.02, -91938.66, -73686.63, 0.000, 0.000, 0.000, 13:02:29.270
190, -60265.53, -69994.64, -187500.02, 187500.00, -73014.92, -187500.02, -92110.84, -73965.23, 0.000, 0.000, 0.000, 13:02:29.271
191, -60305.05, -70040.55, -187500.02, 187500.00, -72943.02, -187500.02, -92002.93, -73878.30, 0.000, 0.000, 0.000, 13:02:29.271
192, -60460.77, -70200.21, -187500.02, 187500.00, -73024.98, -187500.02, -91805.23, -73578.68, 0.000, 0.000, 0.000, 13:02:29.271
193, -60431.87, -70164.18, -187500.02, 187500.00, -73093.27, -187500.02, -91897.18, -73640.97, 0.000, 0.000, 0.000, 13:02:29.271
194, -60297.54, -70028.91, -187500.02, 187500.00, -73029.16, -187500.02, -92089.79, -73926.05, 0.278, 0.588, 0.714, 13:02:29.271
195, -60317.43, -70055.08, -187500.02, 187500.00, -72958.30, -187500.02, -92030.22, -73909.84, 0.000, 0.000, 0.000, 13:02:29.271
196, -60459.66, -70200.44, -187500.02, 187500.00, -73028.98, -187500.02, -91827.84, -73615.76, 0.000, 0.000, 0.000, 13:02:29.271
197, -60455.27, -70192.45, -187500.02, 187500.00, -73107.99, -187500.02, -91875.97, -73609.34, 0.000, 0.000, 0.000, 13:02:29.271
198, -60318.62, -70053.90, -187500.02, 187500.00, -73059.20, -187500.02, -92072.80, -73886.95, 0.000, 0.000, 0.000, 13:02:29.271
199, -60281.49, -70017.80, -187500.02, 187500.00, -72958.23, -187500.02, -92074.01, -73956.45, 0.000, 0.000, 0.000, 13:02:29.271
200, -60425.12, -70163.13, -187500.02, 187500.00, -72992.77, -187500.02, -91859.16, -73664.58, 0.000, 0.000, 0.000, 13:02:29.271
201, -60474.45, -70214.02, -187500.02, 187500.00, -73103.75, -187500.02, -91841.33, -73566.77, 0.000, 0.000, 0.000, 13:02:29.272
202, -60340.88, -70077.32, -187500.02, 187500.00, -73074.29, -187500.02, -92041.06, -73829.17, 0.000, 0.000, 0.000, 13:02:29.272
203, -60286.50, -70014.20, -187500.02, 187500.00, -72974.77, -187500.02, -92097.55, -73968.58, 0.000, 0.000, 0.000, 13:02:29.272
204, -60429.46, -70162.21, -187500.02, 187500.00, -72988.63, -187500.02, -91885.02, -73699.76, 0.274, 0.588, 0.718, 13:02:29.272
205, -60504.36, -70238.95, -187500.02, 187500.00, -73098.67, -187500.02, -91818.98, -73537.55, 0.000, 0.000, 0.000, 13:02:29.272
206, -60395.24, -70128.87, -187500.02, 187500.00, -73099.37, -187500.02, -92003.40, -73760.02, 0.000, 0.000, 0.000, 13:02:29.272
207, -60280.17, -70012.26, -187500.02, 187500.00, -72994.09, -187500.02, -92119.90, -73978.57, 0.000, 0.000, 0.000, 13:02:29.272
208, -60375.21, -70111.81, -187500.02, 187500.00, -72968.59, -187500.02, -91939.85, -73776.22, 0.000, 0.000, 0.000, 13:02:29.272
209, -60481.34, -70222.34, -187500.02, 187500.00, -73068.05, -187500.02, -91810.86, -73546.83, 0.000, 0.000, 0.000, 13:02:29.272
210, -60404.56, -70144.82, -187500.02, 187500.00, -73093.55, -187500.02, -91957.95, -73707.52, 0.000, 0.000, 0.000, 13:02:29.741
211, -60301.27, -70035.39, -187500.02, 187500.00, -73012.10, -187500.02, -92106.20, -73951.03, 0.000, 0.000, 0.000, 13:02:29.741
212, -60371.32, -70108.77, -187500.02, 187500.00, -72976.45, -187500.02, -91977.72, -73812.59, 0.000, 0.000, 0.000, 13:02:29.742
213, -60482.75, -70224.55, -187500.02, 187500.00, -73065.46, -187500.02, -91823.65, -73552.86, 0.274, 0.586, 0.724, 13:02:29.742
214, -60428.95, -70169.03, -187500.02, 187500.00, -73115.39, -187500.02, -91936.55, -73654.61, 0.000, 0.000, 0.000, 13:02:29.742
215, -60294.30, -70032.30, -187500.02, 187500.00, -73029.88, -187500.02, -92113.03, -73931.86, 0.000, 0.000, 0.000, 13:02:29.742
216, -60329.84, -70075.63, -187500.02, 187500.00, -72959.13, -187500.02, -92020.27, -73866.19, 0.000, 0.000, 0.000, 13:02:29.742
217, -60481.61, -70230.90, -187500.02, 187500.00, -73035.98, -187500.02, -91813.95, -73562.45, 0.000, 0.000, 0.000, 13:02:29.742
218, -60460.35, -70202.38, -187500.02, 187500.00, -73104.44, -187500.02, -91887.82, -73600.54, 0.000, 0.000, 0.000, 13:02:29.742
219, -60336.21, -70070.08, -187500.02, 187500.00, -73048.45, -187500.02, -92077.12, -73885.12, 0.000, 0.000, 0.000, 13:02:29.742
220, -60327.38, -70068.07, -187500.02, 187500.00, -72971.20, -187500.02, -92040.88, -73904.01, 0.000, 0.000, 0.000, 13:02:29.742
221, -60458.88, -70208.30, -187500.02, 187500.00, -73017.11, -187500.02, -91830.93, -73612.85, 0.000, 0.000, 0.000, 13:02:29.743
222, -60472.57, -70220.84, -187500.02, 187500.00, -73105.09, -187500.02, -91851.12, -73577.88, 0.000, 0.000, 0.000, 13:02:29.743
223, -60344.48, -70080.36, -187500.02, 187500.00, -73072.79, -187500.02, -92054.31, -73857.70, 0.280, 0.590, 0.718, 13:02:29.743
224, -60303.08, -70036.46, -187500.02, 187500.00, -72980.03, -187500.02, -92075.21, -73952.17, 0.000, 0.000, 0.000, 13:02:29.743
225, -60444.19, -70183.78, -187500.02, 187500.00, -73012.51, -187500.02, -91858.76, -73663.70, 0.000, 0.000, 0.000, 13:02:29.743
226, -60509.61, -70248.11, -187500.02, 187500.00, -73125.38, -187500.02, -91827.89, -73544.97, 0.000, 0.000, 0.000, 13:02:29.743
227, -60389.65, -70121.87, -187500.02, 187500.00, -73111.93, -187500.02, -92027.98, -73799.52, 0.000, 0.000, 0.000, 13:02:29.743
228, -60305.88, -70041.80, -187500.02, 187500.00, -73011.95, -187500.02, -92107.09, -73967.38, 0.000, 0.000, 0.000, 13:02:29.743
229, -60422.26, -70162.59, -187500.02, 187500.00, -72994.63, -187500.02, -91909.03, -73721.95, 0.000, 0.000, 0.000, 13:02:29.743
230, -60515.82, -70258.41, -187500.02, 187500.00, -73104.13, -187500.02, -91820.09, -73536.43, 0.000, 0.000, 0.000, 13:02:29.743
231, -60411.00, -70149.95, -187500.02, 187500.00, -73114.84, -187500.02, -91996.91, -73745.94, 0.000, 0.000, 0.000, 13:02:29.744
232, -60297.83, -70034.56, -187500.02, 187500.00, -73015.84, -187500.02, -92122.40, -73972.36, 0.000, 0.000, 0.000, 13:02:29.744
233, -60397.36, -70138.32, -187500.02, 187500.00, -72990.89, -187500.02, -91954.11, -73781.88, 0.284, 0.590, 0.710, 13:02:29.744
234, -60508.81, -70254.13, -187500.02, 187500.00, -73102.41, -187500.02, -91824.36, -73543.79, 0.000, 0.000, 0.000, 13:02:29.744
235, -60441.48, -70180.16, -187500.02, 187500.00, -73131.66, -187500.02, -91964.91, -73691.93, 0.000, 0.000, 0.000, 13:02:29.744
236, -60317.54, -70056.49, -187500.02, 187500.00, -73041.41, -187500.02, -92125.10, -73955.02, 0.000, 0.000, 0.000, 13:02:29.744
237, -60377.51, -70118.34, -187500.02, 187500.00, -72982.49, -187500.02, -91998.59, -73837.58, 0.000, 0.000, 0.000, 13:02:29.744
238, -60529.46, -70268.83, -187500.02, 187500.00, -73083.38, -187500.02, -91819.11, -73553.69, 0.000, 0.000, 0.000, 13:02:29.744
239, -60470.99, -70211.05, -187500.02, 187500.00, -73139.95, -187500.02, -91927.65, -73645.89, 0.000, 0.000, 0.000, 13:02:29.744
240, -60318.28, -70055.86, -187500.02, 187500.00, -73051.58, -187500.02, -92113.26, -73940.09, 0.000, 0.000, 0.000, 13:02:29.744
241, -60337.01, -70078.44, -187500.02, 187500.00, -72972.50, -187500.02, -92032.77, -73898.24, 0.000, 0.000, 0.000, 13:02:29.744
242, -60492.45, -70241.27, -187500.02, 187500.00, -73047.27, -187500.02, -91819.78, -73590.12, 0.282, 0.588, 0.718, 13:02:29.745
243, -60460.75, -70206.40, -187500.02, 187500.00, -73116.38, -187500.02, -91888.45, -73621.15, 0.000, 0.000, 0.000, 13:02:29.745
244, -60324.45, -70067.73, -187500.02, 187500.00, -73050.98, -187500.02, -92079.48, -73904.48, 0.000, 0.000, 0.000, 13:02:29.745
245, -60311.11, -70056.00, -187500.02, 187500.00, -72971.85, -187500.02, -92058.09, -73941.53, 0.000, 0.000, 0.000, 13:02:29.745
246, -60455.79, -70203.34, -187500.02, 187500.00, -73012.87, -187500.02, -91837.99, -73641.26, 0.000, 0.000, 0.000, 13:02:29.745
247, -60487.30, -70233.56, -187500.02, 187500.00, -73112.91, -187500.02, -91843.56, -73573.88, 0.000, 0.000, 0.000, 13:02:29.745
248, -60344.84, -70083.89, -187500.02, 187500.00, -73068.72, -187500.02, -92049.09, -73854.16, 0.000, 0.000, 0.000, 13:02:29.745
249, -60302.10, -70040.55, -187500.02, 187500.00, -72974.17, -187500.02, -92075.20, -73963.28, 0.000, 0.000, 0.000, 13:02:29.745
250, -60442.40, -70186.45, -187500.02, 187500.00, -73003.73, -187500.02, -91860.64, -73685.12, 0.000, 0.000, 0.000, 13:02:29.745
251, -60518.73, -70263.58, -187500.02, 187500.00, -73117.27, -187500.02, -91807.75, -73543.20, 0.000, 0.000, 0.000, 13:02:29.745
252, -60374.72, -70116.95, -187500.02, 187500.00, -73098.54, -187500.02, -92007.47, -73795.69, 0.282, 0.590, 0.722, 13:02:29.746
253, -60289.70, -70030.27, -187500.02, 187500.00, -72986.80, -187500.02, -92092.67, -73974.77, 0.000, 0.000, 0.000, 13:02:29.746
254, -60411.13, -70155.35, -187500.02, 187500.00, -72991.32, -187500.02, -91899.02, -73740.17, 0.000, 0.000, 0.000, 13:02:29.746
255, -60502.17, -70244.91, -187500.02, 187500.00, -73100.02, -187500.02, -91801.88, -73545.26, 0.000, 0.000, 0.000, 13:02:29.746
0, -60407.20, -70146.68, -187500.02, 187500.00, -73114.09, -187500.02, -91971.08, -73740.48, 0.000, 0.000, 0.000, 13:02:29.746
1, -60301.81, -70037.20, -187500.02, 187500.00, -73014.88, -187500.02, -92098.77, -73968.71, 0.000, 0.000, 0.000, 13:02:29.746
2, -60381.54, -70121.17, -187500.02, 187500.00, -72985.39, -187500.02, -91938.31, -73791.42, 0.000, 0.000, 0.000, 13:02:29.746
3, -60478.66, -70223.68, -187500.02, 187500.00, -73079.27, -187500.02, -91796.51, -73544.99, 0.000, 0.000, 0.000, 13:02:29.746
4, -60411.49, -70152.22, -187500.02, 187500.00, -73114.70, -187500.02, -91930.33, -73679.08, 0.000, 0.000, 0.000, 13:02:29.746
5, -60282.83, -70018.70, -187500.02, 187500.00, -73031.13, -187500.02, -92099.78, -73950.56, 0.286, 0.586, 0.726, 13:02:29.746
6, -60331.29, -70072.09, -187500.02, 187500.00, -72964.79, -187500.02, -91980.42, -73849.31, 0.000, 0.000, 0.000, 13:02:29.747
7, -60469.34, -70213.58, -187500.02, 187500.00, -73048.38, -187500.02, -91796.29, -73566.77, 0.000, 0.000, 0.000, 13:02:29.747
8, -60438.09, -70177.13, -187500.02, 187500.00, -73116.24, -187500.02, -91886.16, -73633.28, 0.000, 0.000, 0.000, 13:02:29.747
9, -60299.62, -70032.04, -187500.02, 187500.00, -73046.55, -187500.02, -92082.19, -73926.09, 0.000, 0.000, 0.000, 13:02:29.747
10, -60313.03, -70050.19, -187500.02, 187500.00, -72968.59, -187500.02, -92023.00, -73905.62, 0.000, 0.000, 0.000, 13:02:29.747
11, -60465.00, -70207.25, -187500.02, 187500.00, -73032.40, -187500.02, -91809.36, -73596.36, 0.000, 0.000, 0.000, 13:02:29.747
12, -60447.86, -70188.43, -187500.02, 187500.00, -73103.26, -187500.02, -91862.13, -73603.73, 0.000, 0.000, 0.000, 13:02:29.747
13, -60311.20, -70050.95, -187500.02, 187500.00, -73049.99, -187500.02, -92058.83, -73885.84, 0.000, 0.000, 0.000, 13:02:29.747
14, -60289.94, -70027.03, -187500.02, 187500.00, -72969.32, -187500.02, -92053.17, -73941.71, 0.000, 0.000, 0.000, 13:02:29.747
15, -60435.23, -70177.75, -187500.02, 187500.00, -73017.00, -187500.02, -91835.07, -73644.70, 0.282, 0.590, 0.720, 13:02:29.747
16, -60456.95, -70198.04, -187500.02, 187500.00, -73110.45, -187500.02, -91837.48, -73579.08, 0.000, 0.000, 0.000, 13:02:29.747
17, -60329.52, -70063.13, -187500.02, 187500.00, -73075.25, -187500.02, -92034.65, -73850.23, 0.000, 0.000, 0.000, 13:02:29.747
18, -60269.11, -70004.86, -187500.02, 187500.00, -72982.89, -187500.02, -92081.59, -73978.80, 0.000, 0.000, 0.000, 13:02:29.748
19, -60389.49, -70130.59, -187500.02, 187500.00, -72984.86, -187500.02, -91872.39, -73716.85, 0.000, 0.000, 0.000, 13:02:29.748
20, -60462.47, -70199.88, -187500.02, 187500.00, -73088.97, -187500.02, -91808.71, -73568.69, 0.000, 0.000, 0.000, 13:02:29.748
21, -60355.07, -70088.74, -187500.02, 187500.00, -73087.09, -187500.02, -91990.75, -73795.49, 0.000, 0.000, 0.000, 13:02:29.748
22, -60263.27, -69994.69, -187500.02, 187500.00, -72988.99, -187500.02, -92089.56, -73987.71, 0.000, 0.000, 0.000, 13:02:29.748
23, -60349.57, -70092.30, -187500.02, 187500.00, -72969.26, -187500.02, -91909.70, -73778.81, 0.000, 0.000, 0.000, 13:02:29.748
24, -60442.60, -70187.13, -187500.02, 187500.00, -73063.31, -187500.02, -91799.23, -73572.84, 0.284, 0.592, 0.716, 13:02:29.748
25, -60352.05, -70082.87, -187500.02, 187500.00, -73072.84, -187500.02, -91957.20, -73756.75, 0.000, 0.000, 0.000, 13:02:29.748
26, -60230.35, -69958.99, -187500.02, 187500.00, -72973.05, -187500.02, -92092.47, -74001.17, 0.000, 0.000, 0.000, 13:02:29.748
27, -60309.72, -70047.21, -187500.02, 187500.00, -72934.01, -187500.02, -91936.45, -73842.05, 0.000, 0.000, 0.000, 13:02:29.748
28, -60436.25, -70180.05, -187500.02, 187500.00, -73032.94, -187500.02, -91774.36, -73579.93, 0.000, 0.000, 0.000, 13:02:29.749
29, -60373.89, -70114.91, -187500.02, 187500.00, -73078.52, -187500.02, -91898.77, -73706.55, 0.000, 0.000, 0.000, 13:02:29.749
30, -60239.38, -69978.50, -187500.02, 187500.00, -72988.03, -187500.02, -92067.32, -73985.21, 0.000, 0.000, 0.000, 13:02:29.749
31, -60269.71, -70012.95, -187500.02, 187500.00, -72924.38, -187500.02, -91964.23, -73904.50, 0.000, 0.000, 0.000, 13:02:29.749
32, -60419.80, -70166.95, -187500.02, 187500.00, -73007.97, -187500.02, -91766.38, -73600.42, 0.000, 0.000, 0.000, 13:02:29.749
33, -60399.75, -70142.37, -187500.02, 187500.00, -73086.91, -187500.02, -91850.65, -73649.87, 0.000, 0.000, 0.000, 13:02:29.749
34, -60253.95, -69992.72, -187500.02, 187500.00, -73010.18, -187500.02, -92052.17, -73947.08, 0.280, 0.600, 0.718, 13:02:29.749
35, -60256.88, -69995.76, -187500.02, 187500.00, -72923.26, -187500.02, -92001.05, -73944.87, 0.000, 0.000, 0.000, 13:02:29.749
36, -60405.21, -70147.23, -187500.02, 187500.00, -72992.79, -187500.02, -91789.34, -73641.53, 0.000, 0.000, 0.000, 13:02:29.749
37, -60408.74, -70147.51, -187500.02, 187500.00, -73081.17, -187500.02, -91824.34, -73623.49, 0.000, 0.000, 0.000, 13:02:29.749
38, -60274.96, -70004.99, -187500.02, 187500.00, -73023.77, -187500.02, -92019.80, -73907.54, 0.000, 0.000, 0.000, 13:02:29.750
39, -60234.24, -69968.16, -187500.02, 187500.00, -72928.64, -187500.02, -92026.98, -73981.23, 0.000, 0.000, 0.000, 13:02:29.750
40, -60377.45, -70119.56, -187500.02, 187500.00, -72968.16, -187500.02, -91808.13, -73682.81, 0.000, 0.000, 0.000, 13:02:29.750
41, -60414.86, -70156.58, -187500.02, 187500.00, -73068.05, -187500.02, -91792.27, -73589.45, 0.000, 0.000, 0.000, 13:02:29.750
42, -60292.73, -70029.06, -187500.02, 187500.00, -73045.21, -187500.02, -91983.82, -73845.63, 0.000, 0.000, 0.000, 13:02:29.750
43, -60227.89, -69965.45, -187500.02, 187500.00, -72954.55, -187500.02, -92043.77, -73988.77, 0.000, 0.000, 0.000, 13:02:29.750
44, -60346.38, -70090.17, -187500.02, 187500.00, -72960.54, -187500.02, -91841.28, -73729.33, 0.282, 0.606, 0.720, 13:02:29.750
45, -60413.81, -70158.03, -187500.02, 187500.00, -73048.83, -187500.02, -91767.97, -73567.41, 0.000, 0.000, 0.000, 13:02:29.750
46, -60307.57, -70050.48, -187500.02, 187500.00, -73045.23, -187500.02, -91937.35, -73778.84, 0.000, 0.000, 0.000, 13:02:29.750
47, -60219.98, -69959.28, -187500.02, 187500.00, -72959.69, -187500.02, -92046.65, -73978.95, 0.000, 0.000, 0.000, 13:02:29.750
48, -60309.95, -70049.52, -187500.02, 187500.00, -72930.55, -187500.02, -91874.30, -73778.39, 0.000, 0.000, 0.000, 13:02:29.750
49, -60442.09, -70182.38, -187500.02, 187500.00, -73044.65, -187500.02, -91744.32, -73540.84, 0.000, 0.000, 0.000, 13:02:29.750
50, -60369.98, -70103.45, -187500.02, 187500.00, -73086.83, -187500.02, -91902.93, -73708.05, 0.000, 0.000, 0.000, 13:02:29.751
51, -60240.56, -69972.20, -187500.02, 187500.00, -72994.78, -187500.02, -92058.77, -73966.32, 0.000, 0.000, 0.000, 13:02:29.751
52, -60300.07, -70037.71, -187500.02, 187500.00, -72945.09, -187500.02, -91924.56, -73832.70, 0.000, 0.000, 0.000, 13:02:29.751
53, -60424.45, -70163.60, -187500.02, 187500.00, -73038.23, -187500.02, -91760.88, -73568.66, 0.280, 0.606, 0.714, 13:02:29.751
54, -60378.14, -70110.18, -187500.02, 187500.00, -73088.48, -187500.02, -91872.15, -73671.17, 0.000, 0.000, 0.000, 13:02:29.751
55, -60250.38, -69976.70, -187500.02, 187500.00, -73013.52, -187500.02, -92050.00, -73946.52, 0.000, 0.000, 0.000, 13:02:29.751
56, -60284.04, -70015.97, -187500.02, 187500.00, -72949.03, -187500.02, -91965.42, -73886.46, 0.000, 0.000, 0.000, 13:02:29.751
57, -60416.92, -70157.12, -187500.02, 187500.00, -73018.27, -187500.02, -91773.40, -73593.54, 0.000, 0.000, 0.000, 13:02:29.751
58, -60397.07, -70136.51, -187500.02, 187500.00, -73088.84, -187500.02, -91843.85, -73624.16, 0.000, 0.000, 0.000, 13:02:29.751
59, -60267.14, -70004.03, -187500.02, 187500.00, -73031.20, -187500.02, -92044.05, -73912.23, 0.000, 0.000, 0.000, 13:02:29.751
60, -60258.04, -70000.86, -187500.02, 187500.00, -72946.75, -187500.02, -92020.20, -73937.13, 0.000, 0.000, 0.000, 13:02:29.751
61, -60412.25, -70162.52, -187500.02, 187500.00, -73002.52, -187500.02, -91799.75, -73623.09, 0.000, 0.000, 0.000, 13:02:29.752
62, -60425.46, -70171.78, -187500.02, 187500.00, -73097.49, -187500.02, -91827.53, -73582.95, 0.000, 0.000, 0.000, 13:02:29.752
63, -60285.07, -70029.29, -187500.02, 187500.00, -73046.23, -187500.02, -92032.79, -73864.45, 0.276, 0.598, 0.716, 13:02:29.752
64, -60250.85, -70001.88, -187500.02, 187500.00, -72960.36, -187500.02, -92051.72, -73953.07, 0.000, 0.000, 0.000, 13:02:29.752
65, -60388.29, -70141.83, -187500.02, 187500.00, -72984.92, -187500.02, -91842.13, -73673.00, 0.000, 0.000, 0.000, 13:02:29.752
66, -60435.11, -70188.07, -187500.02, 187500.00, -73077.39, -187500.02, -91815.40, -73562.02, 0.000, 0.000, 0.000, 13:02:29.752
67, -60309.48, -70059.38, -187500.02, 187500.00, -73056.72, -187500.02, -92009.81, -73812.70, 0.000, 0.000, 0.000, 13:02:29.752
68, -60234.91, -69978.33, -187500.02, 187500.00, -72963.60, -187500.02, -92084.71, -73974.84, 0.000, 0.000, 0.000, 13:02:29.752
69, -60352.59, -70101.38, -187500.02, 187500.00, -72961.61, -187500.02, -91886.50, -73725.86, 0.000, 0.000, 0.000, 13:02:29.752
70, -60456.57, -70203.16, -187500.02, 187500.00, -73075.70, -187500.02, -91795.17, -73535.23, 0.000, 0.000, 0.000, 13:02:29.752
71, -60364.13, -70104.55, -187500.02, 187500.00, -73089.33, -187500.02, -91970.43, -73741.04, 0.000, 0.000, 0.000, 13:02:29.752
72, -60267.39, -70004.03, -187500.02, 187500.00, -72998.05, -187500.02, -92095.64, -73962.88, 0.274, 0.598, 0.708, 13:02:29.753
73, -60351.81, -70088.50, -187500.02, 187500.00, -72966.84, -187500.02, -91941.15, -73786.17, 0.000, 0.000, 0.000, 13:02:29.753
74, -60465.11, -70206.40, -187500.02, 187500.00, -73066.93, -187500.02, -91805.65, -73543.31, 0.000, 0.000, 0.000, 13:02:29.753
75, -60391.66, -70131.44, -187500.02, 187500.00, -73102.85, -187500.02, -91948.99, -73690.66, 0.000, 0.000, 0.000, 13:02:30.221
76, -60278.47, -70006.16, -187500.02, 187500.00, -73015.55, -187500.02, -92108.32, -73948.82, 0.000, 0.000, 0.000, 13:02:30.221
77, -60329.12, -70062.99, -187500.02, 187500.00, -72968.98, -187500.02, -91996.67, -73843.48, 0.000, 0.000, 0.000, 13:02:30.221
78, -60459.61, -70199.43, -187500.02, 187500.00, -73061.01, -187500.02, -91827.87, -73566.12, 0.000, 0.000, 0.000, 13:02:30.221
79, -60414.89, -70151.82, -187500.02, 187500.00, -73111.95, -187500.02, -91935.16, -73651.99, 0.000, 0.000, 0.000, 13:02:30.221
80, -60290.10, -70025.35, -187500.02, 187500.00, -73035.87, -187500.02, -92113.21, -73930.45, 0.000, 0.000, 0.000, 13:02:30.222
81, -60308.65, -70046.63, -187500.02, 187500.00, -72967.40, -187500.02, -92045.87, -73897.46, 0.000, 0.000, 0.000, 13:02:30.222
82, -60452.59, -70194.98, -187500.02, 187500.00, -73040.38, -187500.02, -91845.05, -73597.38, 0.278, 0.604, 0.710, 13:02:30.222
83, -60438.06, -70177.26, -187500.02, 187500.00, -73110.99, -187500.02, -91903.13, -73610.70, 0.000, 0.000, 0.000, 13:02:30.222
84, -60307.48, -70041.70, -187500.02, 187500.00, -73058.93, -187500.02, -92099.48, -73894.84, 0.000, 0.000, 0.000, 13:02:30.222
85, -60294.01, -70029.20, -187500.02, 187500.00, -72975.88, -187500.02, -92086.30, -73937.13, 0.000, 0.000, 0.000, 13:02:30.222
86, -60443.77, -70185.23, -187500.02, 187500.00, -73023.77, -187500.02, -91870.43, -73639.20, 0.000, 0.000, 0.000, 13:02:30.222
87, -60472.66, -70213.22, -187500.02, 187500.00, -73119.75, -187500.02, -91878.79, -73579.73, 0.000, 0.000, 0.000, 13:02:30.222
88, -60345.17, -70079.65, -187500.02, 187500.00, -73087.54, -187500.02, -92084.00, -73853.16, 0.000, 0.000, 0.000, 13:02:30.222
89, -60286.83, -70026.27, -187500.02, 187500.00, -72996.86, -187500.02, -92119.07, -73966.86, 0.000, 0.000, 0.000, 13:02:30.222
90, -60416.96, -70157.95, -187500.02, 187500.00, -73013.76, -187500.02, -91907.91, -73693.50, 0.000, 0.000, 0.000, 13:02:30.222
91, -60471.23, -70213.66, -187500.02, 187500.00, -73109.42, -187500.02, -91861.02, -73564.70, 0.000, 0.000, 0.000, 13:02:30.223
92, -60358.45, -70100.79, -187500.02, 187500.00, -73100.55, -187500.02, -92048.08, -73800.98, 0.280, 0.608, 0.708, 13:02:30.223
93, -60285.09, -70025.04, -187500.02, 187500.00, -73010.52, -187500.02, -92134.55, -73976.00, 0.000, 0.000, 0.000, 13:02:30.223
94, -60392.11, -70137.85, -187500.02, 187500.00, -73004.75, -187500.02, -91954.02, -73753.06, 0.000, 0.000, 0.000, 13:02:30.223
95, -60487.11, -70233.65, -187500.02, 187500.00, -73101.80, -187500.02, -91852.13, -73550.88, 0.000, 0.000, 0.000, 13:02:30.223
96, -60413.39, -70157.18, -187500.02, 187500.00, -73129.63, -187500.02, -92004.07, -73729.55, 0.000, 0.000, 0.000, 13:02:30.223
97, -60281.98, -70026.18, -187500.02, 187500.00, -73034.79, -187500.02, -92145.66, -73970.39, 0.000, 0.000, 0.000, 13:02:30.223
98, -60371.84, -70112.70, -187500.02, 187500.00, -72996.03, -187500.02, -91992.00, -73804.27, 0.000, 0.000, 0.000, 13:02:30.223
99, -60494.37, -70236.51, -187500.02, 187500.00, -73097.89, -187500.02, -91849.80, -73557.84, 0.000, 0.000, 0.000, 13:02:30.223
100, -60428.27, -70164.34, -187500.02, 187500.00, -73132.02, -187500.02, -91981.72, -73691.84, 0.000, 0.000, 0.000, 13:02:30.223
101, -60320.00, -70056.42, -187500.02, 187500.00, -73060.63, -187500.02, -92138.88, -73945.91, 0.280, 0.602, 0.712, 13:02:30.223
102, -60356.79, -70102.91, -187500.02, 187500.00, -72999.14, -187500.02, -92031.02, -73853.23, 0.000, 0.000, 0.000, 13:02:30.223
103, -60492.02, -70238.01, -187500.02, 187500.00, -73076.45, -187500.02, -91844.48, -73563.99, 0.000, 0.000, 0.000, 13:02:30.224
104, -60450.65, -70199.72, -187500.02, 187500.00, -73136.45, -187500.02, -91937.55, -73632.27, 0.000, 0.000, 0.000, 13:02:30.224
105, -60305.86, -70050.95, -187500.02, 187500.00, -73061.73, -187500.02, -92128.50, -73921.84, 0.000, 0.000, 0.000, 13:02:30.224
106, -60322.71, -70067.22, -187500.02, 187500.00, -72990.11, -187500.02, -92068.98, -73905.41, 0.000, 0.000, 0.000, 13:02:30.224
107, -60486.75, -70231.93, -187500.02, 187500.00, -73066.24, -187500.02, -91857.04, -73597.34, 0.000, 0.000, 0.000, 13:02:30.224
108, -60485.79, -70231.95, -187500.02, 187500.00, -73154.22, -187500.02, -91905.03, -73595.46, 0.000, 0.000, 0.000, 13:02:30.224
109, -60346.15, -70088.41, -187500.02, 187500.00, -73101.96, -187500.02, -92107.87, -73882.10, 0.000, 0.000, 0.000, 13:02:30.224
110, -60316.05, -70054.39, -187500.02, 187500.00, -73008.73, -187500.02, -92111.00, -73947.86, 0.000, 0.000, 0.000, 13:02:30.224
111, -60472.40, -70217.38, -187500.02, 187500.00, -73052.36, -187500.02, -91892.87, -73647.54, 0.280, 0.600, 0.712, 13:02:30.224
112, -60499.53, -70248.67, -187500.02, 187500.00, -73148.63, -187500.02, -91890.25, -73572.20, 0.000, 0.000, 0.000, 13:02:30.224
113, -60384.29, -70129.96, -187500.02, 187500.00, -73121.92, -187500.02, -92078.16, -73828.57, 0.000, 0.000, 0.000, 13:02:30.225
114, -60319.04, -70062.75, -187500.02, 187500.00, -73027.26, -187500.02, -92134.58, -73969.77, 0.000, 0.000, 0.000, 13:02:30.225
115, -60440.55, -70188.07, -187500.02, 187500.00, -73043.77, -187500.02, -91931.58, -73710.53, 0.000, 0.000, 0.000, 13:02:30.225
116, -60509.77, -70258.75, -187500.02, 187500.00, -73141.59, -187500.02, -91868.44, -73556.33, 0.000, 0.000, 0.000, 13:02:30.225
117, -60397.59, -70141.16, -187500.02, 187500.00, -73137.19, -187500.02, -92053.73, -73785.27, 0.000, 0.000, 0.000, 13:02:30.225
118, -60296.78, -70043.01, -187500.02, 187500.00, -73032.29, -187500.02, -92153.96, -73981.37, 0.000, 0.000, 0.000, 13:02:30.225
119, -60402.86, -70157.77, -187500.02, 187500.00, -73011.61, -187500.02, -91965.27, -73760.55, 0.000, 0.000, 0.000, 13:02:30.226
120, -60495.42, -70252.89, -187500.02, 187500.00, -73113.38, -187500.02, -91855.77, -73552.70, 0.276, 0.594, 0.716, 13:02:30.226
121, -60419.96, -70174.93, -187500.02, 187500.00, -73136.72, -187500.02, -92007.76, -73725.91, 0.000, 0.000, 0.000, 13:02:30.227
122, -60309.05, -70061.54, -187500.02, 187500.00, -73051.94, -187500.02, -92147.09, -73966.97, 0.000, 0.000, 0.000, 13:02:30.227
123, -60369.07, -70121.94, -187500.02, 187500.00, -73009.42, -187500.02, -92008.25, -73826.98, 0.000, 0.000, 0.000, 13:02:30.227
124, -60490.75, -70245.83, -187500.02, 187500.00, -73094.60, -187500.02, -91848.63, -73568.55, 0.000, 0.000, 0.000, 13:02:30.227
125, -60430.53, -70184.85, -187500.02, 187500.00, -73136.72, -187500.02, -91965.89, -73681.72, 0.000, 0.000, 0.000, 13:02:30.227
126, -60307.35, -70060.69, -187500.02, 187500.00, -73052.47, -187500.02, -92133.40, -73950.09, 0.000, 0.000, 0.000, 13:02:30.227
127, -60345.15, -70097.13, -187500.02, 187500.00, -72995.09, -187500.02, -92043.63, -73881.32, 0.000, 0.000, 0.000, 13:02:30.227
128, -60478.27, -70234.70, -187500.02, 187500.00, -73070.35, -187500.02, -91852.45, -73593.79, 0.000, 0.000, 0.000, 13:02:30.227
129, -60449.44, -70207.74, -187500.02, 187500.00, -73133.03, -187500.02, -91927.96, -73635.79, 0.000, 0.000, 0.000, 13:02:30.228
130, -60316.71, -70072.38, -187500.02, 187500.00, -73063.94, -187500.02, -92113.05, -73916.05, 0.278, 0.592, 0.726, 13:02:30.228
131, -60306.73, -70062.23, -187500.02, 187500.00, -72983.38, -187500.02, -92073.34, -73924.97, 0.000, 0.000, 0.000, 13:02:30.228
132, -60463.14, -70216.86, -187500.02, 187500.00, -73046.88, -187500.02, -91864.70, -73624.27, 0.000, 0.000, 0.000, 13:02:30.228
133, -60466.88, -70218.77, -187500.02, 187500.00, -73123.93, -187500.02, -91895.44, -73600.02, 0.000, 0.000, 0.000, 13:02:30.228
134, -60324.61, -70080.25, -187500.02, 187500.00, -73076.99, -187500.02, -92091.84, -73875.82, 0.000, 0.000, 0.000, 13:02:30.228
135, -60282.16, -70034.09, -187500.02, 187500.00, -72983.74, -187500.02, -92104.59, -73959.80, 0.000, 0.000, 0.000, 13:02:30.228
136, -60429.93, -70182.91, -187500.02, 187500.00, -73016.13, -187500.02, -91886.34, -73665.91, 0.000, 0.000, 0.000, 13:02:30.228
137, -60480.11, -70234.90, -187500.02, 187500.00, -73116.02, -187500.02, -91863.37, -73561.47, 0.000, 0.000, 0.000, 13:02:30.228
138, -60337.77, -70091.38, -187500.02, 187500.00, -73090.23, -187500.02, -92064.02, -73826.16, 0.000, 0.000, 0.000, 13:02:30.228
139, -60266.09, -70018.76, -187500.02, 187500.00, -72991.12, -187500.02, -92126.34, -73977.59, 0.278, 0.594, 0.724, 13:02:30.228
140, -60396.96, -70152.38, -187500.02, 187500.00, -73001.48, -187500.02, -91920.96, -73720.79, 0.000, 0.000, 0.000, 13:02:30.229
141, -60494.75, -70250.68, -187500.02, 187500.00, -73122.01, -187500.02, -91842.80, -73544.52, 0.000, 0.000, 0.000, 13:02:30.229
142, -60364.93, -70114.88, -187500.02, 187500.00, -73118.97, -187500.02, -92029.98, -73776.11, 0.000, 0.000, 0.000, 13:02:30.229
143, -60265.13, -70008.70, -187500.02, 187500.00, -73007.86, -187500.02, -92133.66, -73985.63, 0.000, 0.000, 0.000, 13:02:30.229
144, -60371.93, -70121.82, -187500.02, 187500.00, -72988.37, -187500.02, -91957.47, -73782.77, 0.000, 0.000, 0.000, 13:02:30.229
145, -60467.77, -70227.01, -187500.02, 187500.00, -73089.24, -187500.02, -91832.95, -73554.56, 0.000, 0.000, 0.000, 13:02:30.229
146, -60389.41, -70143.13, -187500.02, 187500.00, -73116.20, -187500.02, -91977.78, -73713.13, 0.000, 0.000, 0.000, 13:02:30.229
147, -60263.00, -70012.79, -187500.02, 187500.00, -73023.59, -187500.02, -92130.45, -73969.20, 0.000, 0.000, 0.000, 13:02:30.229
148, -60343.94, -70092.52, -187500.02, 187500.00, -72979.13, -187500.02, -91991.10, -73830.54, 0.000, 0.000, 0.000, 13:02:30.229
149, -60476.13, -70229.13, -187500.02, 187500.00, -73075.65, -187500.02, -91821.59, -73558.43, 0.284, 0.594, 0.720, 13:02:30.229
150, -60425.93, -70174.77, -187500.02, 187500.00, -73120.31, -187500.02, -91926.42, -73651.63, 0.000, 0.000, 0.000, 13:02:30.229
151, -60288.55, -70035.66, -187500.02, 187500.00, -73041.43, -187500.02, -92102.84, -73927.32, 0.000, 0.000, 0.000, 13:02:30.230
152, -60308.78, -70063.75, -187500.02, 187500.00, -72967.63, -187500.02, -92018.33, -73874.01, 0.000, 0.000, 0.000, 13:02:30.230
153, -60448.41, -70205.82, -187500.02, 187500.00, -73047.55, -187500.02, -91825.91, -73582.32, 0.000, 0.000, 0.000, 13:02:30.230
154, -60428.92, -70181.48, -187500.02, 187500.00, -73120.06, -187500.02, -91893.80, -73609.95, 0.000, 0.000, 0.000, 13:02:30.230
155, -60284.64, -70034.85, -187500.02, 187500.00, -73054.30, -187500.02, -92082.23, -73892.96, 0.000, 0.000, 0.000, 13:02:30.230
156, -60291.06, -70042.09, -187500.02, 187500.00, -72970.15, -187500.02, -92044.08, -73906.51, 0.000, 0.000, 0.000, 13:02:30.230
157, -60451.50, -70209.30, -187500.02, 187500.00, -73043.91, -187500.02, -91836.23, -73601.25, 0.000, 0.000, 0.000, 13:02:30.230
158, -60448.28, -70206.80, -187500.02, 187500.00, -73129.01, -187500.02, -91870.78, -73571.41, 0.000, 0.000, 0.000, 13:02:30.230
159, -60321.48, -70070.88, -187500.02, 187500.00, -73081.46, -187500.02, -92068.27, -73847.13, 0.282, 0.598, 0.716, 13:02:30.230
160, -60278.88, -70032.02, -187500.02, 187500.00, -72991.79, -187500.02, -92092.91, -73946.16, 0.000, 0.000, 0.000, 13:02:30.230
161, -60415.73, -70174.02, -187500.02, 187500.00, -73021.98, -187500.02, -91880.71, -73663.19, 0.000, 0.000, 0.000, 13:02:30.230
162, -60459.28, -70212.23, -187500.02, 187500.00, -73122.30, -187500.02, -91847.61, -73549.24, 0.000, 0.000, 0.000, 13:02:30.230
163, -60330.20, -70078.80, -187500.02, 187500.00, -73091.45, -187500.02, -92042.40, -73805.10, 0.000, 0.000, 0.000, 13:02:30.231
