%OpenBCI Raw EEG Data
%
%Sample Rate = 250.0 Hz
%First Column = SampleIndex
%Last Column = Timestamp 
%Other Columns = EEG data in microvolts followed by Accel Data (in G) interleaved with Aux Data
0, -36544.34, -37288.36, -63095.55, -67354.38, -55255.12, -48235.33, -63546.61, -62592.53, 0.050, 0.186, 0.436, 11:46:12.464
1, -36483.66, -37233.31, -63247.77, -67408.81, -55346.80, -48258.38, -63530.59, -62665.71, 0.000, 0.000, 0.000, 11:46:12.465
2, -36364.43, -37120.03, -63291.60, -67768.43, -55344.68, -48188.50, -63421.42, -62661.14, 0.000, 0.000, 0.000, 11:46:12.465
3, -36431.02, -37179.04, -63137.66, -67756.67, -55250.31, -48162.06, -63433.85, -62591.75, 0.000, 0.000, 0.000, 11:46:12.466
4, -36563.34, -37304.43, -63104.34, -67360.66, -55262.90, -48252.16, -63558.61, -62609.67, 0.000, 0.000, 0.000, 11:46:12.466
5, -36496.96, -37251.46, -63247.95, -67346.67, -55348.84, -48278.20, -63535.30, -62672.70, 0.000, 0.000, 0.000, 11:46:12.466
6, -36360.16, -37123.68, -63313.44, -67709.63, -55372.24, -48206.43, -63416.50, -62670.73, 0.076, 0.312, 0.674, 11:46:12.467
7, -36387.88, -37143.37, -63176.42, -67810.59, -55282.50, -48152.85, -63393.25, -62597.04, 0.000, 0.000, 0.000, 11:46:12.467
8, -36537.12, -37284.81, -63091.24, -67424.99, -55248.08, -48229.41, -63516.97, -62592.04, 0.000, 0.000, 0.000, 11:46:12.467
9, -36528.88, -37274.68, -63227.11, -67312.97, -55326.76, -48284.57, -63541.27, -62662.49, 0.000, 0.000, 0.000, 11:46:12.467
10, -36390.02, -37142.59, -63326.22, -67645.72, -55357.38, -48223.57, -63435.84, -62678.36, 0.000, 0.000, 0.000, 11:46:12.469
11, -36362.04, -37112.81, -63214.62, -67851.78, -55286.46, -48148.98, -63379.89, -62601.09, 0.000, 0.000, 0.000, 11:46:12.469
12, -36520.76, -37266.93, -63081.23, -67507.70, -55238.45, -48205.07, -63493.88, -62544.98, 0.000, 0.000, 0.000, 11:46:12.469
13, -36540.25, -37291.40, -63195.06, -67310.29, -55313.39, -48269.02, -63548.42, -62634.30, 0.000, 0.000, 0.000, 11:46:12.470
14, -36417.29, -37177.30, -63314.04, -67580.34, -55359.14, -48236.96, -63465.30, -62677.66, 0.000, 0.000, 0.000, 11:46:12.470
15, -36373.75, -37131.34, -63259.21, -67851.89, -55315.69, -48170.29, -63403.45, -62632.49, 0.000, 0.000, 0.000, 11:46:12.470
16, -36498.25, -37252.91, -63113.03, -67582.93, -55275.55, -48195.54, -63487.98, -62581.30, 0.086, 0.378, 0.802, 11:46:12.471
17, -36542.82, -37296.59, -63183.48, -67316.01, -55353.96, -48266.07, -63550.41, -62630.34, 0.000, 0.000, 0.000, 11:46:12.471
18, -36432.79, -37190.15, -63314.60, -67514.13, -55426.96, -48241.86, -63476.45, -62674.91, 0.000, 0.000, 0.000, 11:46:12.471
19, -36343.29, -37099.47, -63287.44, -67854.06, -55397.57, -48146.13, -63381.59, -62626.50, 0.000, 0.000, 0.000, 11:46:12.471
20, -36475.63, -37214.69, -63115.94, -67664.70, -55321.93, -48160.79, -63455.24, -62565.77, 0.000, 0.000, 0.000, 11:46:12.472
21, -36547.22, -37286.93, -63150.18, -67337.80, -55382.95, -48239.80, -63541.78, -62601.94, 0.000, 0.000, 0.000, 11:46:12.472
22, -36457.86, -37210.80, -63288.76, -67465.59, -55475.08, -48244.99, -63500.77, -62656.88, 0.000, 0.000, 0.000, 11:46:12.472
23, -36358.78, -37119.92, -63306.87, -67817.83, -55470.12, -48179.50, -63409.26, -62643.31, 0.000, 0.000, 0.000, 11:46:12.472
24, -36448.70, -37199.11, -63150.47, -67731.35, -55384.45, -48170.42, -63448.57, -62581.29, 0.000, 0.000, 0.000, 11:46:12.473
25, -36560.93, -37310.69, -63144.39, -67354.21, -55410.62, -48259.20, -63562.55, -62608.89, 0.100, 0.386, 0.842, 11:46:12.473
26, -36488.19, -37248.84, -63294.48, -67387.47, -55501.77, -48282.49, -63542.59, -62677.57, 0.000, 0.000, 0.000, 11:46:12.473
27, -36345.52, -37113.59, -63333.82, -67767.20, -55499.09, -48189.91, -63412.57, -62661.48, 0.000, 0.000, 0.000, 11:46:12.473
28, -36402.25, -37165.74, -63175.10, -67792.08, -55417.84, -48161.41, -63421.15, -62594.32, 0.000, 0.000, 0.000, 11:46:12.474
29, -36527.22, -37290.53, -63117.05, -67402.58, -55418.29, -48243.58, -63540.87, -62599.16, 0.000, 0.000, 0.000, 11:46:12.475
30, -36496.11, -37262.35, -63256.91, -67351.13, -55497.77, -48277.38, -63546.25, -62662.09, 0.000, 0.000, 0.000, 11:46:12.475
31, -36353.59, -37122.67, -63334.31, -67714.43, -55514.67, -48202.45, -63428.06, -62669.73, 0.000, 0.000, 0.000, 11:46:12.475
32, -36360.54, -37122.31, -63208.54, -67861.91, -55434.92, -48137.59, -63393.30, -62599.12, 0.000, 0.000, 0.000, 11:46:12.475
33, -36511.80, -37274.41, -63101.01, -67478.44, -55413.75, -48215.46, -63526.85, -62589.80, 0.000, 0.000, 0.000, 11:46:12.476
34, -36514.90, -37272.29, -63231.85, -67331.56, -55514.11, -48268.46, -63558.59, -62653.97, 0.000, 0.000, 0.000, 11:46:12.476
35, -36389.98, -37144.95, -63338.18, -67648.29, -55552.49, -48216.82, -63445.20, -62674.16, 0.112, 0.396, 0.876, 11:46:12.476
36, -36363.02, -37118.51, -63242.71, -67872.68, -55483.69, -48144.14, -63385.05, -62599.79, 0.000, 0.000, 0.000, 11:46:12.476
37, -36507.98, -37264.52, -63105.50, -67541.96, -55434.49, -48193.38, -63498.55, -62565.70, 0.000, 0.000, 0.000, 11:46:12.477
38, -36536.68, -37297.39, -63212.54, -67316.99, -55524.04, -48269.24, -63556.65, -62637.48, 0.000, 0.000, 0.000, 11:46:12.477
39, -36408.89, -37169.68, -63334.80, -67579.18, -55579.76, -48225.43, -63458.88, -62667.11, 0.000, 0.000, 0.000, 11:46:12.477
40, -36340.80, -37101.66, -63275.82, -67882.40, -55525.55, -48139.87, -63378.95, -62612.24, 0.000, 0.000, 0.000, 11:46:12.477
41, -36475.74, -37231.01, -63106.10, -67630.03, -55451.03, -48163.96, -63464.11, -62560.68, 0.000, 0.000, 0.000, 11:46:12.477
42, -36548.90, -37302.49, -63182.03, -67336.88, -55524.93, -48249.17, -63548.82, -62615.86, 0.000, 0.000, 0.000, 11:46:12.478
43, -36438.62, -37201.15, -63324.55, -67517.38, -55601.26, -48240.00, -63489.43, -62670.31, 0.000, 0.000, 0.000, 11:46:12.478
44, -36340.23, -37109.15, -63308.12, -67860.61, -55567.75, -48167.45, -63398.62, -62648.68, 0.000, 0.000, 0.000, 11:46:12.478
45, -36441.23, -37197.44, -63145.29, -67717.09, -55490.21, -48160.90, -63443.32, -62583.36, 0.114, 0.408, 0.892, 11:46:12.478
46, -36533.52, -37284.88, -63158.00, -67379.60, -55528.57, -48232.63, -63533.25, -62610.21, 0.000, 0.000, 0.000, 11:46:12.478
47, -36468.32, -37225.09, -63301.34, -67471.45, -55602.62, -48250.57, -63507.92, -62675.41, 0.000, 0.000, 0.000, 11:46:12.479
48, -36352.90, -37117.68, -63333.00, -67838.33, -55593.77, -48169.39, -63401.84, -62647.36, 0.000, 0.000, 0.000, 11:46:12.479
49, -36422.37, -37178.21, -63173.89, -67799.48, -55506.00, -48143.46, -63419.81, -62572.25, 0.000, 0.000, 0.000, 11:46:12.479
50, -36545.75, -37301.51, -63148.13, -67412.52, -55521.89, -48234.37, -63540.71, -62595.88, 0.000, 0.000, 0.000, 11:46:12.479
51, -36476.26, -37247.08, -63289.39, -67422.58, -55602.15, -48258.02, -63519.01, -62659.65, 0.000, 0.000, 0.000, 11:46:12.479
52, -36346.46, -37118.87, -63338.38, -67797.29, -55601.84, -48179.54, -63404.10, -62651.04, 0.000, 0.000, 0.000, 11:46:12.479
53, -36405.94, -37165.96, -63198.62, -67851.91, -55520.73, -48144.79, -63412.14, -62588.26, 0.000, 0.000, 0.000, 11:46:12.480
54, -36534.75, -37291.14, -63137.21, -67469.54, -55511.36, -48217.79, -63527.39, -62586.94, 0.104, 0.404, 0.898, 11:46:12.480
55, -36501.45, -37266.05, -63278.19, -67400.90, -55599.00, -48263.11, -63540.00, -62657.04, 0.000, 0.000, 0.000, 11:46:12.480
56, -36361.46, -37136.91, -63364.20, -67743.76, -55625.18, -48201.67, -63437.07, -62668.14, 0.000, 0.000, 0.000, 11:46:12.481
57, -36370.24, -37135.88, -63249.31, -67901.60, -55551.28, -48148.27, -63404.88, -62606.05, 0.000, 0.000, 0.000, 11:46:12.481
58, -36535.63, -37290.35, -63143.48, -67524.75, -55517.86, -48224.65, -63538.32, -62595.88, 0.000, 0.000, 0.000, 11:46:12.482
59, -36530.80, -37290.18, -63275.15, -67363.88, -55606.36, -48282.34, -63572.47, -62663.02, 0.000, 0.000, 0.000, 11:46:12.482
60, -36384.59, -37153.05, -63379.40, -67673.59, -55642.48, -48222.41, -63463.48, -62684.04, 0.000, 0.000, 0.000, 11:46:12.482
61, -36345.25, -37112.61, -63293.81, -67926.52, -55571.84, -48152.83, -63400.18, -62626.34, 0.000, 0.000, 0.000, 11:46:12.482
62, -36481.31, -37248.11, -63148.17, -67621.85, -55500.56, -48195.25, -63495.54, -62584.35, 0.000, 0.000, 0.000, 11:46:12.482
63, -36528.94, -37295.11, -63242.71, -67376.88, -55572.92, -48271.45, -63565.95, -62647.73, 0.000, 0.000, 0.000, 11:46:12.483
64, -36401.87, -37174.17, -63368.85, -67621.55, -55626.72, -48234.75, -63475.35, -62683.50, 0.092, 0.404, 0.894, 11:46:12.483
65, -36337.59, -37110.02, -63322.31, -67927.15, -55577.77, -48164.59, -63397.77, -62639.20, 0.000, 0.000, 0.000, 11:46:12.490
66, -36466.56, -37232.21, -63160.68, -67697.38, -55501.41, -48189.96, -63479.55, -62585.98, 0.000, 0.000, 0.000, 11:46:12.490
67, -36537.66, -37304.30, -63222.93, -67387.06, -55564.56, -48276.14, -63567.38, -62634.30, 0.000, 0.000, 0.000, 11:46:12.490
68, -36435.04, -37207.32, -63362.07, -67547.69, -55640.13, -48266.36, -63507.59, -62687.41, 0.000, 0.000, 0.000, 11:46:12.490
69, -36325.67, -37100.36, -63350.47, -67907.81, -55606.42, -48175.18, -63400.30, -62652.38, 0.000, 0.000, 0.000, 11:46:12.491
70, -36439.51, -37203.00, -63185.47, -67776.12, -55521.55, -48178.85, -63462.16, -62594.20, 0.000, 0.000, 0.000, 11:46:12.491
71, -36550.89, -37309.02, -63206.64, -67412.37, -55561.23, -48272.84, -63576.76, -62633.83, 0.000, 0.000, 0.000, 11:46:12.492
72, -36459.25, -37225.98, -63348.08, -67498.66, -55639.66, -48276.35, -63534.63, -62691.43, 0.000, 0.000, 0.000, 11:46:12.492
73, -36335.04, -37103.58, -63365.88, -67875.07, -55622.20, -48189.49, -63419.45, -62669.28, 0.094, 0.402, 0.900, 11:46:12.492
74, -36408.82, -37171.06, -63204.25, -67848.78, -55528.86, -48171.38, -63445.04, -62606.36, 0.000, 0.000, 0.000, 11:46:12.493
75, -36530.48, -37296.59, -63170.45, -67450.39, -55533.00, -48257.57, -63558.19, -62619.24, 0.000, 0.000, 0.000, 11:46:12.493
76, -36473.04, -37246.75, -63314.04, -67434.59, -55620.46, -48280.26, -63543.23, -62681.17, 0.000, 0.000, 0.000, 11:46:12.493
77, -36352.43, -37120.30, -63373.36, -67792.50, -55629.45, -48211.68, -63436.04, -62683.30, 0.000, 0.000, 0.000, 11:46:12.494
78, -36384.75, -37148.53, -63237.44, -67874.91, -55543.84, -48167.05, -63413.06, -62609.29, 0.000, 0.000, 0.000, 11:46:12.494
79, -36528.32, -37291.58, -63155.95, -67491.90, -55522.49, -48240.61, -63534.29, -62604.06, 0.000, 0.000, 0.000, 11:46:12.494
80, -36504.06, -37273.61, -63289.10, -67386.64, -55608.03, -48290.68, -63556.65, -62667.83, 0.000, 0.000, 0.000, 11:46:12.495
81, -36367.43, -37139.68, -63383.49, -67723.77, -55629.69, -48235.55, -63451.66, -62687.48, 0.000, 0.000, 0.000, 11:46:12.495
82, -36342.84, -37113.62, -63274.90, -67924.09, -55548.08, -48160.54, -63394.48, -62617.89, 0.000, 0.000, 0.000, 11:46:12.495
83, -36474.49, -37242.12, -63138.56, -67581.93, -55489.59, -48198.90, -63490.02, -62573.35, 0.098, 0.404, 0.898, 11:46:12.496
84, -36499.57, -37269.41, -63254.25, -67387.31, -55570.77, -48273.33, -63552.69, -62644.50, 0.000, 0.000, 0.000, 11:46:12.496
85, -36365.10, -37138.27, -63377.99, -67670.89, -55625.27, -48232.07, -63459.04, -62678.36, 0.000, 0.000, 0.000, 11:46:12.496
86, -36321.65, -37094.71, -63302.57, -67942.17, -55564.38, -48154.80, -63392.32, -62624.69, 0.000, 0.000, 0.000, 11:46:12.497
87, -36488.68, -37248.46, -63159.48, -67639.77, -55504.39, -48206.61, -63502.02, -62593.33, 0.000, 0.000, 0.000, 11:46:12.497
88, -36526.35, -37282.26, -63243.59, -67381.37, -55571.00, -48272.30, -63559.17, -62645.54, 0.000, 0.000, 0.000, 11:46:12.497
89, -36411.30, -37175.62, -63368.58, -67591.43, -55631.50, -48250.62, -63483.78, -62687.12, 0.000, 0.000, 0.000, 11:46:12.497
90, -36321.54, -37093.41, -63339.12, -67911.21, -55588.92, -48169.62, -63397.05, -62647.49, 0.000, 0.000, 0.000, 11:46:12.498
91, -36428.85, -37189.08, -63172.00, -67717.78, -55503.47, -48181.08, -63471.82, -62593.02, 0.000, 0.000, 0.000, 11:46:12.498
92, -36533.57, -37287.27, -63212.47, -67372.27, -55557.58, -48268.23, -63575.78, -62628.74, 0.000, 0.000, 0.000, 11:46:12.498
93, -36435.60, -37197.66, -63365.61, -67510.91, -55642.97, -48266.71, -63512.26, -62687.77, 0.110, 0.412, 0.902, 11:46:12.499
94, -36335.13, -37099.16, -63363.59, -67876.14, -55611.90, -48182.31, -63396.47, -62653.55, 0.000, 0.000, 0.000, 11:46:12.499
95, -36431.42, -37196.63, -63200.89, -67773.64, -55527.63, -48180.46, -63453.05, -62593.93, 0.000, 0.000, 0.000, 11:46:12.499
96, -36530.62, -37298.20, -63204.45, -67398.09, -55559.82, -48260.41, -63552.54, -62619.33, 0.000, 0.000, 0.000, 11:46:12.500
97, -36449.30, -37213.13, -63346.65, -67470.13, -55622.65, -48256.63, -63500.19, -62666.67, 0.000, 0.000, 0.000, 11:46:12.500
98, -36343.36, -37100.92, -63375.44, -67844.29, -55606.38, -48182.00, -63399.74, -62656.00, 0.000, 0.000, 0.000, 11:46:12.500
99, -36411.35, -37166.21, -63226.73, -67847.40, -55518.49, -48163.18, -63425.11, -62595.95, 0.000, 0.000, 0.000, 11:46:12.500
100, -36534.02, -37284.59, -63180.38, -67463.17, -55520.21, -48233.07, -63533.13, -62598.05, 0.000, 0.000, 0.000, 11:46:12.501
101, -36505.49, -37261.32, -63319.41, -67415.34, -55605.30, -48276.86, -63541.80, -62669.95, 0.000, 0.000, 0.000, 11:46:12.501
102, -36373.30, -37134.27, -63406.49, -67773.62, -55628.82, -48214.93, -63440.86, -62683.81, 0.118, 0.420, 0.904, 11:46:12.501
103, -36377.89, -37135.77, -63280.96, -67903.97, -55540.17, -48157.93, -63410.69, -62612.13, 0.000, 0.000, 0.000, 11:46:12.502
104, -36528.58, -37277.28, -63176.11, -67517.55, -55507.18, -48234.28, -63536.89, -62597.49, 0.000, 0.000, 0.000, 11:46:12.502
105, -36523.22, -37273.34, -63312.48, -67386.17, -55604.52, -48293.94, -63571.20, -62671.18, 0.000, 0.000, 0.000, 11:46:12.502
106, -36388.19, -37149.54, -63416.25, -67703.88, -55646.81, -48244.20, -63466.91, -62697.67, 0.000, 0.000, 0.000, 11:46:12.502
107, -36361.82, -37117.77, -63319.07, -67920.83, -55573.52, -48172.34, -63409.46, -62637.45, 0.000, 0.000, 0.000, 11:46:12.503
108, -36513.16, -37258.95, -63180.38, -67586.17, -55519.36, -48223.80, -63515.32, -62601.54, 0.000, 0.000, 0.000, 11:46:12.503
109, -36540.63, -37295.45, -63282.91, -67370.28, -55598.35, -48295.57, -63572.88, -62661.53, 0.000, 0.000, 0.000, 11:46:12.503
110, -36417.72, -37183.85, -63408.70, -67620.53, -55647.71, -48264.86, -63493.14, -62703.73, 0.000, 0.000, 0.000, 11:46:12.504
111, -36350.89, -37107.45, -63352.82, -67917.45, -55591.07, -48181.22, -63405.21, -62654.51, 0.000, 0.000, 0.000, 11:46:12.504
112, -36478.74, -37223.99, -63179.53, -67661.77, -55502.49, -48198.94, -63476.96, -62592.64, 0.110, 0.430, 0.898, 11:46:12.504
113, -36549.93, -37293.19, -63252.35, -67365.67, -55573.18, -48287.63, -63572.23, -62653.86, 0.000, 0.000, 0.000, 11:46:12.504
114, -36439.29, -37189.37, -63399.58, -67559.98, -55645.16, -48276.50, -63504.57, -62708.33, 0.000, 0.000, 0.000, 11:46:12.505
115, -36347.94, -37100.92, -63378.35, -67904.24, -55602.29, -48196.15, -63402.04, -62668.39, 0.000, 0.000, 0.000, 11:46:12.505
116, -36455.54, -37201.53, -63214.78, -67736.71, -55521.55, -48198.54, -63460.11, -62604.60, 0.000, 0.000, 0.000, 11:46:12.505
117, -36546.98, -37293.75, -63239.72, -67393.79, -55561.90, -48280.35, -63562.91, -62638.91, 0.000, 0.000, 0.000, 11:46:12.506
118, -36466.13, -37216.95, -63390.64, -67500.84, -55645.49, -48289.29, -63526.27, -62704.04, 0.000, 0.000, 0.000, 11:46:12.506
119, -36345.86, -37105.28, -63407.23, -67876.34, -55628.89, -48201.74, -63410.94, -62676.46, 0.000, 0.000, 0.000, 11:46:12.506
120, -36422.52, -37176.40, -63241.31, -67817.31, -55538.70, -48175.03, -63440.42, -62600.24, 0.000, 0.000, 0.000, 11:46:12.939
121, -36537.12, -37289.66, -63218.42, -67435.03, -55552.98, -48261.97, -63556.78, -62621.02, 0.102, 0.422, 0.898, 11:46:12.940
122, -36469.35, -37222.45, -63356.87, -67466.28, -55627.93, -48277.51, -63531.19, -62679.32, 0.000, 0.000, 0.000, 11:46:12.940
123, -36350.13, -37105.73, -63403.11, -67830.03, -55623.34, -48214.32, -63429.02, -62678.25, 0.000, 0.000, 0.000, 11:46:12.940
124, -36405.98, -37156.36, -63261.98, -67860.68, -55542.43, -48187.63, -63438.81, -62615.57, 0.000, 0.000, 0.000, 11:46:12.940
125, -36537.03, -37284.43, -63206.57, -67465.43, -55541.82, -48260.07, -63556.94, -62614.07, 0.000, 0.000, 0.000, 11:46:12.940
126, -36487.70, -37244.75, -63342.54, -67408.55, -55626.58, -48289.80, -63552.67, -62674.16, 0.000, 0.000, 0.000, 11:46:12.940
127, -36344.63, -37113.04, -63409.62, -67752.31, -55635.86, -48224.02, -63442.99, -62682.83, 0.000, 0.000, 0.000, 11:46:12.941
128, -36358.82, -37115.85, -63291.53, -67895.77, -55558.43, -48167.80, -63415.45, -62619.55, 0.000, 0.000, 0.000, 11:46:12.941
129, -36504.44, -37251.75, -63181.20, -67523.74, -55519.99, -48228.07, -63529.11, -62595.75, 0.000, 0.000, 0.000, 11:46:12.942
130, -36517.52, -37265.59, -63309.28, -67369.85, -55617.11, -48298.65, -63576.96, -62671.50, 0.000, 0.000, 0.000, 11:46:12.942
131, -36381.42, -37130.18, -63425.73, -67684.05, -55662.84, -48248.59, -63474.35, -62701.87, 0.102, 0.418, 0.900, 11:46:12.942
132, -36337.16, -37091.55, -63328.48, -67920.96, -55582.04, -48168.36, -63401.95, -62636.94, 0.000, 0.000, 0.000, 11:46:12.942
133, -36493.11, -37240.00, -63189.32, -67596.05, -55519.50, -48218.72, -63512.79, -62601.87, 0.000, 0.000, 0.000, 11:46:12.943
134, -36528.47, -37275.00, -63301.52, -67366.37, -55597.28, -48296.06, -63576.11, -62668.39, 0.000, 0.000, 0.000, 11:46:12.943
135, -36390.05, -37140.13, -63420.84, -67621.00, -55643.53, -48249.91, -63480.47, -62696.33, 0.000, 0.000, 0.000, 11:46:12.943
136, -36321.76, -37067.33, -63365.54, -67939.51, -55592.21, -48162.84, -63397.99, -62644.81, 0.000, 0.000, 0.000, 11:46:12.944
137, -36468.81, -37206.55, -63203.73, -67699.92, -55512.39, -48190.89, -63481.59, -62586.74, 0.000, 0.000, 0.000, 11:46:12.944
138, -36535.69, -37274.95, -63269.43, -67387.89, -55564.13, -48277.24, -63559.84, -62639.82, 0.000, 0.000, 0.000, 11:46:12.944
139, -36444.65, -37194.57, -63406.35, -67548.13, -55630.70, -48275.61, -63513.62, -62695.37, 0.000, 0.000, 0.000, 11:46:12.945
140, -36352.45, -37101.48, -63413.44, -67901.49, -55609.73, -48204.75, -63427.14, -62676.10, 0.100, 0.422, 0.898, 11:46:12.945
141, -36458.20, -37194.15, -63251.99, -67757.23, -55525.75, -48212.06, -63493.86, -62622.77, 0.000, 0.000, 0.000, 11:46:12.945
142, -36546.57, -37287.58, -63270.39, -67398.76, -55557.09, -48290.32, -63584.21, -62651.91, 0.000, 0.000, 0.000, 11:46:12.946
143, -36462.42, -37212.55, -63405.46, -67488.84, -55624.86, -48287.90, -63527.25, -62703.68, 0.000, 0.000, 0.000, 11:46:12.946
144, -36340.05, -37096.45, -63419.52, -67849.50, -55603.34, -48209.74, -63423.54, -62683.01, 0.000, 0.000, 0.000, 11:46:12.946
145, -36391.68, -37143.99, -63249.02, -67811.81, -55505.32, -48182.40, -63445.07, -62612.13, 0.000, 0.000, 0.000, 11:46:12.947
146, -36505.14, -37259.55, -63221.62, -67428.05, -55521.44, -48261.24, -63560.91, -62628.60, 0.000, 0.000, 0.000, 11:46:12.947
147, -36431.51, -37196.97, -63360.87, -67424.99, -55598.55, -48277.57, -63531.39, -62683.25, 0.000, 0.000, 0.000, 11:46:12.947
148, -36299.68, -37070.64, -63405.91, -67795.61, -55603.23, -48207.93, -63416.79, -62676.64, 0.000, 0.000, 0.000, 11:46:12.947
149, -36349.97, -37108.41, -63268.58, -67866.95, -55522.16, -48171.05, -63419.41, -62611.64, 0.000, 0.000, 0.000, 11:46:12.947
150, -36496.78, -37243.57, -63198.04, -67476.05, -55513.24, -48247.38, -63546.75, -62613.31, 0.100, 0.414, 0.896, 11:46:12.948
151, -36456.83, -37206.04, -63332.37, -67385.45, -55594.96, -48285.18, -63559.11, -62681.49, 0.000, 0.000, 0.000, 11:46:12.948
152, -36310.16, -37067.66, -63417.26, -67733.61, -55613.86, -48220.55, -63440.84, -62693.80, 0.000, 0.000, 0.000, 11:46:12.948
153, -36313.76, -37071.82, -63302.91, -67912.84, -55531.75, -48159.94, -63406.29, -62627.84, 0.000, 0.000, 0.000, 11:46:12.948
154, -36480.19, -37226.18, -63194.66, -67540.13, -55494.73, -48230.48, -63530.90, -62609.43, 0.000, 0.000, 0.000, 11:46:12.949
155, -36485.13, -37237.47, -63319.76, -67363.71, -55579.09, -48289.02, -63565.70, -62674.31, 0.000, 0.000, 0.000, 11:46:12.949
156, -36360.65, -37121.38, -63427.66, -67642.84, -55625.42, -48252.86, -63479.87, -62704.40, 0.000, 0.000, 0.000, 11:46:12.949
157, -36305.09, -37060.67, -63356.06, -67909.80, -55568.49, -48177.82, -63411.90, -62648.12, 0.000, 0.000, 0.000, 11:46:12.950
158, -36437.12, -37186.20, -63196.36, -67619.73, -55492.43, -48207.19, -63502.24, -62597.27, 0.000, 0.000, 0.000, 11:46:12.950
159, -36479.48, -37231.61, -63279.51, -67361.65, -55553.38, -48278.56, -63566.32, -62648.65, 0.000, 0.000, 0.000, 11:46:12.950
160, -36358.38, -37119.07, -63398.62, -67588.23, -55600.43, -48244.32, -63481.63, -62691.75, 0.098, 0.404, 0.900, 11:46:12.951
161, -36281.24, -37047.50, -63362.63, -67909.72, -55561.65, -48174.98, -63401.14, -62659.78, 0.000, 0.000, 0.000, 11:46:12.951
162, -36427.75, -37173.88, -63201.61, -67697.20, -55486.46, -48200.62, -63482.51, -62604.13, 0.000, 0.000, 0.000, 11:46:12.951
163, -36512.60, -37251.71, -63267.19, -67371.06, -55544.17, -48290.76, -63580.07, -62655.04, 0.000, 0.000, 0.000, 11:46:12.952
164, -36399.30, -37150.95, -63400.79, -67514.45, -55607.03, -48274.16, -63514.29, -62696.44, 0.000, 0.000, 0.000, 11:46:12.952
165, -36305.38, -37055.32, -63400.59, -67871.61, -55580.72, -48193.40, -63418.85, -62672.32, 0.000, 0.000, 0.000, 11:46:12.952
166, -36395.48, -37134.85, -63239.43, -67772.41, -55494.29, -48180.55, -63459.48, -62607.61, 0.000, 0.000, 0.000, 11:46:12.952
167, -36492.17, -37239.26, -63237.73, -67399.09, -55525.96, -48267.61, -63568.34, -62633.92, 0.000, 0.000, 0.000, 11:46:12.953
168, -36418.75, -37170.10, -63389.41, -67462.52, -55605.19, -48276.82, -63532.37, -62695.14, 0.000, 0.000, 0.000, 11:46:12.953
169, -36298.74, -37041.89, -63414.47, -67849.34, -55588.94, -48185.38, -63417.42, -62675.43, 0.098, 0.410, 0.898, 11:46:12.953
170, -36368.90, -37104.83, -63257.34, -67847.65, -55499.40, -48158.31, -63440.89, -62606.99, 0.000, 0.000, 0.000, 11:46:12.953
171, -36502.05, -37236.42, -63222.09, -67456.18, -55509.82, -48245.70, -63565.95, -62619.24, 0.000, 0.000, 0.000, 11:46:12.953
172, -36447.51, -37183.09, -63362.68, -67429.47, -55601.64, -48278.05, -63557.63, -62683.77, 0.000, 0.000, 0.000, 11:46:12.953
173, -36321.23, -37062.34, -63424.64, -67785.73, -55615.25, -48213.02, -63439.10, -62682.47, 0.000, 0.000, 0.000, 11:46:12.954
174, -36348.70, -37088.49, -63311.14, -67889.31, -55535.90, -48175.32, -63431.16, -62627.44, 0.000, 0.000, 0.000, 11:46:12.954
175, -36486.36, -37220.86, -63219.94, -67508.32, -55509.64, -48243.15, -63544.53, -62614.21, 0.000, 0.000, 0.000, 11:46:12.954
176, -36477.06, -37216.64, -63357.29, -67388.83, -55604.45, -48299.97, -63569.63, -62686.65, 0.000, 0.000, 0.000, 11:46:12.955
177, -36336.40, -37083.91, -63449.65, -67715.21, -55632.30, -48240.29, -63457.45, -62702.90, 0.000, 0.000, 0.000, 11:46:12.955
178, -36325.07, -37060.87, -63349.40, -67912.78, -55552.44, -48170.42, -63412.86, -62636.94, 0.000, 0.000, 0.000, 11:46:12.955
179, -36465.77, -37193.50, -63229.11, -67582.76, -55508.57, -48217.88, -63520.21, -62606.63, 0.098, 0.420, 0.896, 11:46:12.955
180, -36485.69, -37208.01, -63333.49, -67392.23, -55586.04, -48276.48, -63567.31, -62667.56, 0.000, 0.000, 0.000, 11:46:12.956
181, -36373.82, -37095.82, -63445.65, -67662.86, -55633.40, -48242.71, -63482.13, -62701.04, 0.000, 0.000, 0.000, 11:46:12.956
182, -36310.12, -37038.29, -63382.55, -67943.55, -55571.66, -48169.37, -63408.05, -62651.87, 0.000, 0.000, 0.000, 11:46:12.956
183, -36445.88, -37165.41, -63225.21, -67672.07, -55490.48, -48200.30, -63491.67, -62600.57, 0.000, 0.000, 0.000, 11:46:12.957
184, -36514.64, -37230.36, -63305.88, -67387.91, -55557.41, -48280.50, -63571.00, -62649.08, 0.000, 0.000, 0.000, 11:46:12.958
185, -36402.99, -37127.41, -63450.61, -67585.21, -55621.51, -48269.06, -63498.93, -62706.39, 0.000, 0.000, 0.000, 11:46:12.958
186, -36299.88, -37027.61, -63417.24, -67933.01, -55574.28, -48180.41, -63396.34, -62665.32, 0.000, 0.000, 0.000, 11:46:12.958
187, -36436.43, -37154.59, -63248.66, -67746.30, -55490.15, -48194.29, -63479.18, -62610.30, 0.000, 0.000, 0.000, 11:46:12.958
188, -36534.64, -37250.81, -63302.17, -67408.63, -55547.32, -48285.18, -63588.81, -62661.17, 0.098, 0.424, 0.900, 11:46:12.959
189, -36430.13, -37151.32, -63439.88, -67533.96, -55620.28, -48278.38, -63538.52, -62714.46, 0.000, 0.000, 0.000, 11:46:12.959
190, -36302.96, -37034.31, -63445.27, -67908.71, -55598.71, -48191.70, -63415.76, -62681.93, 0.000, 0.000, 0.000, 11:46:12.959
191, -36393.76, -37115.61, -63274.28, -67833.48, -55499.85, -48175.96, -63443.03, -62610.18, 0.000, 0.000, 0.000, 11:46:12.960
192, -36525.83, -37236.80, -63267.15, -67443.30, -55528.97, -48267.94, -63561.56, -62639.24, 0.000, 0.000, 0.000, 11:46:12.960
193, -36453.41, -37169.47, -63420.66, -67486.59, -55615.92, -48280.04, -63530.81, -62704.15, 0.000, 0.000, 0.000, 11:46:12.960
194, -36323.95, -37048.84, -63454.07, -67858.33, -55613.11, -48202.96, -63420.61, -62691.03, 0.000, 0.000, 0.000, 11:46:12.960
195, -36375.74, -37091.33, -63309.88, -67887.19, -55523.95, -48168.59, -63433.49, -62626.77, 0.000, 0.000, 0.000, 11:46:12.961
196, -36517.79, -37226.70, -63246.56, -67490.17, -55505.53, -48251.63, -63557.63, -62631.11, 0.000, 0.000, 0.000, 11:46:12.961
197, -36477.18, -37191.96, -63393.99, -67433.63, -55597.95, -48290.85, -63558.95, -62699.37, 0.000, 0.000, 0.000, 11:46:12.961
198, -36351.18, -37072.25, -63461.76, -67769.68, -55604.99, -48229.83, -63457.02, -62706.68, 0.098, 0.428, 0.892, 11:46:12.962
199, -36347.98, -37069.72, -63345.67, -67907.68, -55529.78, -48174.58, -63428.04, -62643.58, 0.000, 0.000, 0.000, 11:46:12.962
200, -36480.73, -37190.22, -63243.14, -67556.80, -55499.98, -48225.27, -63529.78, -62618.68, 0.000, 0.000, 0.000, 11:46:12.962
201, -36482.98, -37194.11, -63356.18, -67416.37, -55577.32, -48273.66, -63551.46, -62674.78, 0.000, 0.000, 0.000, 11:46:12.962
202, -36359.34, -37076.67, -63457.76, -67720.91, -55618.18, -48223.98, -63457.79, -62694.11, 0.000, 0.000, 0.000, 11:46:12.962
203, -36330.66, -37044.75, -63371.71, -67951.71, -55549.65, -48158.11, -63402.20, -62634.10, 0.000, 0.000, 0.000, 11:46:12.962
204, -36486.90, -37192.99, -63239.77, -67619.39, -55491.49, -48216.00, -63516.05, -62608.93, 0.000, 0.000, 0.000, 11:46:12.963
205, -36519.75, -37225.33, -63349.40, -67387.20, -55571.53, -48290.96, -63579.78, -62677.55, 0.000, 0.000, 0.000, 11:46:12.963
206, -36386.49, -37100.70, -63472.71, -67644.78, -55626.16, -48249.12, -63485.52, -62708.89, 0.000, 0.000, 0.000, 11:46:12.963
207, -36305.58, -37025.60, -63403.71, -67949.57, -55560.94, -48159.29, -63385.81, -62648.96, 0.104, 0.430, 0.886, 11:46:12.963
208, -36446.21, -37153.07, -63244.68, -67698.23, -55484.11, -48183.43, -63475.24, -62595.14, 0.000, 0.000, 0.000, 11:46:12.963
209, -36522.28, -37227.75, -63311.40, -67392.14, -55547.79, -48272.70, -63567.51, -62655.31, 0.000, 0.000, 0.000, 11:46:12.964
210, -36425.00, -37134.05, -63452.78, -67560.52, -55618.96, -48264.03, -63507.76, -62706.01, 0.000, 0.000, 0.000, 11:46:12.964
211, -36327.80, -37040.19, -63446.48, -67908.53, -55592.59, -48180.79, -63409.24, -62678.63, 0.000, 0.000, 0.000, 11:46:12.964
212, -36433.05, -37141.49, -63274.57, -67758.57, -55494.08, -48179.43, -63463.95, -62611.48, 0.000, 0.000, 0.000, 11:46:12.964
213, -36540.45, -37247.62, -63305.68, -67396.61, -55538.38, -48275.77, -63583.36, -62647.89, 0.000, 0.000, 0.000, 11:46:12.964
214, -36454.38, -37166.73, -63452.60, -67493.80, -55623.10, -48284.93, -63538.03, -62706.90, 0.000, 0.000, 0.000, 11:46:12.964
215, -36325.32, -37040.08, -63469.48, -67870.42, -55611.43, -48200.46, -63423.05, -62685.04, 0.000, 0.000, 0.000, 11:46:12.965
216, -36402.77, -37115.11, -63305.05, -67809.13, -55510.46, -48174.29, -63455.68, -62612.35, 0.000, 0.000, 0.000, 11:46:12.965
217, -36524.80, -37240.29, -63287.26, -67419.81, -55527.07, -48259.25, -63564.49, -62632.80, 0.096, 0.438, 0.890, 11:46:12.965
218, -36485.51, -37197.23, -63433.76, -67426.49, -55616.37, -48296.46, -63554.66, -62709.02, 0.000, 0.000, 0.000, 11:46:12.965
219, -36344.61, -37060.44, -63486.37, -67804.62, -55615.07, -48214.43, -63441.34, -62697.91, 0.000, 0.000, 0.000, 11:46:12.965
220, -36371.18, -37085.25, -63333.64, -67879.14, -55515.00, -48157.48, -63418.38, -62616.04, 0.000, 0.000, 0.000, 11:46:12.965
221, -36514.19, -37227.86, -63260.57, -67491.78, -55497.30, -48237.72, -63544.00, -62616.49, 0.000, 0.000, 0.000, 11:46:12.966
222, -36482.85, -37194.69, -63398.71, -67420.26, -55579.60, -48274.00, -63547.66, -62683.43, 0.000, 0.000, 0.000, 11:46:12.966
223, -36340.16, -37063.75, -63471.26, -67767.42, -55595.43, -48204.66, -63433.00, -62688.35, 0.000, 0.000, 0.000, 11:46:12.966
224, -36334.48, -37060.78, -63359.08, -67928.20, -55522.83, -48145.28, -63399.43, -62625.70, 0.000, 0.000, 0.000, 11:46:12.966
225, -36488.84, -37201.84, -63251.61, -67565.77, -55487.29, -48210.01, -63515.09, -62604.80, 0.000, 0.000, 0.000, 11:46:12.966
226, -36493.67, -37210.38, -63374.39, -67397.68, -55568.38, -48276.10, -63559.33, -62671.03, 0.000, 0.000, 0.000, 11:46:12.966
227, -36351.63, -37077.79, -63479.76, -67698.91, -55604.59, -48225.99, -63458.95, -62696.84, 0.084, 0.438, 0.892, 11:46:12.966
228, -36313.11, -37030.74, -63392.83, -67953.05, -55539.59, -48153.08, -63391.00, -62637.88, 0.000, 0.000, 0.000, 11:46:12.967
229, -36476.73, -37186.33, -63248.86, -67629.36, -55482.10, -48203.52, -63506.07, -62603.55, 0.000, 0.000, 0.000, 11:46:12.967
230, -36514.05, -37230.76, -63351.03, -67377.14, -55554.61, -48279.99, -63577.10, -62668.79, 0.000, 0.000, 0.000, 11:46:12.967
231, -36397.47, -37122.04, -63475.33, -67601.71, -55611.38, -48259.38, -63505.86, -62714.34, 0.000, 0.000, 0.000, 11:46:12.967
232, -36316.80, -37040.53, -63434.65, -67919.06, -55565.61, -48173.51, -63417.29, -62667.41, 0.000, 0.000, 0.000, 11:46:12.968
233, -36449.14, -37160.80, -63269.23, -67694.80, -55491.98, -48191.79, -63496.48, -62611.59, 0.000, 0.000, 0.000, 11:46:12.968
234, -36507.89, -37228.24, -63335.54, -67393.68, -55549.92, -48268.57, -63580.70, -62659.22, 0.000, 0.000, 0.000, 11:46:12.968
235, -36388.15, -37122.58, -63466.46, -67563.47, -55602.82, -48246.46, -63502.18, -62699.52, 0.000, 0.000, 0.000, 11:46:12.968
236, -36305.02, -37034.76, -63453.89, -67910.41, -55571.38, -48171.18, -63411.27, -62671.85, 0.080, 0.432, 0.884, 11:46:12.968
237, -36422.64, -37141.27, -63295.54, -67775.23, -55490.04, -48174.42, -63474.84, -62610.90, 0.000, 0.000, 0.000, 11:46:12.968
238, -36517.74, -37234.14, -63315.02, -67418.16, -55525.44, -48256.97, -63576.65, -62642.71, 0.000, 0.000, 0.000, 11:46:12.969
239, -36444.83, -37170.48, -63457.81, -67484.16, -55602.06, -48281.42, -63546.77, -62709.31, 0.000, 0.000, 0.000, 11:46:12.969
240, -36312.55, -37039.12, -63489.73, -67862.76, -55594.84, -48195.63, -63433.69, -62691.68, 0.000, 0.000, 0.000, 11:46:13.419
241, -36379.18, -37096.68, -63325.91, -67849.01, -55506.58, -48168.66, -63450.77, -62623.13, 0.000, 0.000, 0.000, 11:46:13.419
242, -36508.09, -37223.16, -63290.68, -67450.50, -55512.95, -48254.11, -63565.77, -62634.19, 0.000, 0.000, 0.000, 11:46:13.419
243, -36448.18, -37171.15, -63428.93, -67433.78, -55594.29, -48276.32, -63554.28, -62697.98, 0.000, 0.000, 0.000, 11:46:13.419
244, -36316.24, -37047.46, -63484.96, -67791.88, -55601.95, -48204.84, -63441.98, -62699.30, 0.000, 0.000, 0.000, 11:46:13.419
245, -36352.47, -37080.96, -63354.65, -67868.88, -55512.12, -48165.21, -63430.96, -62633.14, 0.000, 0.000, 0.000, 11:46:13.420
246, -36490.99, -37219.05, -63282.39, -67481.48, -55491.20, -48239.69, -63548.82, -62625.03, 0.082, 0.432, 0.888, 11:46:13.420
247, -36471.30, -37205.64, -63416.30, -67375.48, -55573.72, -48293.33, -63563.04, -62694.00, 0.000, 0.000, 0.000, 11:46:13.420
248, -36326.93, -37064.31, -63503.29, -67719.01, -55600.21, -48226.23, -63447.95, -62707.95, 0.000, 0.000, 0.000, 11:46:13.420
249, -36310.39, -37048.48, -63391.91, -67915.51, -55524.66, -48160.52, -63402.66, -62642.10, 0.000, 0.000, 0.000, 11:46:13.421
250, -36464.32, -37193.26, -63273.36, -67564.98, -55474.91, -48219.24, -63518.43, -62613.02, 0.000, 0.000, 0.000, 11:46:13.421
251, -36490.77, -37211.38, -63390.42, -67375.87, -55554.41, -48288.68, -63571.20, -62682.22, 0.000, 0.000, 0.000, 11:46:13.421
252, -36359.67, -37087.60, -63499.45, -67653.74, -55599.49, -48244.16, -63478.97, -62709.02, 0.000, 0.000, 0.000, 11:46:13.421
253, -36304.89, -37039.14, -63427.97, -67918.27, -55542.96, -48165.75, -63413.13, -62655.18, 0.000, 0.000, 0.000, 11:46:13.421
254, -36437.41, -37166.84, -63285.32, -67637.02, -55473.36, -48195.30, -63497.44, -62609.00, 0.000, 0.000, 0.000, 11:46:13.422
255, -36493.71, -37218.09, -63366.28, -67368.02, -55536.19, -48275.90, -63565.59, -62664.36, 0.088, 0.430, 0.892, 11:46:13.422
0, -36388.55, -37117.89, -63496.25, -67562.39, -55601.82, -48260.01, -63505.86, -62709.14, 0.000, 0.000, 0.000, 11:46:13.422
1, -36307.66, -37031.74, -63469.16, -67893.47, -55562.66, -48178.94, -63410.36, -62669.59, 0.000, 0.000, 0.000, 11:46:13.422
2, -36423.04, -37143.55, -63301.93, -67698.31, -55478.50, -48186.94, -63472.05, -62608.51, 0.000, 0.000, 0.000, 11:46:13.422
3, -36500.98, -37220.64, -63338.18, -67367.46, -55525.22, -48263.81, -63559.62, -62643.49, 0.000, 0.000, 0.000, 11:46:13.423
4, -36399.28, -37124.41, -63473.99, -67501.51, -55596.63, -48258.29, -63504.97, -62696.73, 0.000, 0.000, 0.000, 11:46:13.423
5, -36277.80, -37007.69, -63474.01, -67878.58, -55570.66, -48168.59, -63394.93, -62668.66, 0.000, 0.000, 0.000, 11:46:13.423
6, -36376.39, -37100.45, -63305.03, -67784.55, -55477.96, -48162.11, -63443.55, -62604.13, 0.000, 0.000, 0.000, 11:46:13.423
7, -36491.64, -37209.17, -63309.01, -67410.65, -55506.06, -48252.41, -63559.73, -62634.44, 0.000, 0.000, 0.000, 11:46:13.423
8, -36421.34, -37148.15, -63452.60, -67455.55, -55583.13, -48272.14, -63532.02, -62699.64, 0.000, 0.000, 0.000, 11:46:13.423
9, -36294.47, -37030.83, -63490.80, -67821.60, -55573.25, -48192.82, -63416.39, -62684.84, 0.088, 0.432, 0.892, 11:46:13.424
10, -36363.74, -37089.23, -63343.93, -67829.25, -55490.06, -48167.05, -63433.20, -62618.72, 0.000, 0.000, 0.000, 11:46:13.424
11, -36491.66, -37213.13, -63309.91, -67444.40, -55498.30, -48246.69, -63547.04, -62629.90, 0.000, 0.000, 0.000, 11:46:13.424
12, -36446.69, -37176.85, -63442.34, -67405.93, -55574.53, -48278.49, -63541.87, -62692.66, 0.000, 0.000, 0.000, 11:46:13.424
13, -36314.09, -37054.48, -63513.17, -67747.51, -55584.61, -48214.61, -63436.91, -62698.83, 0.000, 0.000, 0.000, 11:46:13.425
14, -36335.91, -37068.33, -63395.04, -67864.41, -55501.64, -48161.93, -63416.57, -62633.23, 0.000, 0.000, 0.000, 11:46:13.425
15, -36476.19, -37197.57, -63304.77, -67492.63, -55476.16, -48223.64, -63530.41, -62620.29, 0.000, 0.000, 0.000, 11:46:13.425
16, -36465.02, -37182.39, -63422.16, -67379.06, -55562.52, -48269.51, -63550.77, -62684.59, 0.000, 0.000, 0.000, 11:46:13.425
17, -36340.00, -37064.31, -63517.15, -67698.31, -55601.62, -48226.17, -63456.58, -62708.35, 0.000, 0.000, 0.000, 11:46:13.426
18, -36305.67, -37032.17, -63422.11, -67912.58, -55526.56, -48161.57, -63404.90, -62649.05, 0.000, 0.000, 0.000, 11:46:13.426
19, -36445.55, -37161.70, -63290.01, -67584.21, -55472.96, -48209.40, -63512.46, -62613.18, 0.088, 0.432, 0.886, 11:46:13.426
20, -36474.11, -37186.42, -63407.52, -67375.35, -55560.29, -48282.38, -63573.86, -62679.23, 0.000, 0.000, 0.000, 11:46:13.426
21, -36337.21, -37061.47, -63518.34, -67649.99, -55597.14, -48232.27, -63466.01, -62702.59, 0.000, 0.000, 0.000, 11:46:13.426
22, -36288.21, -37018.73, -63445.89, -67923.20, -55529.89, -48157.64, -63395.04, -62647.63, 0.000, 0.000, 0.000, 11:46:13.427
23, -36410.57, -37133.09, -63292.63, -67657.61, -55459.68, -48185.38, -63480.81, -62599.16, 0.000, 0.000, 0.000, 11:46:13.427
24, -36450.91, -37176.80, -63359.82, -67373.68, -55518.40, -48260.16, -63556.60, -62652.30, 0.000, 0.000, 0.000, 11:46:13.427
25, -36340.27, -37071.77, -63482.51, -67562.75, -55577.95, -48240.79, -63483.11, -62695.05, 0.000, 0.000, 0.000, 11:46:13.427
26, -36260.86, -36989.21, -63464.51, -67896.46, -55546.74, -48162.09, -63392.88, -62660.23, 0.000, 0.000, 0.000, 11:46:13.427
27, -36375.61, -37096.38, -63307.78, -67730.16, -55469.68, -48170.91, -63465.45, -62604.35, 0.000, 0.000, 0.000, 11:46:13.428
28, -36474.00, -37194.60, -63343.97, -67372.20, -55510.58, -48268.79, -63575.15, -62650.71, 0.082, 0.426, 0.890, 11:46:13.428
29, -36371.74, -37100.18, -63488.32, -67491.58, -55582.98, -48264.28, -63519.61, -62707.30, 0.000, 0.000, 0.000, 11:46:13.428
30, -36258.37, -36990.39, -63497.53, -67858.53, -55567.26, -48181.91, -63415.65, -62686.09, 0.000, 0.000, 0.000, 11:46:13.428
31, -36326.19, -37054.43, -63340.68, -67807.30, -55473.43, -48154.15, -63435.25, -62609.18, 0.000, 0.000, 0.000, 11:46:13.428
32, -36443.82, -37163.73, -63324.66, -67427.01, -55483.24, -48237.07, -63545.36, -62619.26, 0.000, 0.000, 0.000, 11:46:13.428
33, -36396.77, -37108.84, -63462.05, -67442.99, -55569.70, -48262.64, -63536.55, -62686.05, 0.000, 0.000, 0.000, 11:46:13.428
34, -36265.37, -36969.79, -63505.26, -67809.29, -55573.41, -48191.03, -63420.84, -62684.59, 0.000, 0.000, 0.000, 11:46:13.429
35, -36315.86, -36999.85, -63360.00, -67845.61, -55486.64, -48161.55, -63430.74, -62624.31, 0.000, 0.000, 0.000, 11:46:13.429
36, -36455.56, -37114.89, -63309.64, -67457.52, -55493.84, -48242.71, -63554.86, -62627.39, 0.000, 0.000, 0.000, 11:46:13.429
37, -36411.86, -37071.69, -63448.20, -67385.95, -55583.73, -48283.32, -63563.04, -62694.16, 0.000, 0.000, 0.000, 11:46:13.429
38, -36260.05, -36923.40, -63516.19, -67730.01, -55591.51, -48213.02, -63443.95, -62698.96, 0.090, 0.430, 0.894, 11:46:13.429
39, -36263.74, -36916.27, -63401.23, -67877.55, -55516.05, -48157.59, -63415.29, -62631.87, 0.000, 0.000, 0.000, 11:46:13.430
40, -36395.16, -37039.61, -63304.83, -67545.16, -55485.88, -48210.83, -63520.57, -62609.27, 0.000, 0.000, 0.000, 11:46:13.430
41, -36410.52, -37053.69, -63420.70, -67381.73, -55563.80, -48275.68, -63566.55, -62681.24, 0.000, 0.000, 0.000, 11:46:13.430
42, -36270.22, -36921.95, -63519.92, -67679.09, -55594.71, -48224.42, -63462.01, -62704.78, 0.000, 0.000, 0.000, 11:46:13.430
43, -36227.91, -36882.05, -63427.50, -67907.70, -55522.65, -48153.43, -63401.57, -62644.27, 0.000, 0.000, 0.000, 11:46:13.431
44, -36367.32, -37014.69, -63298.66, -67619.81, -55467.66, -48197.63, -63500.48, -62608.55, 0.000, 0.000, 0.000, 11:46:13.431
45, -36415.17, -37061.65, -63388.90, -67375.53, -55545.47, -48273.15, -63567.87, -62666.96, 0.000, 0.000, 0.000, 11:46:13.431
46, -36282.80, -36931.20, -63509.86, -67626.23, -55595.09, -48237.23, -63472.67, -62703.82, 0.000, 0.000, 0.000, 11:46:13.431
47, -36218.86, -36867.75, -63451.71, -67918.73, -55534.41, -48163.11, -63398.51, -62655.16, 0.092, 0.434, 0.894, 11:46:13.431
48, -36341.05, -36983.62, -63312.95, -67697.06, -55472.13, -48189.40, -63484.79, -62610.00, 0.000, 0.000, 0.000, 11:46:13.431
49, -36415.04, -37053.43, -63360.96, -67394.46, -55529.31, -48269.84, -63569.01, -62656.79, 0.000, 0.000, 0.000, 11:46:13.432
50, -36304.60, -36953.58, -63492.90, -67555.15, -55594.13, -48261.48, -63500.86, -62704.17, 0.000, 0.000, 0.000, 11:46:13.432
51, -36206.85, -36858.00, -63476.29, -67895.81, -55555.06, -48174.31, -63398.08, -62665.73, 0.000, 0.000, 0.000, 11:46:13.432
52, -36313.71, -36950.65, -63330.56, -67768.72, -55474.46, -48174.60, -63450.70, -62606.47, 0.000, 0.000, 0.000, 11:46:13.432
53, -36425.54, -37057.78, -63346.43, -67413.24, -55510.49, -48269.53, -63562.95, -62643.67, 0.000, 0.000, 0.000, 11:46:13.432
54, -36340.58, -36980.94, -63490.29, -67492.70, -55599.38, -48274.40, -63521.27, -62701.27, 0.000, 0.000, 0.000, 11:46:13.432
55, -36218.36, -36861.51, -63508.57, -67859.38, -55582.46, -48181.62, -63402.80, -62674.31, 0.000, 0.000, 0.000, 11:46:13.433
56, -36286.91, -36923.20, -63361.40, -67833.79, -55499.18, -48158.26, -63434.05, -62610.95, 0.000, 0.000, 0.000, 11:46:13.433
57, -36399.97, -37033.44, -63340.24, -67470.02, -55510.29, -48232.76, -63551.28, -62621.61, 0.092, 0.436, 0.886, 11:46:13.433
58, -36359.29, -36996.25, -63473.92, -67452.82, -55584.25, -48264.77, -63546.03, -62688.24, 0.000, 0.000, 0.000, 11:46:13.433
59, -36244.07, -36884.27, -63536.08, -67797.22, -55596.50, -48208.22, -63448.93, -62697.38, 0.000, 0.000, 0.000, 11:46:13.433
60, -36268.83, -36908.79, -63404.79, -67870.40, -55518.80, -48160.56, -63435.99, -62629.63, 0.000, 0.000, 0.000, 11:46:13.433
61, -36414.25, -37043.79, -63331.25, -67502.29, -55509.73, -48234.55, -63554.52, -62629.96, 0.000, 0.000, 0.000, 11:46:13.433
62, -36392.42, -37026.60, -63457.65, -67394.44, -55584.29, -48284.93, -63562.12, -62695.21, 0.000, 0.000, 0.000, 11:46:13.434
63, -36249.90, -36891.33, -63540.46, -67729.27, -55605.86, -48217.94, -63452.11, -62698.54, 0.000, 0.000, 0.000, 11:46:13.434
64, -36237.63, -36876.40, -63428.68, -67899.81, -55527.97, -48148.90, -63404.10, -62624.42, 0.000, 0.000, 0.000, 11:46:13.434
65, -36389.29, -37024.72, -63323.18, -67555.55, -55487.49, -48214.36, -63515.23, -62604.91, 0.000, 0.000, 0.000, 11:46:13.434
66, -36401.69, -37044.08, -63435.57, -67373.77, -55568.43, -48277.96, -63564.31, -62671.00, 0.000, 0.000, 0.000, 11:46:13.434
67, -36265.75, -36928.21, -63543.10, -67661.43, -55606.82, -48223.82, -63467.24, -62697.33, 0.090, 0.442, 0.898, 11:46:13.434
68, -36217.22, -36896.80, -63466.34, -67913.80, -55543.88, -48149.84, -63406.18, -62640.96, 0.000, 0.000, 0.000, 11:46:13.434
69, -36350.13, -37031.23, -63338.07, -67654.50, -55486.24, -48187.81, -63497.04, -62604.02, 0.000, 0.000, 0.000, 11:46:13.435
70, -36395.37, -37075.95, -63405.79, -67388.30, -55543.84, -48268.86, -63575.24, -62665.39, 0.000, 0.000, 0.000, 11:46:13.435
71, -36302.63, -36957.91, -63533.45, -67588.19, -55607.79, -48260.10, -63508.43, -62712.09, 0.000, 0.000, 0.000, 11:46:13.435
72, -36207.12, -36844.52, -63493.39, -67917.61, -55556.00, -48167.52, -63396.86, -62663.27, 0.000, 0.000, 0.000, 11:46:13.435
73, -36318.32, -36944.50, -63324.88, -67732.76, -55472.31, -48174.45, -63463.30, -62601.69, 0.000, 0.000, 0.000, 11:46:13.435
74, -36415.26, -37029.33, -63368.02, -67402.17, -55526.02, -48267.05, -63570.35, -62653.84, 0.000, 0.000, 0.000, 11:46:13.435
75, -36299.75, -36919.45, -63504.99, -67549.98, -55598.00, -48251.94, -63500.99, -62702.14, 0.000, 0.000, 0.000, 11:46:13.435
76, -36205.45, -36827.85, -63498.64, -67900.09, -55572.83, -48170.62, -63407.96, -62668.12, 0.094, 0.456, 0.900, 11:46:13.436
77, -36313.20, -36929.68, -63361.58, -67795.66, -55507.23, -48179.14, -63483.33, -62620.69, 0.000, 0.000, 0.000, 11:46:13.436
78, -36417.76, -37034.98, -63366.12, -67435.99, -55531.36, -48265.02, -63574.44, -62652.70, 0.000, 0.000, 0.000, 11:46:13.436
79, -36352.32, -36976.76, -63506.42, -67481.79, -55609.28, -48287.79, -63541.40, -62721.25, 0.000, 0.000, 0.000, 11:46:13.436
80, -36217.45, -36849.24, -63533.82, -67848.30, -55597.35, -48199.25, -63421.93, -62700.46, 0.000, 0.000, 0.000, 11:46:13.436
81, -36258.02, -36882.81, -63383.64, -67865.33, -55504.43, -48154.86, -63423.16, -62617.63, 0.000, 0.000, 0.000, 11:46:13.436
82, -36405.71, -37024.30, -63343.81, -67490.62, -55512.37, -48248.96, -63567.11, -62636.00, 0.000, 0.000, 0.000, 11:46:13.436
83, -36386.20, -37009.37, -63494.57, -67447.08, -55604.19, -48296.42, -63579.07, -62710.88, 0.000, 0.000, 0.000, 11:46:13.437
84, -36244.56, -36875.06, -63568.16, -67800.62, -55614.94, -48225.38, -63453.98, -62713.16, 0.000, 0.000, 0.000, 11:46:13.437
85, -36251.20, -36878.28, -63433.64, -67915.08, -55525.82, -48165.84, -63425.40, -62640.74, 0.000, 0.000, 0.000, 11:46:13.437
86, -36407.30, -37026.91, -63355.04, -67545.98, -55513.24, -48248.94, -63566.50, -62641.66, 0.082, 0.452, 0.890, 11:46:13.437
87, -36388.95, -37016.39, -63484.38, -67426.41, -55593.52, -48294.16, -63572.58, -62707.08, 0.000, 0.000, 0.000, 11:46:13.437
88, -36255.76, -36883.42, -63568.11, -67754.64, -55613.08, -48223.55, -63449.34, -62712.15, 0.000, 0.000, 0.000, 11:46:13.437
89, -36253.90, -36871.13, -63467.26, -67935.40, -55535.86, -48167.25, -63431.36, -62656.25, 0.000, 0.000, 0.000, 11:46:13.437
90, -36390.70, -37008.59, -63360.64, -67615.30, -55490.11, -48222.23, -63531.84, -62632.74, 0.000, 0.000, 0.000, 11:46:13.438
91, -36417.16, -37029.08, -63466.93, -67411.72, -55564.67, -48286.92, -63573.90, -62692.75, 0.000, 0.000, 0.000, 11:46:13.438
92, -36298.88, -36906.37, -63577.59, -67689.55, -55613.69, -48245.50, -63481.72, -62721.94, 0.000, 0.000, 0.000, 11:46:13.438
93, -36247.35, -36859.75, -63503.63, -67946.02, -55554.07, -48171.94, -63416.43, -62666.31, 0.000, 0.000, 0.000, 11:46:13.438
94, -36377.75, -36985.63, -63368.36, -67689.10, -55499.63, -48203.79, -63507.36, -62623.42, 0.000, 0.000, 0.000, 11:46:13.438
95, -36457.44, -37063.13, -63438.99, -67392.43, -55562.77, -48300.11, -63601.66, -62684.46, 0.078, 0.448, 0.890, 11:46:13.438
96, -36330.95, -36944.55, -63578.51, -67593.33, -55624.97, -48278.52, -63522.38, -62733.63, 0.000, 0.000, 0.000, 11:46:13.439
97, -36223.95, -36846.31, -63533.47, -67922.63, -55568.83, -48182.80, -63413.26, -62677.15, 0.000, 0.000, 0.000, 11:46:13.439
98, -36331.04, -36944.57, -63376.78, -67761.97, -55487.11, -48184.59, -63469.77, -62614.39, 0.000, 0.000, 0.000, 11:46:13.439
99, -36425.95, -37040.50, -63410.11, -67428.46, -55529.51, -48268.86, -63567.73, -62653.73, 0.000, 0.000, 0.000, 11:46:13.439
100, -36345.39, -36964.69, -63552.73, -67541.54, -55608.57, -48274.00, -63531.55, -62715.98, 0.000, 0.000, 0.000, 11:46:13.439
101, -36245.01, -36862.52, -63560.22, -67895.27, -55591.36, -48197.98, -63430.16, -62698.32, 0.000, 0.000, 0.000, 11:46:13.439
102, -36327.64, -36941.78, -63412.61, -67817.52, -55503.00, -48184.93, -63461.63, -62635.60, 0.000, 0.000, 0.000, 11:46:13.439
103, -36431.22, -37043.61, -63396.41, -67460.00, -55513.80, -48256.27, -63562.46, -62646.89, 0.000, 0.000, 0.000, 11:46:13.440
104, -36368.99, -36984.76, -63533.31, -67485.77, -55592.79, -48278.36, -63541.36, -62702.81, 0.000, 0.000, 0.000, 11:46:13.898
105, -36240.36, -36859.68, -63572.83, -67849.21, -55591.40, -48200.20, -63429.91, -62695.90, 0.080, 0.450, 0.888, 11:46:13.898
106, -36286.76, -36903.06, -63432.86, -67876.86, -55507.34, -48165.41, -63437.38, -62634.30, 0.000, 0.000, 0.000, 11:46:13.898
107, -36407.17, -37023.81, -63382.62, -67513.06, -55503.80, -48235.93, -63545.76, -62637.16, 0.000, 0.000, 0.000, 11:46:13.898
108, -36378.71, -36997.03, -63504.77, -67447.77, -55583.11, -48278.40, -63552.20, -62698.92, 0.000, 0.000, 0.000, 11:46:13.899
109, -36256.99, -36876.38, -63575.42, -67784.16, -55606.24, -48223.04, -63453.27, -62705.63, 0.000, 0.000, 0.000, 11:46:13.899
110, -36263.00, -36876.11, -63461.38, -67908.98, -55527.36, -48163.11, -63423.72, -62640.00, 0.000, 0.000, 0.000, 11:46:13.899
111, -36392.80, -37001.41, -63367.59, -67576.34, -55484.71, -48216.64, -63526.76, -62622.70, 0.000, 0.000, 0.000, 11:46:13.899
112, -36401.29, -37013.68, -63475.80, -67419.92, -55560.42, -48281.11, -63568.00, -62687.39, 0.000, 0.000, 0.000, 11:46:13.899
113, -36272.95, -36889.92, -63578.93, -67727.51, -55600.32, -48231.80, -63468.54, -62708.53, 0.000, 0.000, 0.000, 11:46:13.899
114, -36253.95, -36867.57, -63493.44, -67940.07, -55532.82, -48168.12, -63421.04, -62654.75, 0.078, 0.456, 0.888, 11:46:13.899
115, -36375.88, -36984.29, -63377.70, -67648.73, -55489.93, -48209.16, -63518.00, -62624.36, 0.000, 0.000, 0.000, 11:46:13.899
116, -36413.18, -37025.75, -63457.34, -67417.98, -55552.62, -48278.56, -63577.16, -62679.25, 0.000, 0.000, 0.000, 11:46:13.900
117, -36297.73, -36917.86, -63574.89, -67667.18, -55597.41, -48239.29, -63485.28, -62710.39, 0.000, 0.000, 0.000, 11:46:13.900
118, -36236.80, -36859.16, -63514.22, -67955.56, -55538.65, -48157.37, -63409.66, -62658.33, 0.000, 0.000, 0.000, 11:46:13.900
119, -36357.14, -36972.00, -63373.65, -67731.20, -55467.13, -48179.50, -63484.74, -62607.39, 0.000, 0.000, 0.000, 11:46:13.900
120, -36433.32, -37048.33, -63430.54, -67425.64, -55516.48, -48271.38, -63573.12, -62657.05, 0.000, 0.000, 0.000, 11:46:13.900
121, -36316.84, -36939.96, -63568.52, -67607.77, -55579.93, -48249.88, -63497.08, -62701.45, 0.000, 0.000, 0.000, 11:46:13.900
122, -36237.21, -36855.43, -63535.26, -67935.24, -55538.18, -48170.51, -63404.45, -62663.32, 0.000, 0.000, 0.000, 11:46:13.901
123, -36342.80, -36952.89, -63393.55, -67794.85, -55467.82, -48178.89, -63463.17, -62609.65, 0.000, 0.000, 0.000, 11:46:13.901
124, -36451.25, -37058.99, -63414.54, -67437.24, -55507.18, -48269.60, -63577.07, -62649.61, 0.080, 0.448, 0.888, 11:46:13.901
125, -36354.73, -36976.36, -63562.08, -67526.18, -55588.79, -48273.89, -63538.81, -62712.38, 0.000, 0.000, 0.000, 11:46:13.901
126, -36245.39, -36871.70, -63575.33, -67883.16, -55575.29, -48197.04, -63431.90, -62692.98, 0.000, 0.000, 0.000, 11:46:13.901
127, -36304.46, -36921.64, -63430.16, -67853.23, -55489.30, -48163.85, -63438.34, -62620.24, 0.000, 0.000, 0.000, 11:46:13.901
128, -36428.04, -37038.34, -63398.08, -67487.94, -55493.08, -48243.85, -63550.86, -62634.41, 0.000, 0.000, 0.000, 11:46:13.901
129, -36376.17, -36996.98, -63544.75, -67482.38, -55575.26, -48276.55, -63544.78, -62701.27, 0.000, 0.000, 0.000, 11:46:13.902
130, -36248.43, -36868.96, -63592.16, -67846.64, -55570.61, -48201.67, -63427.21, -62691.54, 0.000, 0.000, 0.000, 11:46:13.902
131, -36289.57, -36908.14, -63460.64, -67898.54, -55493.32, -48169.37, -63432.93, -62629.45, 0.000, 0.000, 0.000, 11:46:13.902
132, -36418.30, -37030.69, -63398.96, -67537.96, -55480.83, -48239.40, -63542.05, -62628.60, 0.000, 0.000, 0.000, 11:46:13.903
133, -36392.68, -37001.57, -63516.97, -67449.36, -55553.11, -48276.57, -63549.36, -62687.05, 0.000, 0.000, 0.000, 11:46:13.903
134, -36250.55, -36866.39, -63585.55, -67792.03, -55571.60, -48203.97, -63440.24, -62691.54, 0.080, 0.456, 0.884, 11:46:13.903
135, -36239.06, -36853.80, -63464.80, -67950.71, -55492.88, -48141.59, -63404.83, -62623.24, 0.000, 0.000, 0.000, 11:46:13.903
136, -36382.85, -36992.49, -63359.77, -67613.45, -55458.18, -48202.63, -63516.26, -62604.21, 0.000, 0.000, 0.000, 11:46:13.904
137, -36402.07, -37016.41, -63472.02, -67433.98, -55542.34, -48268.93, -63564.87, -62668.84, 0.000, 0.000, 0.000, 11:46:13.905
138, -36273.26, -36896.79, -63580.88, -67717.65, -55587.11, -48229.45, -63478.59, -62702.56, 0.000, 0.000, 0.000, 11:46:13.905
139, -36231.37, -36850.70, -63508.55, -67953.28, -55528.82, -48160.88, -63420.75, -62647.76, 0.000, 0.000, 0.000, 11:46:13.905
140, -36374.13, -36989.54, -63388.07, -67671.54, -55483.46, -48208.44, -63516.82, -62618.12, 0.000, 0.000, 0.000, 11:46:13.905
141, -36412.00, -37033.11, -63471.57, -67417.20, -55537.13, -48278.92, -63567.44, -62669.06, 0.000, 0.000, 0.000, 11:46:13.905
142, -36291.72, -36912.92, -63589.10, -67650.73, -55582.37, -48245.03, -63480.83, -62699.75, 0.000, 0.000, 0.000, 11:46:13.905
143, -36218.07, -36837.06, -63537.11, -67956.59, -55524.55, -48158.11, -63391.78, -62644.09, 0.080, 0.458, 0.892, 11:46:13.905
144, -36330.34, -36945.18, -63389.25, -67758.35, -55455.84, -48167.72, -63463.95, -62590.05, 0.000, 0.000, 0.000, 11:46:13.905
145, -36433.68, -37040.39, -63438.27, -67433.11, -55512.07, -48263.27, -63568.27, -62644.74, 0.000, 0.000, 0.000, 11:46:13.906
146, -36329.90, -36941.42, -63578.89, -67588.12, -55584.67, -48256.16, -63508.08, -62701.87, 0.000, 0.000, 0.000, 11:46:13.906
147, -36222.27, -36837.46, -63560.04, -67935.27, -55549.83, -48167.25, -63404.97, -62663.74, 0.000, 0.000, 0.000, 11:46:13.906
148, -36320.98, -36926.94, -63414.22, -67828.22, -55472.49, -48164.03, -63453.61, -62604.48, 0.000, 0.000, 0.000, 11:46:13.906
149, -36436.25, -37036.53, -63428.91, -67480.83, -55507.67, -48255.49, -63560.45, -62637.57, 0.000, 0.000, 0.000, 11:46:13.906
150, -36356.68, -36968.00, -63570.68, -67538.77, -55578.35, -48278.98, -63535.99, -62705.18, 0.000, 0.000, 0.000, 11:46:13.906
151, -36222.05, -36836.37, -63589.55, -67905.52, -55562.90, -48191.90, -63420.19, -62683.95, 0.000, 0.000, 0.000, 11:46:13.906
152, -36287.95, -36896.61, -63443.23, -67891.66, -55482.55, -48166.49, -63438.63, -62620.02, 0.000, 0.000, 0.000, 11:46:13.906
153, -36426.68, -37026.09, -63420.86, -67521.38, -55493.19, -48252.18, -63563.69, -62643.60, 0.076, 0.454, 0.884, 11:46:13.907
154, -36368.63, -36971.06, -63558.37, -67506.20, -55569.72, -48276.50, -63547.73, -62705.25, 0.000, 0.000, 0.000, 11:46:13.907
155, -36233.16, -36842.94, -63603.59, -67864.52, -55574.79, -48199.37, -63432.44, -62694.45, 0.000, 0.000, 0.000, 11:46:13.907
156, -36264.74, -36872.93, -63469.32, -67940.49, -55488.90, -48157.19, -63420.21, -62622.07, 0.000, 0.000, 0.000, 11:46:13.907
157, -36405.89, -37009.44, -63394.73, -67573.88, -55467.59, -48229.03, -63534.54, -62612.62, 0.000, 0.000, 0.000, 11:46:13.907
158, -36403.70, -37010.49, -63523.01, -67450.70, -55555.46, -48288.24, -63570.13, -62688.32, 0.000, 0.000, 0.000, 11:46:13.907
159, -36277.24, -36891.46, -63621.31, -67764.27, -55590.11, -48235.84, -63473.74, -62712.60, 0.000, 0.000, 0.000, 11:46:13.907
160, -36247.53, -36860.53, -63518.11, -67950.46, -55515.41, -48160.77, -63422.67, -62641.61, 0.000, 0.000, 0.000, 11:46:13.907
161, -36381.60, -36984.25, -63403.56, -67632.33, -55467.77, -48213.02, -63521.13, -62610.86, 0.000, 0.000, 0.000, 11:46:13.908
162, -36414.61, -37019.11, -63502.62, -67431.05, -55530.16, -48285.33, -63563.22, -62675.77, 0.080, 0.454, 0.884, 11:46:13.908
163, -36290.83, -36898.86, -63619.63, -67717.00, -55578.41, -48244.54, -63483.02, -62720.38, 0.000, 0.000, 0.000, 11:46:13.908
164, -36244.18, -36855.14, -63546.39, -67968.21, -55511.38, -48173.08, -63423.25, -62667.83, 0.000, 0.000, 0.000, 11:46:13.908
165, -36373.77, -36982.05, -63415.27, -67705.96, -55449.16, -48206.63, -63501.19, -62622.07, 0.000, 0.000, 0.000, 11:46:13.909
166, -36419.95, -37025.20, -63487.47, -67440.28, -55509.73, -48280.48, -63567.38, -62672.81, 0.000, 0.000, 0.000, 11:46:13.910
167, -36313.58, -36924.21, -63609.02, -67642.44, -55570.86, -48266.38, -63508.37, -62720.16, 0.000, 0.000, 0.000, 11:46:13.910
168, -36229.14, -36833.73, -63579.51, -67968.45, -55532.04, -48178.45, -63414.82, -62675.12, 0.000, 0.000, 0.000, 11:46:13.910
169, -36337.48, -36933.73, -63424.08, -67796.46, -55449.00, -48182.92, -63474.14, -62613.45, 0.000, 0.000, 0.000, 11:46:13.910
170, -36423.13, -37026.16, -63458.48, -67467.87, -55488.41, -48268.90, -63575.80, -62657.28, 0.000, 0.000, 0.000, 11:46:13.911
171, -36335.62, -36946.02, -63600.03, -67590.29, -55556.78, -48267.81, -63520.68, -62710.86, 0.000, 0.000, 0.000, 11:46:13.911
172, -36224.89, -36835.00, -63600.39, -67947.76, -55528.46, -48180.39, -63410.71, -62679.79, 0.088, 0.454, 0.880, 11:46:13.911
173, -36311.95, -36918.64, -63438.27, -67861.33, -55440.35, -48171.72, -63454.99, -62615.35, 0.000, 0.000, 0.000, 11:46:13.911
174, -36432.70, -37036.17, -63438.99, -67495.16, -55472.85, -48266.27, -63578.28, -62648.79, 0.000, 0.000, 0.000, 11:46:13.911
175, -36353.93, -36969.61, -63582.15, -67541.96, -55553.67, -48283.99, -63549.79, -62713.07, 0.000, 0.000, 0.000, 11:46:13.912
176, -36220.93, -36840.57, -63606.09, -67909.00, -55546.18, -48204.87, -63436.13, -62698.07, 0.000, 0.000, 0.000, 11:46:13.912
177, -36275.11, -36882.97, -63465.00, -67931.46, -55467.91, -48167.20, -63440.24, -62627.60, 0.000, 0.000, 0.000, 11:46:13.912
178, -36410.45, -37006.02, -63417.30, -67567.20, -55460.24, -48238.59, -63558.66, -62634.35, 0.000, 0.000, 0.000, 11:46:13.912
179, -36363.11, -36966.41, -63555.21, -67532.24, -55543.93, -48275.00, -63555.21, -62700.93, 0.000, 0.000, 0.000, 11:46:13.912
180, -36235.95, -36843.61, -63612.41, -67887.19, -55547.75, -48209.29, -63440.64, -62703.39, 0.000, 0.000, 0.000, 11:46:13.913
181, -36256.47, -36863.75, -63495.54, -67994.54, -55475.89, -48162.69, -63434.94, -62643.04, 0.000, 0.000, 0.000, 11:46:13.913
182, -36398.96, -37003.78, -63419.07, -67638.39, -55455.23, -48231.87, -63545.80, -62630.66, 0.092, 0.454, 0.874, 11:46:13.913
183, -36404.51, -37005.39, -63544.80, -67500.55, -55537.09, -48295.39, -63578.04, -62699.64, 0.000, 0.000, 0.000, 11:46:13.913
184, -36271.34, -36876.87, -63634.50, -67817.96, -55566.28, -48239.13, -63470.10, -62713.16, 0.000, 0.000, 0.000, 11:46:13.913
185, -36247.09, -36851.12, -63533.27, -68015.17, -55495.47, -48170.36, -63413.59, -62648.63, 0.000, 0.000, 0.000, 11:46:13.914
186, -36378.38, -36976.85, -63413.17, -67710.72, -55446.61, -48215.95, -63512.34, -62620.91, 0.000, 0.000, 0.000, 11:46:13.914
187, -36407.17, -37012.23, -63498.89, -67479.18, -55503.29, -48285.58, -63565.30, -62676.26, 0.000, 0.000, 0.000, 11:46:13.914
188, -36287.43, -36903.29, -63620.77, -67724.58, -55556.27, -48258.44, -63490.48, -62717.29, 0.000, 0.000, 0.000, 11:46:13.914
189, -36228.40, -36843.52, -63567.62, -68009.59, -55506.84, -48180.28, -63414.29, -62669.39, 0.000, 0.000, 0.000, 11:46:13.914
190, -36352.68, -36958.43, -63428.46, -67777.23, -55440.19, -48202.18, -63489.46, -62620.69, 0.000, 0.000, 0.000, 11:46:13.915
191, -36424.13, -37032.68, -63486.82, -67480.30, -55494.46, -48287.72, -63571.40, -62672.66, 0.094, 0.452, 0.876, 11:46:13.915
192, -36313.29, -36926.11, -63623.52, -67667.83, -55561.18, -48268.14, -63498.33, -62721.70, 0.000, 0.000, 0.000, 11:46:13.915
193, -36238.68, -36844.70, -63593.10, -67989.42, -55518.11, -48184.93, -63411.09, -62680.48, 0.000, 0.000, 0.000, 11:46:13.915
194, -36341.01, -36942.92, -63453.80, -67835.87, -55445.02, -48190.49, -63471.96, -62622.63, 0.000, 0.000, 0.000, 11:46:13.916
195, -36414.77, -37012.90, -63479.62, -67521.80, -55477.30, -48258.33, -63553.34, -62651.07, 0.000, 0.000, 0.000, 11:46:13.916
196, -36326.19, -36927.96, -63607.18, -67629.70, -55536.42, -48257.75, -63505.13, -62697.98, 0.000, 0.000, 0.000, 11:46:13.916
197, -36236.02, -36842.04, -63614.27, -67973.28, -55518.33, -48190.29, -63416.28, -62679.21, 0.000, 0.000, 0.000, 11:46:13.916
198, -36318.88, -36918.17, -63478.82, -67912.63, -55451.41, -48179.61, -63457.32, -62625.61, 0.000, 0.000, 0.000, 11:46:13.917
199, -36437.54, -37032.52, -63461.25, -67546.61, -55472.94, -48260.01, -63570.91, -62646.24, 0.000, 0.000, 0.000, 11:46:13.917
200, -36360.83, -36972.27, -63598.18, -67558.80, -55551.59, -48280.41, -63545.76, -62705.78, 0.000, 0.000, 0.000, 11:46:13.917
201, -36232.29, -36852.59, -63635.01, -67922.16, -55545.43, -48205.67, -63431.59, -62697.67, 0.096, 0.454, 0.874, 11:46:13.917
202, -36290.38, -36895.33, -63504.19, -67963.96, -55460.51, -48171.96, -63438.47, -62637.14, 0.000, 0.000, 0.000, 11:46:13.917
203, -36441.61, -37031.59, -63446.79, -67587.07, -55453.96, -48253.08, -63564.00, -62645.93, 0.000, 0.000, 0.000, 11:46:13.918
204, -36410.52, -37007.36, -63576.72, -67501.02, -55535.88, -48297.96, -63575.51, -62712.24, 0.000, 0.000, 0.000, 11:46:13.918
205, -36262.62, -36871.68, -63649.36, -67835.77, -55555.01, -48234.04, -63461.99, -62720.02, 0.000, 0.000, 0.000, 11:46:13.918
206, -36256.92, -36865.67, -63535.28, -67983.97, -55481.43, -48174.18, -63427.83, -62660.97, 0.000, 0.000, 0.000, 11:46:13.918
207, -36396.66, -36994.55, -63439.68, -67649.43, -55455.44, -48225.45, -63532.33, -62634.05, 0.000, 0.000, 0.000, 11:46:13.918
208, -36401.38, -37002.91, -63546.43, -67495.72, -55525.22, -48272.21, -63559.06, -62683.81, 0.000, 0.000, 0.000, 11:46:13.918
209, -36278.49, -36885.20, -63646.30, -67798.60, -55562.79, -48233.63, -63471.17, -62715.44, 0.000, 0.000, 0.000, 11:46:13.919
210, -36235.48, -36842.74, -63557.61, -68027.40, -55495.73, -48166.62, -63411.32, -62656.21, 0.100, 0.456, 0.876, 11:46:13.919
211, -36380.97, -36986.37, -63438.74, -67726.01, -55450.30, -48221.47, -63521.84, -62632.85, 0.000, 0.000, 0.000, 11:46:13.919
212, -36421.56, -37027.38, -63530.11, -67484.30, -55516.68, -48298.86, -63591.74, -62697.11, 0.000, 0.000, 0.000, 11:46:13.919
213, -36305.76, -36917.86, -63651.60, -67708.66, -55569.21, -48273.38, -63516.88, -62738.71, 0.000, 0.000, 0.000, 11:46:13.919
214, -36237.72, -36848.46, -63602.87, -68008.58, -55525.62, -48190.00, -63432.73, -62688.64, 0.000, 0.000, 0.000, 11:46:13.920
215, -36367.61, -36972.27, -63461.05, -67782.31, -55458.54, -48216.06, -63513.02, -62641.63, 0.000, 0.000, 0.000, 11:46:13.920
216, -36434.37, -37034.80, -63513.20, -67469.95, -55503.65, -48289.94, -63591.54, -62684.48, 0.000, 0.000, 0.000, 11:46:13.920
217, -36314.79, -36923.76, -63640.49, -67651.15, -55561.45, -48266.36, -63514.20, -62729.23, 0.000, 0.000, 0.000, 11:46:13.920
218, -36226.12, -36837.95, -63614.23, -67981.04, -55521.35, -48192.53, -63427.01, -62695.79, 0.000, 0.000, 0.000, 11:46:13.920
219, -36319.17, -36918.24, -63467.71, -67851.78, -55437.73, -48188.21, -63467.82, -62630.30, 0.000, 0.000, 0.000, 11:46:13.921
220, -36427.84, -37025.42, -63482.86, -67502.47, -55468.22, -48272.34, -63570.80, -62662.60, 0.102, 0.464, 0.878, 11:46:13.921
221, -36352.52, -36955.97, -63623.39, -67588.52, -55539.28, -48281.46, -63534.41, -62721.12, 0.000, 0.000, 0.000, 11:46:13.921
222, -36249.77, -36854.54, -63646.61, -67936.70, -55533.82, -48215.77, -63441.87, -62708.75, 0.000, 0.000, 0.000, 11:46:13.921
223, -36309.04, -36902.89, -63508.28, -67904.53, -55454.61, -48189.22, -63461.34, -62645.03, 0.000, 0.000, 0.000, 11:46:13.921
224, -36425.56, -37013.84, -63485.84, -67549.92, -55464.71, -48262.93, -63570.08, -62658.29, 0.000, 0.000, 0.000, 11:46:14.379
225, -36379.83, -36979.57, -63621.09, -67534.54, -55542.32, -48298.14, -63565.03, -62721.25, 0.000, 0.000, 0.000, 11:46:14.379
226, -36255.96, -36862.59, -63675.47, -67883.84, -55552.38, -48229.50, -63458.30, -62721.65, 0.000, 0.000, 0.000, 11:46:14.379
227, -36293.11, -36888.69, -63543.88, -67942.46, -55468.71, -48187.52, -63453.85, -62655.43, 0.000, 0.000, 0.000, 11:46:14.379
228, -36423.42, -37015.32, -63486.26, -67595.79, -55456.35, -48254.57, -63564.76, -62655.56, 0.000, 0.000, 0.000, 11:46:14.379
229, -36413.23, -37005.70, -63607.52, -67496.43, -55536.98, -48307.41, -63585.97, -62722.50, 0.102, 0.466, 0.876, 11:46:14.379
230, -36264.83, -36859.52, -63677.57, -67834.46, -55551.26, -48237.28, -63462.34, -62724.38, 0.000, 0.000, 0.000, 11:46:14.380
231, -36253.07, -36848.84, -63555.91, -67991.77, -55467.28, -48178.89, -63427.14, -62658.11, 0.000, 0.000, 0.000, 11:46:14.380
232, -36404.17, -36994.21, -63458.41, -67659.27, -55436.66, -48238.77, -63545.25, -62643.60, 0.000, 0.000, 0.000, 11:46:14.380
233, -36424.25, -37014.64, -63568.67, -67468.47, -55518.13, -48305.67, -63590.46, -62706.81, 0.000, 0.000, 0.000, 11:46:14.380
234, -36290.67, -36893.39, -63673.88, -67755.63, -55550.54, -48257.01, -63481.10, -62732.23, 0.000, 0.000, 0.000, 11:46:14.380
235, -36257.68, -36857.49, -63601.48, -67994.77, -55485.39, -48188.21, -63425.84, -62679.61, 0.000, 0.000, 0.000, 11:46:14.380
236, -36384.44, -36980.96, -63473.50, -67719.77, -55429.46, -48223.57, -63514.74, -62631.87, 0.000, 0.000, 0.000, 11:46:14.380
237, -36432.00, -37029.39, -63549.56, -67458.39, -55492.50, -48297.96, -63582.26, -62684.21, 0.000, 0.000, 0.000, 11:46:14.381
238, -36325.25, -36928.97, -63681.46, -67679.45, -55548.82, -48278.70, -63513.46, -62735.36, 0.000, 0.000, 0.000, 11:46:14.381
239, -36246.41, -36843.81, -63640.80, -67999.34, -55492.50, -48190.00, -63421.15, -62688.24, 0.106, 0.474, 0.880, 11:46:14.381
240, -36364.30, -36952.02, -63490.15, -67809.54, -55419.41, -48199.43, -63485.77, -62629.47, 0.000, 0.000, 0.000, 11:46:14.381
241, -36469.57, -37052.55, -63536.15, -67479.45, -55464.22, -48294.05, -63589.62, -62677.95, 0.000, 0.000, 0.000, 11:46:14.381
242, -36366.27, -36963.32, -63682.44, -67616.64, -55541.65, -48292.21, -63539.61, -62737.68, 0.000, 0.000, 0.000, 11:46:14.381
243, -36254.42, -36861.24, -63670.77, -67967.02, -55510.46, -48206.92, -63439.77, -62703.68, 0.000, 0.000, 0.000, 11:46:14.382
244, -36345.32, -36947.79, -63518.02, -67866.47, -55427.38, -48202.14, -63485.30, -62640.52, 0.000, 0.000, 0.000, 11:46:14.382
245, -36438.75, -37038.96, -63520.91, -67515.50, -55452.04, -48280.64, -63587.34, -62667.02, 0.000, 0.000, 0.000, 11:46:14.382
246, -36383.61, -36977.59, -63654.68, -67567.51, -55528.46, -48295.95, -63560.83, -62725.72, 0.000, 0.000, 0.000, 11:46:14.382
247, -36269.88, -36860.48, -63689.04, -67930.37, -55532.39, -48217.70, -63454.61, -62715.21, 0.000, 0.000, 0.000, 11:46:14.382
248, -36301.15, -36881.25, -63539.73, -67951.65, -55445.71, -48169.28, -63443.19, -62635.62, 0.000, 0.000, 0.000, 11:46:14.382
249, -36437.63, -37015.18, -63487.31, -67578.48, -55442.74, -48246.71, -63562.30, -62640.18, 0.106, 0.468, 0.870, 11:46:14.382
250, -36395.32, -36980.04, -63628.26, -67546.68, -55528.68, -48282.00, -63565.90, -62707.13, 0.000, 0.000, 0.000, 11:46:14.382
251, -36262.55, -36850.14, -63686.29, -67900.73, -55537.87, -48219.53, -63456.87, -62708.46, 0.000, 0.000, 0.000, 11:46:14.383
252, -36297.58, -36877.54, -63562.97, -67988.59, -55466.37, -48184.37, -63446.72, -62649.34, 0.000, 0.000, 0.000, 11:46:14.383
253, -36442.55, -37016.54, -63494.31, -67625.23, -55449.38, -48255.61, -63564.02, -62645.25, 0.000, 0.000, 0.000, 11:46:14.383
254, -36426.17, -37005.28, -63618.14, -67508.05, -55524.84, -48297.47, -63583.31, -62705.29, 0.000, 0.000, 0.000, 11:46:14.383
255, -36308.17, -36894.17, -63710.65, -67828.29, -55555.08, -48249.05, -63486.33, -62728.96, 0.000, 0.000, 0.000, 11:46:14.383
0, -36284.14, -36868.11, -63613.42, -68016.49, -55483.96, -48183.34, -63438.27, -62669.26, 0.000, 0.000, 0.000, 11:46:14.384
1, -36415.04, -36994.10, -63501.19, -67703.68, -55439.72, -48230.77, -63539.30, -62639.00, 0.000, 0.000, 0.000, 11:46:14.384
2, -36436.72, -37018.51, -63595.45, -67494.35, -55504.57, -48300.02, -63587.00, -62696.62, 0.106, 0.468, 0.870, 11:46:14.384
3, -36314.45, -36897.61, -63703.70, -67769.80, -55545.00, -48261.48, -63488.96, -62730.77, 0.000, 0.000, 0.000, 11:46:14.384
4, -36278.49, -36855.93, -63634.45, -68027.63, -55484.88, -48187.34, -63427.27, -62674.13, 0.000, 0.000, 0.000, 11:46:14.384
5, -36403.59, -36977.25, -63504.03, -67768.95, -55421.46, -48220.22, -63516.26, -62634.41, 0.000, 0.000, 0.000, 11:46:14.384
6, -36463.00, -37037.60, -63570.91, -67486.48, -55478.30, -48300.82, -63593.41, -62694.23, 0.000, 0.000, 0.000, 11:46:14.384
7, -36349.86, -36935.65, -63699.77, -67683.25, -55540.60, -48278.92, -63514.85, -62730.37, 0.000, 0.000, 0.000, 11:46:14.385
8, -36255.07, -36846.04, -63667.98, -68014.77, -55499.31, -48188.10, -63412.19, -62681.22, 0.000, 0.000, 0.000, 11:46:14.385
9, -36351.73, -36939.59, -63508.39, -67859.70, -55414.58, -48185.75, -63467.64, -62618.77, 0.000, 0.000, 0.000, 11:46:14.385
10, -36470.42, -37049.49, -63535.28, -67512.48, -55460.62, -48283.54, -63579.69, -62663.49, 0.000, 0.000, 0.000, 11:46:14.385
11, -36383.86, -36963.95, -63681.44, -67621.65, -55546.48, -48286.16, -63535.88, -62720.80, 0.000, 0.000, 0.000, 11:46:14.385
12, -36271.16, -36851.48, -63684.41, -67980.57, -55523.74, -48200.29, -63422.58, -62697.00, 0.106, 0.470, 0.870, 11:46:14.385
13, -36344.63, -36918.31, -63530.29, -67915.08, -55434.65, -48177.20, -63456.82, -62631.64, 0.000, 0.000, 0.000, 11:46:14.385
14, -36459.40, -37033.62, -63517.26, -67541.25, -55456.11, -48264.05, -63573.54, -62654.08, 0.000, 0.000, 0.000, 11:46:14.385
15, -36401.91, -36981.16, -63661.99, -67563.60, -55548.69, -48291.99, -63559.44, -62723.98, 0.000, 0.000, 0.000, 11:46:14.386
16, -36277.21, -36867.19, -63702.63, -67929.05, -55546.86, -48225.34, -63451.32, -62721.61, 0.000, 0.000, 0.000, 11:46:14.386
17, -36320.09, -36907.67, -63566.13, -67959.54, -55458.32, -48186.31, -63438.47, -62646.26, 0.000, 0.000, 0.000, 11:46:14.386
18, -36449.01, -37022.27, -63509.82, -67587.85, -55447.73, -48254.31, -63552.47, -62646.93, 0.000, 0.000, 0.000, 11:46:14.386
19, -36422.97, -36993.61, -63638.07, -67523.73, -55523.99, -48292.26, -63557.50, -62711.77, 0.000, 0.000, 0.000, 11:46:14.386
20, -36285.71, -36864.64, -63706.29, -67878.16, -55541.76, -48218.52, -63446.00, -62712.00, 0.000, 0.000, 0.000, 11:46:14.386
21, -36298.54, -36875.01, -63591.70, -68006.56, -55467.86, -48169.26, -63430.09, -62648.05, 0.112, 0.472, 0.868, 11:46:14.386
22, -36438.68, -37007.18, -63506.27, -67656.07, -55435.32, -48228.67, -63543.35, -62631.55, 0.000, 0.000, 0.000, 11:46:14.386
23, -36439.36, -37011.27, -63617.64, -67504.79, -55502.31, -48283.70, -63565.48, -62688.24, 0.000, 0.000, 0.000, 11:46:14.387
24, -36305.36, -36885.32, -63714.00, -67810.25, -55534.63, -48232.54, -63457.92, -62709.98, 0.000, 0.000, 0.000, 11:46:14.387
25, -36279.32, -36854.32, -63619.57, -68017.38, -55467.82, -48167.00, -63412.25, -62655.22, 0.000, 0.000, 0.000, 11:46:14.387
26, -36404.17, -36973.25, -63497.41, -67717.83, -55413.06, -48205.36, -63502.18, -62618.28, 0.000, 0.000, 0.000, 11:46:14.387
27, -36436.45, -37004.43, -63584.09, -67494.40, -55475.95, -48276.01, -63560.85, -62676.79, 0.000, 0.000, 0.000, 11:46:14.387
28, -36329.50, -36905.77, -63692.95, -67729.98, -55523.70, -48249.97, -63485.97, -62716.64, 0.000, 0.000, 0.000, 11:46:14.387
29, -36266.80, -36847.16, -63644.58, -68003.48, -55476.51, -48173.80, -63416.10, -62668.14, 0.000, 0.000, 0.000, 11:46:14.387
30, -36391.72, -36963.55, -63508.55, -67769.91, -55416.48, -48196.59, -63499.43, -62620.36, 0.000, 0.000, 0.000, 11:46:14.387
31, -36455.71, -37027.38, -63570.82, -67478.95, -55477.16, -48275.30, -63573.52, -62670.51, 0.106, 0.472, 0.872, 11:46:14.388
32, -36341.30, -36922.15, -63696.99, -67657.74, -55538.07, -48257.13, -63498.67, -62714.16, 0.000, 0.000, 0.000, 11:46:14.388
33, -36242.73, -36825.53, -63665.19, -67986.80, -55490.84, -48171.61, -63397.70, -62673.75, 0.000, 0.000, 0.000, 11:46:14.388
34, -36355.02, -36931.47, -63517.71, -67834.99, -55416.52, -48178.29, -63459.82, -62619.13, 0.000, 0.000, 0.000, 11:46:14.388
35, -36449.52, -37031.00, -63544.91, -67488.05, -55457.49, -48265.73, -63565.59, -62656.56, 0.000, 0.000, 0.000, 11:46:14.388
36, -36369.50, -36958.03, -63691.54, -67572.77, -55541.94, -48274.56, -63529.15, -62718.68, 0.000, 0.000, 0.000, 11:46:14.388
37, -36245.34, -36829.01, -63701.71, -67936.83, -55515.90, -48175.32, -63404.90, -62685.06, 0.000, 0.000, 0.000, 11:46:14.388
38, -36315.19, -36898.95, -63543.37, -67890.63, -55422.64, -48155.91, -63430.02, -62616.60, 0.000, 0.000, 0.000, 11:46:14.388
39, -36445.77, -37019.54, -63522.63, -67508.93, -55438.05, -48246.17, -63546.75, -62637.50, 0.000, 0.000, 0.000, 11:46:14.388
40, -36402.63, -36977.29, -63659.71, -67499.85, -55521.38, -48279.57, -63545.25, -62707.86, 0.104, 0.476, 0.870, 11:46:14.389
41, -36275.36, -36858.52, -63714.52, -67847.84, -55529.46, -48209.40, -63439.93, -62708.58, 0.000, 0.000, 0.000, 11:46:14.389
42, -36304.51, -36884.33, -63584.88, -67902.85, -55439.86, -48160.68, -63425.80, -62636.29, 0.000, 0.000, 0.000, 11:46:14.389
43, -36443.16, -37017.59, -63519.14, -67525.00, -55423.25, -48233.99, -63541.58, -62631.48, 0.000, 0.000, 0.000, 11:46:14.389
44, -36424.60, -37002.46, -63653.34, -67426.76, -55509.37, -48286.98, -63561.48, -62704.78, 0.000, 0.000, 0.000, 11:46:14.389
45, -36288.41, -36872.24, -63730.50, -67763.54, -55531.21, -48219.98, -63454.57, -62714.46, 0.000, 0.000, 0.000, 11:46:14.389
46, -36290.38, -36870.52, -63621.13, -67907.77, -55462.25, -48162.13, -63422.76, -62651.36, 0.000, 0.000, 0.000, 11:46:14.390
47, -36425.52, -36998.75, -63526.14, -67566.21, -55426.22, -48216.89, -63525.27, -62630.73, 0.000, 0.000, 0.000, 11:46:14.390
48, -36429.25, -37009.50, -63632.75, -67398.60, -55499.18, -48279.07, -63561.83, -62695.61, 0.000, 0.000, 0.000, 11:46:14.390
49, -36297.82, -36883.26, -63733.52, -67695.99, -55541.71, -48231.78, -63467.75, -62720.85, 0.000, 0.000, 0.000, 11:46:14.390
50, -36259.94, -36842.58, -63644.31, -67938.62, -55472.54, -48148.83, -63399.69, -62653.91, 0.092, 0.472, 0.866, 11:46:14.390
51, -36398.72, -36976.09, -63516.21, -67648.23, -55413.44, -48186.94, -63493.70, -62613.56, 0.000, 0.000, 0.000, 11:46:14.390
52, -36444.52, -37023.52, -63599.14, -67392.14, -55479.64, -48268.52, -63564.69, -62675.50, 0.000, 0.000, 0.000, 11:46:14.390
53, -36332.63, -36911.91, -63716.86, -67611.50, -55531.77, -48246.77, -63489.28, -62716.58, 0.000, 0.000, 0.000, 11:46:14.391
54, -36254.15, -36834.89, -63673.43, -67907.03, -55484.96, -48165.23, -63405.28, -62668.57, 0.000, 0.000, 0.000, 11:46:14.391
55, -36360.86, -36938.74, -63520.23, -67696.88, -55406.82, -48176.64, -63474.26, -62611.64, 0.000, 0.000, 0.000, 11:46:14.391
56, -36463.65, -37037.09, -63572.29, -67362.99, -55462.95, -48279.30, -63577.75, -62671.85, 0.000, 0.000, 0.000, 11:46:14.391
57, -36353.19, -36934.49, -63720.04, -67517.60, -55541.22, -48266.96, -63506.27, -62722.21, 0.000, 0.000, 0.000, 11:46:14.391
58, -36246.71, -36839.38, -63696.79, -67853.28, -55507.67, -48182.52, -63410.18, -62686.00, 0.000, 0.000, 0.000, 11:46:14.391
59, -36326.93, -36920.88, -63543.46, -67738.79, -55422.51, -48176.81, -63459.26, -62625.63, 0.000, 0.000, 0.000, 11:46:14.391
60, -36451.04, -37029.55, -63554.39, -67371.55, -55453.54, -48267.96, -63573.16, -62660.41, 0.100, 0.462, 0.864, 11:46:14.391
61, -36370.67, -36948.41, -63695.23, -67446.84, -55534.34, -48273.53, -63529.40, -62717.54, 0.000, 0.000, 0.000, 11:46:14.392
62, -36242.37, -36823.45, -63709.11, -67812.46, -55516.97, -48188.71, -63411.74, -62694.16, 0.000, 0.000, 0.000, 11:46:14.392
63, -36305.85, -36883.89, -63560.51, -67790.91, -55426.04, -48161.32, -63430.98, -62627.33, 0.000, 0.000, 0.000, 11:46:14.392
64, -36427.82, -37007.38, -63526.27, -67414.71, -55426.56, -48242.46, -63544.91, -62640.14, 0.000, 0.000, 0.000, 11:46:14.392
65, -36391.57, -36975.24, -63665.30, -67380.38, -55514.64, -48287.68, -63550.86, -62712.82, 0.000, 0.000, 0.000, 11:46:14.392
66, -36254.89, -36846.22, -63721.27, -67732.76, -55519.65, -48218.21, -63435.39, -62712.09, 0.000, 0.000, 0.000, 11:46:14.392
67, -36278.00, -36860.55, -63593.13, -67813.45, -55432.28, -48168.86, -63421.44, -62644.65, 0.000, 0.000, 0.000, 11:46:14.392
68, -36432.43, -37007.47, -63523.01, -67437.27, -55418.04, -48246.29, -63541.74, -62632.85, 0.000, 0.000, 0.000, 11:46:14.392
69, -36416.40, -36990.62, -63660.14, -67320.75, -55510.76, -48300.22, -63564.20, -62705.49, 0.092, 0.462, 0.866, 11:46:14.393
70, -36261.70, -36840.23, -63738.41, -67672.95, -55530.43, -48224.49, -63438.34, -62713.79, 0.000, 0.000, 0.000, 11:46:14.393
71, -36265.68, -36844.10, -63620.46, -67845.74, -55451.79, -48165.64, -63401.57, -62644.94, 0.000, 0.000, 0.000, 11:46:14.393
72, -36419.46, -36992.94, -63520.35, -67495.36, -55416.95, -48229.16, -63525.00, -62626.84, 0.000, 0.000, 0.000, 11:46:14.393
73, -36425.09, -37001.99, -63636.29, -67306.78, -55495.18, -48286.85, -63571.82, -62693.13, 0.000, 0.000, 0.000, 11:46:14.393
74, -36294.27, -36876.89, -63741.27, -67591.29, -55525.80, -48239.31, -63472.83, -62722.48, 0.000, 0.000, 0.000, 11:46:14.393
75, -36245.59, -36829.17, -63662.93, -67847.58, -55461.72, -48162.17, -63402.75, -62661.48, 0.000, 0.000, 0.000, 11:46:14.393
76, -36379.54, -36959.50, -63527.46, -67576.67, -55402.53, -48194.05, -63490.51, -62613.40, 0.000, 0.000, 0.000, 11:46:14.393
77, -36439.06, -37015.98, -63599.41, -67302.76, -55461.49, -48270.73, -63560.51, -62664.39, 0.000, 0.000, 0.000, 11:46:14.393
78, -36317.20, -36901.30, -63729.45, -67517.63, -55521.20, -48248.86, -63487.69, -62708.53, 0.000, 0.000, 0.000, 11:46:14.394
79, -36239.02, -36831.20, -63685.08, -67827.06, -55476.18, -48174.55, -63411.58, -62670.09, 0.092, 0.462, 0.872, 11:46:14.394
80, -36366.33, -36945.73, -63546.03, -67626.97, -55410.29, -48195.61, -63486.13, -62622.63, 0.000, 0.000, 0.000, 11:46:14.394
81, -36452.59, -37025.86, -63587.89, -67296.98, -55461.63, -48277.69, -63575.82, -62666.00, 0.000, 0.000, 0.000, 11:46:14.394
82, -36357.93, -36936.91, -63727.10, -67426.34, -55534.94, -48272.66, -63521.00, -62722.93, 0.000, 0.000, 0.000, 11:46:14.394
83, -36252.09, -36835.50, -63727.10, -67779.16, -55507.67, -48186.71, -63414.89, -62691.01, 0.000, 0.000, 0.000, 11:46:14.394
84, -36339.42, -36918.57, -63583.36, -67689.13, -55428.08, -48171.58, -63455.66, -62627.82, 0.000, 0.000, 0.000, 11:46:14.394
85, -36453.97, -37028.32, -63581.97, -67325.22, -55454.90, -48255.31, -63568.09, -62657.66, 0.000, 0.000, 0.000, 11:46:14.394
86, -36377.69, -36957.02, -63714.47, -67366.77, -55529.93, -48272.64, -63535.70, -62716.33, 0.000, 0.000, 0.000, 11:46:14.395
87, -36244.70, -36835.09, -63742.03, -67733.30, -55513.37, -48186.31, -63422.09, -62694.96, 0.000, 0.000, 0.000, 11:46:14.395
88, -36294.18, -36882.50, -63600.84, -67754.13, -55426.49, -48152.79, -63430.43, -62627.91, 0.098, 0.466, 0.872, 11:46:14.395
89, -36439.85, -37019.41, -63550.84, -67365.80, -55424.70, -48241.52, -63551.95, -62637.57, 0.000, 0.000, 0.000, 11:46:14.858
90, -36399.05, -36984.65, -63691.27, -67312.45, -55516.25, -48283.79, -63554.81, -62709.07, 0.000, 0.000, 0.000, 11:46:14.858
91, -36265.17, -36854.43, -63749.88, -67663.27, -55531.43, -48216.91, -63445.60, -62711.77, 0.000, 0.000, 0.000, 11:46:14.858
92, -36275.72, -36862.61, -63625.76, -67773.52, -55453.92, -48166.87, -63420.41, -62645.32, 0.000, 0.000, 0.000, 11:46:14.859
93, -36423.06, -37008.36, -63549.05, -67404.12, -55434.47, -48239.69, -63547.24, -62636.40, 0.000, 0.000, 0.000, 11:46:14.859
94, -36422.68, -37011.34, -63678.06, -67258.07, -55520.52, -48300.49, -63584.00, -62709.47, 0.000, 0.000, 0.000, 11:46:14.859
95, -36286.18, -36873.83, -63767.16, -67568.98, -55547.32, -48242.66, -63472.18, -62727.80, 0.000, 0.000, 0.000, 11:46:14.859
96, -36269.84, -36847.99, -63668.92, -67777.17, -55478.91, -48173.02, -63417.93, -62663.67, 0.000, 0.000, 0.000, 11:46:14.859
97, -36418.75, -36991.46, -63554.90, -67463.75, -55432.37, -48223.46, -63526.67, -62636.05, 0.000, 0.000, 0.000, 11:46:14.859
98, -36447.54, -37025.53, -63657.92, -67239.23, -55499.65, -48295.12, -63586.48, -62697.56, 0.100, 0.476, 0.870, 11:46:14.859
99, -36313.96, -36901.86, -63764.05, -67497.77, -55539.25, -48254.66, -63489.26, -62728.58, 0.000, 0.000, 0.000, 11:46:14.860
100, -36260.81, -36851.81, -63707.32, -67771.91, -55488.85, -48184.66, -63418.40, -62683.50, 0.000, 0.000, 0.000, 11:46:14.860
101, -36383.72, -36964.33, -63572.65, -67538.27, -55427.09, -48205.98, -63499.76, -62631.71, 0.000, 0.000, 0.000, 11:46:14.860
102, -36433.83, -37016.01, -63633.11, -67257.60, -55481.54, -48279.79, -63577.88, -62677.48, 0.000, 0.000, 0.000, 11:46:14.860
103, -36335.31, -36923.20, -63757.28, -67436.13, -55537.36, -48271.00, -63514.80, -62727.91, 0.000, 0.000, 0.000, 11:46:14.860
104, -36243.20, -36830.18, -63731.75, -67768.95, -55500.18, -48187.27, -63419.18, -62689.58, 0.000, 0.000, 0.000, 11:46:14.860
105, -36345.50, -36933.89, -63578.33, -67610.11, -55419.72, -48186.71, -63472.94, -62628.49, 0.000, 0.000, 0.000, 11:46:14.860
106, -36447.96, -37033.40, -63605.11, -67267.10, -55458.41, -48273.02, -63571.91, -62667.90, 0.000, 0.000, 0.000, 11:46:14.860
107, -36365.55, -36955.64, -63746.43, -67369.59, -55528.06, -48278.78, -63526.14, -62725.16, 0.000, 0.000, 0.000, 11:46:14.861
108, -36254.48, -36848.84, -63757.79, -67719.37, -55508.86, -48206.05, -63427.21, -62704.40, 0.098, 0.478, 0.880, 11:46:14.861
109, -36322.16, -36910.15, -63612.21, -67662.70, -55422.22, -48180.55, -63452.15, -62631.13, 0.000, 0.000, 0.000, 11:46:14.861
110, -36440.43, -37024.77, -63594.82, -67299.38, -55433.96, -48257.35, -63554.55, -62647.51, 0.000, 0.000, 0.000, 11:46:14.861
111, -36383.14, -36971.86, -63734.12, -67311.78, -55516.12, -48284.77, -63540.33, -62710.77, 0.000, 0.000, 0.000, 11:46:14.861
112, -36246.14, -36846.54, -63778.33, -67678.53, -55524.28, -48204.60, -63432.04, -62703.46, 0.000, 0.000, 0.000, 11:46:14.861
113, -36274.58, -36870.18, -63633.47, -67729.96, -55436.75, -48153.77, -63420.86, -62625.76, 0.000, 0.000, 0.000, 11:46:14.861
114, -36430.73, -37012.74, -63574.53, -67354.50, -55426.16, -48237.86, -63549.18, -62630.08, 0.000, 0.000, 0.000, 11:46:14.862
115, -36413.20, -36999.89, -63715.84, -67267.86, -55517.95, -48296.29, -63572.94, -62707.13, 0.000, 0.000, 0.000, 11:46:14.862
116, -36279.99, -36875.06, -63798.07, -67610.13, -55549.61, -48248.32, -63472.80, -62724.96, 0.000, 0.000, 0.000, 11:46:14.862
117, -36265.26, -36854.02, -63680.09, -67770.06, -55465.76, -48177.80, -63425.98, -62654.48, 0.096, 0.476, 0.878, 11:46:14.862
118, -36404.89, -36987.29, -63578.64, -67425.95, -55423.88, -48235.04, -63532.69, -62630.75, 0.000, 0.000, 0.000, 11:46:14.862
119, -36416.04, -37003.25, -63689.37, -67260.94, -55496.18, -48301.94, -63577.12, -62697.89, 0.000, 0.000, 0.000, 11:46:14.862
120, -36279.79, -36882.43, -63794.16, -67554.66, -55535.57, -48257.79, -63482.33, -62731.49, 0.000, 0.000, 0.000, 11:46:14.862
121, -36224.89, -36823.43, -63700.91, -67798.00, -55459.30, -48169.77, -63408.07, -62664.59, 0.000, 0.000, 0.000, 11:46:14.862
122, -36366.46, -36953.07, -63563.20, -67504.28, -55391.31, -48206.81, -63504.61, -62623.73, 0.000, 0.000, 0.000, 11:46:14.863
123, -36420.40, -37009.68, -63651.89, -67253.52, -55457.40, -48287.39, -63578.11, -62685.33, 0.000, 0.000, 0.000, 11:46:14.863
124, -36298.14, -36896.18, -63774.66, -67492.79, -55512.43, -48253.19, -63491.76, -62722.66, 0.000, 0.000, 0.000, 11:46:14.863
125, -36239.93, -36838.56, -63719.50, -67774.60, -55462.99, -48184.46, -63422.94, -62681.24, 0.000, 0.000, 0.000, 11:46:14.863
126, -36365.64, -36952.95, -63586.17, -67555.82, -55404.79, -48207.21, -63502.38, -62634.75, 0.000, 0.000, 0.000, 11:46:14.863
127, -36421.34, -37007.02, -63634.59, -67261.36, -55455.88, -48277.11, -63579.13, -62673.42, 0.098, 0.470, 0.870, 11:46:14.863
128, -36323.42, -36915.36, -63762.28, -67419.85, -55519.94, -48270.31, -63524.55, -62724.11, 0.000, 0.000, 0.000, 11:46:14.863
129, -36229.38, -36821.91, -63750.01, -67756.85, -55492.09, -48190.61, -63427.36, -62691.03, 0.000, 0.000, 0.000, 11:46:14.864
130, -36322.46, -36906.44, -63604.50, -67635.17, -55404.99, -48190.27, -63474.46, -62632.92, 0.000, 0.000, 0.000, 11:46:14.864
131, -36429.25, -37014.09, -63623.10, -67285.99, -55430.78, -48283.61, -63585.46, -62667.72, 0.000, 0.000, 0.000, 11:46:14.864
132, -36348.34, -36942.54, -63766.77, -67363.73, -55512.16, -48293.69, -63549.83, -62726.75, 0.000, 0.000, 0.000, 11:46:14.864
133, -36227.28, -36827.87, -63777.32, -67721.56, -55496.12, -48213.02, -63438.65, -62707.97, 0.000, 0.000, 0.000, 11:46:14.864
134, -36295.81, -36886.52, -63637.89, -67696.70, -55416.50, -48191.99, -63459.93, -62642.64, 0.000, 0.000, 0.000, 11:46:14.864
135, -36432.94, -37010.22, -63612.53, -67322.52, -55425.20, -48278.34, -63576.16, -62660.77, 0.000, 0.000, 0.000, 11:46:14.864
136, -36380.97, -36961.27, -63756.20, -67309.62, -55515.92, -48312.22, -63563.91, -62729.43, 0.098, 0.470, 0.868, 11:46:14.864
137, -36248.85, -36835.70, -63799.77, -67675.56, -55514.24, -48231.24, -63447.10, -62718.52, 0.000, 0.000, 0.000, 11:46:14.864
138, -36283.43, -36866.50, -63668.32, -67745.05, -55429.02, -48184.53, -63441.71, -62651.63, 0.000, 0.000, 0.000, 11:46:14.865
139, -36426.28, -37008.27, -63607.63, -67369.52, -55421.28, -48259.36, -63561.12, -62649.08, 0.000, 0.000, 0.000, 11:46:14.865
140, -36402.32, -36994.24, -63735.93, -67264.53, -55503.22, -48310.66, -63582.02, -62716.91, 0.000, 0.000, 0.000, 11:46:14.865
141, -36271.49, -36864.71, -63817.18, -67588.59, -55533.15, -48252.00, -63478.21, -62735.02, 0.000, 0.000, 0.000, 11:46:14.865
142, -36254.68, -36837.21, -63699.21, -67769.08, -55450.94, -48171.98, -63421.35, -62657.68, 0.000, 0.000, 0.000, 11:46:14.865
143, -36404.55, -36981.96, -63589.97, -67428.55, -55407.76, -48232.13, -63533.47, -62635.29, 0.000, 0.000, 0.000, 11:46:14.865
144, -36407.88, -36988.45, -63702.58, -67250.25, -55484.76, -48292.73, -63573.48, -62700.15, 0.000, 0.000, 0.000, 11:46:14.865
145, -36289.51, -36873.25, -63805.45, -67535.66, -55521.06, -48248.96, -63486.82, -62726.91, 0.000, 0.000, 0.000, 11:46:14.865
146, -36248.29, -36834.18, -63733.09, -67775.41, -55459.48, -48174.63, -63425.75, -62671.07, 0.104, 0.478, 0.868, 11:46:14.865
147, -36389.40, -36971.53, -63607.09, -67490.62, -55403.13, -48223.91, -63529.60, -62642.44, 0.000, 0.000, 0.000, 11:46:14.865
148, -36434.21, -37009.28, -63693.64, -67232.30, -55472.20, -48300.02, -63593.53, -62696.17, 0.000, 0.000, 0.000, 11:46:14.866
149, -36303.61, -36887.75, -63814.23, -67462.68, -55525.96, -48267.14, -63507.36, -62733.61, 0.000, 0.000, 0.000, 11:46:14.866
150, -36216.53, -36800.89, -63754.86, -67786.78, -55460.82, -48170.20, -63404.36, -62673.66, 0.000, 0.000, 0.000, 11:46:14.866
151, -36349.93, -36922.67, -63595.54, -67576.97, -55380.22, -48197.18, -63485.81, -62619.62, 0.000, 0.000, 0.000, 11:46:14.866
152, -36436.96, -37014.27, -63651.33, -67243.05, -55440.01, -48296.33, -63592.57, -62675.05, 0.000, 0.000, 0.000, 11:46:14.866
153, -36333.99, -36922.09, -63792.41, -67386.13, -55514.85, -48289.87, -63537.87, -62728.98, 0.000, 0.000, 0.000, 11:46:14.866
154, -36236.60, -36822.93, -63781.24, -67734.88, -55484.65, -48206.45, -63438.25, -62702.27, 0.000, 0.000, 0.000, 11:46:14.866
155, -36314.79, -36893.12, -63631.41, -67637.63, -55398.51, -48190.38, -63468.52, -62640.05, 0.106, 0.474, 0.874, 11:46:14.866
156, -36415.80, -36994.19, -63627.99, -67284.65, -55421.35, -48263.85, -63565.90, -62656.99, 0.000, 0.000, 0.000, 11:46:14.866
157, -36349.28, -36937.20, -63764.29, -67335.05, -55507.58, -48285.51, -63541.92, -62717.27, 0.000, 0.000, 0.000, 11:46:14.866
158, -36230.14, -36823.47, -63790.80, -67692.23, -55498.35, -48209.94, -63435.05, -62702.81, 0.000, 0.000, 0.000, 11:46:14.867
159, -36292.97, -36874.43, -63652.02, -67691.43, -55417.08, -48180.39, -63451.06, -62636.89, 0.000, 0.000, 0.000, 11:46:14.867
160, -36418.97, -36986.53, -63617.27, -67331.66, -55419.79, -48251.40, -63555.30, -62645.23, 0.000, 0.000, 0.000, 11:46:14.867
161, -36372.37, -36949.02, -63744.13, -67303.47, -55498.20, -48283.43, -63552.47, -62707.37, 0.000, 0.000, 0.000, 11:46:14.867
162, -36242.48, -36828.63, -63797.15, -67649.66, -55509.48, -48220.94, -63450.10, -62710.68, 0.000, 0.000, 0.000, 11:46:14.867
163, -36259.80, -36840.97, -63674.15, -67748.52, -55434.40, -48176.81, -63437.38, -62648.65, 0.000, 0.000, 0.000, 11:46:14.867
164, -36398.14, -36975.02, -63599.59, -67389.41, -55415.98, -48247.94, -63553.23, -62643.62, 0.000, 0.000, 0.000, 11:46:14.867
165, -36395.77, -36971.06, -63726.18, -67260.58, -55499.07, -48306.68, -63581.75, -62715.06, 0.098, 0.472, 0.876, 11:46:14.867
166, -36251.22, -36829.46, -63817.13, -67596.19, -55525.44, -48244.38, -63467.75, -62729.77, 0.000, 0.000, 0.000, 11:46:14.867
167, -36225.38, -36803.13, -63702.49, -67793.76, -55441.76, -48170.42, -63408.03, -62655.92, 0.000, 0.000, 0.000, 11:46:14.868
168, -36376.82, -36947.28, -63591.31, -67469.81, -55395.94, -48224.76, -63517.26, -62627.37, 0.000, 0.000, 0.000, 11:46:14.868
169, -36408.98, -36978.97, -63701.06, -67256.84, -55473.90, -48300.60, -63580.16, -62695.34, 0.000, 0.000, 0.000, 11:46:14.868
170, -36268.23, -36845.00, -63813.25, -67536.51, -55525.93, -48254.89, -63479.49, -62724.31, 0.000, 0.000, 0.000, 11:46:14.868
171, -36232.49, -36806.68, -63736.13, -67792.26, -55460.35, -48186.56, -63415.85, -62672.19, 0.000, 0.000, 0.000, 11:46:14.868
172, -36360.23, -36926.73, -63609.84, -67535.57, -55401.19, -48220.63, -63506.47, -62631.22, 0.000, 0.000, 0.000, 11:46:14.868
173, -36413.72, -36980.22, -63675.74, -67265.65, -55465.45, -48293.13, -63580.05, -62682.87, 0.000, 0.000, 0.000, 11:46:14.868
174, -36308.06, -36882.01, -63794.94, -67459.51, -55522.04, -48274.58, -63508.86, -62727.09, 0.000, 0.000, 0.000, 11:46:14.868
175, -36246.86, -36825.73, -63767.04, -67757.34, -55479.40, -48212.49, -63438.74, -62699.26, 0.106, 0.472, 0.874, 11:46:14.868
176, -36358.42, -36922.89, -63635.30, -67583.88, -55410.87, -48214.48, -63500.57, -62643.15, 0.000, 0.000, 0.000, 11:46:14.868
177, -36431.51, -36992.70, -63669.93, -67267.84, -55449.00, -48282.47, -63583.36, -62674.89, 0.000, 0.000, 0.000, 11:46:14.868
178, -36332.04, -36902.82, -63794.20, -67391.27, -55511.43, -48277.11, -63528.80, -62727.00, 0.000, 0.000, 0.000, 11:46:14.869
179, -36212.33, -36789.67, -63782.96, -67755.71, -55478.37, -48187.27, -63410.31, -62694.14, 0.000, 0.000, 0.000, 11:46:14.869
180, -36292.06, -36864.66, -63630.77, -67683.31, -55390.15, -48174.31, -63444.29, -62620.11, 0.000, 0.000, 0.000, 11:46:14.869
181, -36418.72, -36987.78, -63625.82, -67305.41, -55410.51, -48269.86, -63564.74, -62652.34, 0.000, 0.000, 0.000, 11:46:14.869
182, -36384.64, -36946.20, -63777.35, -67317.17, -55498.84, -48310.01, -63569.27, -62730.21, 0.000, 0.000, 0.000, 11:46:14.869
183, -36251.73, -36817.43, -63817.76, -67681.88, -55499.80, -48233.43, -63452.58, -62721.21, 0.000, 0.000, 0.000, 11:46:14.869
184, -36293.22, -36857.06, -63671.91, -67711.05, -55412.59, -48193.42, -63447.57, -62649.59, 0.108, 0.474, 0.874, 11:46:14.869
185, -36420.54, -36985.16, -63621.18, -67341.83, -55405.66, -48264.88, -63559.89, -62651.18, 0.000, 0.000, 0.000, 11:46:14.869
186, -36396.15, -36960.89, -63750.55, -67271.69, -55490.86, -48312.04, -63571.87, -62721.41, 0.000, 0.000, 0.000, 11:46:14.869
187, -36253.90, -36826.62, -63816.46, -67619.39, -55508.05, -48242.93, -63458.59, -62727.98, 0.000, 0.000, 0.000, 11:46:14.870
188, -36259.13, -36829.32, -63696.01, -67749.74, -55429.73, -48186.94, -63429.35, -62663.14, 0.000, 0.000, 0.000, 11:46:14.870
189, -36395.66, -36960.42, -63606.18, -67407.25, -55387.80, -48243.87, -63535.82, -62641.90, 0.000, 0.000, 0.000, 11:46:14.870
190, -36406.65, -36974.79, -63724.93, -67252.69, -55462.66, -48302.70, -63574.66, -62701.29, 0.000, 0.000, 0.000, 11:46:14.870
191, -36267.85, -36844.61, -63826.90, -67562.02, -55506.31, -48247.67, -63474.79, -62720.56, 0.000, 0.000, 0.000, 11:46:14.870
192, -36232.47, -36806.97, -63732.18, -67781.75, -55441.40, -48168.93, -63409.19, -62657.50, 0.000, 0.000, 0.000, 11:46:14.870
193, -36374.33, -36940.17, -63609.48, -67481.59, -55385.79, -48215.41, -63511.61, -62624.02, 0.000, 0.000, 0.000, 11:46:14.870
194, -36412.02, -36979.42, -63707.70, -67255.80, -55454.36, -48292.57, -63577.95, -62686.63, 0.104, 0.476, 0.870, 11:46:14.870
195, -36294.27, -36869.02, -63825.23, -67503.52, -55499.40, -48261.62, -63494.35, -62724.96, 0.000, 0.000, 0.000, 11:46:14.870
196, -36225.34, -36801.77, -63766.98, -67786.94, -55438.83, -48178.98, -63412.61, -62675.03, 0.000, 0.000, 0.000, 11:46:14.871
197, -36349.39, -36917.46, -63624.13, -67557.48, -55368.96, -48204.02, -63494.29, -62627.29, 0.000, 0.000, 0.000, 11:46:14.871
198, -36413.18, -36984.38, -63684.95, -67264.35, -55425.42, -48291.59, -63581.68, -62681.35, 0.000, 0.000, 0.000, 11:46:14.871
199, -36294.07, -36872.82, -63813.76, -67454.27, -55490.59, -48270.98, -63506.96, -62723.17, 0.000, 0.000, 0.000, 11:46:14.871
200, -36218.65, -36804.02, -63782.87, -67773.17, -55455.61, -48199.12, -63423.14, -62689.55, 0.000, 0.000, 0.000, 11:46:14.871
201, -36311.50, -36885.85, -63636.42, -67637.20, -55379.42, -48189.11, -63466.12, -62629.38, 0.000, 0.000, 0.000, 11:46:14.871
202, -36422.48, -36991.93, -63647.60, -67287.22, -55410.62, -48276.73, -63572.20, -62666.29, 0.000, 0.000, 0.000, 11:46:14.871
203, -36349.30, -36925.39, -63795.36, -67362.43, -55495.49, -48298.23, -63546.10, -62734.30, 0.108, 0.476, 0.870, 11:46:14.871
204, -36223.66, -36802.62, -63816.04, -67725.94, -55484.70, -48208.33, -63432.95, -62709.16, 0.000, 0.000, 0.000, 11:46:14.871
205, -36274.31, -36847.23, -63665.41, -67703.43, -55399.22, -48168.43, -63442.72, -62635.31, 0.000, 0.000, 0.000, 11:46:14.871
206, -36394.36, -36963.21, -63638.88, -67346.52, -55409.01, -48244.81, -63549.36, -62647.15, 0.000, 0.000, 0.000, 11:46:14.871
207, -36349.34, -36924.45, -63774.98, -67345.38, -55491.54, -48280.84, -63543.70, -62712.58, 0.000, 0.000, 0.000, 11:46:14.872
208, -36230.81, -36811.69, -63822.70, -67696.44, -55498.66, -48215.71, -63444.20, -62709.40, 0.000, 0.000, 0.000, 11:46:14.872
209, -36273.04, -36853.24, -63699.70, -67741.05, -55417.66, -48184.79, -63451.21, -62650.84, 0.000, 0.000, 0.000, 11:46:15.338
210, -36414.32, -36982.77, -63646.34, -67374.91, -55411.31, -48252.39, -63563.93, -62649.39, 0.000, 0.000, 0.000, 11:46:15.338
211, -36387.03, -36960.38, -63777.15, -67293.41, -55491.60, -48296.17, -63571.53, -62714.01, 0.000, 0.000, 0.000, 11:46:15.338
212, -36261.23, -36842.13, -63846.79, -67625.42, -55507.07, -48239.38, -63471.78, -62724.56, 0.000, 0.000, 0.000, 11:46:15.338
213, -36265.50, -36841.57, -63742.86, -67767.38, -55438.47, -48188.39, -63444.39, -62664.72, 0.106, 0.480, 0.870, 11:46:15.338
214, -36395.70, -36961.87, -63650.88, -67442.79, -55405.28, -48238.77, -63538.72, -62642.75, 0.000, 0.000, 0.000, 11:46:15.338
215, -36403.88, -36975.21, -63751.55, -67280.63, -55474.39, -48291.86, -63575.78, -62703.28, 0.000, 0.000, 0.000, 11:46:15.339
216, -36267.80, -36853.22, -63848.52, -67570.13, -55515.90, -48249.91, -63484.96, -62731.46, 0.000, 0.000, 0.000, 11:46:15.339
217, -36226.45, -36810.33, -63761.75, -67810.07, -55448.24, -48181.38, -63424.17, -62674.16, 0.000, 0.000, 0.000, 11:46:15.339
218, -36374.00, -36945.51, -63634.45, -67511.30, -55386.30, -48229.16, -63534.18, -62639.44, 0.000, 0.000, 0.000, 11:46:15.339
219, -36411.82, -36981.90, -63721.54, -67263.26, -55454.83, -48298.45, -63597.35, -62695.08, 0.000, 0.000, 0.000, 11:46:15.339
220, -36295.41, -36870.48, -63838.57, -67490.89, -55513.55, -48274.04, -63519.79, -62738.91, 0.000, 0.000, 0.000, 11:46:15.339
221, -36220.17, -36795.51, -63783.52, -67793.42, -55466.12, -48190.61, -63429.84, -62690.45, 0.000, 0.000, 0.000, 11:46:15.339
222, -36353.34, -36921.77, -63643.35, -67574.77, -55403.09, -48215.15, -63509.46, -62642.64, 0.000, 0.000, 0.000, 11:46:15.339
223, -36424.42, -36996.81, -63701.60, -67262.97, -55457.54, -48293.20, -63602.04, -62684.93, 0.102, 0.470, 0.874, 11:46:15.339
224, -36321.79, -36900.32, -63836.89, -67419.05, -55518.58, -48280.59, -63539.88, -62736.18, 0.000, 0.000, 0.000, 11:46:15.339
225, -36235.71, -36816.68, -63821.92, -67748.49, -55485.54, -48208.89, -63447.59, -62712.82, 0.000, 0.000, 0.000, 11:46:15.340
226, -36326.55, -36906.24, -63688.68, -67629.16, -55416.93, -48214.54, -63505.04, -62663.92, 0.000, 0.000, 0.000, 11:46:15.340
227, -36424.60, -37008.59, -63698.60, -67276.38, -55440.86, -48300.75, -63605.22, -62694.63, 0.000, 0.000, 0.000, 11:46:15.340
228, -36350.93, -36931.38, -63839.08, -67343.50, -55517.75, -48307.37, -63562.04, -62744.54, 0.000, 0.000, 0.000, 11:46:15.340
229, -36216.93, -36797.99, -63851.11, -67718.61, -55502.49, -48212.18, -63437.63, -62712.15, 0.000, 0.000, 0.000, 11:46:15.340
230, -36282.11, -36856.64, -63698.54, -67704.30, -55418.18, -48187.30, -63453.02, -62644.43, 0.000, 0.000, 0.000, 11:46:15.340
231, -36425.68, -36998.57, -63671.22, -67318.60, -55429.04, -48284.10, -63587.11, -62666.40, 0.000, 0.000, 0.000, 11:46:15.340
232, -36369.57, -36948.28, -63818.30, -67295.98, -55518.96, -48320.69, -63583.02, -62735.73, 0.104, 0.474, 0.874, 11:46:15.340
233, -36226.52, -36806.35, -63860.45, -67666.08, -55520.70, -48236.76, -63454.72, -62722.95, 0.000, 0.000, 0.000, 11:46:15.340
234, -36259.22, -36833.75, -63726.99, -67743.98, -55440.91, -48196.62, -63446.86, -62655.22, 0.000, 0.000, 0.000, 11:46:15.341
235, -36395.52, -36972.13, -63665.19, -67375.84, -55425.73, -48274.34, -63575.87, -62658.31, 0.000, 0.000, 0.000, 11:46:15.341
236, -36373.93, -36954.16, -63790.25, -67271.53, -55503.94, -48316.02, -63591.25, -62721.43, 0.000, 0.000, 0.000, 11:46:15.341
237, -36239.69, -36815.80, -63867.11, -67611.27, -55522.74, -48244.99, -63470.17, -62725.23, 0.000, 0.000, 0.000, 11:46:15.341
238, -36217.18, -36793.50, -63752.78, -67797.11, -55441.60, -48173.95, -63422.00, -62658.84, 0.000, 0.000, 0.000, 11:46:15.341
239, -36364.36, -36935.45, -63643.37, -67470.13, -55399.38, -48228.22, -63530.38, -62628.63, 0.000, 0.000, 0.000, 11:46:15.341
240, -36391.14, -36965.89, -63749.90, -67266.43, -55477.79, -48301.16, -63584.63, -62691.34, 0.000, 0.000, 0.000, 11:46:15.341
241, -36268.36, -36845.53, -63860.14, -67537.47, -55523.07, -48259.40, -63497.48, -62725.61, 0.000, 0.000, 0.000, 11:46:15.341
242, -36205.96, -36786.30, -63782.29, -67807.45, -55454.05, -48174.40, -63415.45, -62667.32, 0.106, 0.476, 0.876, 11:46:15.341
243, -36328.76, -36906.11, -63647.35, -67553.77, -55385.25, -48208.22, -63498.46, -62625.54, 0.000, 0.000, 0.000, 11:46:15.341
244, -36394.07, -36965.02, -63715.14, -67285.66, -55443.97, -48284.64, -63572.70, -62678.22, 0.000, 0.000, 0.000, 11:46:15.342
245, -36295.52, -36873.71, -63844.09, -67477.50, -55510.11, -48271.18, -63511.23, -62726.84, 0.000, 0.000, 0.000, 11:46:15.342
246, -36216.51, -36798.30, -63812.71, -67780.81, -55471.53, -48196.13, -63428.57, -62686.23, 0.000, 0.000, 0.000, 11:46:15.342
247, -36332.11, -36907.85, -63673.66, -67591.77, -55405.21, -48213.20, -63502.13, -62638.21, 0.000, 0.000, 0.000, 11:46:15.342
248, -36432.20, -37002.04, -63725.36, -67257.83, -55460.64, -48305.71, -63610.02, -62692.06, 0.000, 0.000, 0.000, 11:46:15.342
249, -36318.95, -36899.44, -63862.46, -67395.36, -55534.47, -48296.42, -63548.64, -62746.08, 0.000, 0.000, 0.000, 11:46:15.342
250, -36208.91, -36790.23, -63847.04, -67754.15, -55496.21, -48204.89, -63434.54, -62708.84, 0.000, 0.000, 0.000, 11:46:15.342
251, -36303.19, -36870.25, -63693.77, -67666.38, -55408.90, -48191.70, -63471.96, -62642.28, 0.106, 0.474, 0.876, 11:46:15.342
252, -36429.12, -36994.46, -63700.79, -67292.36, -55437.22, -48293.09, -63594.31, -62675.88, 0.000, 0.000, 0.000, 11:46:15.342
253, -36339.29, -36918.40, -63845.97, -67342.70, -55518.80, -48306.32, -63563.17, -62738.84, 0.000, 0.000, 0.000, 11:46:15.343
254, -36234.97, -36807.38, -63862.69, -67694.65, -55504.03, -48230.75, -63456.29, -62725.00, 0.000, 0.000, 0.000, 11:46:15.343
255, -36283.41, -36849.22, -63730.99, -67705.82, -55427.34, -48195.77, -63463.75, -62658.80, 0.000, 0.000, 0.000, 11:46:15.343
0, -36407.01, -36968.75, -63684.12, -67341.38, -55416.52, -48262.38, -63572.07, -62660.18, 0.000, 0.000, 0.000, 11:46:15.343
1, -36367.61, -36940.21, -63817.34, -67288.13, -55501.55, -48304.24, -63585.04, -62725.96, 0.000, 0.000, 0.000, 11:46:15.343
2, -36227.01, -36805.86, -63879.41, -67648.36, -55507.92, -48230.82, -63464.80, -62724.67, 0.000, 0.000, 0.000, 11:46:15.343
3, -36251.67, -36823.58, -63753.03, -67759.58, -55417.50, -48181.44, -63446.52, -62661.21, 0.000, 0.000, 0.000, 11:46:15.344
4, -36398.81, -36962.68, -63675.65, -67400.48, -55392.02, -48248.32, -63565.01, -62651.29, 0.000, 0.000, 0.000, 11:46:15.344
5, -36379.86, -36951.28, -63799.63, -67265.36, -55479.02, -48298.86, -63587.87, -62715.75, 0.102, 0.474, 0.868, 11:46:15.344
6, -36258.71, -36831.81, -63883.23, -67578.24, -55513.35, -48245.99, -63485.61, -62733.90, 0.000, 0.000, 0.000, 11:46:15.344
7, -36248.98, -36818.55, -63791.95, -67766.48, -55454.00, -48189.31, -63446.34, -62682.47, 0.000, 0.000, 0.000, 11:46:15.344
8, -36370.06, -36935.90, -63680.25, -67462.34, -55400.85, -48225.74, -63537.98, -62646.11, 0.000, 0.000, 0.000, 11:46:15.344
9, -36401.04, -36968.87, -63766.26, -67247.59, -55465.61, -48294.65, -63592.97, -62699.30, 0.000, 0.000, 0.000, 11:46:15.344
10, -36279.92, -36852.82, -63876.43, -67507.01, -55519.41, -48263.34, -63506.04, -62734.50, 0.000, 0.000, 0.000, 11:46:15.344
11, -36220.69, -36795.20, -63812.66, -67776.41, -55461.18, -48189.22, -63431.75, -62686.71, 0.000, 0.000, 0.000, 11:46:15.345
12, -36338.50, -36907.11, -63675.87, -67539.46, -55387.89, -48210.72, -63510.94, -62636.52, 0.000, 0.000, 0.000, 11:46:15.345
13, -36408.55, -36978.30, -63741.96, -67249.73, -55448.39, -48294.12, -63604.57, -62690.00, 0.000, 0.000, 0.000, 11:46:15.345
14, -36293.20, -36874.70, -63878.36, -67436.93, -55521.39, -48276.46, -63534.63, -62739.38, 0.102, 0.476, 0.868, 11:46:15.345
15, -36201.87, -36783.64, -63840.96, -67770.40, -55477.83, -48189.58, -63429.98, -62694.59, 0.000, 0.000, 0.000, 11:46:15.345
16, -36321.45, -36890.26, -63694.96, -67609.82, -55401.25, -48201.65, -63497.53, -62641.81, 0.000, 0.000, 0.000, 11:46:15.345
17, -36410.21, -36980.45, -63726.86, -67276.29, -55439.95, -48280.14, -63596.50, -62678.74, 0.000, 0.000, 0.000, 11:46:15.345
18, -36325.29, -36905.05, -63865.88, -67375.77, -55521.24, -48292.24, -63556.82, -62740.09, 0.000, 0.000, 0.000, 11:46:15.345
19, -36223.82, -36800.00, -63871.54, -67734.12, -55506.00, -48213.70, -63453.80, -62718.19, 0.000, 0.000, 0.000, 11:46:15.345
20, -36294.05, -36857.54, -63731.73, -67685.82, -55427.72, -48187.16, -63473.05, -62652.92, 0.000, 0.000, 0.000, 11:46:15.345
21, -36422.21, -36984.31, -63718.09, -67312.55, -55438.18, -48276.61, -63594.58, -62676.66, 0.000, 0.000, 0.000, 11:46:15.345
22, -36352.74, -36920.45, -63861.08, -67331.41, -55517.21, -48299.68, -63574.80, -62741.23, 0.000, 0.000, 0.000, 11:46:15.346
23, -36216.62, -36787.71, -63886.07, -67705.63, -55514.09, -48211.19, -63445.02, -62721.32, 0.000, 0.000, 0.000, 11:46:15.346
24, -36261.82, -36825.14, -63745.52, -67752.36, -55423.83, -48170.82, -63446.30, -62651.04, 0.090, 0.474, 0.870, 11:46:15.346
25, -36400.80, -36960.44, -63686.76, -67380.63, -55406.75, -48246.02, -63568.94, -62653.75, 0.000, 0.000, 0.000, 11:46:15.346
26, -36386.34, -36953.71, -63821.25, -67289.92, -55493.72, -48300.71, -63591.83, -62728.47, 0.000, 0.000, 0.000, 11:46:15.346
27, -36233.45, -36810.10, -63893.55, -67645.85, -55510.91, -48224.47, -63466.37, -62730.97, 0.000, 0.000, 0.000, 11:46:15.346
28, -36246.86, -36821.10, -63771.43, -67773.59, -55434.05, -48175.32, -63443.30, -62668.12, 0.000, 0.000, 0.000, 11:46:15.346
29, -36382.61, -36950.18, -63690.64, -67434.20, -55404.23, -48234.17, -63549.23, -62649.84, 0.000, 0.000, 0.000, 11:46:15.346
30, -36388.53, -36961.00, -63802.65, -67279.33, -55481.18, -48298.30, -63588.54, -62714.25, 0.000, 0.000, 0.000, 11:46:15.346
31, -36245.72, -36826.89, -63895.72, -67587.49, -55516.64, -48245.21, -63486.26, -62737.81, 0.000, 0.000, 0.000, 11:46:15.346
32, -36210.09, -36786.21, -63794.92, -67811.10, -55442.18, -48170.49, -63424.84, -62675.99, 0.000, 0.000, 0.000, 11:46:15.346
33, -36377.15, -36938.09, -63680.61, -67498.98, -55394.53, -48226.41, -63539.10, -62645.10, 0.000, 0.000, 0.000, 11:46:15.347
34, -36405.54, -36967.64, -63785.98, -67268.73, -55475.26, -48289.55, -63603.45, -62706.72, 0.094, 0.474, 0.868, 11:46:15.347
35, -36283.45, -36852.86, -63893.20, -67515.50, -55529.69, -48250.13, -63511.45, -62740.43, 0.000, 0.000, 0.000, 11:46:15.347
36, -36243.38, -36810.62, -63843.42, -67786.83, -55483.20, -48188.41, -63442.36, -62699.55, 0.000, 0.000, 0.000, 11:46:15.347
37, -36358.38, -36923.56, -63724.73, -67570.55, -55411.78, -48208.06, -63523.14, -62653.41, 0.000, 0.000, 0.000, 11:46:15.347
38, -36416.29, -36990.46, -63777.19, -67276.38, -55460.62, -48280.57, -63600.01, -62693.63, 0.000, 0.000, 0.000, 11:46:15.347
39, -36317.76, -36886.79, -63899.54, -67445.85, -55528.37, -48270.13, -63536.75, -62738.30, 0.000, 0.000, 0.000, 11:46:15.347
40, -36229.00, -36796.87, -63871.47, -67779.88, -55486.71, -48195.32, -63446.07, -62707.23, 0.000, 0.000, 0.000, 11:46:15.347
41, -36319.06, -36884.20, -63725.85, -67649.54, -55407.22, -48193.80, -63496.63, -62649.46, 0.000, 0.000, 0.000, 11:46:15.347
42, -36420.58, -36976.71, -63743.02, -67302.69, -55442.56, -48279.30, -63598.58, -62685.24, 0.000, 0.000, 0.000, 11:46:15.347
43, -36339.51, -36899.87, -63876.39, -67387.42, -55518.47, -48291.66, -63559.24, -62744.25, 0.100, 0.472, 0.862, 11:46:15.347
44, -36227.06, -36788.11, -63890.87, -67739.10, -55503.47, -48215.30, -63449.83, -62725.96, 0.000, 0.000, 0.000, 11:46:15.348
45, -36271.94, -36831.47, -63741.74, -67724.71, -55419.16, -48172.68, -63459.89, -62648.45, 0.000, 0.000, 0.000, 11:46:15.348
46, -36411.68, -36969.00, -63714.38, -67341.83, -55424.23, -48268.61, -63585.14, -62665.89, 0.000, 0.000, 0.000, 11:46:15.348
47, -36371.36, -36934.71, -63857.99, -67319.77, -55509.15, -48306.48, -63584.34, -62739.38, 0.000, 0.000, 0.000, 11:46:15.348
48, -36223.62, -36791.02, -63912.64, -67696.19, -55508.14, -48215.66, -63454.84, -62728.83, 0.000, 0.000, 0.000, 11:46:15.348
49, -36269.39, -36831.74, -63772.61, -67762.69, -55419.29, -48178.31, -63459.26, -62662.27, 0.000, 0.000, 0.000, 11:46:15.348
50, -36416.18, -36972.55, -63727.73, -67387.98, -55420.93, -48261.59, -63585.10, -62669.75, 0.000, 0.000, 0.000, 11:46:15.348
51, -36387.72, -36945.73, -63848.49, -67295.78, -55498.87, -48300.71, -63590.29, -62729.05, 0.000, 0.000, 0.000, 11:46:15.348
52, -36244.61, -36811.13, -63922.28, -67629.72, -55526.38, -48234.93, -63482.33, -62738.75, 0.000, 0.000, 0.000, 11:46:15.348
53, -36223.17, -36796.38, -63805.54, -67804.10, -55447.64, -48161.70, -63429.98, -62669.46, 0.106, 0.474, 0.870, 11:46:15.348
54, -36384.37, -36942.87, -63704.66, -67461.98, -55407.16, -48230.30, -63551.68, -62649.05, 0.000, 0.000, 0.000, 11:46:15.348
55, -36414.32, -36969.07, -63823.30, -67268.40, -55485.50, -48309.32, -63607.72, -62720.31, 0.000, 0.000, 0.000, 11:46:15.349
56, -36278.47, -36841.64, -63931.33, -67558.80, -55523.27, -48261.59, -63505.57, -62746.78, 0.000, 0.000, 0.000, 11:46:15.349
57, -36234.66, -36797.12, -63850.04, -67798.96, -55462.34, -48192.84, -63446.90, -62693.18, 0.000, 0.000, 0.000, 11:46:15.349
58, -36345.39, -36904.70, -63720.73, -67536.09, -55403.34, -48218.52, -63529.00, -62649.75, 0.000, 0.000, 0.000, 11:46:15.349
59, -36413.54, -36970.50, -63793.51, -67270.45, -55464.93, -48296.69, -63603.09, -62702.54, 0.000, 0.000, 0.000, 11:46:15.349
60, -36297.76, -36860.53, -63918.66, -67498.45, -55517.98, -48266.33, -63514.22, -62739.54, 0.000, 0.000, 0.000, 11:46:15.349
61, -36225.23, -36786.16, -63865.13, -67807.91, -55466.10, -48184.55, -63427.32, -62693.40, 0.000, 0.000, 0.000, 11:46:15.349
62, -36344.92, -36897.77, -63720.64, -67608.86, -55389.41, -48197.24, -63498.42, -62641.88, 0.102, 0.476, 0.866, 11:46:15.349
63, -36429.50, -36984.63, -63769.57, -67286.51, -55435.41, -48284.35, -63598.13, -62689.96, 0.000, 0.000, 0.000, 11:46:15.349
64, -36316.35, -36882.81, -63900.71, -67429.71, -55497.64, -48275.92, -63540.57, -62743.29, 0.000, 0.000, 0.000, 11:46:15.350
65, -36217.67, -36781.38, -63888.05, -67776.34, -55469.16, -48197.20, -63441.87, -62714.68, 0.000, 0.000, 0.000, 11:46:15.350
66, -36326.14, -36884.76, -63751.35, -67662.22, -55395.15, -48199.39, -63494.13, -62657.64, 0.000, 0.000, 0.000, 11:46:15.350
67, -36421.59, -36976.73, -63769.10, -67314.09, -55433.87, -48274.60, -63596.23, -62686.25, 0.000, 0.000, 0.000, 11:46:15.350
68, -36330.66, -36894.46, -63898.11, -67383.71, -55515.61, -48282.61, -63557.23, -62742.86, 0.000, 0.000, 0.000, 11:46:15.350
69, -36213.91, -36782.99, -63909.40, -67749.86, -55498.39, -48205.60, -63441.78, -62722.08, 0.000, 0.000, 0.000, 11:46:15.350
70, -36289.82, -36846.16, -63769.84, -67738.48, -55405.97, -48184.48, -63466.97, -62655.16, 0.000, 0.000, 0.000, 11:46:15.350
71, -36419.68, -36971.64, -63742.81, -67362.61, -55413.71, -48267.47, -63589.79, -62672.93, 0.000, 0.000, 0.000, 11:46:15.350
72, -36385.26, -36939.96, -63880.86, -67323.90, -55499.43, -48309.34, -63588.97, -62741.86, 0.098, 0.472, 0.868, 11:46:15.350
73, -36247.91, -36799.87, -63936.61, -67687.36, -55509.73, -48228.18, -63468.65, -62736.83, 0.000, 0.000, 0.000, 11:46:15.818
74, -36256.43, -36806.82, -63798.54, -67790.94, -55420.84, -48168.32, -63438.63, -62660.57, 0.000, 0.000, 0.000, 11:46:15.818
75, -36395.77, -36947.97, -63718.99, -67431.48, -55396.52, -48236.98, -63558.28, -62648.29, 0.000, 0.000, 0.000, 11:46:15.818
76, -36391.16, -36944.91, -63846.91, -67305.19, -55484.23, -48295.03, -63592.88, -62719.46, 0.000, 0.000, 0.000, 11:46:15.818
77, -36256.41, -36815.89, -63940.31, -67626.79, -55521.69, -48241.63, -63494.46, -62744.79, 0.000, 0.000, 0.000, 11:46:15.818
78, -36234.39, -36791.24, -63836.18, -67820.02, -55447.50, -48171.52, -63440.53, -62677.84, 0.000, 0.000, 0.000, 11:46:15.818
79, -36388.06, -36933.39, -63734.28, -67496.27, -55402.77, -48229.72, -63553.07, -62652.09, 0.000, 0.000, 0.000, 11:46:15.818
80, -36406.57, -36958.16, -63842.86, -67292.85, -55477.95, -48297.89, -63609.20, -62714.21, 0.000, 0.000, 0.000, 11:46:15.819
81, -36280.95, -36837.44, -63944.36, -67566.66, -55524.46, -48255.00, -63512.73, -62745.39, 0.000, 0.000, 0.000, 11:46:15.819
82, -36231.26, -36793.63, -63867.18, -67824.38, -55467.19, -48187.36, -63445.36, -62695.90, 0.102, 0.472, 0.864, 11:46:15.819
83, -36347.71, -36901.68, -63742.28, -67579.29, -55408.21, -48214.88, -63524.15, -62651.89, 0.000, 0.000, 0.000, 11:46:15.819
84, -36398.09, -36956.15, -63802.80, -67311.36, -55459.21, -48291.64, -63600.14, -62702.99, 0.000, 0.000, 0.000, 11:46:15.819
85, -36293.87, -36851.57, -63926.59, -67510.07, -55519.72, -48274.11, -63526.96, -62749.97, 0.000, 0.000, 0.000, 11:46:15.819
86, -36214.16, -36768.75, -63886.69, -67834.10, -55479.09, -48191.41, -63430.65, -62707.50, 0.000, 0.000, 0.000, 11:46:15.819
87, -36333.03, -36883.91, -63740.85, -67658.08, -55399.80, -48205.78, -63505.95, -62656.63, 0.000, 0.000, 0.000, 11:46:15.819
88, -36433.39, -36980.13, -63789.39, -67322.31, -55451.37, -48297.43, -63611.57, -62704.44, 0.000, 0.000, 0.000, 11:46:15.819
89, -36334.91, -36889.32, -63926.43, -67445.02, -55525.46, -48291.68, -63550.39, -62754.71, 0.000, 0.000, 0.000, 11:46:15.819
90, -36224.91, -36783.91, -63918.59, -67801.31, -55490.73, -48201.07, -63434.65, -62718.32, 0.000, 0.000, 0.000, 11:46:15.820
91, -36320.38, -36871.01, -63777.28, -67720.17, -55407.56, -48193.69, -63474.30, -62650.13, 0.104, 0.472, 0.862, 11:46:15.820
92, -36438.13, -36987.46, -63782.24, -67350.92, -55437.27, -48278.80, -63589.82, -62677.20, 0.000, 0.000, 0.000, 11:46:15.820
93, -36360.16, -36914.42, -63917.14, -67392.12, -55513.37, -48288.15, -63554.25, -62733.99, 0.000, 0.000, 0.000, 11:46:15.820
94, -36240.94, -36802.97, -63938.55, -67749.52, -55502.62, -48218.46, -63453.49, -62724.78, 0.000, 0.000, 0.000, 11:46:15.820
95, -36291.66, -36851.61, -63808.98, -67773.48, -55422.98, -48189.67, -63467.69, -62664.59, 0.000, 0.000, 0.000, 11:46:15.820
96, -36432.02, -36984.96, -63769.10, -67392.43, -55427.83, -48270.85, -63588.68, -62671.65, 0.000, 0.000, 0.000, 11:46:15.820
97, -36396.20, -36954.14, -63904.73, -67321.06, -55515.18, -48315.11, -63597.86, -62741.21, 0.000, 0.000, 0.000, 11:46:15.820
98, -36255.76, -36816.25, -63972.14, -67672.85, -55523.88, -48244.81, -63482.44, -62747.76, 0.000, 0.000, 0.000, 11:46:15.820
99, -36258.26, -36813.01, -63852.20, -67812.40, -55437.44, -48185.87, -63448.71, -62679.07, 0.000, 0.000, 0.000, 11:46:15.821
100, -36388.15, -36943.05, -63764.88, -67469.72, -55406.46, -48250.26, -63557.05, -62662.13, 0.000, 0.000, 0.000, 11:46:15.821
101, -36388.68, -36947.12, -63874.15, -67324.55, -55477.45, -48301.69, -63587.34, -62719.11, 0.106, 0.470, 0.868, 11:46:15.821
102, -36271.02, -36825.86, -63965.35, -67630.32, -55511.61, -48249.64, -63491.78, -62739.15, 0.000, 0.000, 0.000, 11:46:15.821
103, -36257.19, -36805.36, -63871.32, -67837.74, -55446.34, -48185.84, -63446.48, -62685.11, 0.000, 0.000, 0.000, 11:46:15.821
104, -36404.33, -36947.90, -63762.08, -67525.09, -55403.47, -48238.77, -63553.85, -62660.95, 0.000, 0.000, 0.000, 11:46:15.821
105, -36433.48, -36981.81, -63864.77, -67299.06, -55479.53, -48308.69, -63610.52, -62721.47, 0.000, 0.000, 0.000, 11:46:15.821
106, -36309.36, -36862.65, -63978.29, -67556.63, -55529.55, -48268.86, -63521.87, -62754.73, 0.000, 0.000, 0.000, 11:46:15.821
107, -36250.06, -36803.78, -63915.53, -67834.68, -55471.26, -48190.89, -63449.89, -62703.95, 0.000, 0.000, 0.000, 11:46:15.821
108, -36369.33, -36918.71, -63788.32, -67606.96, -55404.21, -48212.98, -63522.92, -62656.00, 0.000, 0.000, 0.000, 11:46:15.821
109, -36429.90, -36976.47, -63849.19, -67322.45, -55456.17, -48288.53, -63600.32, -62703.32, 0.000, 0.000, 0.000, 11:46:15.821
110, -36322.05, -36874.45, -63973.77, -67506.89, -55513.26, -48275.39, -63532.24, -62752.66, 0.114, 0.474, 0.874, 11:46:15.822
111, -36235.21, -36789.72, -63944.52, -67838.48, -55473.00, -48197.13, -63441.42, -62717.56, 0.000, 0.000, 0.000, 11:46:15.822
112, -36331.91, -36879.64, -63794.13, -67703.34, -55393.14, -48192.17, -63495.34, -62656.25, 0.000, 0.000, 0.000, 11:46:15.822
113, -36447.29, -36991.33, -63820.09, -67347.34, -55431.63, -48290.94, -63613.60, -62696.95, 0.000, 0.000, 0.000, 11:46:15.822
114, -36351.40, -36906.55, -63969.77, -67441.02, -55519.52, -48295.66, -63566.93, -62755.70, 0.000, 0.000, 0.000, 11:46:15.822
115, -36237.96, -36798.10, -63970.07, -67801.91, -55499.65, -48211.73, -63458.81, -62725.27, 0.000, 0.000, 0.000, 11:46:15.822
116, -36326.21, -36870.41, -63825.65, -67753.45, -55413.86, -48199.46, -63491.49, -62664.99, 0.000, 0.000, 0.000, 11:46:15.822
117, -36448.86, -36988.14, -63814.50, -67380.16, -55430.38, -48285.96, -63609.35, -62690.14, 0.000, 0.000, 0.000, 11:46:15.822
118, -36373.98, -36919.49, -63951.60, -67393.13, -55517.06, -48304.33, -63583.67, -62750.11, 0.000, 0.000, 0.000, 11:46:15.822
119, -36224.91, -36778.61, -63980.39, -67776.50, -55503.52, -48210.77, -63449.16, -62730.04, 0.000, 0.000, 0.000, 11:46:15.822
120, -36266.62, -36816.61, -63829.41, -67831.59, -55405.99, -48169.57, -63451.37, -62662.02, 0.098, 0.468, 0.878, 11:46:15.823
121, -36412.80, -36956.26, -63775.98, -67455.08, -55400.09, -48252.72, -63579.00, -62665.32, 0.000, 0.000, 0.000, 11:46:15.823
122, -36392.95, -36940.97, -63906.99, -67364.89, -55485.88, -48301.56, -63594.89, -62730.97, 0.000, 0.000, 0.000, 11:46:15.823
123, -36257.90, -36812.11, -63984.14, -67697.91, -55510.87, -48243.11, -63492.96, -62748.03, 0.000, 0.000, 0.000, 11:46:15.823
124, -36253.95, -36806.86, -63874.15, -67851.34, -55439.99, -48186.47, -63458.14, -62684.93, 0.000, 0.000, 0.000, 11:46:15.823
125, -36398.05, -36939.88, -63781.62, -67515.74, -55406.78, -48241.84, -63566.48, -62663.72, 0.000, 0.000, 0.000, 11:46:15.823
126, -36416.45, -36959.43, -63892.14, -67337.69, -55482.23, -48309.98, -63613.98, -62732.94, 0.000, 0.000, 0.000, 11:46:15.823
127, -36284.48, -36837.42, -63988.77, -67627.01, -55519.92, -48266.45, -63514.71, -62762.18, 0.000, 0.000, 0.000, 11:46:15.823
128, -36244.22, -36796.63, -63901.09, -67858.27, -55455.73, -48191.68, -63451.06, -62700.60, 0.000, 0.000, 0.000, 11:46:15.823
129, -36377.33, -36924.61, -63779.29, -67573.92, -55402.98, -48232.87, -63546.28, -62661.59, 0.090, 0.470, 0.870, 11:46:15.823
130, -36434.93, -36980.98, -63866.80, -67317.48, -55465.65, -48315.35, -63622.27, -62723.04, 0.000, 0.000, 0.000, 11:46:15.824
131, -36307.41, -36858.61, -63994.79, -67549.95, -55526.89, -48284.66, -63538.45, -62764.41, 0.000, 0.000, 0.000, 11:46:15.824
132, -36224.58, -36777.07, -63935.40, -67855.53, -55472.38, -48196.48, -63445.96, -62711.77, 0.000, 0.000, 0.000, 11:46:15.824
133, -36353.59, -36893.72, -63791.63, -67644.06, -55405.14, -48213.79, -63523.70, -62659.11, 0.000, 0.000, 0.000, 11:46:15.824
134, -36432.74, -36973.27, -63845.18, -67330.42, -55456.84, -48296.29, -63611.41, -62703.59, 0.000, 0.000, 0.000, 11:46:15.824
135, -36322.03, -36872.09, -63977.20, -67488.79, -55518.54, -48283.86, -63544.91, -62752.83, 0.000, 0.000, 0.000, 11:46:15.824
136, -36224.44, -36778.23, -63955.02, -67834.16, -55480.98, -48202.79, -63448.44, -62719.82, 0.000, 0.000, 0.000, 11:46:15.824
137, -36309.29, -36857.58, -63807.21, -67729.27, -55400.23, -48193.06, -63491.56, -62659.22, 0.000, 0.000, 0.000, 11:46:15.824
138, -36411.37, -36958.95, -63812.75, -67381.81, -55429.46, -48277.55, -63594.58, -62688.82, 0.000, 0.000, 0.000, 11:46:15.825
139, -36343.80, -36897.63, -63951.16, -67437.31, -55510.64, -48299.37, -63570.28, -62756.63, 0.092, 0.474, 0.868, 11:46:15.825
140, -36222.77, -36783.80, -63970.36, -67796.15, -55499.36, -48218.88, -63461.09, -62736.49, 0.000, 0.000, 0.000, 11:46:15.825
141, -36297.76, -36848.82, -63828.27, -67771.58, -55420.79, -48198.83, -63487.49, -62676.21, 0.000, 0.000, 0.000, 11:46:15.825
142, -36421.99, -36970.54, -63807.25, -67405.62, -55433.31, -48276.84, -63605.06, -62690.32, 0.000, 0.000, 0.000, 11:46:15.825
143, -36381.69, -36934.65, -63950.02, -67384.95, -55513.57, -48310.25, -63598.63, -62755.54, 0.000, 0.000, 0.000, 11:46:15.825
144, -36240.96, -36801.72, -64002.03, -67744.54, -55514.73, -48232.92, -63479.78, -62750.71, 0.000, 0.000, 0.000, 11:46:15.825
145, -36273.86, -36823.29, -63871.83, -67827.62, -55431.41, -48185.66, -63471.00, -62683.59, 0.000, 0.000, 0.000, 11:46:15.825
146, -36416.11, -36955.81, -63809.96, -67467.09, -55412.25, -48260.59, -63591.58, -62684.23, 0.000, 0.000, 0.000, 11:46:15.825
147, -36394.14, -36938.78, -63933.50, -67364.24, -55491.49, -48305.05, -63601.37, -62743.49, 0.000, 0.000, 0.000, 11:46:15.825
148, -36261.90, -36811.22, -64004.15, -67697.20, -55514.45, -48242.04, -63490.31, -62751.83, 0.000, 0.000, 0.000, 11:46:15.826
149, -36256.32, -36805.59, -63897.85, -67864.81, -55447.77, -48185.87, -63453.20, -62691.12, 0.090, 0.468, 0.866, 11:46:15.826
150, -36392.64, -36937.33, -63797.35, -67537.34, -55411.89, -48238.44, -63560.47, -62667.02, 0.000, 0.000, 0.000, 11:46:15.826
151, -36420.82, -36968.31, -63900.71, -67328.93, -55489.75, -48313.00, -63622.14, -62734.15, 0.000, 0.000, 0.000, 11:46:15.826
152, -36271.58, -36827.98, -64007.37, -67616.64, -55535.21, -48261.08, -63513.98, -62760.52, 0.000, 0.000, 0.000, 11:46:15.826
153, -36227.37, -36785.47, -63919.32, -67867.13, -55468.69, -48194.52, -63450.72, -62711.68, 0.000, 0.000, 0.000, 11:46:15.826
154, -36359.58, -36910.29, -63797.24, -67597.40, -55415.61, -48231.09, -63546.16, -62672.59, 0.000, 0.000, 0.000, 11:46:15.826
155, -36405.49, -36954.18, -63877.02, -67334.45, -55479.66, -48302.41, -63613.00, -62720.16, 0.000, 0.000, 0.000, 11:46:15.826
156, -36290.13, -36845.60, -63994.07, -67551.30, -55537.24, -48280.13, -63537.22, -62762.96, 0.000, 0.000, 0.000, 11:46:15.826
157, -36225.07, -36783.48, -63951.49, -67853.84, -55498.20, -48207.21, -63461.16, -62725.50, 0.000, 0.000, 0.000, 11:46:15.826
158, -36337.05, -36891.08, -63816.91, -67669.16, -55428.01, -48218.50, -63528.71, -62671.81, 0.096, 0.472, 0.868, 11:46:15.826
159, -36424.78, -36979.57, -63862.24, -67341.83, -55472.58, -48304.31, -63626.18, -62716.64, 0.000, 0.000, 0.000, 11:46:15.827
160, -36334.41, -36892.65, -63996.21, -67469.66, -55547.68, -48299.41, -63573.37, -62770.27, 0.000, 0.000, 0.000, 11:46:15.827
161, -36215.05, -36774.23, -63988.32, -67834.01, -55516.72, -48207.70, -63457.07, -62738.13, 0.000, 0.000, 0.000, 11:46:15.827
162, -36292.04, -36849.49, -63825.14, -67756.27, -55424.05, -48192.95, -63490.57, -62671.43, 0.000, 0.000, 0.000, 11:46:15.827
163, -36393.40, -36953.45, -63827.62, -67403.56, -55449.33, -48277.49, -63597.21, -62693.76, 0.000, 0.000, 0.000, 11:46:15.827
164, -36332.09, -36894.23, -63963.74, -67447.99, -55522.98, -48302.54, -63570.41, -62755.11, 0.000, 0.000, 0.000, 11:46:15.827
165, -36220.46, -36785.45, -63991.23, -67797.13, -55516.72, -48233.66, -63469.79, -62745.19, 0.000, 0.000, 0.000, 11:46:15.827
166, -36283.52, -36839.90, -63859.56, -67799.45, -55440.24, -48209.89, -63492.23, -62686.05, 0.000, 0.000, 0.000, 11:46:15.827
167, -36421.63, -36970.43, -63826.81, -67422.00, -55439.34, -48291.23, -63612.14, -62698.74, 0.000, 0.000, 0.000, 11:46:15.827
168, -36374.47, -36925.01, -63962.18, -67383.98, -55519.14, -48316.71, -63601.42, -62757.08, 0.096, 0.478, 0.870, 11:46:15.827
169, -36236.56, -36794.12, -64012.71, -67741.85, -55525.62, -48241.68, -63485.30, -62752.41, 0.000, 0.000, 0.000, 11:46:15.827
170, -36254.42, -36808.29, -63888.93, -67850.66, -55443.10, -48193.51, -63463.98, -62686.80, 0.000, 0.000, 0.000, 11:46:15.828
171, -36391.75, -36943.16, -63810.34, -67491.83, -55415.94, -48257.37, -63580.63, -62672.25, 0.000, 0.000, 0.000, 11:46:15.828
172, -36399.86, -36953.40, -63934.50, -67347.73, -55503.27, -48322.93, -63625.13, -62746.29, 0.000, 0.000, 0.000, 11:46:15.828
173, -36260.16, -36818.51, -64028.74, -67661.81, -55538.20, -48266.24, -63518.11, -62769.78, 0.000, 0.000, 0.000, 11:46:15.828
174, -36236.69, -36793.85, -63926.93, -67861.48, -55458.03, -48197.31, -63466.37, -62708.73, 0.000, 0.000, 0.000, 11:46:15.828
175, -36382.07, -36935.74, -63824.49, -67541.54, -55417.89, -48254.26, -63574.71, -62683.43, 0.000, 0.000, 0.000, 11:46:15.828
176, -36396.77, -36958.52, -63916.89, -67326.40, -55489.86, -48317.52, -63623.90, -62739.87, 0.000, 0.000, 0.000, 11:46:15.828
177, -36263.09, -36828.50, -64024.94, -67591.67, -55537.91, -48276.14, -63527.03, -62773.73, 0.098, 0.476, 0.878, 11:46:15.828
