%OpenBCI Raw EEG Data
%
%Sample Rate = 250.0 Hz
%First Column = SampleIndex
%5 Columns before Timestamp are Frequency Power factors DELTA THETA ALPHA BETA GAMMA
%Last Column = Timestamp 
%Other Columns = EEG data in microvolts followed by Accel Data (in G) interleaved with Aux Data
0.000000, 0.000000, 0.000000, 0.000000, 0.000000, 0.000000, 0.000000, 0.000000, 0.000, 0.000, 0.000,0.0,0.0,0.0,0.0,0.0, 15:29:45.601
68394.835938, 57058.281250, 117686.710938, 94423.398438, 123759.523438, 99067.601563, 89309.093750, 119038.617188, 0.090, 0.224, 0.970,0.0,0.0,0.0,0.0,0.0, 15:29:46.076
68500.765625, 57161.500000, 117594.062500, 94263.140625, 123878.570313, 99140.171875, 89243.539063, 119151.984375, 0.000, 0.000, 0.000,0.0,0.0,0.0,0.0,0.0, 15:29:46.077
68406.281250, 57067.933594, 117641.562500, 94452.437500, 123784.937500, 99208.195313, 89319.375000, 119076.859375, 0.000, 0.000, 0.000,0.0,0.0,0.0,0.0,0.0, 15:29:46.078
68302.101563, 56962.031250, 117729.609375, 94633.039063, 123673.335938, 99155.445313, 89399.242188, 118972.609375, 0.000, 0.000, 0.000,0.0,0.0,0.0,0.0,0.0, 15:29:46.079
68366.656250, 57031.324219, 117696.835938, 94475.367188, 123734.578125, 99073.187500, 89338.664063, 119017.984375, 0.000, 0.000, 0.000,0.0,0.0,0.0,0.0,0.0, 15:29:46.080
68486.656250, 57153.988281, 117595.335938, 94266.179688, 123862.164063, 99115.367188, 89245.531250, 119137.226563, 0.000, 0.000, 0.000,0.0,0.0,0.0,0.0,0.0, 15:29:46.080
68433.242188, 57097.843750, 117615.523438, 94406.414063, 123809.484375, 99211.414063, 89306.859375, 119106.023438, 0.088, 0.234, 0.968,0.0,0.0,0.0,0.0,0.0, 15:29:46.081
68304.070313, 56968.292969, 117713.578125, 94627.023438, 123672.734375, 99177.859375, 89399.531250, 118982.734375, 0.000, 0.000, 0.000,0.0,0.0,0.0,0.0,0.0, 15:29:46.081
68344.210938, 57005.976563, 117692.257813, 94516.046875, 123701.750000, 99086.375000, 89349.664063, 119000.882813, 0.000, 0.000, 0.000,0.0,0.0,0.0,0.0,0.0, 15:29:46.082
68487.687500, 57147.843750, 117578.640625, 94276.523438, 123846.984375, 99110.492188, 89246.351563, 119135.289063, 0.000, 0.000, 0.000,0.0,0.0,0.0,0.0,0.0, 15:29:46.082
68464.375000, 57121.578125, 117578.125000, 94360.703125, 123824.906250, 99211.656250, 89286.921875, 119133.429688, 0.000, 0.000, 0.000,0.0,0.0,0.0,0.0,0.0, 15:29:46.082
68326.953125, 56976.628906, 117690.359375, 94605.226563, 123674.390625, 99194.648438, 89386.117188, 118993.687500, 0.000, 0.000, 0.000,0.0,0.0,0.0,0.0,0.0, 15:29:46.084
68319.359375, 56976.605469, 117721.960938, 94562.445313, 123665.023438, 99091.898438, 89367.101563, 118973.460938, 0.000, 0.000, 0.000,0.0,0.0,0.0,0.0,0.0, 15:29:46.084
68456.234375, 57120.125000, 117615.812500, 94307.796875, 123813.546875, 99085.656250, 89259.585938, 119106.320313, 0.000, 0.000, 0.000,0.0,0.0,0.0,0.0,0.0, 15:29:46.085
68471.148438, 57131.972656, 117585.843750, 94325.656250, 123833.976563, 99185.328125, 89265.960938, 119135.953125, 0.000, 0.000, 0.000,0.0,0.0,0.0,0.0,0.0, 15:29:46.086
68340.835938, 56998.914063, 117675.132813, 94578.500000, 123695.554688, 99200.953125, 89364.351563, 119013.984375, 0.000, 0.000, 0.000,0.0,0.0,0.0,0.0,0.0, 15:29:46.086
68314.039063, 56970.839844, 117711.546875, 94603.734375, 123661.335938, 99109.015625, 89376.039063, 118968.656250, 0.082, 0.238, 0.966,0.0,0.0,0.0,0.0,0.0, 15:29:46.087
68446.156250, 57101.238281, 117620.710938, 94357.304688, 123796.984375, 99079.179688, 89276.242188, 119082.023438, 0.000, 0.000, 0.000,0.0,0.0,0.0,0.0,0.0, 15:29:46.087
68505.945313, 57161.769531, 117555.445313, 94302.382813, 123865.070313, 99180.429688, 89256.210938, 119154.328125, 0.000, 0.000, 0.000,0.0,0.0,0.0,0.0,0.0, 15:29:46.087
68383.351563, 57037.046875, 117638.835938, 94550.421875, 123732.703125, 99218.070313, 89360.078125, 119044.742188, 0.000, 0.000, 0.000,0.0,0.0,0.0,0.0,0.0, 15:29:46.088
68314.867188, 56972.402344, 117708.281250, 94639.718750, 123655.054688, 99130.992188, 89396.781250, 118970.304688, 0.000, 0.000, 0.000,0.0,0.0,0.0,0.0,0.0, 15:29:46.088
68431.492188, 57092.566406, 117627.328125, 94409.007813, 123772.828125, 99085.234375, 89303.125000, 119071.804688, 0.000, 0.000, 0.000,0.0,0.0,0.0,0.0,0.0, 15:29:46.088
68509.125000, 57168.027344, 117560.804688, 94293.046875, 123854.875000, 99159.085938, 89254.851563, 119151.375000, 0.000, 0.000, 0.000,0.0,0.0,0.0,0.0,0.0, 15:29:46.089
68404.898438, 57062.683594, 117624.796875, 94504.023438, 123742.851563, 99212.257813, 89342.843750, 119062.109375, 0.000, 0.000, 0.000,0.0,0.0,0.0,0.0,0.0, 15:29:46.090
68306.906250, 56965.050781, 117712.710938, 94648.054688, 123629.039063, 99140.843750, 89402.328125, 118960.273438, 0.000, 0.000, 0.000,0.0,0.0,0.0,0.0,0.0, 15:29:46.090
68401.968750, 57061.476563, 117652.273438, 94449.703125, 123720.187500, 99074.460938, 89320.453125, 119035.734375, 0.084, 0.242, 0.968,0.0,0.0,0.0,0.0,0.0, 15:29:46.090
68516.546875, 57175.066406, 117550.304688, 94272.304688, 123846.476563, 99137.671875, 89246.000000, 119148.429688, 0.000, 0.000, 0.000,0.0,0.0,0.0,0.0,0.0, 15:29:46.091
68428.898438, 57091.695313, 117591.804688, 94447.000000, 123762.859375, 99213.734375, 89313.500000, 119084.390625, 0.000, 0.000, 0.000,0.0,0.0,0.0,0.0,0.0, 15:29:46.092
68314.773438, 56981.523438, 117691.539063, 94643.921875, 123646.898438, 99166.953125, 89398.484375, 118974.617188, 0.000, 0.000, 0.000,0.0,0.0,0.0,0.0,0.0, 15:29:46.092
68377.468750, 57039.996094, 117663.242188, 94499.015625, 123704.023438, 99082.195313, 89340.007813, 119015.523438, 0.000, 0.000, 0.000,0.0,0.0,0.0,0.0,0.0, 15:29:46.093
68502.375000, 57166.683594, 117558.304688, 94282.093750, 123844.242188, 99121.109375, 89249.976563, 119145.523438, 0.000, 0.000, 0.000,0.0,0.0,0.0,0.0,0.0, 15:29:46.093
68449.000000, 57109.667969, 117580.609375, 94408.265625, 123796.898438, 99214.851563, 89309.273438, 119114.609375, 0.000, 0.000, 0.000,0.0,0.0,0.0,0.0,0.0, 15:29:46.093
68313.789063, 56972.449219, 117687.046875, 94636.523438, 123650.648438, 99183.515625, 89403.664063, 118984.343750, 0.000, 0.000, 0.000,0.0,0.0,0.0,0.0,0.0, 15:29:46.094
68347.203125, 57008.031250, 117680.078125, 94547.023438, 123679.257813, 99097.375000, 89365.648438, 119004.437500, 0.000, 0.000, 0.000,0.0,0.0,0.0,0.0,0.0, 15:29:46.094
68481.539063, 57146.769531, 117576.992188, 94304.914063, 123821.976563, 99109.484375, 89260.929688, 119128.671875, 0.000, 0.000, 0.000,0.0,0.0,0.0,0.0,0.0, 15:29:46.094
68458.273438, 57126.964844, 117583.070313, 94369.601563, 123801.929688, 99199.539063, 89287.679688, 119116.734375, 0.092, 0.244, 0.968,0.0,0.0,0.0,0.0,0.0, 15:29:46.094
68327.312500, 56998.667969, 117678.218750, 94610.148438, 123661.851563, 99193.062500, 89386.117188, 118992.796875, 0.000, 0.000, 0.000,0.0,0.0,0.0,0.0,0.0, 15:29:46.095
68322.554688, 56993.390625, 117691.382813, 94580.109375, 123647.703125, 99095.648438, 89377.468750, 118972.343750, 0.000, 0.000, 0.000,0.0,0.0,0.0,0.0,0.0, 15:29:46.096
68458.140625, 57126.050781, 117594.890625, 94330.195313, 123786.234375, 99079.203125, 89275.257813, 119093.062500, 0.000, 0.000, 0.000,0.0,0.0,0.0,0.0,0.0, 15:29:46.096
68482.054688, 57149.074219, 117559.375000, 94324.359375, 123815.179688, 99178.757813, 89271.101563, 119133.921875, 0.000, 0.000, 0.000,0.0,0.0,0.0,0.0,0.0, 15:29:46.097
68358.382813, 57026.203125, 117633.132813, 94571.437500, 123683.710938, 99205.039063, 89366.765625, 119021.179688, 0.000, 0.000, 0.000,0.0,0.0,0.0,0.0,0.0, 15:29:46.098
68319.851563, 56987.535156, 117675.718750, 94615.554688, 123636.617188, 99116.882813, 89385.648438, 118969.968750, 0.000, 0.000, 0.000,0.0,0.0,0.0,0.0,0.0, 15:29:46.099
68441.757813, 57107.898438, 117596.726563, 94378.250000, 123764.757813, 99078.734375, 89292.023438, 119074.109375, 0.000, 0.000, 0.000,0.0,0.0,0.0,0.0,0.0, 15:29:46.100
68495.445313, 57161.632813, 117549.656250, 94310.101563, 123828.101563, 99164.781250, 89263.632813, 119141.031250, 0.000, 0.000, 0.000,0.0,0.0,0.0,0.0,0.0, 15:29:46.102
68383.796875, 57050.410156, 117614.476563, 94539.289063, 123703.578125, 99211.859375, 89351.117188, 119044.289063, 0.000, 0.000, 0.000,0.0,0.0,0.0,0.0,0.0, 15:29:46.102
68309.031250, 56975.355469, 117684.101563, 94641.687500, 123622.421875, 99133.804688, 89396.335938, 118963.039063, 0.092, 0.236, 0.972,0.0,0.0,0.0,0.0,0.0, 15:29:46.103
68415.312500, 57079.132813, 117627.523438, 94426.882813, 123733.242188, 99072.625000, 89316.921875, 119047.351563, 0.000, 0.000, 0.000,0.0,0.0,0.0,0.0,0.0, 15:29:46.105
68507.398438, 57170.820313, 117554.234375, 94294.500000, 123836.843750, 99146.765625, 89258.718750, 119147.289063, 0.000, 0.000, 0.000,5.6274E-6,7.454265E-6,9.162726E-6,2.8825756E-5,3.66118E-5, 15:29:46.105
68407.109375, 57072.472656, 117609.289063, 94496.000000, 123738.781250, 99213.492188, 89336.367188, 119067.601563, 0.000, 0.000, 0.000,5.6274E-6,7.454265E-6,9.162726E-6,2.8825756E-5,3.66118E-5, 15:29:46.115
68297.093750, 56961.855469, 117713.554688, 94658.203125, 123619.000000, 99141.070313, 89402.148438, 118952.000000, 0.000, 0.000, 0.000,5.6274E-6,7.454265E-6,9.162726E-6,2.8825756E-5,3.66118E-5, 15:29:46.115
68391.554688, 57054.570313, 117657.546875, 94475.007813, 123710.734375, 99070.460938, 89327.046875, 119022.585938, 0.000, 0.000, 0.000,5.6274E-6,7.454265E-6,9.162726E-6,2.8825756E-5,3.66118E-5, 15:29:46.116
68509.906250, 57177.593750, 117554.054688, 94286.359375, 123845.398438, 99132.531250, 89249.148438, 119149.835938, 0.000, 0.000, 0.000,5.6274E-6,7.454265E-6,9.162726E-6,2.8825756E-5,3.66118E-5, 15:29:46.117
68431.562500, 57100.902344, 117598.937500, 94454.468750, 123763.351563, 99211.726563, 89311.687500, 119089.601563, 0.000, 0.000, 0.000,5.6274E-6,7.454265E-6,9.162726E-6,2.8825756E-5,3.66118E-5, 15:29:46.117
68309.992188, 56974.304688, 117697.304688, 94656.726563, 123631.539063, 99163.109375, 89390.140625, 118967.710938, 0.000, 0.000, 0.000,5.6274E-6,7.454265E-6,9.162726E-6,2.8825756E-5,3.66118E-5, 15:29:46.118
68359.320313, 57019.835938, 117683.671875, 94527.851563, 123676.984375, 99075.687500, 89344.296875, 118999.007813, 0.096, 0.236, 0.966,5.6274E-6,7.454265E-6,9.162726E-6,2.8825756E-5,3.66118E-5, 15:29:46.118
68492.539063, 57155.644531, 117575.203125, 94290.179688, 123819.789063, 99103.164063, 89244.414063, 119130.140625, 0.000, 0.000, 0.000,5.6274E-6,7.454265E-6,9.162726E-6,2.8825756E-5,3.66118E-5, 15:29:46.119
68461.492188, 57119.500000, 117571.671875, 94390.500000, 123793.453125, 99205.601563, 89290.570313, 119117.179688, 0.000, 0.000, 0.000,5.6274E-6,7.454265E-6,9.162726E-6,2.8825756E-5,3.66118E-5, 15:29:46.119
68324.656250, 56983.804688, 117678.625000, 94630.507813, 123647.164063, 99180.968750, 89389.320313, 118984.750000, 0.000, 0.000, 0.000,5.6274E-6,7.454265E-6,9.162726E-6,2.8825756E-5,3.66118E-5, 15:29:46.120
68338.492188, 57001.839844, 117679.203125, 94557.953125, 123664.773438, 99085.101563, 89361.757813, 118986.687500, 0.000, 0.000, 0.000,5.6274E-6,7.454265E-6,9.162726E-6,2.8825756E-5,3.66118E-5, 15:29:46.121
68471.351563, 57131.882813, 117579.601563, 94311.062500, 123805.570313, 99090.507813, 89261.171875, 119116.757813, 0.000, 0.000, 0.000,5.6274E-6,7.454265E-6,9.162726E-6,2.8825756E-5,3.66118E-5, 15:29:46.122
68474.031250, 57131.816406, 117561.320313, 94355.203125, 123807.914063, 99192.726563, 89277.492188, 119133.382813, 0.000, 0.000, 0.000,5.6274E-6,7.454265E-6,9.162726E-6,2.8825756E-5,3.66118E-5, 15:29:46.122
68333.882813, 56995.539063, 117657.500000, 94608.093750, 123663.750000, 99197.398438, 89374.851563, 119007.992188, 0.000, 0.000, 0.000,5.6274E-6,7.454265E-6,9.162726E-6,2.8825756E-5,3.66118E-5, 15:29:46.123
68318.976563, 56986.308594, 117675.695313, 94602.953125, 123645.398438, 99106.554688, 89372.375000, 118983.945313, 0.000, 0.000, 0.000,5.6274E-6,7.454265E-6,9.162726E-6,2.8825756E-5,3.66118E-5, 15:29:46.124
68459.929688, 57129.269531, 117575.890625, 94354.937500, 123787.531250, 99090.578125, 89269.000000, 119106.562500, 0.000, 0.000, 0.000,5.6274E-6,7.454265E-6,9.162726E-6,2.8825756E-5,3.66118E-5, 15:29:46.124
68488.156250, 57159.601563, 117546.078125, 94333.906250, 123829.148438, 99184.609375, 89259.945313, 119144.781250, 0.098, 0.236, 0.964,5.6274E-6,7.454265E-6,9.162726E-6,2.8825756E-5,3.66118E-5, 15:29:46.125
68357.312500, 57026.964844, 117642.210938, 94578.250000, 123690.343750, 99205.843750, 89351.898438, 119022.921875, 0.000, 0.000, 0.000,5.6274E-6,7.454265E-6,9.162726E-6,2.8825756E-5,3.66118E-5, 15:29:46.125
68316.492188, 56982.394531, 117692.640625, 94634.312500, 123635.812500, 99118.203125, 89371.031250, 118960.429688, 0.000, 0.000, 0.000,5.6274E-6,7.454265E-6,9.162726E-6,2.8825756E-5,3.66118E-5, 15:29:46.126
68444.820313, 57111.031250, 117603.054688, 94395.820313, 123771.328125, 99080.046875, 89278.539063, 119071.601563, 0.000, 0.000, 0.000,5.6274E-6,7.454265E-6,9.162726E-6,2.8825756E-5,3.66118E-5, 15:29:46.126
68513.390625, 57178.710938, 117545.921875, 94310.078125, 123850.921875, 99166.125000, 89248.656250, 119152.382813, 0.000, 0.000, 0.000,5.6274E-6,7.454265E-6,9.162726E-6,2.8825756E-5,3.66118E-5, 15:29:46.127
68389.656250, 57055.308594, 117629.109375, 94540.679688, 123723.023438, 99210.273438, 89338.289063, 119049.210938, 0.000, 0.000, 0.000,5.6274E-6,7.454265E-6,9.162726E-6,2.8825756E-5,3.66118E-5, 15:29:46.127
68301.562500, 56970.324219, 117703.921875, 94659.164063, 123629.929688, 99132.218750, 89385.046875, 118957.609375, 0.000, 0.000, 0.000,5.6274E-6,7.454265E-6,9.162726E-6,2.8825756E-5,3.66118E-5, 15:29:46.127
68404.609375, 57074.015625, 117633.250000, 94445.617188, 123733.195313, 99076.156250, 89301.718750, 119046.929688, 0.000, 0.000, 0.000,5.6274E-6,7.454265E-6,9.162726E-6,2.8825756E-5,3.66118E-5, 15:29:46.128
68505.992188, 57172.542969, 117542.273438, 94289.242188, 123844.398438, 99150.812500, 89237.367188, 119159.515625, 0.000, 0.000, 0.000,5.6274E-6,7.454265E-6,9.162726E-6,2.8825756E-5,3.66118E-5, 15:29:46.128
68408.492188, 57078.976563, 117587.921875, 94480.554688, 123753.734375, 99221.226563, 89316.359375, 119082.398438, 0.090, 0.236, 0.962,5.6274E-6,7.454265E-6,9.162726E-6,2.8825756E-5,3.66118E-5, 15:29:46.129
68300.515625, 56971.511719, 117678.507813, 94656.640625, 123632.476563, 99160.289063, 89385.406250, 118970.601563, 0.000, 0.000, 0.000,5.6274E-6,7.454265E-6,9.162726E-6,2.8825756E-5,3.66118E-5, 15:29:46.129
68380.171875, 57049.562500, 117633.625000, 94489.695313, 123710.796875, 99087.312500, 89320.406250, 119032.625000, 0.000, 0.000, 0.000,5.6274E-6,7.454265E-6,9.162726E-6,2.8825756E-5,3.66118E-5, 15:29:46.130
68504.296875, 57178.351563, 117525.851563, 94284.078125, 123854.007813, 99138.609375, 89238.796875, 119164.234375, 0.000, 0.000, 0.000,5.6274E-6,7.454265E-6,9.162726E-6,2.8825756E-5,3.66118E-5, 15:29:46.130
68436.367188, 57107.542969, 117563.085938, 94432.968750, 123782.234375, 99220.437500, 89298.835938, 119108.890625, 0.000, 0.000, 0.000,5.6274E-6,7.454265E-6,9.162726E-6,2.8825756E-5,3.66118E-5, 15:29:46.131
68306.640625, 56972.851563, 117682.468750, 94657.492188, 123641.265625, 99175.804688, 89390.703125, 118973.906250, 0.000, 0.000, 0.000,5.6274E-6,7.454265E-6,9.162726E-6,2.8825756E-5,3.66118E-5, 15:29:46.131
68352.593750, 57020.148438, 117671.445313, 94547.476563, 123690.234375, 99092.812500, 89349.867188, 119007.656250, 0.000, 0.000, 0.000,5.6274E-6,7.454265E-6,9.162726E-6,2.8825756E-5,3.66118E-5, 15:29:46.131
68485.539063, 57157.187500, 117573.007813, 94311.906250, 123823.992188, 99108.656250, 89245.640625, 119129.898438, 0.000, 0.000, 0.000,5.6274E-6,7.454265E-6,9.162726E-6,2.8825756E-5,3.66118E-5, 15:29:46.132
68461.781250, 57133.156250, 117577.125000, 94392.195313, 123793.546875, 99197.734375, 89277.382813, 119116.664063, 0.000, 0.000, 0.000,5.6274E-6,7.454265E-6,9.162726E-6,2.8825756E-5,3.66118E-5, 15:29:46.132
68320.656250, 56994.085938, 117676.140625, 94632.679688, 123655.140625, 99188.921875, 89378.609375, 118993.890625, 0.000, 0.000, 0.000,5.6274E-6,7.454265E-6,9.162726E-6,2.8825756E-5,3.66118E-5, 15:29:46.133
68319.062500, 56994.511719, 117685.484375, 94577.757813, 123648.953125, 99087.250000, 89350.109375, 118974.796875, 0.082, 0.236, 0.966,5.6274E-6,7.454265E-6,9.162726E-6,2.8825756E-5,3.66118E-5, 15:29:46.133
68458.273438, 57136.375000, 117574.890625, 94325.406250, 123800.320313, 99085.796875, 89243.382813, 119101.109375, 0.000, 0.000, 0.000,5.6274E-6,7.454265E-6,9.162726E-6,2.8825756E-5,3.66118E-5, 15:29:46.133
68459.453125, 57141.382813, 117549.382813, 94346.914063, 123817.078125, 99184.343750, 89254.914063, 119126.968750, 0.000, 0.000, 0.000,5.6274E-6,7.454265E-6,9.162726E-6,2.8825756E-5,3.66118E-5, 15:29:46.134
68316.429688, 57001.910156, 117644.312500, 94596.382813, 123672.781250, 99189.906250, 89356.593750, 119001.062500, 0.000, 0.000, 0.000,5.6274E-6,7.454265E-6,9.162726E-6,2.8825756E-5,3.66118E-5, 15:29:46.134
68294.320313, 56982.773438, 117671.070313, 94605.812500, 123643.898438, 99099.804688, 89360.281250, 118962.304688, 0.000, 0.000, 0.000,5.6274E-6,7.454265E-6,9.162726E-6,2.8825756E-5,3.66118E-5, 15:29:46.135
68422.937500, 57113.757813, 117569.414063, 94357.171875, 123784.468750, 99075.421875, 89261.554688, 119083.179688, 0.000, 0.000, 0.000,5.6274E-6,7.454265E-6,9.162726E-6,2.8825756E-5,3.66118E-5, 15:29:46.136
68465.601563, 57159.464844, 117520.843750, 94313.671875, 123833.351563, 99167.289063, 89242.421875, 119137.859375, 0.000, 0.000, 0.000,5.6274E-6,7.454265E-6,9.162726E-6,2.8825756E-5,3.66118E-5, 15:29:46.136
68337.929688, 57034.765625, 117600.835938, 94553.085938, 123696.984375, 99199.921875, 89333.078125, 119027.210938, 0.000, 0.000, 0.000,5.6274E-6,7.454265E-6,9.162726E-6,2.8825756E-5,3.66118E-5, 15:29:46.137
68268.351563, 56963.886719, 117666.976563, 94636.523438, 123625.859375, 99113.531250, 89370.671875, 118953.343750, 0.000, 0.000, 0.000,5.6274E-6,7.454265E-6,9.162726E-6,2.8825756E-5,3.66118E-5, 15:29:46.137
68388.203125, 57081.414063, 117587.695313, 94406.031250, 123750.539063, 99068.648438, 89283.546875, 119056.921875, 0.000, 0.000, 0.000,5.6274E-6,7.454265E-6,9.162726E-6,2.8825756E-5,3.66118E-5, 15:29:46.138
68462.945313, 57157.253906, 117524.531250, 94299.968750, 123833.507813, 99150.859375, 89238.953125, 119142.820313, 0.092, 0.240, 0.968,5.6274E-6,7.454265E-6,9.162726E-6,2.8825756E-5,3.66118E-5, 15:29:46.138
68345.265625, 57040.285156, 117598.734375, 94519.843750, 123714.867188, 99203.539063, 89323.359375, 119049.453125, 0.000, 0.000, 0.000,5.6274E-6,7.454265E-6,9.162726E-6,2.8825756E-5,3.66118E-5, 15:29:46.139
68254.695313, 56948.578125, 117679.562500, 94658.226563, 123619.093750, 99130.046875, 89385.359375, 118957.632813, 0.000, 0.000, 0.000,5.6274E-6,7.454265E-6,9.162726E-6,2.8825756E-5,3.66118E-5, 15:29:46.139
68345.687500, 57034.789063, 117630.007813, 94462.468750, 123710.687500, 99059.734375, 89311.531250, 119025.937500, 0.000, 0.000, 0.000,5.6274E-6,7.454265E-6,9.162726E-6,2.8825756E-5,3.66118E-5, 15:29:46.139
68451.585938, 57140.800781, 117549.718750, 94291.726563, 123825.734375, 99121.890625, 89238.328125, 119135.820313, 0.000, 0.000, 0.000,5.6274E-6,7.454265E-6,9.162726E-6,2.8825756E-5,3.66118E-5, 15:29:46.140
68378.500000, 57069.054688, 117575.070313, 94461.351563, 123755.148438, 99208.125000, 89307.554688, 119082.648438, 0.000, 0.000, 0.000,5.6274E-6,7.454265E-6,9.162726E-6,2.8825756E-5,3.66118E-5, 15:29:46.140
68259.164063, 56952.511719, 117673.750000, 94653.375000, 123626.820313, 99155.375000, 89386.703125, 118961.117188, 0.000, 0.000, 0.000,5.6274E-6,7.454265E-6,9.162726E-6,2.8825756E-5,3.66118E-5, 15:29:46.141
68320.273438, 57015.476563, 117646.164063, 94500.554688, 123684.601563, 99069.656250, 89325.320313, 119003.546875, 0.000, 0.000, 0.000,5.6274E-6,7.454265E-6,9.162726E-6,2.8825756E-5,3.66118E-5, 15:29:46.141
68450.023438, 57144.175781, 117542.117188, 94283.546875, 123830.265625, 99108.593750, 89239.445313, 119134.523438, 0.000, 0.000, 0.000,5.6274E-6,7.454265E-6,9.162726E-6,2.8825756E-5,3.66118E-5, 15:29:46.142
68395.757813, 57091.292969, 117563.132813, 94412.000000, 123780.312500, 99198.132813, 89293.250000, 119102.585938, 0.094, 0.234, 0.964,5.6274E-6,7.454265E-6,9.162726E-6,2.8825756E-5,3.66118E-5, 15:29:46.142
68264.257813, 56959.531250, 117656.984375, 94636.117188, 123631.312500, 99167.023438, 89373.312500, 118971.492188, 0.000, 0.000, 0.000,5.6274E-6,7.454265E-6,9.162726E-6,2.8825756E-5,3.66118E-5, 15:29:46.143
68294.140625, 56990.062500, 117648.445313, 94544.609375, 123663.234375, 99075.554688, 89339.625000, 118985.882813, 0.000, 0.000, 0.000,5.6274E-6,7.454265E-6,9.162726E-6,2.8825756E-5,3.66118E-5, 15:29:46.143
68425.195313, 57123.078125, 117546.054688, 94300.351563, 123809.906250, 99087.671875, 89242.039063, 119111.367188, 0.000, 0.000, 0.000,5.6274E-6,7.454265E-6,9.162726E-6,2.8825756E-5,3.66118E-5, 15:29:46.144
68406.375000, 57103.339844, 117546.523438, 94369.375000, 123801.617188, 99186.351563, 89275.437500, 119114.789063, 0.000, 0.000, 0.000,5.6274E-6,7.454265E-6,9.162726E-6,2.8825756E-5,3.66118E-5, 15:29:46.144
68274.945313, 56969.296875, 117651.468750, 94616.273438, 123665.890625, 99183.070313, 89378.835938, 118993.664063, 0.000, 0.000, 0.000,5.6274E-6,7.454265E-6,9.162726E-6,2.8825756E-5,3.66118E-5, 15:29:46.144
68274.320313, 56968.804688, 117673.593750, 94587.281250, 123655.703125, 99089.148438, 89365.890625, 118979.156250, 0.000, 0.000, 0.000,5.6274E-6,7.454265E-6,9.162726E-6,2.8825756E-5,3.66118E-5, 15:29:46.145
68417.148438, 57113.289063, 117562.953125, 94332.984375, 123809.523438, 99086.757813, 89269.289063, 119111.125000, 0.000, 0.000, 0.000,5.6274E-6,7.454265E-6,9.162726E-6,2.8825756E-5,3.66118E-5, 15:29:46.167
68439.632813, 57133.804688, 117524.375000, 94335.687500, 123840.710938, 99186.820313, 89273.062500, 119149.523438, 0.000, 0.000, 0.000,5.6274E-6,7.454265E-6,9.162726E-6,2.8825756E-5,3.66118E-5, 15:29:46.169
68301.070313, 56993.460938, 117620.531250, 94588.820313, 123691.304688, 99203.210938, 89369.398438, 119022.523438, 0.000, 0.000, 0.000,3.445973E-5,4.837153E-5,6.0176404E-5,1.6737149E-4,1.8202342E-4, 15:29:46.170
68257.328125, 56950.609375, 117671.781250, 94623.179688, 123639.585938, 99108.882813, 89380.914063, 118964.492188, 0.096, 0.236, 0.962,3.445973E-5,4.837153E-5,6.0176404E-5,1.6737149E-4,1.8202342E-4, 15:29:46.172
68385.250000, 57083.761719, 117578.820313, 94375.476563, 123774.343750, 99083.289063, 89277.359375, 119083.296875, 0.000, 0.000, 0.000,3.445973E-5,4.837153E-5,6.0176404E-5,1.6737149E-4,1.8202342E-4, 15:29:46.174
68435.671875, 57136.175781, 117534.945313, 94316.578125, 123835.117188, 99175.226563, 89250.867188, 119148.898438, 0.000, 0.000, 0.000,3.445973E-5,4.837153E-5,6.0176404E-5,1.6737149E-4,1.8202342E-4, 15:29:46.177
68320.226563, 57017.062500, 117620.328125, 94557.757813, 123708.515625, 99216.062500, 89344.140625, 119042.234375, 0.000, 0.000, 0.000,3.445973E-5,4.837153E-5,6.0176404E-5,1.6737149E-4,1.8202342E-4, 15:29:46.177
68247.273438, 56944.375000, 117698.742188, 94660.617188, 123623.960938, 99131.367188, 89385.765625, 118958.859375, 0.000, 0.000, 0.000,3.445973E-5,4.837153E-5,6.0176404E-5,1.6737149E-4,1.8202342E-4, 15:29:46.178
68356.234375, 57055.886719, 117624.125000, 94432.562500, 123735.921875, 99076.296875, 89292.062500, 119052.070313, 0.000, 0.000, 0.000,3.445973E-5,4.837153E-5,6.0176404E-5,1.6737149E-4,1.8202342E-4, 15:29:46.183
68447.703125, 57144.980469, 117546.296875, 94299.750000, 123838.765625, 99150.812500, 89234.171875, 119147.218750, 0.000, 0.000, 0.000,3.445973E-5,4.837153E-5,6.0176404E-5,1.6737149E-4,1.8202342E-4, 15:29:46.183
68341.726563, 57036.351563, 117610.382813, 94510.484375, 123734.312500, 99208.078125, 89318.375000, 119062.421875, 0.000, 0.000, 0.000,3.445973E-5,4.837153E-5,6.0176404E-5,1.6737149E-4,1.8202342E-4, 15:29:46.183
68236.718750, 56931.210938, 117700.148438, 94662.296875, 123621.367188, 99136.687500, 89378.546875, 118954.976563, 0.000, 0.000, 0.000,0.0,0.0,0.0,0.0,0.0, 15:29:46.561
68328.406250, 57025.937500, 117637.828125, 94468.929688, 123718.843750, 99072.695313, 89305.031250, 119034.476563, 0.096, 0.232, 0.960,0.0,0.0,0.0,0.0,0.0, 15:29:46.562
68438.398438, 57138.296875, 117547.148438, 94283.187500, 123846.476563, 99133.914063, 89233.882813, 119151.781250, 0.000, 0.000, 0.000,0.0,0.0,0.0,0.0,0.0, 15:29:46.562
68358.132813, 57058.300781, 117595.812500, 94451.515625, 123762.609375, 99208.195313, 89298.789063, 119088.500000, 0.000, 0.000, 0.000,0.0,0.0,0.0,0.0,0.0, 15:29:46.563
68242.156250, 56940.867188, 117688.257813, 94653.328125, 123636.078125, 99162.929688, 89375.546875, 118974.132813, 0.000, 0.000, 0.000,0.0,0.0,0.0,0.0,0.0, 15:29:46.564
68293.382813, 56990.554688, 117671.289063, 94523.804688, 123687.484375, 99076.960938, 89327.312500, 119007.789063, 0.000, 0.000, 0.000,0.0,0.0,0.0,0.0,0.0, 15:29:46.564
68427.156250, 57124.218750, 117579.515625, 94299.968750, 123825.375000, 99104.140625, 89236.523438, 119134.148438, 0.000, 0.000, 0.000,0.0,0.0,0.0,0.0,0.0, 15:29:46.565
68394.703125, 57089.972656, 117585.015625, 94410.773438, 123796.046875, 99200.835938, 89284.289063, 119117.312500, 0.000, 0.000, 0.000,0.0,0.0,0.0,0.0,0.0, 15:29:46.565
68262.023438, 56955.191406, 117682.062500, 94643.296875, 123656.460938, 99177.304688, 89380.171875, 118989.687500, 0.000, 0.000, 0.000,0.0,0.0,0.0,0.0,0.0, 15:29:46.566
68276.242188, 56970.726563, 117693.195313, 94571.031250, 123667.367188, 99079.203125, 89356.257813, 118988.343750, 0.000, 0.000, 0.000,0.0,0.0,0.0,0.0,0.0, 15:29:46.566
68422.289063, 57116.437500, 117581.546875, 94321.539063, 123819.320313, 99083.492188, 89252.656250, 119120.687500, 0.000, 0.000, 0.000,0.0,0.0,0.0,0.0,0.0, 15:29:46.567
68417.437500, 57110.648438, 117569.703125, 94372.546875, 123822.335938, 99188.992188, 89277.242188, 119138.679688, 0.098, 0.238, 0.956,0.0,0.0,0.0,0.0,0.0, 15:29:46.567
68282.320313, 56976.179688, 117665.835938, 94620.007813, 123680.937500, 99195.609375, 89377.070313, 119014.226563, 0.000, 0.000, 0.000,0.0,0.0,0.0,0.0,0.0, 15:29:46.568
68265.195313, 56961.093750, 117692.187500, 94609.320313, 123658.476563, 99105.015625, 89374.539063, 118986.289063, 0.000, 0.000, 0.000,0.0,0.0,0.0,0.0,0.0, 15:29:46.568
68396.359375, 57095.472656, 117602.023438, 94357.078125, 123795.156250, 99084.320313, 89271.007813, 119100.929688, 0.000, 0.000, 0.000,0.0,0.0,0.0,0.0,0.0, 15:29:46.568
68424.898438, 57127.234375, 117568.789063, 94342.218750, 123833.375000, 99176.718750, 89267.078125, 119146.882813, 0.000, 0.000, 0.000,0.0,0.0,0.0,0.0,0.0, 15:29:46.569
68289.648438, 56992.097656, 117662.726563, 94593.046875, 123690.171875, 99196.125000, 89363.296875, 119023.835938, 0.000, 0.000, 0.000,0.0,0.0,0.0,0.0,0.0, 15:29:46.569
68234.867188, 56937.980469, 117727.015625, 94647.875000, 123628.257813, 99105.554688, 89382.390625, 118957.812500, 0.000, 0.000, 0.000,0.0,0.0,0.0,0.0,0.0, 15:29:46.570
68366.492188, 57068.023438, 117630.835938, 94398.585938, 123763.703125, 99071.914063, 89282.500000, 119073.859375, 0.000, 0.000, 0.000,0.0,0.0,0.0,0.0,0.0, 15:29:46.570
68430.109375, 57129.492188, 117578.125000, 94314.453125, 123838.539063, 99157.679688, 89248.656250, 119148.453125, 0.000, 0.000, 0.000,0.0,0.0,0.0,0.0,0.0, 15:29:46.571
68317.609375, 57019.050781, 117647.664063, 94538.976563, 123725.257813, 99204.171875, 89337.773438, 119051.781250, 0.090, 0.240, 0.956,0.0,0.0,0.0,0.0,0.0, 15:29:46.572
68237.437500, 56940.082031, 117713.828125, 94650.109375, 123635.320313, 99130.359375, 89382.296875, 118964.179688, 0.000, 0.000, 0.000,0.0,0.0,0.0,0.0,0.0, 15:29:46.572
68329.679688, 57034.296875, 117651.375000, 94440.343750, 123735.164063, 99067.953125, 89300.382813, 119045.320313, 0.000, 0.000, 0.000,0.0,0.0,0.0,0.0,0.0, 15:29:46.572
68428.945313, 57132.890625, 117570.101563, 94291.414063, 123845.398438, 99138.476563, 89240.679688, 119151.421875, 0.000, 0.000, 0.000,0.0,0.0,0.0,0.0,0.0, 15:29:46.573
68339.156250, 57040.824219, 117615.906250, 94485.000000, 123756.218750, 99210.648438, 89321.835938, 119080.234375, 0.000, 0.000, 0.000,0.0,0.0,0.0,0.0,0.0, 15:29:46.573
68229.460938, 56930.605469, 117712.125000, 94657.265625, 123631.226563, 99143.570313, 89393.164063, 118965.125000, 0.000, 0.000, 0.000,0.0,0.0,0.0,0.0,0.0, 15:29:46.573
68299.328125, 57003.117188, 117673.484375, 94486.226563, 123707.242188, 99066.664063, 89328.406250, 119020.242188, 0.000, 0.000, 0.000,0.0,0.0,0.0,0.0,0.0, 15:29:46.574
68422.687500, 57123.054688, 117583.601563, 94288.171875, 123836.390625, 99109.265625, 89241.414063, 119137.718750, 0.000, 0.000, 0.000,0.0,0.0,0.0,0.0,0.0, 15:29:46.574
68365.468750, 57066.394531, 117606.289063, 94434.976563, 123778.703125, 99198.203125, 89297.968750, 119097.625000, 0.000, 0.000, 0.000,0.0,0.0,0.0,0.0,0.0, 15:29:46.574
68243.382813, 56946.855469, 117702.117188, 94651.500000, 123649.734375, 99162.367188, 89385.875000, 118977.148438, 0.000, 0.000, 0.000,0.0,0.0,0.0,0.0,0.0, 15:29:46.575
68289.585938, 56987.445313, 117700.015625, 94542.312500, 123687.445313, 99071.578125, 89344.140625, 118995.765625, 0.090, 0.234, 0.956,0.0,0.0,0.0,0.0,0.0, 15:29:46.575
68433.710938, 57124.843750, 117585.640625, 94304.195313, 123834.445313, 99095.937500, 89243.625000, 119126.054688, 0.000, 0.000, 0.000,0.0,0.0,0.0,0.0,0.0, 15:29:46.575
68400.265625, 57089.550781, 117589.796875, 94399.281250, 123806.578125, 99194.242188, 89282.851563, 119113.648438, 0.000, 0.000, 0.000,0.0,0.0,0.0,0.0,0.0, 15:29:46.575
68262.312500, 56953.652344, 117693.085938, 94642.578125, 123659.054688, 99178.460938, 89377.562500, 118985.867188, 0.000, 0.000, 0.000,0.0,0.0,0.0,0.0,0.0, 15:29:46.576
68269.648438, 56962.011719, 117707.343750, 94590.656250, 123665.601563, 99081.812500, 89360.078125, 118976.859375, 0.000, 0.000, 0.000,0.0,0.0,0.0,0.0,0.0, 15:29:46.576
68407.578125, 57101.285156, 117604.906250, 94336.789063, 123813.148438, 99081.101563, 89256.007813, 119107.773438, 0.000, 0.000, 0.000,0.0,0.0,0.0,0.0,0.0, 15:29:46.577
68419.289063, 57114.875000, 117577.437500, 94368.101563, 123827.632813, 99185.054688, 89269.984375, 119135.554688, 0.000, 0.000, 0.000,0.0,0.0,0.0,0.0,0.0, 15:29:46.577
68283.148438, 56977.656250, 117676.093750, 94625.750000, 123683.734375, 99195.851563, 89370.406250, 119008.773438, 0.000, 0.000, 0.000,0.0,0.0,0.0,0.0,0.0, 15:29:46.578
68250.179688, 56945.246094, 117729.468750, 94641.570313, 123646.335938, 99096.546875, 89376.796875, 118963.890625, 0.000, 0.000, 0.000,0.0,0.0,0.0,0.0,0.0, 15:29:46.579
68394.640625, 57089.726563, 117625.359375, 94382.093750, 123790.570313, 99072.609375, 89270.648438, 119089.109375, 0.000, 0.000, 0.000,0.0,0.0,0.0,0.0,0.0, 15:29:46.580
68444.304688, 57133.804688, 117578.554688, 94343.226563, 123848.687500, 99174.578125, 89261.289063, 119149.414063, 0.092, 0.240, 0.958,0.0,0.0,0.0,0.0,0.0, 15:29:46.580
68311.578125, 57002.175781, 117673.976563, 94588.687500, 123707.804688, 99197.039063, 89355.296875, 119027.257813, 0.000, 0.000, 0.000,0.0,0.0,0.0,0.0,0.0, 15:29:46.581
68247.671875, 56943.773438, 117727.546875, 94657.398438, 123637.820313, 99108.703125, 89378.835938, 118957.679688, 0.000, 0.000, 0.000,0.0,0.0,0.0,0.0,0.0, 15:29:46.581
68357.109375, 57054.925781, 117657.429688, 94425.500000, 123757.406250, 99060.179688, 89290.921875, 119052.898438, 0.000, 0.000, 0.000,0.0,0.0,0.0,0.0,0.0, 15:29:46.582
68441.507813, 57135.304688, 117585.843750, 94318.367188, 123854.742188, 99148.515625, 89250.375000, 119146.843750, 0.000, 0.000, 0.000,0.0,0.0,0.0,0.0,0.0, 15:29:46.582
68325.835938, 57017.152344, 117657.273438, 94540.765625, 123734.539063, 99201.531250, 89334.218750, 119051.664063, 0.000, 0.000, 0.000,0.0,0.0,0.0,0.0,0.0, 15:29:46.582
68232.093750, 56927.320313, 117740.421875, 94673.757813, 123630.265625, 99125.242188, 89384.109375, 118952.492188, 0.000, 0.000, 0.000,0.0,0.0,0.0,0.0,0.0, 15:29:46.582
68336.140625, 57032.128906, 117671.695313, 94472.773438, 123734.289063, 99065.320313, 89307.710938, 119035.281250, 0.000, 0.000, 0.000,0.0,0.0,0.0,0.0,0.0, 15:29:46.583
68444.484375, 57142.210938, 117578.578125, 94308.351563, 123853.960938, 99134.164063, 89239.468750, 119150.281250, 0.000, 0.000, 0.000,0.0,0.0,0.0,0.0,0.0, 15:29:46.583
68353.398438, 57049.921875, 117627.328125, 94491.351563, 123761.023438, 99202.851563, 89309.898438, 119078.289063, 0.096, 0.242, 0.958,0.0,0.0,0.0,0.0,0.0, 15:29:46.583
68235.468750, 56933.824219, 117729.226563, 94679.367188, 123629.882813, 99139.054688, 89383.039063, 118958.304688, 0.000, 0.000, 0.000,0.0,0.0,0.0,0.0,0.0, 15:29:46.584
68301.476563, 57005.863281, 117690.625000, 94522.531250, 123703.265625, 99061.523438, 89323.539063, 119012.820313, 0.000, 0.000, 0.000,0.0,0.0,0.0,0.0,0.0, 15:29:46.584
68437.101563, 57142.144531, 117578.460938, 94304.218750, 123849.757813, 99110.406250, 89236.164063, 119146.351563, 0.000, 0.000, 0.000,0.0,0.0,0.0,0.0,0.0, 15:29:46.585
68386.968750, 57091.628906, 117592.546875, 94437.929688, 123799.734375, 99204.078125, 89294.835938, 119113.875000, 0.000, 0.000, 0.000,0.0,0.0,0.0,0.0,0.0, 15:29:46.585
68249.976563, 56957.695313, 117700.750000, 94669.226563, 123652.234375, 99167.531250, 89385.046875, 118982.039063, 0.000, 0.000, 0.000,0.0,0.0,0.0,0.0,0.0, 15:29:46.585
68285.382813, 56992.140625, 117693.507813, 94569.195313, 123680.085938, 99073.164063, 89347.359375, 118996.796875, 0.000, 0.000, 0.000,0.0,0.0,0.0,0.0,0.0, 15:29:46.588
68426.445313, 57124.820313, 117590.335938, 94324.757813, 123828.679688, 99089.343750, 89248.703125, 119124.351563, 0.000, 0.000, 0.000,0.0,0.0,0.0,0.0,0.0, 15:29:46.588
68399.890625, 57098.980469, 117588.453125, 94395.031250, 123807.132813, 99187.671875, 89275.343750, 119117.312500, 0.000, 0.000, 0.000,0.0,0.0,0.0,0.0,0.0, 15:29:46.588
68265.664063, 56967.195313, 117686.554688, 94635.046875, 123664.757813, 99177.859375, 89370.273438, 118990.539063, 0.000, 0.000, 0.000,0.0,0.0,0.0,0.0,0.0, 15:29:46.589
68278.523438, 56980.117188, 117683.468750, 94593.023438, 123675.195313, 99092.140625, 89362.625000, 118986.554688, 0.094, 0.240, 0.950,0.0,0.0,0.0,0.0,0.0, 15:29:46.589
68409.726563, 57112.972656, 117587.453125, 94347.421875, 123820.570313, 99085.859375, 89271.187500, 119111.570313, 0.000, 0.000, 0.000,0.0,0.0,0.0,0.0,0.0, 15:29:46.589
68416.835938, 57116.503906, 117583.070313, 94364.679688, 123831.031250, 99176.515625, 89278.203125, 119133.609375, 0.000, 0.000, 0.000,0.0,0.0,0.0,0.0,0.0, 15:29:46.589
68286.632813, 56985.589844, 117677.679688, 94614.554688, 123693.656250, 99191.695313, 89372.460938, 119017.203125, 0.000, 0.000, 0.000,0.0,0.0,0.0,0.0,0.0, 15:29:46.590
68246.937500, 56947.996094, 117730.726563, 94647.812500, 123647.609375, 99096.656250, 89385.156250, 118967.023438, 0.000, 0.000, 0.000,0.0,0.0,0.0,0.0,0.0, 15:29:46.590
68382.210938, 57086.578125, 117636.265625, 94397.156250, 123785.742188, 99068.156250, 89290.234375, 119090.578125, 0.000, 0.000, 0.000,0.0,0.0,0.0,0.0,0.0, 15:29:46.590
68430.023438, 57134.542969, 117588.992188, 94336.156250, 123833.820313, 99154.812500, 89259.046875, 119143.976563, 0.000, 0.000, 0.000,0.0,0.0,0.0,0.0,0.0, 15:29:46.590
68311.218750, 57014.222656, 117663.515625, 94568.351563, 123708.632813, 99188.031250, 89343.539063, 119032.960938, 0.000, 0.000, 0.000,0.0,0.0,0.0,0.0,0.0, 15:29:46.591
68248.281250, 56942.542969, 117737.429688, 94668.484375, 123631.562500, 99112.593750, 89384.156250, 118956.742188, 0.000, 0.000, 0.000,0.0,0.0,0.0,0.0,0.0, 15:29:46.591
68359.632813, 57055.308594, 117670.890625, 94443.914063, 123744.148438, 99059.953125, 89296.468750, 119046.703125, 0.084, 0.246, 0.960,0.0,0.0,0.0,0.0,0.0, 15:29:46.592
68441.531250, 57145.382813, 117593.062500, 94311.640625, 123837.664063, 99135.523438, 89243.562500, 119142.234375, 0.000, 0.000, 0.000,0.0,0.0,0.0,0.0,0.0, 15:29:46.592
68345.039063, 57047.550781, 117631.210938, 94512.132813, 123740.078125, 99201.554688, 89322.281250, 119068.273438, 0.000, 0.000, 0.000,0.0,0.0,0.0,0.0,0.0, 15:29:46.592
68248.906250, 56949.671875, 117710.562500, 94666.296875, 123629.304688, 99133.984375, 89385.273438, 118960.273438, 0.000, 0.000, 0.000,0.0,0.0,0.0,0.0,0.0, 15:29:46.593
68326.734375, 57032.394531, 117666.195313, 94482.539063, 123705.500000, 99060.421875, 89312.312500, 119020.843750, 0.000, 0.000, 0.000,0.0,0.0,0.0,0.0,0.0, 15:29:46.594
68441.242188, 57147.195313, 117580.523438, 94304.375000, 123831.656250, 99117.242188, 89239.132813, 119141.140625, 0.000, 0.000, 0.000,0.0,0.0,0.0,0.0,0.0, 15:29:46.594
68369.757813, 57072.785156, 117619.101563, 94472.460938, 123757.382813, 99196.546875, 89307.289063, 119083.609375, 0.000, 0.000, 0.000,0.0,0.0,0.0,0.0,0.0, 15:29:46.595
68249.085938, 56951.906250, 117716.773438, 94669.132813, 123622.734375, 99145.585938, 89385.429688, 118961.945313, 0.000, 0.000, 0.000,0.0,0.0,0.0,0.0,0.0, 15:29:46.595
68300.695313, 57002.667969, 117698.742188, 94531.914063, 123671.437500, 99058.007813, 89332.273438, 118996.859375, 0.000, 0.000, 0.000,0.0,0.0,0.0,0.0,0.0, 15:29:46.595
68433.796875, 57132.085938, 117588.343750, 94300.445313, 123815.023438, 99092.210938, 89239.468750, 119126.882813, 0.000, 0.000, 0.000,0.0,0.0,0.0,0.0,0.0, 15:29:46.595
68388.710938, 57087.292969, 117597.062500, 94415.109375, 123777.226563, 99185.281250, 89285.804688, 119102.273438, 0.082, 0.254, 0.966,0.0,0.0,0.0,0.0,0.0, 15:29:46.596
68258.023438, 56956.691406, 117700.507813, 94652.617188, 123639.203125, 99164.453125, 89379.523438, 118979.585938, 0.000, 0.000, 0.000,0.0,0.0,0.0,0.0,0.0, 15:29:46.602
68283.929688, 56980.003906, 117699.562500, 94575.320313, 123660.242188, 99078.664063, 89352.773438, 118989.328125, 0.000, 0.000, 0.000,0.0,0.0,0.0,0.0,0.0, 15:29:46.602
68422.109375, 57117.242188, 117602.203125, 94329.523438, 123804.742188, 99088.835938, 89256.101563, 119117.156250, 0.000, 0.000, 0.000,0.0,0.0,0.0,0.0,0.0, 15:29:46.602
68418.171875, 57113.375000, 117578.757813, 94374.000000, 123804.500000, 99188.414063, 89273.843750, 119132.085938, 0.000, 0.000, 0.000,0.0,0.0,0.0,0.0,0.0, 15:29:46.603
68280.773438, 56978.191406, 117668.671875, 94620.226563, 123661.937500, 99186.109375, 89367.546875, 119003.945313, 0.000, 0.000, 0.000,0.0,0.0,0.0,0.0,0.0, 15:29:46.603
68269.890625, 56969.027344, 117697.328125, 94610.171875, 123645.062500, 99094.492188, 89370.585938, 118977.679688, 0.000, 0.000, 0.000,0.0,0.0,0.0,0.0,0.0, 15:29:46.604
68402.507813, 57104.925781, 117601.796875, 94355.875000, 123782.257813, 99075.156250, 89271.117188, 119099.945313, 0.000, 0.000, 0.000,0.0,0.0,0.0,0.0,0.0, 15:29:46.604
68434.867188, 57134.207031, 117564.046875, 94344.453125, 123815.296875, 99174.617188, 89265.062500, 119145.476563, 0.000, 0.000, 0.000,0.0,0.0,0.0,0.0,0.0, 15:29:46.605
68293.984375, 56991.894531, 117666.148438, 94595.554688, 123665.359375, 99188.835938, 89359.296875, 119018.226563, 0.094, 0.252, 0.960,0.0,0.0,0.0,0.0,0.0, 15:29:46.606
68248.570313, 56949.539063, 117704.484375, 94633.929688, 123616.945313, 99097.640625, 89376.687500, 118964.179688, 0.000, 0.000, 0.000,0.0,0.0,0.0,0.0,0.0, 15:29:46.606
68371.968750, 57076.160156, 117613.687500, 94389.648438, 123744.546875, 99061.851563, 89284.148438, 119072.031250, 0.000, 0.000, 0.000,0.0,0.0,0.0,0.0,0.0, 15:29:46.606
68436.476563, 57139.929688, 117553.539063, 94310.320313, 123816.835938, 99151.593750, 89251.515625, 119147.289063, 0.000, 0.000, 0.000,0.0,0.0,0.0,0.0,0.0, 15:29:46.607
68322.617188, 57025.554688, 117615.476563, 94539.250000, 123702.101563, 99204.101563, 89336.500000, 119053.343750, 0.000, 0.000, 0.000,0.0,0.0,0.0,0.0,0.0, 15:29:46.607
68241.859375, 56945.222656, 117683.429688, 94654.203125, 123613.617188, 99126.789063, 89380.312500, 118965.390625, 0.000, 0.000, 0.000,0.0,0.0,0.0,0.0,0.0, 15:29:46.608
68352.679688, 57054.367188, 117621.601563, 94443.109375, 123724.656250, 99069.210938, 89305.187500, 119056.789063, 0.000, 0.000, 0.000,0.0,0.0,0.0,0.0,0.0, 15:29:46.609
68460.796875, 57160.359375, 117529.984375, 94298.679688, 123841.890625, 99152.312500, 89252.968750, 119172.812500, 0.000, 0.000, 0.000,0.0,0.0,0.0,0.0,0.0, 15:29:46.613
68358.539063, 57057.273438, 117581.773438, 94498.500000, 123735.031250, 99215.632813, 89327.984375, 119084.859375, 0.000, 0.000, 0.000,0.0,0.0,0.0,0.0,0.0, 15:29:46.613
68237.187500, 56941.894531, 117675.960938, 94668.554688, 123611.828125, 99145.765625, 89391.554688, 118969.078125, 0.000, 0.000, 0.000,0.0,0.0,0.0,0.0,0.0, 15:29:46.614
68312.898438, 57022.093750, 117636.734375, 94497.453125, 123689.140625, 99071.820313, 89331.179688, 119034.281250, 0.098, 0.246, 0.960,0.0,0.0,0.0,0.0,0.0, 15:29:46.614
68438.062500, 57142.992188, 117542.320313, 94297.492188, 123821.039063, 99120.953125, 89253.507813, 119151.242188, 0.000, 0.000, 0.000,0.0,0.0,0.0,0.0,0.0, 15:29:46.615
68372.421875, 57074.597656, 117573.234375, 94451.070313, 123750.898438, 99201.531250, 89307.976563, 119097.601563, 0.000, 0.000, 0.000,0.0,0.0,0.0,0.0,0.0, 15:29:46.615
68251.984375, 56956.734375, 117670.328125, 94665.804688, 123615.515625, 99154.726563, 89382.898438, 118970.460938, 0.000, 0.000, 0.000,0.0,0.0,0.0,0.0,0.0, 15:29:46.616
68306.171875, 57006.378906, 117654.148438, 94547.117188, 123659.281250, 99068.828125, 89338.000000, 118998.250000, 0.000, 0.000, 0.000,0.0,0.0,0.0,0.0,0.0, 15:29:46.617
68438.382813, 57132.242188, 117562.726563, 94315.570313, 123801.750000, 99091.828125, 89251.296875, 119121.585938, 0.000, 0.000, 0.000,0.0,0.0,0.0,0.0,0.0, 15:29:46.619
68414.484375, 57107.453125, 117569.101563, 94411.304688, 123772.757813, 99189.414063, 89282.164063, 119112.242188, 0.000, 0.000, 0.000,0.0,0.0,0.0,0.0,0.0, 15:29:46.620
68286.273438, 56981.121094, 117667.539063, 94650.625000, 123633.906250, 99171.085938, 89373.695313, 118987.812500, 0.000, 0.000, 0.000,0.0,0.0,0.0,0.0,0.0, 15:29:46.620
68313.585938, 57007.003906, 117661.609375, 94588.132813, 123651.210938, 99085.835938, 89350.984375, 118993.601563, 0.000, 0.000, 0.000,0.0,0.0,0.0,0.0,0.0, 15:29:46.620
68450.625000, 57142.234375, 117571.000000, 94344.789063, 123791.601563, 99090.398438, 89257.929688, 119117.117188, 0.000, 0.000, 0.000,0.0,0.0,0.0,0.0,0.0, 15:29:46.621
68446.093750, 57135.324219, 117572.765625, 94381.195313, 123790.703125, 99177.500000, 89272.882813, 119122.429688, 0.102, 0.256, 0.962,0.0,0.0,0.0,0.0,0.0, 15:29:46.621
68322.773438, 57012.414063, 117659.085938, 94625.078125, 123652.726563, 99183.226563, 89358.875000, 119001.960938, 0.000, 0.000, 0.000,0.0,0.0,0.0,0.0,0.0, 15:29:46.621
68313.390625, 57001.304688, 117678.664063, 94624.789063, 123629.703125, 99094.015625, 89357.218750, 118972.320313, 0.000, 0.000, 0.000,0.0,0.0,0.0,0.0,0.0, 15:29:46.622
68459.054688, 57150.414063, 117575.046875, 94374.226563, 123776.554688, 99081.593750, 89268.976563, 119099.945313, 0.000, 0.000, 0.000,0.0,0.0,0.0,0.0,0.0, 15:29:46.622
68507.515625, 57191.226563, 117544.335938, 94345.210938, 123819.429688, 99177.726563, 89261.710938, 119148.140625, 0.000, 0.000, 0.000,0.0,0.0,0.0,0.0,0.0, 15:29:46.622
68381.562500, 57066.550781, 117628.109375, 94587.796875, 123683.976563, 99200.726563, 89350.578125, 119032.359375, 0.000, 0.000, 0.000,0.0,0.0,0.0,0.0,0.0, 15:29:46.623
68326.460938, 57009.394531, 117695.117188, 94659.750000, 123610.414063, 99107.359375, 89377.562500, 118957.945313, 0.000, 0.000, 0.000,0.0,0.0,0.0,0.0,0.0, 15:29:46.623
68460.015625, 57140.937500, 117615.812500, 94421.031250, 123739.234375, 99069.562500, 89291.546875, 119069.234375, 0.000, 0.000, 0.000,0.0,0.0,0.0,0.0,0.0, 15:29:46.623
68545.265625, 57226.789063, 117546.882813, 94321.523438, 123842.382813, 99163.000000, 89264.125000, 119165.125000, 0.000, 0.000, 0.000,0.0,0.0,0.0,0.0,0.0, 15:29:46.624
68442.492188, 57122.207031, 117610.671875, 94545.726563, 123734.468750, 99208.039063, 89349.242188, 119060.968750, 0.106, 0.258, 0.962,0.0,0.0,0.0,0.0,0.0, 15:29:46.624
68354.914063, 57037.535156, 117688.773438, 94679.617188, 123617.679688, 99129.109375, 89386.500000, 118965.054688, 0.000, 0.000, 0.000,0.0,0.0,0.0,0.0,0.0, 15:29:46.625
68447.945313, 57135.750000, 117630.343750, 94472.929688, 123718.328125, 99064.359375, 89309.718750, 119047.039063, 0.000, 0.000, 0.000,0.0,0.0,0.0,0.0,0.0, 15:29:46.625
68563.460938, 57248.625000, 117533.539063, 94310.765625, 123845.601563, 99140.265625, 89251.203125, 119167.023438, 0.000, 0.000, 0.000,0.0,0.0,0.0,0.0,0.0, 15:29:46.625
68472.937500, 57159.644531, 117577.882813, 94503.328125, 123758.851563, 99216.195313, 89322.773438, 119102.273438, 0.000, 0.000, 0.000,0.0,0.0,0.0,0.0,0.0, 15:29:47.036
68347.515625, 57036.574219, 117681.039063, 94692.242188, 123631.203125, 99157.835938, 89394.703125, 118983.851563, 0.000, 0.000, 0.000,0.0,0.0,0.0,0.0,0.0, 15:29:47.037
68416.609375, 57108.101563, 117638.187500, 94527.289063, 123703.218750, 99082.039063, 89334.351563, 119039.531250, 0.000, 0.000, 0.000,0.0,0.0,0.0,0.0,0.0, 15:29:47.037
68534.890625, 57225.292969, 117547.796875, 94321.562500, 123834.117188, 99123.679688, 89258.718750, 119152.695313, 0.000, 0.000, 0.000,0.0,0.0,0.0,0.0,0.0, 15:29:47.038
68462.031250, 57154.347656, 117584.523438, 94457.867188, 123760.109375, 99195.453125, 89302.968750, 119098.000000, 0.000, 0.000, 0.000,0.0,0.0,0.0,0.0,0.0, 15:29:47.038
68326.062500, 57019.097656, 117675.539063, 94667.460938, 123620.226563, 99157.679688, 89373.468750, 118973.773438, 0.000, 0.000, 0.000,0.0,0.0,0.0,0.0,0.0, 15:29:47.038
68356.390625, 57050.636719, 117657.054688, 94554.828125, 123655.187500, 99069.320313, 89331.781250, 118992.617188, 0.104, 0.260, 0.958,0.0,0.0,0.0,0.0,0.0, 15:29:47.039
68491.039063, 57183.406250, 117555.398438, 94315.929688, 123807.023438, 99095.179688, 89247.742188, 119129.320313, 0.000, 0.000, 0.000,0.0,0.0,0.0,0.0,0.0, 15:29:47.039
68466.164063, 57161.656250, 117546.281250, 94391.234375, 123793.593750, 99196.460938, 89279.703125, 119132.085938, 0.000, 0.000, 0.000,0.0,0.0,0.0,0.0,0.0, 15:29:47.040
68329.171875, 57022.605469, 117630.835938, 94629.484375, 123656.687500, 99185.125000, 89367.101563, 119003.882813, 0.000, 0.000, 0.000,0.0,0.0,0.0,0.0,0.0, 15:29:47.040
68319.757813, 57014.695313, 117651.015625, 94589.984375, 123649.734375, 99087.828125, 89354.718750, 118983.046875, 0.000, 0.000, 0.000,0.0,0.0,0.0,0.0,0.0, 15:29:47.042
68456.843750, 57154.863281, 117557.476563, 94340.695313, 123796.515625, 99083.601563, 89268.507813, 119112.757813, 0.000, 0.000, 0.000,0.0,0.0,0.0,0.0,0.0, 15:29:47.042
68470.140625, 57168.539063, 117536.445313, 94355.023438, 123814.445313, 99179.250000, 89270.000000, 119144.132813, 0.000, 0.000, 0.000,0.0,0.0,0.0,0.0,0.0, 15:29:47.043
68335.984375, 57031.589844, 117609.468750, 94594.078125, 123675.820313, 99192.367188, 89344.523438, 119025.585938, 0.000, 0.000, 0.000,0.0,0.0,0.0,0.0,0.0, 15:29:47.043
68303.601563, 56997.058594, 117655.351563, 94626.578125, 123637.976563, 99103.718750, 89359.859375, 118979.312500, 0.000, 0.000, 0.000,0.0,0.0,0.0,0.0,0.0, 15:29:47.043
68444.148438, 57137.539063, 117569.320313, 94385.804688, 123778.164063, 99082.015625, 89272.375000, 119100.437500, 0.104, 0.266, 0.956,0.0,0.0,0.0,0.0,0.0, 15:29:47.043
68491.734375, 57184.007813, 117521.625000, 94334.234375, 123836.015625, 99174.484375, 89250.000000, 119159.757813, 0.000, 0.000, 0.000,0.0,0.0,0.0,0.0,0.0, 15:29:47.044
68358.718750, 57052.246094, 117609.375000, 94577.804688, 123697.765625, 99200.679688, 89331.515625, 119044.695313, 0.000, 0.000, 0.000,0.0,0.0,0.0,0.0,0.0, 15:29:47.044
68289.539063, 56987.378906, 117666.867188, 94663.367188, 123624.609375, 99112.750000, 89360.882813, 118969.835938, 0.000, 0.000, 0.000,0.0,0.0,0.0,0.0,0.0, 15:29:47.044
68390.882813, 57086.105469, 117606.828125, 94437.500000, 123730.335938, 99057.718750, 89281.312500, 119057.679688, 0.000, 0.000, 0.000,0.0,0.0,0.0,0.0,0.0, 15:29:47.044
68481.718750, 57176.878906, 117528.375000, 94311.171875, 123834.625000, 99144.843750, 89236.117188, 119158.757813, 0.000, 0.000, 0.000,0.0,0.0,0.0,0.0,0.0, 15:29:47.045
68380.468750, 57075.511719, 117596.031250, 94532.851563, 123731.835938, 99204.328125, 89316.250000, 119073.125000, 0.000, 0.000, 0.000,0.0,0.0,0.0,0.0,0.0, 15:29:47.045
68284.625000, 56983.000000, 117667.757813, 94678.765625, 123628.546875, 99133.851563, 89365.781250, 118973.257813, 0.000, 0.000, 0.000,0.0,0.0,0.0,0.0,0.0, 15:29:47.045
68377.250000, 57075.980469, 117607.078125, 94487.546875, 123724.812500, 99072.539063, 89302.281250, 119044.937500, 0.000, 0.000, 0.000,0.0,0.0,0.0,0.0,0.0, 15:29:47.046
68489.945313, 57186.867188, 117524.750000, 94313.046875, 123846.898438, 99135.570313, 89240.812500, 119157.929688, 0.000, 0.000, 0.000,0.0,0.0,0.0,0.0,0.0, 15:29:47.046
68407.890625, 57106.515625, 117567.843750, 94489.828125, 123765.000000, 99211.570313, 89301.007813, 119097.242188, 0.108, 0.264, 0.956,0.0,0.0,0.0,0.0,0.0, 15:29:47.046
68280.351563, 56982.214844, 117664.539063, 94685.609375, 123630.507813, 99153.789063, 89367.343750, 118975.804688, 0.000, 0.000, 0.000,0.0,0.0,0.0,0.0,0.0, 15:29:47.047
68335.117188, 57038.500000, 117637.203125, 94536.921875, 123686.726563, 99071.000000, 89315.804688, 119019.328125, 0.000, 0.000, 0.000,0.0,0.0,0.0,0.0,0.0, 15:29:47.047
68474.882813, 57177.011719, 117527.320313, 94312.937500, 123845.062500, 99118.718750, 89245.507813, 119161.679688, 0.000, 0.000, 0.000,0.0,0.0,0.0,0.0,0.0, 15:29:47.047
68438.851563, 57134.789063, 117535.820313, 94435.085938, 123810.601563, 99217.023438, 89299.171875, 119140.468750, 0.000, 0.000, 0.000,0.0,0.0,0.0,0.0,0.0, 15:29:47.048
68290.742188, 56986.218750, 117651.148438, 94669.781250, 123648.703125, 99178.015625, 89378.226563, 118997.242188, 0.000, 0.000, 0.000,0.0,0.0,0.0,0.0,0.0, 15:29:47.048
68304.875000, 57003.117188, 117657.429688, 94581.851563, 123663.414063, 99079.398438, 89347.023438, 118996.437500, 0.000, 0.000, 0.000,0.0,0.0,0.0,0.0,0.0, 15:29:47.048
68440.210938, 57142.589844, 117562.437500, 94333.367188, 123815.382813, 99091.585938, 89262.492188, 119127.460938, 0.000, 0.000, 0.000,0.0,0.0,0.0,0.0,0.0, 15:29:47.049
68442.289063, 57144.578125, 117526.898438, 94383.546875, 123829.890625, 99204.171875, 89290.187500, 119153.437500, 0.000, 0.000, 0.000,0.0,0.0,0.0,0.0,0.0, 15:29:47.049
68299.265625, 57000.968750, 117627.187500, 94641.437500, 123670.140625, 99197.640625, 89376.195313, 119018.609375, 0.114, 0.258, 0.954,0.0,0.0,0.0,0.0,0.0, 15:29:47.049
68284.601563, 56985.570313, 117664.632813, 94625.812500, 123648.859375, 99096.273438, 89367.257813, 118986.156250, 0.000, 0.000, 0.000,0.0,0.0,0.0,0.0,0.0, 15:29:47.050
68432.921875, 57133.941406, 117551.820313, 94363.117188, 123804.968750, 99090.531250, 89272.953125, 119126.437500, 0.000, 0.000, 0.000,0.0,0.0,0.0,0.0,0.0, 15:29:47.050
68462.226563, 57161.945313, 117508.726563, 94354.757813, 123845.492188, 99194.531250, 89277.828125, 119175.898438, 0.000, 0.000, 0.000,0.0,0.0,0.0,0.0,0.0, 15:29:47.050
68315.445313, 57017.710938, 117611.296875, 94609.164063, 123693.187500, 99203.117188, 89364.375000, 119041.789063, 0.000, 0.000, 0.000,0.0,0.0,0.0,0.0,0.0, 15:29:47.050
68272.710938, 56975.511719, 117651.109375, 94646.468750, 123644.367188, 99112.835938, 89371.437500, 118989.906250, 0.000, 0.000, 0.000,0.0,0.0,0.0,0.0,0.0, 15:29:47.051
68397.898438, 57099.562500, 117562.906250, 94398.273438, 123777.382813, 99081.234375, 89286.632813, 119098.804688, 0.000, 0.000, 0.000,0.0,0.0,0.0,0.0,0.0, 15:29:47.051
68460.906250, 57161.433594, 117513.195313, 94324.492188, 123845.960938, 99170.976563, 89260.367188, 119168.570313, 0.000, 0.000, 0.000,0.0,0.0,0.0,0.0,0.0, 15:29:47.051
68338.085938, 57040.824219, 117577.703125, 94552.187500, 123717.328125, 99215.281250, 89335.132813, 119070.507813, 0.000, 0.000, 0.000,0.0,0.0,0.0,0.0,0.0, 15:29:47.052
68251.968750, 56954.722656, 117649.367188, 94661.085938, 123623.601563, 99129.445313, 89370.164063, 118973.570313, 0.000, 0.000, 0.000,0.0,0.0,0.0,0.0,0.0, 15:29:47.052
68355.945313, 57056.222656, 117595.203125, 94445.882813, 123730.046875, 99068.539063, 89291.507813, 119055.062500, 0.114, 0.258, 0.960,0.0,0.0,0.0,0.0,0.0, 15:29:47.053
68454.117188, 57156.695313, 117518.781250, 94307.953125, 123848.687500, 99150.304688, 89252.125000, 119168.859375, 0.000, 0.000, 0.000,0.0,0.0,0.0,0.0,0.0, 15:29:47.053
68361.179688, 57062.593750, 117559.757813, 94508.601563, 123753.828125, 99213.710938, 89322.750000, 119092.546875, 0.000, 0.000, 0.000,0.0,0.0,0.0,0.0,0.0, 15:29:47.053
68259.140625, 56960.042969, 117639.015625, 94673.984375, 123639.117188, 99152.023438, 89378.070313, 118986.265625, 0.000, 0.000, 0.000,0.0,0.0,0.0,0.0,0.0, 15:29:47.054
68338.351563, 57042.812500, 117590.914063, 94495.796875, 123719.273438, 99081.234375, 89317.164063, 119050.773438, 0.000, 0.000, 0.000,0.0,0.0,0.0,0.0,0.0, 15:29:47.054
68462.632813, 57166.214844, 117492.054688, 94306.523438, 123853.585938, 99136.953125, 89247.828125, 119174.554688, 0.000, 0.000, 0.000,0.0,0.0,0.0,0.0,0.0, 15:29:47.054
68393.875000, 57096.054688, 117531.500000, 94470.046875, 123783.640625, 99215.343750, 89305.140625, 119120.976563, 0.000, 0.000, 0.000,0.0,0.0,0.0,0.0,0.0, 15:29:47.055
68267.414063, 56971.488281, 117628.890625, 94677.156250, 123643.632813, 99169.007813, 89373.359375, 118992.953125, 0.000, 0.000, 0.000,0.0,0.0,0.0,0.0,0.0, 15:29:47.055
68314.171875, 57020.683594, 117608.039063, 94547.921875, 123695.039063, 99082.507813, 89329.570313, 119024.195313, 0.000, 0.000, 0.000,0.0,0.0,0.0,0.0,0.0, 15:29:47.055
68446.695313, 57156.449219, 117508.640625, 94318.750000, 123841.492188, 99116.390625, 89250.648438, 119157.164063, 0.000, 0.000, 0.000,0.0,0.0,0.0,0.0,0.0, 15:29:47.056
68414.867188, 57120.597656, 117519.570313, 94423.976563, 123814.937500, 99208.703125, 89292.468750, 119140.625000, 0.108, 0.262, 0.964,0.0,0.0,0.0,0.0,0.0, 15:29:47.056
68275.257813, 56986.238281, 117617.757813, 94661.625000, 123664.062500, 99181.187500, 89368.843750, 119007.765625, 0.000, 0.000, 0.000,0.0,0.0,0.0,0.0,0.0, 15:29:47.056
68292.179688, 57003.851563, 117621.445313, 94596.578125, 123675.390625, 99090.132813, 89342.085938, 119006.296875, 0.000, 0.000, 0.000,0.0,0.0,0.0,0.0,0.0, 15:29:47.057
68437.484375, 57143.015625, 117527.476563, 94349.750000, 123823.070313, 99096.656250, 89253.421875, 119135.914063, 0.000, 0.000, 0.000,0.0,0.0,0.0,0.0,0.0, 15:29:47.057
68438.867188, 57145.855469, 117511.367188, 94388.460938, 123833.039063, 99195.695313, 89271.296875, 119159.468750, 0.000, 0.000, 0.000,0.0,0.0,0.0,0.0,0.0, 15:29:47.057
68305.343750, 57014.894531, 117587.921875, 94632.523438, 123696.875000, 99204.187500, 89359.859375, 119042.796875, 0.000, 0.000, 0.000,0.0,0.0,0.0,0.0,0.0, 15:29:47.059
68290.343750, 56996.140625, 117615.007813, 94634.289063, 123672.289063, 99118.609375, 89362.093750, 119011.343750, 0.000, 0.000, 0.000,0.0,0.0,0.0,0.0,0.0, 15:29:47.061
68427.921875, 57131.371094, 117528.750000, 94386.562500, 123816.140625, 99101.375000, 89281.335938, 119132.109375, 0.000, 0.000, 0.000,0.0,0.0,0.0,0.0,0.0, 15:29:47.062
68468.375000, 57173.679688, 117484.476563, 94354.554688, 123864.804688, 99198.804688, 89271.437500, 119187.476563, 0.000, 0.000, 0.000,0.0,0.0,0.0,0.0,0.0, 15:29:47.062
68335.000000, 57038.453125, 117572.718750, 94599.437500, 123720.656250, 99216.687500, 89349.890625, 119061.414063, 0.104, 0.260, 0.952,0.0,0.0,0.0,0.0,0.0, 15:29:47.062
68278.226563, 56978.550781, 117622.093750, 94659.500000, 123655.437500, 99125.265625, 89365.375000, 118992.906250, 0.000, 0.000, 0.000,0.0,0.0,0.0,0.0,0.0, 15:29:47.063
68394.859375, 57092.589844, 117550.656250, 94425.703125, 123779.085938, 99085.593750, 89289.648438, 119095.945313, 0.000, 0.000, 0.000,0.0,0.0,0.0,0.0,0.0, 15:29:47.063
68460.351563, 57157.921875, 117504.617188, 94332.429688, 123853.265625, 99163.664063, 89256.031250, 119171.695313, 0.000, 0.000, 0.000,0.0,0.0,0.0,0.0,0.0, 15:29:47.064
68343.320313, 57039.882813, 117577.367188, 94557.242188, 123734.671875, 99202.046875, 89332.250000, 119071.406250, 0.000, 0.000, 0.000,0.0,0.0,0.0,0.0,0.0, 15:29:47.064
68257.914063, 56959.328125, 117644.289063, 94678.210938, 123641.710938, 99127.945313, 89373.734375, 118981.953125, 0.000, 0.000, 0.000,0.0,0.0,0.0,0.0,0.0, 15:29:47.064
68360.703125, 57065.074219, 117569.296875, 94468.859375, 123754.945313, 99078.195313, 89306.992188, 119073.195313, 0.000, 0.000, 0.000,0.0,0.0,0.0,0.0,0.0, 15:29:47.065
68472.132813, 57172.988281, 117485.546875, 94317.765625, 123871.976563, 99153.562500, 89259.539063, 119190.023438, 0.000, 0.000, 0.000,0.0,0.0,0.0,0.0,0.0, 15:29:47.065
68379.484375, 57078.394531, 117533.289063, 94507.171875, 123778.812500, 99223.992188, 89322.796875, 119118.296875, 0.000, 0.000, 0.000,0.0,0.0,0.0,0.0,0.0, 15:29:47.065
68261.171875, 56959.976563, 117624.687500, 94684.984375, 123649.820313, 99158.546875, 89382.031250, 118998.718750, 0.000, 0.000, 0.000,0.0,0.0,0.0,0.0,0.0, 15:29:47.066
68339.476563, 57039.882813, 117578.421875, 94520.359375, 123731.250000, 99085.640625, 89326.640625, 119058.484375, 0.114, 0.260, 0.950,0.0,0.0,0.0,0.0,0.0, 15:29:47.066
68462.765625, 57161.031250, 117493.078125, 94321.835938, 123862.234375, 99134.765625, 89258.757813, 119178.554688, 0.000, 0.000, 0.000,0.0,0.0,0.0,0.0,0.0, 15:29:47.067
68395.617188, 57092.769531, 117535.125000, 94464.617188, 123792.093750, 99207.250000, 89306.304688, 119125.429688, 0.000, 0.000, 0.000,0.0,0.0,0.0,0.0,0.0, 15:29:47.068
68264.687500, 56960.937500, 117635.531250, 94683.234375, 123652.484375, 99166.664063, 89377.742188, 118996.390625, 0.000, 0.000, 0.000,0.0,0.0,0.0,0.0,0.0, 15:29:47.069
68306.750000, 57006.199219, 117618.226563, 94571.210938, 123687.914063, 99082.578125, 89332.296875, 119024.062500, 0.000, 0.000, 0.000,0.0,0.0,0.0,0.0,0.0, 15:29:47.069
68449.132813, 57149.296875, 117507.007813, 94332.742188, 123844.820313, 99112.929688, 89245.664063, 119161.304688, 0.000, 0.000, 0.000,0.0,0.0,0.0,0.0,0.0, 15:29:47.070
68423.023438, 57118.250000, 117517.960938, 94422.039063, 123818.734375, 99204.304688, 89282.296875, 119147.960938, 0.000, 0.000, 0.000,0.0,0.0,0.0,0.0,0.0, 15:29:47.070
68282.476563, 56977.925781, 117619.257813, 94664.796875, 123668.421875, 99181.257813, 89363.921875, 119011.726563, 0.000, 0.000, 0.000,0.0,0.0,0.0,0.0,0.0, 15:29:47.071
68278.476563, 56975.332031, 117636.601563, 94614.507813, 123662.562500, 99079.085938, 89342.000000, 118993.460938, 0.000, 0.000, 0.000,0.0,0.0,0.0,0.0,0.0, 15:29:47.071
68427.335938, 57124.328125, 117535.187500, 94360.078125, 123822.757813, 99083.914063, 89260.570313, 119135.617188, 0.110, 0.254, 0.954,0.0,0.0,0.0,0.0,0.0, 15:29:47.071
68438.671875, 57140.445313, 117514.445313, 94382.695313, 123841.375000, 99184.921875, 89272.218750, 119168.414063, 0.000, 0.000, 0.000,0.0,0.0,0.0,0.0,0.0, 15:29:47.072
68298.031250, 57004.121094, 117611.570313, 94636.257813, 123691.953125, 99193.218750, 89358.117188, 119042.078125, 0.000, 0.000, 0.000,0.0,0.0,0.0,0.0,0.0, 15:29:47.072
68270.632813, 56972.648438, 117651.218750, 94656.328125, 123656.304688, 99098.757813, 89361.757813, 118996.234375, 0.000, 0.000, 0.000,0.0,0.0,0.0,0.0,0.0, 15:29:47.072
68399.757813, 57099.675781, 117565.296875, 94409.429688, 123797.164063, 99075.351563, 89276.304688, 119114.296875, 0.000, 0.000, 0.000,0.0,0.0,0.0,0.0,0.0, 15:29:47.072
68451.546875, 57151.484375, 117516.390625, 94358.781250, 123864.445313, 99172.179688, 89265.218750, 119182.757813, 0.000, 0.000, 0.000,0.0,0.0,0.0,0.0,0.0, 15:29:47.073
68321.164063, 57020.550781, 117602.359375, 94602.125000, 123727.875000, 99197.554688, 89346.867188, 119063.671875, 0.000, 0.000, 0.000,0.0,0.0,0.0,0.0,0.0, 15:29:47.073
68269.023438, 56965.363281, 117643.101563, 94676.843750, 123662.898438, 99116.882813, 89371.679688, 118997.531250, 0.000, 0.000, 0.000,0.0,0.0,0.0,0.0,0.0, 15:29:47.073
68392.335938, 57090.980469, 117549.296875, 94444.835938, 123792.765625, 99082.015625, 89292.804688, 119104.617188, 0.000, 0.000, 0.000,0.0,0.0,0.0,0.0,0.0, 15:29:47.074
68468.640625, 57169.570313, 117489.593750, 94335.531250, 123878.304688, 99160.781250, 89258.671875, 119191.078125, 0.000, 0.000, 0.000,0.0,0.0,0.0,0.0,0.0, 15:29:47.074
68360.703125, 57063.218750, 117556.468750, 94553.773438, 123761.914063, 99209.039063, 89333.484375, 119093.796875, 0.106, 0.264, 0.954,0.0,0.0,0.0,0.0,0.0, 15:29:47.074
68259.164063, 56959.753906, 117647.109375, 94701.812500, 123646.648438, 99131.500000, 89378.117188, 118988.320313, 0.000, 0.000, 0.000,0.0,0.0,0.0,0.0,0.0, 15:29:47.075
68353.531250, 57054.769531, 117588.812500, 94501.335938, 123746.226563, 99067.328125, 89306.546875, 119067.250000, 0.000, 0.000, 0.000,0.0,0.0,0.0,0.0,0.0, 15:29:47.075
68466.007813, 57169.902344, 117506.203125, 94329.632813, 123865.742188, 99134.656250, 89248.078125, 119181.734375, 0.000, 0.000, 0.000,0.0,0.0,0.0,0.0,0.0, 15:29:47.075
68382.054688, 57085.949219, 117543.593750, 94502.703125, 123775.820313, 99207.921875, 89304.515625, 119119.703125, 0.000, 0.000, 0.000,0.0,0.0,0.0,0.0,0.0, 15:29:47.076
68265.171875, 56967.753906, 117632.687500, 94693.007813, 123651.500000, 99152.203125, 89371.031250, 118998.601563, 0.000, 0.000, 0.000,0.0,0.0,0.0,0.0,0.0, 15:29:47.076
68334.843750, 57036.261719, 117596.007813, 94543.828125, 123726.828125, 99079.671875, 89329.187500, 119052.093750, 0.000, 0.000, 0.000,0.0,0.0,0.0,0.0,0.0, 15:29:47.076
68459.125000, 57158.437500, 117518.023438, 94335.156250, 123858.921875, 99117.820313, 89258.312500, 119173.664063, 0.000, 0.000, 0.000,0.0,0.0,0.0,0.0,0.0, 15:29:47.077
68407.843750, 57105.375000, 117540.015625, 94455.320313, 123811.875000, 99201.195313, 89301.539063, 119140.468750, 0.000, 0.000, 0.000,0.0,0.0,0.0,0.0,0.0, 15:29:47.077
68274.250000, 56971.980469, 117638.500000, 94680.578125, 123665.984375, 99165.257813, 89377.109375, 119011.679688, 0.108, 0.260, 0.954,0.0,0.0,0.0,0.0,0.0, 15:29:47.077
68309.632813, 57009.171875, 117624.351563, 94586.117188, 123696.382813, 99081.750000, 89342.984375, 119030.390625, 0.000, 0.000, 0.000,0.0,0.0,0.0,0.0,0.0, 15:29:47.078
68450.250000, 57152.289063, 117518.226563, 94346.109375, 123853.960938, 99108.328125, 89262.718750, 119169.507813, 0.000, 0.000, 0.000,0.0,0.0,0.0,0.0,0.0, 15:29:47.079
68432.007813, 57132.039063, 117514.429688, 94414.593750, 123839.968750, 99204.367188, 89288.781250, 119169.257813, 0.000, 0.000, 0.000,0.0,0.0,0.0,0.0,0.0, 15:29:47.079
68290.523438, 56988.765625, 117618.656250, 94664.687500, 123688.085938, 99192.281250, 89371.796875, 119032.023438, 0.000, 0.000, 0.000,0.0,0.0,0.0,0.0,0.0, 15:29:47.080
68282.320313, 56981.746094, 117643.906250, 94635.429688, 123677.273438, 99095.515625, 89359.859375, 119009.421875, 0.000, 0.000, 0.000,0.0,0.0,0.0,0.0,0.0, 15:29:47.081
68424.703125, 57123.703125, 117548.695313, 94381.492188, 123819.695313, 99090.820313, 89271.117188, 119138.015625, 0.000, 0.000, 0.000,0.0,0.0,0.0,0.0,0.0, 15:29:47.086
68444.234375, 57142.769531, 117527.257813, 94378.312500, 123848.484375, 99188.257813, 89274.476563, 119177.304688, 0.000, 0.000, 0.000,0.0,0.0,0.0,0.0,0.0, 15:29:47.087
68306.523438, 57007.832031, 117611.968750, 94626.531250, 123707.203125, 99201.757813, 89355.226563, 119053.609375, 0.000, 0.000, 0.000,0.0,0.0,0.0,0.0,0.0, 15:29:47.087
68264.437500, 56961.273438, 117665.859375, 94668.015625, 123652.570313, 99105.265625, 89368.015625, 118992.796875, 0.000, 0.000, 0.000,0.0,0.0,0.0,0.0,0.0, 15:29:47.088
68392.960938, 57086.441406, 117581.281250, 94417.718750, 123789.250000, 99074.687500, 89285.093750, 119109.671875, 0.108, 0.266, 0.958,0.0,0.0,0.0,0.0,0.0, 15:29:47.088
68450.875000, 57149.765625, 117532.578125, 94344.742188, 123860.648438, 99163.468750, 89266.179688, 119181.773438, 0.000, 0.000, 0.000,0.0,0.0,0.0,0.0,0.0, 15:29:47.088
68339.250000, 57039.773438, 117595.070313, 94574.695313, 123735.718750, 99203.476563, 89340.992188, 119080.007813, 0.000, 0.000, 0.000,0.0,0.0,0.0,0.0,0.0, 15:29:47.089
68257.085938, 56962.257813, 117663.062500, 94679.460938, 123649.843750, 99123.632813, 89375.460938, 118992.750000, 0.000, 0.000, 0.000,0.0,0.0,0.0,0.0,0.0, 15:29:47.090
68367.281250, 57074.527344, 117595.562500, 94459.007813, 123768.398438, 99072.539063, 89303.953125, 119087.429688, 0.000, 0.000, 0.000,0.0,0.0,0.0,0.0,0.0, 15:29:47.090
68464.328125, 57169.589844, 117524.148438, 94329.007813, 123869.609375, 99153.164063, 89256.968750, 119188.367188, 0.000, 0.000, 0.000,0.0,0.0,0.0,0.0,0.0, 15:29:47.090
68363.007813, 57064.246094, 117581.953125, 94534.015625, 123766.093750, 99210.468750, 89327.000000, 119102.492188, 0.000, 0.000, 0.000,0.0,0.0,0.0,0.0,0.0, 15:29:47.090
68258.671875, 56959.574219, 117664.023438, 94687.773438, 123651.921875, 99139.750000, 89380.195313, 118992.281250, 0.000, 0.000, 0.000,0.0,0.0,0.0,0.0,0.0, 15:29:47.091
68335.023438, 57035.792969, 117625.695313, 94510.460938, 123736.726563, 99069.164063, 89323.468750, 119056.046875, 0.000, 0.000, 0.000,0.0,0.0,0.0,0.0,0.0, 15:29:47.091
68457.734375, 57159.109375, 117537.468750, 94325.765625, 123870.101563, 99131.546875, 89265.289063, 119182.937500, 0.000, 0.000, 0.000,0.0,0.0,0.0,0.0,0.0, 15:29:47.517
68394.906250, 57098.578125, 117562.351563, 94482.718750, 123796.789063, 99211.414063, 89320.406250, 119131.437500, 0.110, 0.272, 0.960,0.0,0.0,0.0,0.0,0.0, 15:29:47.518
68270.742188, 56979.535156, 117656.851563, 94691.281250, 123662.453125, 99161.093750, 89395.578125, 119003.789063, 0.000, 0.000, 0.000,0.0,0.0,0.0,0.0,0.0, 15:29:47.519
68321.882813, 57029.402344, 117638.546875, 94565.015625, 123706.195313, 99077.656250, 89349.734375, 119038.007813, 0.000, 0.000, 0.000,0.0,0.0,0.0,0.0,0.0, 15:29:47.519
68454.765625, 57164.136719, 117541.804688, 94342.304688, 123841.554688, 99109.578125, 89263.609375, 119164.585938, 0.000, 0.000, 0.000,0.0,0.0,0.0,0.0,0.0, 15:29:47.519
68417.992188, 57126.585938, 117548.914063, 94445.210938, 123803.601563, 99195.671875, 89294.414063, 119141.140625, 0.000, 0.000, 0.000,0.0,0.0,0.0,0.0,0.0, 15:29:47.520
68289.765625, 56997.773438, 117630.562500, 94675.929688, 123670.898438, 99176.812500, 89372.757813, 119021.625000, 0.000, 0.000, 0.000,0.0,0.0,0.0,0.0,0.0, 15:29:47.520
68303.554688, 57013.062500, 117632.781250, 94610.820313, 123681.406250, 99089.882813, 89352.390625, 119020.445313, 0.000, 0.000, 0.000,0.0,0.0,0.0,0.0,0.0, 15:29:47.520
68439.093750, 57145.250000, 117544.000000, 94364.101563, 123821.953125, 99096.570313, 89266.289063, 119147.000000, 0.000, 0.000, 0.000,0.0,0.0,0.0,0.0,0.0, 15:29:47.522
68434.156250, 57139.015625, 117539.460938, 94406.789063, 123822.601563, 99192.921875, 89285.070313, 119160.859375, 0.000, 0.000, 0.000,0.0,0.0,0.0,0.0,0.0, 15:29:47.522
68297.023438, 57004.121094, 117628.445313, 94648.726563, 123679.062500, 99190.421875, 89365.515625, 119034.500000, 0.106, 0.274, 0.960,0.0,0.0,0.0,0.0,0.0, 15:29:47.523
68273.335938, 56980.941406, 117661.945313, 94642.203125, 123649.351563, 99092.187500, 89360.171875, 118998.468750, 0.000, 0.000, 0.000,0.0,0.0,0.0,0.0,0.0, 15:29:47.523
68412.070313, 57120.195313, 117575.335938, 94393.179688, 123795.375000, 99076.671875, 89275.945313, 119125.117188, 0.000, 0.000, 0.000,0.0,0.0,0.0,0.0,0.0, 15:29:47.523
68449.171875, 57155.175781, 117530.921875, 94366.851563, 123840.867188, 99178.304688, 89271.164063, 119177.976563, 0.000, 0.000, 0.000,0.0,0.0,0.0,0.0,0.0, 15:29:47.524
68314.234375, 57023.253906, 117617.937500, 94613.007813, 123697.921875, 99200.054688, 89354.359375, 119054.531250, 0.000, 0.000, 0.000,0.0,0.0,0.0,0.0,0.0, 15:29:47.524
68265.937500, 56973.699219, 117673.953125, 94673.250000, 123638.710938, 99110.875000, 89372.796875, 118992.617188, 0.000, 0.000, 0.000,0.0,0.0,0.0,0.0,0.0, 15:29:47.524
68391.328125, 57097.441406, 117591.250000, 94438.281250, 123767.726563, 99073.906250, 89291.390625, 119103.054688, 0.000, 0.000, 0.000,0.0,0.0,0.0,0.0,0.0, 15:29:47.524
68461.421875, 57163.066406, 117543.750000, 94354.351563, 123843.414063, 99157.921875, 89269.085938, 119181.015625, 0.000, 0.000, 0.000,0.0,0.0,0.0,0.0,0.0, 15:29:47.524
68349.890625, 57053.988281, 117599.343750, 94570.984375, 123726.757813, 99206.132813, 89342.867188, 119088.546875, 0.000, 0.000, 0.000,0.0,0.0,0.0,0.0,0.0, 15:29:47.525
68264.257813, 56972.492188, 117662.664063, 94689.140625, 123635.851563, 99129.289063, 89384.937500, 118999.812500, 0.000, 0.000, 0.000,0.0,0.0,0.0,0.0,0.0, 15:29:47.525
68359.742188, 57069.140625, 117608.484375, 94486.007813, 123734.539063, 99071.421875, 89317.429688, 119082.851563, 0.102, 0.272, 0.960,0.0,0.0,0.0,0.0,0.0, 15:29:47.525
68462.164063, 57176.855469, 117528.148438, 94335.421875, 123850.070313, 99146.007813, 89267.343750, 119193.648438, 0.000, 0.000, 0.000,0.0,0.0,0.0,0.0,0.0, 15:29:47.526
68370.320313, 57079.222656, 117584.992188, 94533.484375, 123747.859375, 99207.859375, 89334.015625, 119112.640625, 0.000, 0.000, 0.000,0.0,0.0,0.0,0.0,0.0, 15:29:47.526
68256.078125, 56965.652344, 117679.156250, 94707.179688, 123619.132813, 99140.960938, 89390.343750, 118994.578125, 0.000, 0.000, 0.000,0.0,0.0,0.0,0.0,0.0, 15:29:47.526
68327.851563, 57038.117188, 117644.398438, 94539.585938, 123696.132813, 99067.421875, 89337.546875, 119052.312500, 0.000, 0.000, 0.000,0.0,0.0,0.0,0.0,0.0, 15:29:47.526
68450.070313, 57156.402344, 117564.023438, 94340.203125, 123833.445313, 99114.757813, 89275.367188, 119176.343750, 0.000, 0.000, 0.000,0.0,0.0,0.0,0.0,0.0, 15:29:47.527
68393.968750, 57099.808594, 117581.390625, 94475.570313, 123775.843750, 99198.359375, 89318.484375, 119140.804688, 0.000, 0.000, 0.000,0.0,0.0,0.0,0.0,0.0, 15:29:47.527
68265.375000, 56972.023438, 117664.406250, 94686.164063, 123635.656250, 99161.992188, 89384.757813, 119015.992188, 0.000, 0.000, 0.000,0.0,0.0,0.0,0.0,0.0, 15:29:47.527
68305.273438, 57012.570313, 117649.539063, 94576.437500, 123676.804688, 99076.179688, 89348.101563, 119040.046875, 0.000, 0.000, 0.000,0.0,0.0,0.0,0.0,0.0, 15:29:47.527
68433.570313, 57136.375000, 117573.343750, 94348.070313, 123815.312500, 99096.632813, 89269.335938, 119161.148438, 0.106, 0.266, 0.954,0.0,0.0,0.0,0.0,0.0, 15:29:47.528
68413.031250, 57114.425781, 117575.359375, 94430.171875, 123799.265625, 99192.117188, 89306.148438, 119158.242188, 0.000, 0.000, 0.000,0.0,0.0,0.0,0.0,0.0, 15:29:47.528
68284.640625, 56985.011719, 117657.367188, 94671.031250, 123656.750000, 99179.625000, 89386.320313, 119032.359375, 0.000, 0.000, 0.000,0.0,0.0,0.0,0.0,0.0, 15:29:47.528
68286.429688, 56988.250000, 117671.562500, 94625.078125, 123653.601563, 99080.898438, 89369.335938, 119012.171875, 0.000, 0.000, 0.000,0.0,0.0,0.0,0.0,0.0, 15:29:47.529
68431.070313, 57132.890625, 117571.867188, 94372.328125, 123797.656250, 99082.484375, 89276.085938, 119147.109375, 0.000, 0.000, 0.000,0.0,0.0,0.0,0.0,0.0, 15:29:47.529
68440.500000, 57143.082031, 117555.398438, 94399.953125, 123808.968750, 99181.750000, 89291.906250, 119171.093750, 0.000, 0.000, 0.000,0.0,0.0,0.0,0.0,0.0, 15:29:47.529
68303.195313, 57008.835938, 117648.023438, 94646.109375, 123661.046875, 99183.757813, 89372.976563, 119044.093750, 0.000, 0.000, 0.000,0.0,0.0,0.0,0.0,0.0, 15:29:47.529
68271.453125, 56976.226563, 117684.882813, 94656.726563, 123623.335938, 99086.710938, 89373.468750, 118999.476563, 0.000, 0.000, 0.000,0.0,0.0,0.0,0.0,0.0, 15:29:47.530
68404.937500, 57112.953125, 117585.570313, 94399.882813, 123770.921875, 99066.414063, 89288.484375, 119122.726563, 0.000, 0.000, 0.000,0.0,0.0,0.0,0.0,0.0, 15:29:47.530
68460.484375, 57166.527344, 117529.734375, 94354.554688, 123837.312500, 99169.679688, 89283.078125, 119189.687500, 0.000, 0.000, 0.000,0.0,0.0,0.0,0.0,0.0, 15:29:47.530
68327.671875, 57028.707031, 117613.687500, 94599.421875, 123692.625000, 99192.101563, 89360.796875, 119069.750000, 0.106, 0.268, 0.956,0.0,0.0,0.0,0.0,0.0, 15:29:47.530
68254.265625, 56956.085938, 117677.593750, 94677.828125, 123616.296875, 99104.257813, 89385.203125, 118989.820313, 0.000, 0.000, 0.000,0.0,0.0,0.0,0.0,0.0, 15:29:47.531
68373.335938, 57071.199219, 117616.593750, 94447.609375, 123737.195313, 99061.273438, 89307.796875, 119090.289063, 0.000, 0.000, 0.000,0.0,0.0,0.0,0.0,0.0, 15:29:47.531
68461.578125, 57158.660156, 117548.671875, 94335.132813, 123836.820313, 99149.851563, 89270.179688, 119185.289063, 0.000, 0.000, 0.000,0.0,0.0,0.0,0.0,0.0, 15:29:47.531
68340.882813, 57045.628906, 117616.593750, 94559.859375, 123717.390625, 99197.687500, 89341.953125, 119085.375000, 0.000, 0.000, 0.000,0.0,0.0,0.0,0.0,0.0, 15:29:47.532
68251.539063, 56957.250000, 117686.445313, 94699.757813, 123617.523438, 99124.414063, 89385.429688, 118989.484375, 0.000, 0.000, 0.000,0.0,0.0,0.0,0.0,0.0, 15:29:47.532
68354.250000, 57056.757813, 117623.304688, 94504.265625, 123715.359375, 99065.898438, 89316.250000, 119070.820313, 0.000, 0.000, 0.000,0.0,0.0,0.0,0.0,0.0, 15:29:47.533
68457.109375, 57159.867188, 117544.914063, 94339.984375, 123829.976563, 99124.890625, 89258.085938, 119180.101563, 0.000, 0.000, 0.000,0.0,0.0,0.0,0.0,0.0, 15:29:47.533
68366.539063, 57069.789063, 117591.765625, 94519.867188, 123739.234375, 99194.468750, 89321.992188, 119110.789063, 0.000, 0.000, 0.000,0.0,0.0,0.0,0.0,0.0, 15:29:47.533
68248.187500, 56953.964844, 117684.945313, 94705.007813, 123612.875000, 99140.062500, 89384.890625, 118993.507813, 0.000, 0.000, 0.000,0.0,0.0,0.0,0.0,0.0, 15:29:47.534
68314.593750, 57020.660156, 117639.375000, 94548.187500, 123679.750000, 99063.421875, 89330.398438, 119044.515625, 0.110, 0.268, 0.954,0.0,0.0,0.0,0.0,0.0, 15:29:47.534
68449.914063, 57151.687500, 117542.078125, 94339.960938, 123822.757813, 99110.132813, 89259.835938, 119176.125000, 0.000, 0.000, 0.000,0.0,0.0,0.0,0.0,0.0, 15:29:47.534
68398.882813, 57099.898438, 117565.632813, 94470.515625, 123776.804688, 99196.726563, 89308.359375, 119145.945313, 0.000, 0.000, 0.000,0.0,0.0,0.0,0.0,0.0, 15:29:47.534
68265.781250, 56968.156250, 117664.812500, 94696.539063, 123635.179688, 99159.843750, 89382.882813, 119016.929688, 0.000, 0.000, 0.000,0.0,0.0,0.0,0.0,0.0, 15:29:47.535
68299.148438, 57004.792969, 117645.742188, 94598.007813, 123669.757813, 99072.562500, 89348.835938, 119034.789063, 0.000, 0.000, 0.000,0.0,0.0,0.0,0.0,0.0, 15:29:47.535
68433.796875, 57139.976563, 117542.765625, 94358.351563, 123818.023438, 99095.695313, 89270.562500, 119165.507813, 0.000, 0.000, 0.000,0.0,0.0,0.0,0.0,0.0, 15:29:47.535
68407.757813, 57117.757813, 117548.000000, 94429.789063, 123800.921875, 99188.585938, 89299.820313, 119161.328125, 0.000, 0.000, 0.000,0.0,0.0,0.0,0.0,0.0, 15:29:47.536
68273.531250, 56982.550781, 117649.031250, 94676.867188, 123653.507813, 99174.687500, 89382.234375, 119028.937500, 0.000, 0.000, 0.000,0.0,0.0,0.0,0.0,0.0, 15:29:47.536
68272.304688, 56981.300781, 117667.265625, 94642.289063, 123640.125000, 99081.078125, 89365.242188, 119009.984375, 0.000, 0.000, 0.000,0.0,0.0,0.0,0.0,0.0, 15:29:47.536
68409.546875, 57117.847656, 117575.179688, 94389.179688, 123784.109375, 99074.062500, 89275.593750, 119134.007813, 0.112, 0.264, 0.950,0.0,0.0,0.0,0.0,0.0, 15:29:47.536
68439.898438, 57144.960938, 117543.546875, 94390.679688, 123823.718750, 99175.445313, 89283.031250, 119176.945313, 0.000, 0.000, 0.000,0.0,0.0,0.0,0.0,0.0, 15:29:47.537
68301.203125, 57006.019531, 117638.546875, 94644.320313, 123678.992188, 99191.382813, 89369.445313, 119052.492188, 0.000, 0.000, 0.000,0.0,0.0,0.0,0.0,0.0, 15:29:47.537
68248.726563, 56961.609375, 117686.914063, 94677.000000, 123630.867188, 99096.789063, 89379.882813, 118997.953125, 0.000, 0.000, 0.000,0.0,0.0,0.0,0.0,0.0, 15:29:47.537
68381.898438, 57090.464844, 117600.703125, 94427.578125, 123770.523438, 99068.070313, 89299.257813, 119114.476563, 0.000, 0.000, 0.000,0.0,0.0,0.0,0.0,0.0, 15:29:47.537
68445.507813, 57151.957031, 117540.937500, 94358.179688, 123841.531250, 99164.828125, 89283.460938, 119190.765625, 0.000, 0.000, 0.000,0.0,0.0,0.0,0.0,0.0, 15:29:47.538
68318.015625, 57026.359375, 117618.921875, 94596.867188, 123705.523438, 99198.468750, 89356.210938, 119076.812500, 0.000, 0.000, 0.000,0.0,0.0,0.0,0.0,0.0, 15:29:47.538
68253.554688, 56962.234375, 117669.234375, 94690.078125, 123632.632813, 99119.367188, 89383.414063, 118999.406250, 0.000, 0.000, 0.000,0.0,0.0,0.0,0.0,0.0, 15:29:47.538
68358.984375, 57068.738281, 117602.312500, 94473.000000, 123746.023438, 99072.156250, 89309.609375, 119091.632813, 0.000, 0.000, 0.000,0.0,0.0,0.0,0.0,0.0, 15:29:47.538
68448.679688, 57157.007813, 117525.867188, 94338.039063, 123843.234375, 99146.968750, 89262.382813, 119187.945313, 0.000, 0.000, 0.000,0.0,0.0,0.0,0.0,0.0, 15:29:47.539
68347.031250, 57051.507813, 117583.070313, 94545.507813, 123735.343750, 99202.562500, 89334.062500, 119097.625000, 0.110, 0.264, 0.952,0.0,0.0,0.0,0.0,0.0, 15:29:47.539
68244.835938, 56951.304688, 117675.429688, 94704.453125, 123620.273438, 99131.679688, 89385.492188, 118989.867188, 0.000, 0.000, 0.000,0.0,0.0,0.0,0.0,0.95065933, 15:29:47.540
68333.437500, 57040.531250, 117615.789063, 94513.859375, 123715.804688, 99064.468750, 89324.406250, 119063.085938, 0.000, 0.000, 0.000,0.0,0.0,0.0,0.0,0.95065933, 15:29:47.540
68448.882813, 57157.140625, 117532.484375, 94334.710938, 123839.632813, 99121.804688, 89265.781250, 119179.609375, 0.000, 0.000, 0.000,0.0,0.0,0.0,0.0,0.95065933, 15:29:47.541
68381.851563, 57092.230469, 117565.523438, 94502.367188, 123769.468750, 99198.156250, 89323.085938, 119126.343750, 0.000, 0.000, 0.000,0.0,0.0,0.0,0.0,0.95065933, 15:29:47.541
68259.007813, 56968.492188, 117653.234375, 94704.765625, 123632.835938, 99149.968750, 89387.351563, 119003.164063, 0.000, 0.000, 0.000,0.0,0.0,0.0,0.0,0.95065933, 15:29:47.541
68305.921875, 57011.183594, 117634.117188, 94569.218750, 123673.898438, 99062.796875, 89338.625000, 119031.773438, 0.000, 0.000, 0.000,0.0,0.0,0.0,0.0,0.95065933, 15:29:47.541
68445.484375, 57153.832031, 117528.593750, 94339.804688, 123824.210938, 99102.781250, 89261.171875, 119168.429688, 0.000, 0.000, 0.000,0.0,0.0,0.0,0.0,0.95065933, 15:29:47.542
68409.367188, 57116.281250, 117534.945313, 94449.234375, 123790.750000, 99200.304688, 89301.671875, 119151.851563, 0.000, 0.000, 0.000,0.0,0.0,0.0,0.0,0.95065933, 15:29:47.542
68274.789063, 56978.664063, 117628.937500, 94685.382813, 123652.015625, 99177.304688, 89385.539063, 119023.796875, 0.106, 0.262, 0.948,0.0,0.0,0.0,0.0,0.95065933, 15:29:47.542
68288.578125, 56992.296875, 117638.882813, 94614.390625, 123663.703125, 99077.078125, 89364.507813, 119017.203125, 0.000, 0.000, 0.000,0.0,0.0,0.0,0.0,0.95065933, 15:29:47.543
68428.078125, 57132.597656, 117538.921875, 94368.523438, 123811.984375, 99088.992188, 89278.070313, 119150.796875, 0.000, 0.000, 0.000,0.0,0.0,0.0,0.0,0.95065933, 15:29:47.543
68423.781250, 57131.480469, 117518.179688, 94415.039063, 123812.210938, 99193.437500, 89290.882813, 119172.500000, 0.000, 0.000, 0.000,0.0,0.0,0.0,0.0,0.95065933, 15:29:47.543
68290.523438, 57002.312500, 117600.656250, 94660.234375, 123675.148438, 99199.812500, 89375.257813, 119053.187500, 0.000, 0.000, 0.000,0.0,0.0,0.0,0.0,0.95065933, 15:29:47.543
68267.007813, 56978.105469, 117642.343750, 94655.898438, 123646.023438, 99100.414063, 89377.625000, 119010.429688, 0.000, 0.000, 0.000,0.0,0.0,0.0,0.0,0.95065933, 15:29:47.544
68403.554688, 57114.671875, 117553.789063, 94399.843750, 123790.281250, 99084.273438, 89290.882813, 119136.179688, 0.000, 0.000, 0.000,0.0,0.0,0.0,0.0,0.95065933, 15:29:47.544
68442.359375, 57150.191406, 117525.000000, 94384.218750, 123834.828125, 99179.203125, 89290.273438, 119182.421875, 0.000, 0.000, 0.000,0.0,0.0,0.0,0.0,0.95065933, 15:29:47.544
68307.796875, 57016.726563, 117615.679688, 94633.234375, 123689.453125, 99192.500000, 89364.460938, 119055.179688, 0.000, 0.000, 0.000,0.0,0.0,0.0,0.0,0.95065933, 15:29:47.545
68256.679688, 56966.125000, 117671.960938, 94690.656250, 123627.921875, 99099.140625, 89377.335938, 118991.429688, 0.000, 0.000, 0.000,0.0,0.0,0.0,0.0,0.95065933, 15:29:47.545
68389.562500, 57094.691406, 117583.960938, 94446.648438, 123764.039063, 99070.640625, 89297.070313, 119107.234375, 0.112, 0.266, 0.948,0.0,0.0,0.0,0.0,0.95065933, 15:29:47.545
68457.335938, 57163.667969, 117519.789063, 94356.609375, 123844.242188, 99161.945313, 89271.546875, 119189.554688, 0.000, 0.000, 0.000,0.0,0.0,0.0,0.0,0.95065933, 15:29:47.545
68344.546875, 57053.136719, 117579.695313, 94581.203125, 123728.101563, 99205.468750, 89349.929688, 119094.875000, 0.000, 0.000, 0.000,0.0,0.0,0.0,0.0,0.95065933, 15:29:47.546
68258.671875, 56968.941406, 117662.281250, 94704.875000, 123633.304688, 99126.875000, 89394.546875, 119000.054688, 0.000, 0.000, 0.000,0.0,0.0,0.0,0.0,0.95065933, 15:29:47.546
68371.125000, 57084.117188, 117594.265625, 94496.062500, 123755.992188, 99077.437500, 89329.390625, 119095.968750, 0.000, 0.000, 0.000,0.0,0.0,0.0,0.0,0.95065933, 15:29:47.546
68462.875000, 57172.003906, 117532.242188, 94355.296875, 123856.781250, 99145.117188, 89288.421875, 119194.250000, 0.000, 0.000, 0.000,0.0,0.0,0.0,0.0,0.95065933, 15:29:47.546
68364.882813, 57068.226563, 117594.421875, 94545.726563, 123743.523438, 99199.632813, 89347.789063, 119107.101563, 0.000, 0.000, 0.000,0.0,0.0,0.0,0.0,0.95065933, 15:29:47.547
68262.093750, 56970.148438, 117662.570313, 94706.414063, 123637.375000, 99143.218750, 89404.000000, 119005.984375, 0.000, 0.000, 0.000,0.0,0.0,0.0,0.0,0.95065933, 15:29:47.547
68335.937500, 57047.394531, 117614.789063, 94538.171875, 123715.468750, 99077.570313, 89345.148438, 119069.835938, 0.000, 0.000, 0.000,0.0,0.0,0.0,0.0,0.95065933, 15:29:47.547
68455.593750, 57165.164063, 117528.242188, 94340.585938, 123849.312500, 99123.031250, 89282.367188, 119191.968750, 0.112, 0.270, 0.954,0.0,0.0,0.0,0.0,0.95065933, 15:29:47.548
68394.148438, 57100.835938, 117563.937500, 94492.804688, 123778.796875, 99204.257813, 89333.195313, 119144.609375, 0.000, 0.000, 0.000,0.0,0.0,0.0,0.0,0.95065933, 15:29:47.549
68263.078125, 56974.328125, 117663.085938, 94707.085938, 123640.007813, 99161.093750, 89399.578125, 119013.492188, 0.000, 0.000, 0.000,0.0,0.0,0.0,0.0,0.95065933, 15:29:47.549
68309.546875, 57021.175781, 117641.742188, 94589.875000, 123686.992188, 99072.960938, 89356.773438, 119039.687500, 0.000, 0.000, 0.000,0.0,0.0,0.0,0.0,0.95065933, 15:29:47.549
68449.218750, 57156.671875, 117547.437500, 94364.031250, 123833.960938, 99101.437500, 89280.015625, 119172.453125, 0.000, 0.000, 0.000,0.0,0.0,0.0,0.0,0.95065933, 15:29:47.550
68414.460938, 57124.394531, 117559.148438, 94457.578125, 123808.054688, 99189.867188, 89317.429688, 119158.351563, 0.000, 0.000, 0.000,0.0,0.0,0.0,0.0,0.95065933, 15:29:47.551
68275.882813, 56987.648438, 117652.335938, 94692.312500, 123665.203125, 99171.109375, 89398.500000, 119030.593750, 0.000, 0.000, 0.000,0.0,0.0,0.0,0.0,0.95065933, 15:29:47.551
68285.671875, 56991.468750, 117660.921875, 94636.703125, 123661.226563, 99079.625000, 89374.046875, 119021.898438, 0.000, 0.000, 0.000,0.0,0.0,0.0,0.0,0.95065933, 15:29:47.552
68429.390625, 57134.519531, 117557.859375, 94383.656250, 123814.914063, 99086.421875, 89285.804688, 119156.070313, 0.000, 0.000, 0.000,0.0,0.0,0.0,0.0,0.95065933, 15:29:47.552
68439.835938, 57147.039063, 117538.812500, 94413.007813, 123829.015625, 99185.726563, 89300.062500, 119180.773438, 0.000, 0.000, 0.000,0.0,0.0,0.0,0.0,0.95065933, 15:29:47.552
68298.140625, 57007.273438, 117638.390625, 94663.906250, 123678.273438, 99184.406250, 89382.703125, 119048.898438, 0.112, 0.276, 0.954,0.0,0.0,0.0,0.0,0.95065933, 15:29:47.552
68279.593750, 56988.093750, 117658.703125, 94669.421875, 123661.601563, 99101.617188, 89389.296875, 119022.562500, 0.000, 0.000, 0.000,0.0,0.0,0.0,0.0,0.95065933, 15:29:47.553
68411.398438, 57115.031250, 117577.148438, 94427.335938, 123802.796875, 99087.046875, 89312.468750, 119143.312500, 0.000, 0.000, 0.000,0.0,0.0,0.0,0.0,0.95065933, 15:29:47.553
68445.304688, 57148.402344, 117544.492188, 94385.242188, 123850.718750, 99177.281250, 89306.101563, 119194.515625, 0.000, 0.000, 0.000,0.0,0.0,0.0,0.0,0.95065933, 15:29:47.553
68315.554688, 57019.609375, 117629.335938, 94624.226563, 123715.359375, 99202.203125, 89390.140625, 119081.507813, 0.000, 0.000, 0.000,0.0,0.0,0.0,0.0,0.95065933, 15:29:47.554
68265.648438, 56969.675781, 117677.507813, 94694.859375, 123653.890625, 99120.218750, 89412.023438, 119018.585938, 0.000, 0.000, 0.000,0.0,0.0,0.0,0.0,0.95065933, 15:29:47.554
68383.195313, 57086.621094, 117602.734375, 94465.640625, 123777.968750, 99076.718750, 89337.484375, 119115.929688, 0.000, 0.000, 0.000,0.0,0.0,0.0,0.0,0.95065933, 15:29:47.554
68459.125000, 57167.804688, 117527.281250, 94358.937500, 123869.406250, 99164.273438, 89299.953125, 119208.242188, 0.000, 0.000, 0.000,0.0,0.0,0.0,0.0,0.95065933, 15:29:47.554
68351.656250, 57061.363281, 117578.507813, 94579.882813, 123758.968750, 99218.273438, 89369.851563, 119117.804688, 0.000, 0.000, 0.000,0.0,0.0,0.0,0.0,0.95065933, 15:29:47.555
68253.554688, 56962.660156, 117663.312500, 94719.578125, 123648.054688, 99137.742188, 89414.398438, 119013.648438, 0.000, 0.000, 0.000,0.0,0.0,0.0,0.0,0.95065933, 15:29:47.555
68351.609375, 57059.105469, 117611.679688, 94520.921875, 123742.765625, 99074.148438, 89347.007813, 119087.585938, 0.120, 0.274, 0.954,0.0,0.0,0.0,0.0,0.95065933, 15:29:47.556
68454.335938, 57163.847656, 117538.234375, 94360.570313, 123859.773438, 99141.562500, 89295.437500, 119198.179688, 0.000, 0.000, 0.000,0.0,0.0,0.0,0.0,0.95065933, 15:29:47.557
68371.906250, 57082.730469, 117578.062500, 94542.445313, 123774.320313, 99213.531250, 89356.015625, 119134.546875, 0.000, 0.000, 0.000,0.0,0.0,0.0,0.0,0.95065933, 15:29:47.557
68257.015625, 56968.203125, 117662.078125, 94727.335938, 123654.335938, 99159.507813, 89421.054688, 119023.281250, 0.000, 0.000, 0.000,0.0,0.0,0.0,0.0,0.95065933, 15:29:47.557
68318.929688, 57030.964844, 117624.757813, 94567.789063, 123720.390625, 99080.179688, 89369.289063, 119069.460938, 0.000, 0.000, 0.000,0.03992672,0.11859755,0.042619973,0.08850577,0.04326383, 15:29:47.998
68449.195313, 57157.632813, 117535.726563, 94358.984375, 123860.960938, 99121.132813, 89297.984375, 119191.609375, 0.000, 0.000, 0.000,0.03992672,0.11859755,0.042619973,0.08850577,0.04326383, 15:29:47.999
68395.460938, 57102.535156, 117559.398438, 94492.445313, 123804.851563, 99207.031250, 89341.351563, 119153.437500, 0.000, 0.000, 0.000,0.03992672,0.11859755,0.042619973,0.08850577,0.04326383, 15:29:47.999
68268.281250, 56974.503906, 117652.250000, 94711.578125, 123663.773438, 99167.890625, 89411.398438, 119026.210938, 0.000, 0.000, 0.000,0.03992672,0.11859755,0.042619973,0.08850577,0.04326383, 15:29:47.999
68295.710938, 57006.468750, 117648.671875, 94614.460938, 123687.445313, 99076.273438, 89375.390625, 119038.835938, 0.000, 0.000, 0.000,0.03992672,0.11859755,0.042619973,0.08850577,0.04326383, 15:29:48.000
68429.906250, 57142.433594, 117557.562500, 94378.937500, 123836.617188, 99102.218750, 89295.726563, 119175.296875, 0.118, 0.274, 0.956,0.03992672,0.11859755,0.042619973,0.08850577,0.04326383, 15:29:48.000
68408.156250, 57122.695313, 117561.320313, 94452.296875, 123821.773438, 99197.171875, 89326.039063, 119176.726563, 0.000, 0.000, 0.000,0.03992672,0.11859755,0.042619973,0.08850577,0.04326383, 15:29:48.001
68266.718750, 56983.492188, 117649.656250, 94692.312500, 123668.015625, 99179.875000, 89393.539063, 119040.046875, 0.000, 0.000, 0.000,0.03992672,0.11859755,0.042619973,0.08850577,0.04326383, 15:29:48.001
68255.609375, 56971.843750, 117669.953125, 94656.054688, 123652.484375, 99077.968750, 89373.875000, 119011.320313, 0.000, 0.000, 0.000,0.03992672,0.11859755,0.042619973,0.08850577,0.04326383, 15:29:48.002
68406.773438, 57122.472656, 117557.382813, 94398.007813, 123811.804688, 99077.140625, 89284.421875, 119150.281250, 0.000, 0.000, 0.000,0.03992672,0.11859755,0.042619973,0.08850577,0.04326383, 15:29:48.002
68429.054688, 57144.175781, 117532.867188, 94409.117188, 123839.609375, 99178.171875, 89295.414063, 119182.734375, 0.000, 0.000, 0.000,0.03992672,0.11859755,0.042619973,0.08850577,0.04326383, 15:29:48.003
68291.328125, 57003.695313, 117630.320313, 94661.937500, 123693.992188, 99187.093750, 89380.062500, 119058.414063, 0.000, 0.000, 0.000,0.03992672,0.11859755,0.042619973,0.08850577,0.04326383, 15:29:48.003
68264.726563, 56978.574219, 117655.687500, 94684.578125, 123664.976563, 99102.515625, 89391.640625, 119024.976563, 0.000, 0.000, 0.000,0.03992672,0.11859755,0.042619973,0.08850577,0.04326383, 15:29:48.004
68396.671875, 57111.296875, 117560.382813, 94437.992188, 123807.804688, 99085.187500, 89313.570313, 119147.578125, 0.000, 0.000, 0.000,0.03992672,0.11859755,0.042619973,0.08850577,0.04326383, 15:29:48.005
68442.914063, 57158.839844, 117517.335938, 94378.718750, 123862.703125, 99175.914063, 89292.531250, 119207.929688, 0.000, 0.000, 0.000,0.03992672,0.11859755,0.042619973,0.08850577,0.04326383, 15:29:48.006
68317.296875, 57033.671875, 117599.921875, 94615.687500, 123726.710938, 99203.093750, 89370.695313, 119093.242188, 0.114, 0.278, 0.950,0.03992672,0.11859755,0.042619973,0.08850577,0.04326383, 15:29:48.006
68249.218750, 56967.332031, 117659.984375, 94706.507813, 123646.070313, 99114.742188, 89396.984375, 119011.679688, 0.000, 0.000, 0.000,0.03992672,0.11859755,0.042619973,0.08850577,0.04326383, 15:29:48.006
68360.796875, 57076.652344, 117586.062500, 94477.109375, 123758.968750, 99066.437500, 89312.742188, 119105.375000, 0.000, 0.000, 0.000,0.03992672,0.11859755,0.042619973,0.08850577,0.04326383, 15:29:48.007
68455.632813, 57172.027344, 117502.265625, 94344.898438, 123867.976563, 99151.195313, 89268.976563, 119209.539063, 0.000, 0.000, 0.000,0.03992672,0.11859755,0.042619973,0.08850577,0.04326383, 15:29:48.007
68356.976563, 57077.167969, 117543.484375, 94552.882813, 123772.312500, 99217.468750, 89343.070313, 119130.679688, 0.000, 0.000, 0.000,0.03992672,0.11859755,0.042619973,0.08850577,0.04326383, 15:29:48.007
68248.929688, 56967.531250, 117634.414063, 94711.734375, 123656.507813, 99144.039063, 89397.898438, 119018.320313, 0.000, 0.000, 0.000,0.03992672,0.11859755,0.042619973,0.08850577,0.04326383, 15:29:48.007
68339.492188, 57054.144531, 117599.945313, 94531.804688, 123745.984375, 99075.242188, 89343.585938, 119087.632813, 0.000, 0.000, 0.000,0.03992672,0.11859755,0.042619973,0.08850577,0.04326383, 15:29:48.008
68462.140625, 57173.882813, 117506.828125, 94349.546875, 123872.781250, 99141.156250, 89274.117188, 119211.906250, 0.000, 0.000, 0.000,0.03992672,0.11859755,0.042619973,0.08850577,0.04326383, 15:29:48.008
68377.804688, 57088.453125, 117553.093750, 94521.476563, 123789.992188, 99218.140625, 89330.554688, 119149.257813, 0.000, 0.000, 0.000,0.03992672,0.11859755,0.042619973,0.08850577,0.04326383, 15:29:48.009
68251.695313, 56965.117188, 117647.445313, 94720.679688, 123656.015625, 99164.273438, 89396.382813, 119029.046875, 0.118, 0.272, 0.952,0.03992672,0.11859755,0.042619973,0.08850577,0.04326383, 15:29:48.009
68308.132813, 57020.640625, 117617.757813, 94579.257813, 123710.820313, 99082.015625, 89353.328125, 119069.078125, 0.000, 0.000, 0.000,0.03992672,0.11859755,0.042619973,0.08850577,0.04326383, 15:29:48.009
68445.757813, 57157.835938, 117506.046875, 94351.718750, 123857.250000, 99125.046875, 89275.257813, 119202.656250, 0.000, 0.000, 0.000,0.03992672,0.11859755,0.042619973,0.08850577,0.04326383, 15:29:48.010
68396.085938, 57110.648438, 117518.140625, 94467.945313, 123812.164063, 99215.343750, 89316.648438, 119176.500000, 0.000, 0.000, 0.000,0.03992672,0.11859755,0.042619973,0.08850577,0.04326383, 15:29:48.010
68262.492188, 56979.222656, 117617.312500, 94702.750000, 123668.710938, 99185.570313, 89397.718750, 119047.914063, 0.000, 0.000, 0.000,0.03992672,0.11859755,0.042619973,0.08850577,0.04326383, 15:29:48.010
68282.945313, 56997.148438, 117616.195313, 94621.992188, 123688.601563, 99093.304688, 89370.187500, 119049.945313, 0.000, 0.000, 0.000,0.03992672,0.11859755,0.042619973,0.08850577,0.04326383, 15:29:48.011
68430.242188, 57144.488281, 117508.187500, 94372.835938, 123843.835938, 99109.171875, 89282.609375, 119186.515625, 0.000, 0.000, 0.000,0.03992672,0.11859755,0.042619973,0.08850577,0.04326383, 15:29:48.011
68416.070313, 57132.039063, 117502.695313, 94428.671875, 123833.085938, 99205.507813, 89303.460938, 119190.625000, 0.000, 0.000, 0.000,0.03992672,0.11859755,0.042619973,0.08850577,0.04326383, 15:29:48.012
68269.023438, 56989.144531, 117604.460938, 94676.710938, 123683.281250, 99195.609375, 89388.421875, 119051.648438, 0.000, 0.000, 0.000,0.03992672,0.11859755,0.042619973,0.08850577,0.04326383, 15:29:48.012
68254.937500, 56972.628906, 117640.000000, 94662.851563, 123658.359375, 99093.531250, 89382.296875, 119017.382813, 0.000, 0.000, 0.000,0.03992672,0.11859755,0.042619973,0.08850577,0.04326383, 15:29:48.012
68408.023438, 57118.898438, 117536.015625, 94408.671875, 123812.343750, 99086.039063, 89293.429688, 119158.085938, 0.118, 0.274, 0.950,0.03992672,0.11859755,0.042619973,0.08850577,0.04326383, 15:29:48.013
68445.015625, 57155.218750, 117499.453125, 94398.921875, 123857.000000, 99189.773438, 89295.976563, 119209.468750, 0.000, 0.000, 0.000,0.03992672,0.11859755,0.042619973,0.08850577,0.04326383, 15:29:48.013
68316.789063, 57031.882813, 117575.398438, 94644.593750, 123725.773438, 99216.687500, 89380.132813, 119095.500000, 0.000, 0.000, 0.000,0.03992672,0.11859755,0.042619973,0.08850577,0.04326383, 15:29:48.014
68262.000000, 56981.480469, 117623.859375, 94697.898438, 123665.179688, 99129.625000, 89395.929688, 119035.085938, 0.000, 0.000, 0.000,0.03992672,0.11859755,0.042619973,0.08850577,0.04326383, 15:29:48.014
68370.476563, 57088.050781, 117558.367188, 94462.875000, 123783.289063, 99084.031250, 89317.257813, 119133.695313, 0.000, 0.000, 0.000,0.03992672,0.11859755,0.042619973,0.08850577,0.04326383, 15:29:48.014
68438.937500, 57154.636719, 117513.085938, 94382.562500, 123857.851563, 99164.179688, 89295.750000, 119203.484375, 0.000, 0.000, 0.000,0.03992672,0.11859755,0.042619973,0.08850577,0.04326383, 15:29:48.015
68332.718750, 57046.542969, 117572.335938, 94603.171875, 123745.984375, 99208.148438, 89372.734375, 119108.554688, 0.000, 0.000, 0.000,0.03992672,0.11859755,0.042619973,0.08850577,0.04326383, 15:29:48.015
68254.554688, 56968.625000, 117638.546875, 94716.320313, 123663.125000, 99131.484375, 89412.921875, 119023.773438, 0.000, 0.000, 0.000,0.03992672,0.11859755,0.042619973,0.08850577,0.04326383, 15:29:48.015
68349.710938, 57065.699219, 117589.773438, 94508.335938, 123762.320313, 99069.726563, 89346.492188, 119102.875000, 0.000, 0.000, 0.000,0.03992672,0.11859755,0.042619973,0.08850577,0.04326383, 15:29:48.015
68452.460938, 57166.929688, 117503.164063, 94354.328125, 123874.281250, 99143.953125, 89292.843750, 119208.109375, 0.112, 0.274, 0.954,0.03992672,0.11859755,0.042619973,0.08850577,0.04326383, 15:29:48.016
68361.179688, 57072.917969, 117548.648438, 94548.125000, 123779.039063, 99210.898438, 89358.539063, 119133.718750, 0.000, 0.000, 0.000,0.03992672,0.11859755,0.042619973,0.08850577,0.04326383, 15:29:48.016
68250.515625, 56962.949219, 117639.796875, 94717.343750, 123661.382813, 99144.867188, 89416.718750, 119019.210938, 0.000, 0.000, 0.000,0.03992672,0.11859755,0.042619973,0.08850577,0.04326383, 15:29:48.017
68320.609375, 57035.660156, 117601.375000, 94546.554688, 123739.187500, 99070.390625, 89359.679688, 119078.531250, 0.000, 0.000, 0.000,0.03992672,0.11859755,0.042619973,0.08850577,0.04326383, 15:29:48.017
68441.507813, 57157.835938, 117510.851563, 94351.093750, 123870.101563, 99123.187500, 89291.796875, 119202.007813, 0.000, 0.000, 0.000,0.03992672,0.11859755,0.042619973,0.08850577,0.04326383, 15:29:48.017
68378.140625, 57088.699219, 117544.828125, 94503.085938, 123801.210938, 99202.226563, 89344.476563, 119152.320313, 0.000, 0.000, 0.000,0.03992672,0.11859755,0.042619973,0.08850577,0.04326383, 15:29:48.018
68260.414063, 56969.832031, 117642.523438, 94714.664063, 123674.789063, 99160.695313, 89418.578125, 119034.140625, 0.000, 0.000, 0.000,0.03992672,0.11859755,0.042619973,0.08850577,0.04326383, 15:29:48.018
68317.343750, 57029.289063, 117598.132813, 94587.906250, 123732.304688, 99090.265625, 89371.992188, 119078.710938, 0.000, 0.000, 0.000,0.03992672,0.11859755,0.042619973,0.08850577,0.04326383, 15:29:48.018
68444.859375, 57157.187500, 117505.554688, 94366.359375, 123866.632813, 99125.062500, 89294.453125, 119204.039063, 0.000, 0.000, 0.000,0.03992672,0.11859755,0.042619973,0.08850577,0.04326383, 15:29:48.019
68404.515625, 57115.476563, 117530.632813, 94463.632813, 123823.562500, 99207.718750, 89326.578125, 119180.593750, 0.000, 0.000, 0.000,0.03992672,0.11859755,0.042619973,0.08850577,0.04326383, 15:29:48.019
68274.093750, 56985.257813, 117619.882813, 94693.812500, 123685.093750, 99185.414063, 89402.992188, 119055.984375, 0.112, 0.282, 0.948,0.03992672,0.11859755,0.042619973,0.08850577,0.04326383, 15:29:48.019
68289.562500, 57003.898438, 117622.382813, 94637.062500, 123697.273438, 99095.492188, 89385.742188, 119055.710938, 0.000, 0.000, 0.000,0.03992672,0.11859755,0.042619973,0.08850577,0.04326383, 15:29:48.020
68427.695313, 57141.449219, 117525.179688, 94392.351563, 123840.039063, 99102.695313, 89294.968750, 119186.695313, 0.000, 0.000, 0.000,0.03992672,0.11859755,0.042619973,0.08850577,0.04326383, 15:29:48.020
68432.078125, 57142.703125, 117507.695313, 94422.640625, 123854.679688, 99200.187500, 89312.625000, 119210.234375, 0.000, 0.000, 0.000,0.029151497,0.09062089,0.033323344,0.0750357,0.036712408, 15:29:48.020
68295.906250, 57004.679688, 117609.445313, 94671.929688, 123710.914063, 99199.851563, 89399.195313, 119077.687500, 0.000, 0.000, 0.000,0.029151497,0.09062089,0.033323344,0.0750357,0.036712408, 15:29:48.021
68270.851563, 56980.046875, 117643.148438, 94674.523438, 123677.429688, 99104.703125, 89399.148438, 119035.796875, 0.000, 0.000, 0.000,0.029151497,0.09062089,0.033323344,0.0750357,0.036712408, 15:29:48.021
68405.789063, 57115.277344, 117552.132813, 94423.664063, 123823.453125, 99085.882813, 89319.804688, 119157.078125, 0.000, 0.000, 0.000,0.029151497,0.09062089,0.033323344,0.0750357,0.036712408, 15:29:48.021
68451.500000, 57164.718750, 117506.156250, 94388.820313, 123872.468750, 99186.062500, 89308.046875, 119215.328125, 0.000, 0.000, 0.000,0.029151497,0.09062089,0.033323344,0.0750357,0.036712408, 15:29:48.022
68323.851563, 57035.437500, 117591.960938, 94630.937500, 123737.484375, 99207.476563, 89387.304688, 119099.234375, 0.000, 0.000, 0.000,0.029151497,0.09062089,0.033323344,0.0750357,0.036712408, 15:29:48.022
68271.546875, 56982.058594, 117641.492188, 94700.132813, 123679.484375, 99120.281250, 89412.046875, 119034.234375, 0.000, 0.000, 0.000,0.029151497,0.09062089,0.033323344,0.0750357,0.036712408, 15:29:48.022
68381.000000, 57094.421875, 117569.031250, 94472.546875, 123797.593750, 99074.867188, 89333.882813, 119134.257813, 0.112, 0.284, 0.952,0.029151497,0.09062089,0.033323344,0.0750357,0.036712408, 15:29:48.022
68458.671875, 57171.445313, 117502.851563, 94370.539063, 123882.906250, 99158.570313, 89303.617188, 119223.281250, 0.000, 0.000, 0.000,0.029151497,0.09062089,0.033323344,0.0750357,0.036712408, 15:29:48.023
68350.085938, 57062.972656, 117558.234375, 94588.242188, 123766.210938, 99213.531250, 89377.000000, 119132.070313, 0.000, 0.000, 0.000,0.029151497,0.09062089,0.033323344,0.0750357,0.036712408, 15:29:48.023
68262.023438, 56971.914063, 117628.625000, 94718.507813, 123662.273438, 99142.257813, 89416.742188, 119036.960938, 0.000, 0.000, 0.000,0.029151497,0.09062089,0.033323344,0.0750357,0.036712408, 15:29:48.024
68356.929688, 57065.140625, 117568.453125, 94517.726563, 123762.320313, 99084.921875, 89346.515625, 119117.117188, 0.000, 0.000, 0.000,0.029151497,0.09062089,0.033323344,0.0750357,0.036712408, 15:29:48.024
68462.812500, 57168.652344, 117487.984375, 94355.296875, 123875.687500, 99150.437500, 89290.835938, 119226.390625, 0.000, 0.000, 0.000,0.029151497,0.09062089,0.033323344,0.0750357,0.036712408, 15:29:48.024
68377.914063, 57080.453125, 117531.234375, 94534.617188, 123783.757813, 99214.296875, 89353.578125, 119154.281250, 0.000, 0.000, 0.000,0.029151497,0.09062089,0.033323344,0.0750357,0.036712408, 15:29:48.025
68259.070313, 56961.183594, 117627.859375, 94717.656250, 123653.351563, 99151.773438, 89414.460938, 119033.804688, 0.000, 0.000, 0.000,0.029151497,0.09062089,0.033323344,0.0750357,0.036712408, 15:29:48.025
68314.351563, 57016.929688, 117613.867188, 94565.937500, 123711.695313, 99064.578125, 89362.382813, 119071.585938, 0.000, 0.000, 0.000,0.029151497,0.09062089,0.033323344,0.0750357,0.036712408, 15:29:48.025
68449.578125, 57149.699219, 117512.484375, 94353.328125, 123854.476563, 99112.679688, 89285.585938, 119201.734375, 0.106, 0.276, 0.956,0.029151497,0.09062089,0.033323344,0.0750357,0.036712408, 15:29:48.025
68399.578125, 57097.285156, 117524.375000, 94488.687500, 123804.968750, 99202.203125, 89334.265625, 119168.476563, 0.000, 0.000, 0.000,0.029151497,0.09062089,0.033323344,0.0750357,0.036712408, 15:29:48.025
68263.273438, 56963.328125, 117620.218750, 94706.820313, 123665.250000, 99161.320313, 89410.906250, 119041.406250, 0.000, 0.000, 0.000,0.029151497,0.09062089,0.033323344,0.0750357,0.036712408, 15:29:48.026
68300.914063, 57002.781250, 117607.898438, 94601.718750, 123698.882813, 99074.843750, 89374.992188, 119062.507813, 0.000, 0.000, 0.000,0.029151497,0.09062089,0.033323344,0.0750357,0.036712408, 15:29:48.026
68435.406250, 57133.671875, 117524.710938, 94370.781250, 123842.945313, 99094.710938, 89296.023438, 119192.843750, 0.000, 0.000, 0.000,0.029151497,0.09062089,0.033323344,0.0750357,0.036712408, 15:29:48.026
68413.632813, 57111.074219, 117523.968750, 94447.695313, 123831.453125, 99191.632813, 89328.968750, 119195.859375, 0.000, 0.000, 0.000,0.029151497,0.09062089,0.033323344,0.0750357,0.036712408, 15:29:48.026
68287.015625, 56983.625000, 117607.031250, 94684.687500, 123682.054688, 99179.578125, 89404.492188, 119066.820313, 0.000, 0.000, 0.000,0.029151497,0.09062089,0.033323344,0.0750357,0.036712408, 15:29:48.027
68288.625000, 56986.933594, 117615.882813, 94646.046875, 123675.281250, 99087.984375, 89388.242188, 119048.492188, 0.000, 0.000, 0.000,0.029151497,0.09062089,0.033323344,0.0750357,0.036712408, 15:29:48.027
68417.953125, 57115.925781, 117526.515625, 94397.851563, 123813.773438, 99079.515625, 89301.164063, 119168.453125, 0.000, 0.000, 0.000,0.029151497,0.09062089,0.033323344,0.0750357,0.036712408, 15:29:48.027
68433.710938, 57130.183594, 117508.328125, 94413.921875, 123834.000000, 99173.929688, 89310.953125, 119197.851563, 0.000, 0.000, 0.000,0.029151497,0.09062089,0.033323344,0.0750357,0.036712408, 15:29:48.027
68299.750000, 56997.148438, 117590.867188, 94661.195313, 123693.453125, 99185.726563, 89394.593750, 119079.742188, 0.112, 0.276, 0.952,0.029151497,0.09062089,0.033323344,0.0750357,0.036712408, 15:29:48.028
68264.531250, 56968.492188, 117625.539063, 94688.468750, 123654.828125, 99096.726563, 89406.460938, 119034.703125, 0.000, 0.000, 0.000,0.029151497,0.09062089,0.033323344,0.0750357,0.036712408, 15:29:48.028
68390.656250, 57095.250000, 117543.882813, 94444.429688, 123788.335938, 99072.585938, 89325.703125, 119147.687500, 0.000, 0.000, 0.000,0.029151497,0.09062089,0.033323344,0.0750357,0.036712408, 15:29:48.028
68437.507813, 57139.820313, 117502.867188, 94387.726563, 123845.265625, 99167.734375, 89312.132813, 119208.304688, 0.000, 0.000, 0.000,0.029151497,0.09062089,0.033323344,0.0750357,0.036712408, 15:29:48.029
68314.953125, 57014.292969, 117582.445313, 94621.929688, 123719.117188, 99200.859375, 89393.117188, 119100.882813, 0.000, 0.000, 0.000,0.029151497,0.09062089,0.033323344,0.0750357,0.036712408, 15:29:48.029
68255.742188, 56953.269531, 117632.398438, 94708.742188, 123643.007813, 99121.132813, 89419.914063, 119031.101563, 0.000, 0.000, 0.000,0.029151497,0.09062089,0.033323344,0.0750357,0.036712408, 15:29:48.029
68365.085938, 57067.375000, 117554.859375, 94484.773438, 123760.625000, 99075.781250, 89346.734375, 119130.437500, 0.000, 0.000, 0.000,0.029151497,0.09062089,0.033323344,0.0750357,0.036712408, 15:29:48.029
68444.992188, 57151.105469, 117499.179688, 94370.406250, 123850.875000, 99152.312500, 89309.921875, 119216.828125, 0.000, 0.000, 0.000,0.029151497,0.09062089,0.033323344,0.0750357,0.036712408, 15:29:48.030
68337.234375, 57045.515625, 117554.281250, 94576.796875, 123744.015625, 99208.703125, 89377.898438, 119129.968750, 0.000, 0.000, 0.000,0.029151497,0.09062089,0.033323344,0.0750357,0.036712408, 15:29:48.030
68236.898438, 56946.921875, 117623.101563, 94716.093750, 123636.632813, 99139.281250, 89423.742188, 119031.460938, 0.114, 0.280, 0.950,0.029151497,0.09062089,0.033323344,0.0750357,0.036712408, 15:29:48.031
68330.507813, 57041.785156, 117562.953125, 94522.593750, 123731.968750, 99079.890625, 89360.078125, 119109.398438, 0.000, 0.000, 0.000,0.029151497,0.09062089,0.033323344,0.0750357,0.036712408, 15:29:48.031
68444.367188, 57153.566406, 117485.656250, 94355.492188, 123855.523438, 99140.867188, 89301.562500, 119222.968750, 0.000, 0.000, 0.000,0.029151497,0.09062089,0.033323344,0.0750357,0.036712408, 15:29:48.031
68363.117188, 57069.121094, 117531.164063, 94527.695313, 123771.929688, 99208.523438, 89356.593750, 119158.328125, 0.000, 0.000, 0.000,0.029151497,0.09062089,0.033323344,0.0750357,0.036712408, 15:29:48.032
68248.570313, 56956.085938, 117617.289063, 94720.117188, 123643.500000, 99161.679688, 89420.812500, 119044.421875, 0.000, 0.000, 0.000,0.029151497,0.09062089,0.033323344,0.0750357,0.036712408, 15:29:48.032
68308.335938, 57011.632813, 117593.085938, 94581.492188, 123704.453125, 99085.414063, 89377.960938, 119085.773438, 0.000, 0.000, 0.000,0.029151497,0.09062089,0.033323344,0.0750357,0.036712408, 15:29:48.032
68437.101563, 57141.183594, 117508.484375, 94368.125000, 123850.500000, 99120.171875, 89307.781250, 119211.953125, 0.000, 0.000, 0.000,0.029151497,0.09062089,0.033323344,0.0750357,0.036712408, 15:29:48.032
68386.031250, 57093.527344, 117524.734375, 94488.507813, 123798.867188, 99206.070313, 89345.687500, 119180.546875, 0.000, 0.000, 0.000,0.029151497,0.09062089,0.033323344,0.0750357,0.036712408, 15:29:48.033
68244.703125, 56952.375000, 117629.914063, 94717.281250, 123649.328125, 99167.960938, 89420.718750, 119040.445313, 0.000, 0.000, 0.000,0.029151497,0.09062089,0.033323344,0.0750357,0.036712408, 15:29:48.033
68272.085938, 56981.656250, 117625.046875, 94631.117188, 123677.984375, 99078.328125, 89392.445313, 119050.234375, 0.000, 0.000, 0.000,0.029151497,0.09062089,0.033323344,0.0750357,0.036712408, 15:29:48.033
68421.906250, 57129.203125, 117512.640625, 94382.515625, 123834.156250, 99093.125000, 89305.320313, 119190.937500, 0.112, 0.286, 0.952,0.029151497,0.09062089,0.033323344,0.0750357,0.036712408, 15:29:48.033
68419.718750, 57123.144531, 117496.968750, 94443.023438, 123839.257813, 99195.453125, 89333.929688, 119202.164063, 0.000, 0.000, 0.000,0.029151497,0.09062089,0.033323344,0.0750357,0.036712408, 15:29:48.034
68270.609375, 56973.296875, 117609.468750, 94694.859375, 123681.382813, 99176.742188, 89419.492188, 119060.273438, 0.000, 0.000, 0.000,0.029151497,0.09062089,0.033323344,0.0750357,0.036712408, 15:29:48.034
68261.039063, 56963.664063, 117628.625000, 94669.156250, 123667.750000, 99081.679688, 89408.273438, 119037.203125, 0.000, 0.000, 0.000,0.029151497,0.09062089,0.033323344,0.0750357,0.036712408, 15:29:48.034
68401.117188, 57102.781250, 117541.296875, 94419.062500, 123812.812500, 99073.968750, 89322.906250, 119163.828125, 0.000, 0.000, 0.000,0.029151497,0.09062089,0.033323344,0.0750357,0.036712408, 15:29:48.034
68432.187500, 57136.890625, 117508.078125, 94407.437500, 123844.578125, 99173.078125, 89319.312500, 119210.320313, 0.000, 0.000, 0.000,0.029151497,0.09062089,0.033323344,0.0750357,0.036712408, 15:29:48.035
68310.882813, 57014.917969, 117578.195313, 94644.054688, 123707.289063, 99194.085938, 89389.921875, 119093.132813, 0.000, 0.000, 0.000,0.029151497,0.09062089,0.033323344,0.0750357,0.036712408, 15:29:48.035
68265.492188, 56968.425781, 117611.882813, 94686.164063, 123655.031250, 99109.953125, 89402.031250, 119039.593750, 0.000, 0.000, 0.000,0.029151497,0.09062089,0.033323344,0.0750357,0.036712408, 15:29:48.035
68387.101563, 57090.777344, 117532.757813, 94450.890625, 123784.601563, 99079.492188, 89324.320313, 119147.179688, 0.000, 0.000, 0.000,0.029151497,0.09062089,0.033323344,0.0750357,0.036712408, 15:29:48.035
68445.148438, 57148.648438, 117494.015625, 94380.750000, 123855.148438, 99164.781250, 89305.921875, 119219.976563, 0.112, 0.288, 0.950,0.029151497,0.09062089,0.033323344,0.0750357,0.036712408, 15:29:48.036
68332.234375, 57033.871094, 117558.234375, 94602.750000, 123731.320313, 99206.625000, 89376.664063, 119119.976563, 0.000, 0.000, 0.000,0.029151497,0.09062089,0.033323344,0.0750357,0.036712408, 15:29:48.036
68245.218750, 56950.187500, 117621.515625, 94707.179688, 123634.515625, 99124.773438, 89405.140625, 119025.492188, 0.000, 0.000, 0.000,0.029151497,0.09062089,0.033323344,0.0750357,0.036712408, 15:29:48.036
68343.250000, 57048.332031, 117571.781250, 94497.585938, 123740.835938, 99067.796875, 89334.375000, 119111.812500, 0.000, 0.000, 0.000,0.029151497,0.09062089,0.033323344,0.0750357,0.036712408, 15:29:48.036
68445.625000, 57151.417969, 117488.500000, 94354.664063, 123861.117188, 99144.156250, 89287.210938, 119221.476563, 0.000, 0.000, 0.000,0.029151497,0.09062089,0.033323344,0.0750357,0.036712408, 15:29:48.037
68346.804688, 57055.351563, 117539.882813, 94552.367188, 123759.929688, 99203.875000, 89354.382813, 119137.117188, 0.000, 0.000, 0.000,0.029151497,0.09062089,0.033323344,0.0750357,0.036712408, 15:29:48.037
68238.843750, 56947.480469, 117631.617188, 94714.820313, 123642.828125, 99131.968750, 89411.960938, 119021.914063, 0.000, 0.000, 0.000,0.029151497,0.09062089,0.033323344,0.0750357,0.036712408, 15:29:48.037
68321.812500, 57029.824219, 117579.718750, 94535.046875, 123729.062500, 99064.492188, 89353.039063, 119089.148438, 0.000, 0.000, 0.000,0.029151497,0.09062089,0.033323344,0.0750357,0.036712408, 15:29:48.038
68444.031250, 57152.738281, 117483.312500, 94346.687500, 123857.851563, 99123.945313, 89284.640625, 119209.093750, 0.000, 0.000, 0.000,0.029151497,0.09062089,0.033323344,0.0750357,0.036712408, 15:29:48.039
68376.554688, 57085.503906, 117517.843750, 94506.593750, 123786.796875, 99203.835938, 89339.179688, 119155.109375, 0.000, 0.000, 0.000,0.029151497,0.09062089,0.033323344,0.0750357,0.036712408, 15:29:48.039
68253.304688, 56958.367188, 117616.570313, 94714.867188, 123654.406250, 99155.664063, 89412.515625, 119033.117188, 0.108, 0.286, 0.946,0.029151497,0.09062089,0.033323344,0.0750357,0.036712408, 15:29:48.039
68302.031250, 57008.816406, 117591.046875, 94586.812500, 123701.476563, 99070.664063, 89362.359375, 119067.023438, 0.000, 0.000, 0.000,0.0050621536,0.013866327,0.008903254,0.021132382,0.015043337, 15:29:48.475
68431.765625, 57141.605469, 117498.914063, 94364.125000, 123846.671875, 99102.914063, 89287.640625, 119196.953125, 0.000, 0.000, 0.000,0.0050621536,0.013866327,0.008903254,0.021132382,0.015043337, 15:29:48.476
68400.898438, 57106.179688, 117514.093750, 94469.195313, 123816.234375, 99194.289063, 89329.726563, 119180.656250, 0.000, 0.000, 0.000,0.0050621536,0.013866327,0.008903254,0.021132382,0.015043337, 15:29:48.476
68275.367188, 56979.757813, 117608.687500, 94703.976563, 123673.179688, 99172.070313, 89409.296875, 119055.781250, 0.000, 0.000, 0.000,0.0050621536,0.013866327,0.008903254,0.021132382,0.015043337, 15:29:48.477
68286.273438, 56991.941406, 117616.375000, 94640.414063, 123675.062500, 99079.937500, 89381.765625, 119051.960938, 0.000, 0.000, 0.000,0.0050621536,0.013866327,0.008903254,0.021132382,0.015043337, 15:29:48.477
68430.421875, 57133.089844, 117518.179688, 94395.570313, 123827.585938, 99087.937500, 89300.109375, 119187.343750, 0.000, 0.000, 0.000,0.0050621536,0.013866327,0.008903254,0.021132382,0.015043337, 15:29:48.477
68427.515625, 57132.753906, 117507.382813, 94435.203125, 123836.531250, 99183.539063, 89320.648438, 119203.593750, 0.000, 0.000, 0.000,0.0050621536,0.013866327,0.008903254,0.021132382,0.015043337, 15:29:48.478
68289.742188, 56995.984375, 117597.617188, 94678.992188, 123690.281250, 99180.476563, 89398.523438, 119070.289063, 0.000, 0.000, 0.000,0.0050621536,0.013866327,0.008903254,0.021132382,0.015043337, 15:29:48.478
68271.882813, 56974.414063, 117625.757813, 94678.406250, 123665.625000, 99085.656250, 89392.289063, 119035.085938, 0.000, 0.000, 0.000,0.0050621536,0.013866327,0.008903254,0.021132382,0.015043337, 15:29:48.478
68401.898438, 57106.378906, 117543.507813, 94431.914063, 123810.312500, 99065.476563, 89306.593750, 119153.968750, 0.096, 0.282, 0.946,0.0050621536,0.013866327,0.008903254,0.021132382,0.015043337, 15:29:48.479
68444.031250, 57148.828125, 117503.765625, 94398.562500, 123852.781250, 99161.320313, 89295.148438, 119207.015625, 0.000, 0.000, 0.000,0.0050621536,0.013866327,0.008903254,0.021132382,0.015043337, 15:29:48.479
68325.570313, 57032.730469, 117568.335938, 94637.257813, 123728.187500, 99195.671875, 89378.656250, 119105.757813, 0.000, 0.000, 0.000,0.0050621536,0.013866327,0.008903254,0.021132382,0.015043337, 15:29:48.479
68258.109375, 56965.968750, 117637.312500, 94711.734375, 123654.312500, 99106.265625, 89407.890625, 119033.117188, 0.000, 0.000, 0.000,0.0050621536,0.013866327,0.008903254,0.021132382,0.015043337, 15:29:48.480
68380.000000, 57088.500000, 117567.398438, 94477.398438, 123780.000000, 99063.867188, 89327.179688, 119137.859375, 0.000, 0.000, 0.000,0.0050621536,0.013866327,0.008903254,0.021132382,0.015043337, 15:29:48.480
68451.007813, 57160.515625, 117507.046875, 94379.367188, 123858.812500, 99154.882813, 89290.500000, 119220.335938, 0.000, 0.000, 0.000,0.0050621536,0.013866327,0.008903254,0.021132382,0.015043337, 15:29:48.481
68332.273438, 57040.554688, 117585.523438, 94603.734375, 123733.757813, 99198.984375, 89361.843750, 119117.046875, 0.000, 0.000, 0.000,0.0050621536,0.013866327,0.008903254,0.021132382,0.015043337, 15:29:48.481
68247.828125, 56956.019531, 117663.445313, 94727.781250, 123637.867188, 99119.117188, 89403.554688, 119020.554688, 0.000, 0.000, 0.000,0.0050621536,0.013866327,0.008903254,0.021132382,0.015043337, 15:29:48.482
68355.453125, 57065.679688, 117593.101563, 94519.351563, 123748.414063, 99066.460938, 89334.445313, 119109.109375, 0.000, 0.000, 0.000,0.0050621536,0.013866327,0.008903254,0.021132382,0.015043337, 15:29:48.482
68469.804688, 57177.996094, 117505.976563, 94363.406250, 123872.828125, 99142.210938, 89286.859375, 119223.773438, 0.100, 0.282, 0.950,0.0050621536,0.013866327,0.008903254,0.021132382,0.015043337, 15:29:48.482
68376.531250, 57080.117188, 117553.046875, 94549.640625, 123776.398438, 99208.078125, 89349.664063, 119148.742188, 0.000, 0.000, 0.000,0.0050621536,0.013866327,0.008903254,0.021132382,0.015043337, 15:29:48.482
68264.039063, 56969.320313, 117633.468750, 94717.859375, 123658.812500, 99146.906250, 89409.257813, 119033.898438, 0.000, 0.000, 0.000,0.0050621536,0.013866327,0.008903254,0.021132382,0.015043337, 15:29:48.483
68328.765625, 57036.218750, 117595.140625, 94555.453125, 123730.242188, 99073.296875, 89354.851563, 119084.992188, 0.000, 0.000, 0.000,0.0050621536,0.013866327,0.008903254,0.021132382,0.015043337, 15:29:48.483
68449.328125, 57162.550781, 117499.648438, 94354.218750, 123866.007813, 99121.804688, 89284.460938, 119210.273438, 0.000, 0.000, 0.000,0.0050621536,0.013866327,0.008903254,0.021132382,0.015043337, 15:29:48.483
68389.046875, 57100.859375, 117527.031250, 94501.453125, 123803.890625, 99202.914063, 89337.281250, 119167.921875, 0.000, 0.000, 0.000,0.0050621536,0.013866327,0.008903254,0.021132382,0.015043337, 15:29:48.483
68272.976563, 56980.718750, 117605.132813, 94713.570313, 123672.132813, 99164.648438, 89405.789063, 119050.414063, 0.000, 0.000, 0.000,0.0050621536,0.013866327,0.008903254,0.021132382,0.015043337, 15:29:48.483
68315.000000, 57025.175781, 117591.898438, 94612.625000, 123708.812500, 99080.898438, 89371.414063, 119075.468750, 0.000, 0.000, 0.000,0.0050621536,0.013866327,0.008903254,0.021132382,0.015043337, 15:29:48.484
68447.562500, 57157.789063, 117507.523438, 94385.468750, 123851.367188, 99101.507813, 89294.234375, 119204.218750, 0.000, 0.000, 0.000,0.0050621536,0.013866327,0.008903254,0.021132382,0.015043337, 15:29:48.484
68421.523438, 57128.554688, 117512.593750, 94468.796875, 123833.601563, 99196.617188, 89327.468750, 119198.140625, 0.000, 0.000, 0.000,0.0050621536,0.013866327,0.008903254,0.021132382,0.015043337, 15:29:48.484
68278.117188, 56988.320313, 117601.710938, 94704.671875, 123686.523438, 99176.562500, 89405.656250, 119065.882813, 0.112, 0.282, 0.954,0.0050621536,0.013866327,0.008903254,0.021132382,0.015043337, 15:29:48.484
68284.351563, 56995.828125, 117615.007813, 94655.406250, 123679.148438, 99081.343750, 89383.664063, 119050.570313, 0.000, 0.000, 0.000,0.0050621536,0.013866327,0.008903254,0.021132382,0.015043337, 15:29:48.484
68417.320313, 57126.898438, 117526.093750, 94406.812500, 123819.492188, 99079.062500, 89296.132813, 119174.265625, 0.000, 0.000, 0.000,0.0050621536,0.013866327,0.008903254,0.021132382,0.015043337, 15:29:48.484
68432.187500, 57138.410156, 117499.648438, 94419.148438, 123844.507813, 99177.078125, 89303.062500, 119207.796875, 0.000, 0.000, 0.000,0.0050621536,0.013866327,0.008903254,0.021132382,0.015043337, 15:29:48.484
68303.710938, 57007.785156, 117579.156250, 94662.585938, 123714.039063, 99192.140625, 89389.320313, 119092.460938, 0.000, 0.000, 0.000,0.0050621536,0.013866327,0.008903254,0.021132382,0.015043337, 15:29:48.485
68268.617188, 56972.828125, 117621.359375, 94686.054688, 123667.015625, 99097.617188, 89391.640625, 119043.351563, 0.000, 0.000, 0.000,0.0050621536,0.013866327,0.008903254,0.021132382,0.015043337, 15:29:48.485
68397.367188, 57105.488281, 117531.078125, 94436.093750, 123804.007813, 99073.476563, 89304.023438, 119160.968750, 0.000, 0.000, 0.000,0.0050621536,0.013866327,0.008903254,0.021132382,0.015043337, 15:29:48.485
68441.914063, 57153.164063, 117475.289063, 94379.726563, 123864.445313, 99170.304688, 89289.046875, 119224.554688, 0.000, 0.000, 0.000,0.0050621536,0.013866327,0.008903254,0.021132382,0.015043337, 15:29:48.485
68321.367188, 57028.910156, 117559.640625, 94620.828125, 123740.640625, 99201.195313, 89377.671875, 119116.328125, 0.000, 0.000, 0.000,0.0050621536,0.013866327,0.008903254,0.021132382,0.015043337, 15:29:48.485
68254.984375, 56966.101563, 117615.632813, 94700.226563, 123658.984375, 99122.250000, 89400.070313, 119042.367188, 0.112, 0.278, 0.950,0.0050621536,0.013866327,0.008903254,0.021132382,0.015043337, 15:29:48.485
68359.140625, 57070.125000, 117550.789063, 94476.398438, 123773.007813, 99074.546875, 89325.632813, 119131.929688, 0.000, 0.000, 0.000,0.0050621536,0.013866327,0.008903254,0.021132382,0.015043337, 15:29:48.486
68440.304688, 57150.726563, 117498.039063, 94366.578125, 123865.609375, 99147.687500, 89291.437500, 119217.359375, 0.000, 0.000, 0.000,0.0050621536,0.013866327,0.008903254,0.021132382,0.015043337, 15:29:48.486
68343.945313, 57053.093750, 117552.781250, 94577.289063, 123762.609375, 99200.367188, 89363.187500, 119132.937500, 0.000, 0.000, 0.000,0.0050621536,0.013866327,0.008903254,0.021132382,0.015043337, 15:29:48.486
68257.304688, 56965.296875, 117625.179688, 94720.812500, 123664.976563, 99134.585938, 89415.046875, 119037.695313, 0.000, 0.000, 0.000,0.0050621536,0.013866327,0.008903254,0.021132382,0.015043337, 15:29:48.486
68356.976563, 57060.246094, 117581.148438, 94537.078125, 123761.070313, 99073.906250, 89355.453125, 119117.000000, 0.000, 0.000, 0.000,0.0050621536,0.013866327,0.008903254,0.021132382,0.015043337, 15:29:48.486
68465.539063, 57174.351563, 117490.398438, 94363.093750, 123883.648438, 99138.968750, 89291.726563, 119230.484375, 0.000, 0.000, 0.000,0.0050621536,0.013866327,0.008903254,0.021132382,0.015043337, 15:29:48.486
68381.609375, 57090.464844, 117538.703125, 94539.875000, 123800.851563, 99210.539063, 89354.421875, 119165.171875, 0.000, 0.000, 0.000,0.0050621536,0.013866327,0.008903254,0.021132382,0.015043337, 15:29:48.486
68266.609375, 56971.421875, 117635.304688, 94729.773438, 123671.390625, 99153.789063, 89421.703125, 119045.765625, 0.000, 0.000, 0.000,0.0050621536,0.013866327,0.008903254,0.021132382,0.015043337, 15:29:48.487
68330.132813, 57038.878906, 117595.765625, 94583.929688, 123732.523438, 99078.734375, 89364.570313, 119094.718750, 0.000, 0.000, 0.000,0.0050621536,0.013866327,0.008903254,0.021132382,0.015043337, 15:29:48.487
68449.039063, 57160.160156, 117512.078125, 94379.164063, 123862.906250, 99115.726563, 89285.203125, 119216.023438, 0.118, 0.280, 0.958,0.0050621536,0.013866327,0.008903254,0.021132382,0.015043337, 15:29:48.488
68393.742188, 57104.882813, 117537.898438, 94506.835938, 123814.843750, 99200.257813, 89328.343750, 119184.078125, 0.000, 0.000, 0.000,0.0050621536,0.013866327,0.008903254,0.021132382,0.015043337, 15:29:48.488
