%OpenBCI Raw EEG Data
%
%Sample Rate = 250.0 Hz
%First Column = SampleIndex
%5 Columns before Timestamp are Frequency Power factors DELTA THETA ALPHA BETA GAMMA
%Last Column = Timestamp 
%Other Columns = EEG data in microvolts followed by Accel Data (in G) interleaved with Aux Data
0.000000, 0.000000, 0.000000, 0.000000, 0.000000, 0.000000, 0.000000, 0.000000, 0, 1, 1, 0, 1,0.0,0.0,0.0,0.0,0.0, 10:23:04.600
36923.761719, 46418.960938, 187500.000000, 187500.000000, 52262.890625, 30437.128906, 40927.226563, 63602.421875, 0, 1, 1, 0, 1,0.0,0.0,0.0,0.0,0.0, 10:23:05.079
36533.789063, 46031.671875, 187500.000000, 187500.000000, 52620.652344, 30892.970703, 41358.972656, 63474.078125, 0, 1, 1, 0, 1,0.0,0.0,0.0,0.0,0.0, 10:23:05.079
36818.730469, 46327.027344, 187500.000000, 187500.000000, 52553.843750, 30770.460938, 41256.894531, 63222.218750, 0, 1, 1, 0, 1,0.0,0.0,0.0,0.0,0.0, 10:23:05.079
37234.136719, 46740.269531, 187500.000000, 187500.000000, 52186.761719, 30300.404297, 40806.214844, 63314.039063, 0, 1, 1, 0, 1,0.0,0.0,0.0,0.0,0.0, 10:23:05.079
36963.859375, 46458.031250, 187500.000000, 187500.000000, 52231.332031, 30386.234375, 40868.910156, 63557.050781, 0, 1, 1, 0, 1,0.0,0.0,0.0,0.0,0.0, 10:23:05.080
36529.007813, 46023.960938, 187500.000000, 187500.000000, 52605.476563, 30872.429688, 41326.765625, 63489.144531, 0, 1, 1, 0, 1,0.0,0.0,0.0,0.0,0.0, 10:23:05.080
36701.496094, 46206.730469, 187500.000000, 187500.000000, 52631.851563, 30867.490234, 41340.042969, 63227.628906, 0, 1, 1, 0, 1,0.0,0.0,0.0,0.0,0.0, 10:23:05.080
37215.699219, 46723.011719, 187500.000000, 187500.000000, 52250.753906, 30378.992188, 40874.050781, 63263.660156, 0, 1, 1, 0, 1,0.0,0.0,0.0,0.0,0.0, 10:23:05.080
37100.140625, 46594.132813, 187500.000000, 187500.000000, 52174.511719, 30314.195313, 40798.234375, 63542.007813, 0, 1, 1, 0, 1,0.0,0.0,0.0,0.0,0.0, 10:23:05.080
36579.320313, 46073.468750, 187500.000000, 187500.000000, 52539.582031, 30797.908203, 41251.976563, 63548.601563, 0, 1, 1, 0, 1,0.0,0.0,0.0,0.0,0.0, 10:23:05.080
36649.617188, 46155.589844, 187500.000000, 187500.000000, 52649.398438, 30903.699219, 41371.535156, 63275.597656, 0, 1, 1, 0, 1,0.0,0.0,0.0,0.0,0.0, 10:23:05.080
37168.847656, 46675.937500, 187500.000000, 187500.000000, 52292.484375, 30442.158203, 40933.687500, 63242.066406, 0, 1, 1, 0, 1,0.0,0.0,0.0,0.0,0.0, 10:23:05.082
37151.949219, 46647.910156, 187500.000000, 187500.000000, 52134.371094, 30262.337891, 40751.183594, 63505.125000, 0, 1, 1, 0, 1,0.0,0.0,0.0,0.0,0.0, 10:23:05.082
36652.812500, 46146.738281, 187500.000000, 187500.000000, 52466.070313, 30707.763672, 41167.195313, 63573.121094, 0, 1, 1, 0, 1,0.0,0.0,0.0,0.0,0.0, 10:23:05.082
36644.812500, 46146.984375, 187500.000000, 187500.000000, 52648.347656, 30914.271484, 41382.597656, 63347.859375, 0, 1, 1, 0, 1,0.0,0.0,0.0,0.0,0.0, 10:23:05.082
37088.941406, 46595.652344, 187500.000000, 187500.000000, 52356.636719, 30522.982422, 41015.136719, 63252.550781, 0, 1, 1, 0, 1,0.0,0.0,0.0,0.0,0.0, 10:23:05.082
37209.105469, 46705.398438, 187500.000000, 187500.000000, 52122.769531, 30236.767578, 40731.828125, 63465.183594, 0, 1, 1, 0, 1,0.0,0.0,0.0,0.0,0.0, 10:23:05.082
36732.855469, 46220.542969, 187500.000000, 187500.000000, 52398.210938, 30619.339844, 41079.734375, 63599.027344, 0, 1, 1, 0, 1,0.0,0.0,0.0,0.0,0.0, 10:23:05.083
36582.785156, 46077.941406, 187500.000000, 187500.000000, 52663.992188, 30936.914063, 41395.027344, 63387.800781, 0, 1, 1, 0, 1,0.0,0.0,0.0,0.0,0.0, 10:23:05.083
37051.636719, 46556.359375, 187500.000000, 187500.000000, 52426.437500, 30613.976563, 41097.660156, 63238.761719, 0, 1, 1, 0, 1,0.0,0.0,0.0,0.0,0.0, 10:23:05.083
37275.535156, 46771.917969, 187500.000000, 187500.000000, 52119.886719, 30233.818359, 40728.566406, 63435.835938, 0, 1, 1, 0, 1,0.0,0.0,0.0,0.0,0.0, 10:23:05.083
36817.054688, 46306.910156, 187500.000000, 187500.000000, 52332.339844, 30530.044922, 40997.792969, 63600.121094, 0, 1, 1, 0, 1,0.0,0.0,0.0,0.0,0.0, 10:23:05.083
36568.054688, 46064.820313, 187500.000000, 187500.000000, 52651.187500, 30926.855469, 41383.761719, 63429.554688, 0, 1, 1, 0, 1,0.0,0.0,0.0,0.0,0.0, 10:23:05.083
36936.750000, 46444.710938, 187500.000000, 187500.000000, 52501.363281, 30711.117188, 41189.437500, 63235.273438, 0, 1, 1, 0, 1,0.0,0.0,0.0,0.0,0.0, 10:23:05.083
37298.867188, 46802.562500, 187500.000000, 187500.000000, 52145.031250, 30263.388672, 40756.972656, 63372.468750, 0, 1, 1, 0, 1,0.0,0.0,0.0,0.0,0.0, 10:23:05.083
36960.375000, 46450.164063, 187500.000000, 187500.000000, 52250.644531, 30434.939453, 40899.488281, 63611.675781, 0, 1, 1, 0, 1,0.0,0.0,0.0,0.0,0.0, 10:23:05.084
36588.953125, 46083.371094, 187500.000000, 187500.000000, 52608.046875, 30891.697266, 41337.335938, 63487.156250, 0, 1, 1, 0, 1,0.0,0.0,0.0,0.0,0.0, 10:23:05.084
36873.871094, 46377.410156, 187500.000000, 187500.000000, 52545.550781, 30786.687500, 41254.679688, 63263.437500, 0, 1, 1, 0, 1,0.0,0.0,0.0,0.0,0.0, 10:23:05.084
37286.039063, 46788.816406, 187500.000000, 187500.000000, 52180.636719, 30319.066406, 40808.046875, 63336.390625, 0, 1, 1, 0, 1,0.0,0.0,0.0,0.0,0.0, 10:23:05.084
37072.492188, 46563.621094, 187500.000000, 187500.000000, 52184.011719, 30358.673828, 40827.605469, 63591.468750, 0, 1, 1, 0, 1,0.0,0.0,0.0,0.0,0.0, 10:23:05.084
36569.015625, 46059.722656, 187500.000000, 187500.000000, 52568.617188, 30854.146484, 41295.671875, 63518.695313, 0, 1, 1, 0, 1,0.0,0.0,0.0,0.0,0.0, 10:23:05.084
36753.867188, 46251.324219, 187500.000000, 187500.000000, 52609.230469, 30870.595703, 41327.121094, 63246.917969, 0, 1, 1, 0, 1,0.0,0.0,0.0,0.0,0.0, 10:23:05.084
37284.964844, 46785.375000, 187500.000000, 187500.000000, 52218.589844, 30376.265625, 40852.773438, 63284.156250, 0, 1, 1, 0, 1,0.0,0.0,0.0,0.0,0.0, 10:23:05.084
37149.312500, 46636.175781, 187500.000000, 187500.000000, 52130.949219, 30292.333984, 40755.632813, 63561.363281, 0, 1, 1, 0, 1,0.0,0.0,0.0,0.0,0.0, 10:23:05.085
36629.343750, 46112.699219, 187500.000000, 187500.000000, 52496.511719, 30776.853516, 41208.210938, 63565.453125, 0, 1, 1, 0, 1,0.0,0.0,0.0,0.0,0.0, 10:23:05.085
36693.875000, 46188.359375, 187500.000000, 187500.000000, 52625.078125, 30910.025391, 41352.335938, 63301.367188, 0, 1, 1, 0, 1,0.0,0.0,0.0,0.0,0.0, 10:23:05.085
37225.757813, 46725.070313, 187500.000000, 187500.000000, 52269.820313, 30456.687500, 40919.828125, 63270.187500, 0, 1, 1, 0, 1,0.0,0.0,0.0,0.0,0.0, 10:23:05.085
37212.613281, 46699.632813, 187500.000000, 187500.000000, 52096.593750, 30254.962891, 40714.796875, 63525.109375, 0, 1, 1, 0, 1,0.0,0.0,0.0,0.0,0.0, 10:23:05.085
36665.218750, 46146.894531, 187500.000000, 187500.000000, 52436.093750, 30704.388672, 41130.984375, 63580.339844, 0, 1, 1, 0, 1,0.0,0.0,0.0,0.0,0.0, 10:23:05.085
36602.343750, 46092.781250, 187500.000000, 187500.000000, 52654.382813, 30951.398438, 41381.996094, 63327.386719, 0, 1, 1, 0, 1,0.0,0.0,0.0,0.0,0.0, 10:23:05.085
37070.859375, 46571.332031, 187500.000000, 187500.000000, 52376.082031, 30572.402344, 41030.761719, 63200.089844, 0, 1, 1, 0, 1,0.0,0.0,0.0,0.0,0.0, 10:23:05.085
37256.109375, 46748.492188, 187500.000000, 187500.000000, 52110.496094, 30247.453125, 40714.082031, 63422.714844, 0, 1, 1, 0, 1,0.0,0.0,0.0,0.0,0.0, 10:23:05.086
36772.953125, 46257.960938, 187500.000000, 187500.000000, 52370.113281, 30609.193359, 41043.812500, 63582.128906, 0, 1, 1, 0, 1,0.0,0.0,0.0,0.0,0.0, 10:23:05.086
36579.230469, 46065.089844, 187500.000000, 187500.000000, 52657.199219, 30954.863281, 41386.218750, 63367.796875, 0, 1, 1, 0, 1,0.0,0.0,0.0,0.0,0.0, 10:23:05.086
37057.535156, 46550.234375, 187500.000000, 187500.000000, 52432.250000, 30652.957031, 41107.089844, 63210.640625, 0, 1, 1, 0, 1,0.0,0.0,0.0,0.0,0.0, 10:23:05.086
37322.292969, 46806.785156, 187500.000000, 187500.000000, 52101.757813, 30246.982422, 40713.253906, 63414.957031, 0, 1, 1, 0, 1,0.0,0.0,0.0,0.0,0.0, 10:23:05.086
36886.097656, 46362.187500, 187500.000000, 187500.000000, 52284.171875, 30510.398438, 40949.781250, 63605.058594, 0, 1, 1, 0, 1,0.0,0.0,0.0,0.0,0.0, 10:23:05.086
36579.253906, 46062.250000, 187500.000000, 187500.000000, 52617.660156, 30929.136719, 41356.804688, 63440.773438, 0, 1, 1, 0, 1,0.0,0.0,0.0,0.0,0.0, 10:23:05.086
36925.371094, 46424.234375, 187500.000000, 187500.000000, 52492.757813, 30740.957031, 41195.449219, 63229.304688, 0, 1, 1, 0, 1,0.0,0.0,0.0,0.0,0.0, 10:23:05.086
37298.332031, 46796.707031, 187500.000000, 187500.000000, 52133.320313, 30285.517578, 40759.656250, 63361.738281, 0, 1, 1, 0, 1,0.0,0.0,0.0,0.0,0.0, 10:23:05.086
36925.328125, 46415.027344, 187500.000000, 187500.000000, 52240.316406, 30442.314453, 40895.597656, 63579.578125, 0, 1, 1, 0, 1,0.0,0.0,0.0,0.0,0.0, 10:23:05.093
36558.312500, 46048.593750, 187500.000000, 187500.000000, 52611.175781, 30911.478516, 41345.921875, 63467.195313, 0, 1, 1, 0, 1,0.0,0.0,0.0,0.0,0.0, 10:23:05.093
36883.437500, 46385.476563, 187500.000000, 187500.000000, 52558.761719, 30823.210938, 41273.859375, 63259.613281, 0, 1, 1, 0, 1,0.0,0.0,0.0,0.0,0.0, 10:23:05.093
37317.824219, 46818.207031, 187500.000000, 187500.000000, 52173.351563, 30339.429688, 40806.238281, 63344.953125, 0, 1, 1, 0, 1,0.0,0.0,0.0,0.0,0.0, 10:23:05.093
37065.984375, 46554.367188, 187500.000000, 187500.000000, 52173.707031, 30362.451172, 40814.058594, 63578.574219, 0, 1, 1, 0, 1,0.0,0.0,0.0,0.0,0.0, 10:23:05.094
36615.105469, 46101.476563, 187500.000000, 187500.000000, 52545.128906, 30847.529297, 41271.980469, 63538.609375, 0, 1, 1, 0, 1,0.0,0.0,0.0,0.0,0.0, 10:23:05.094
36729.257813, 46228.679688, 187500.000000, 187500.000000, 52615.246094, 30899.810547, 41340.710938, 63283.531250, 0, 1, 1, 0, 1,0.0,0.0,0.0,0.0,0.0, 10:23:05.094
37204.230469, 46708.796875, 187500.000000, 187500.000000, 52260.386719, 30432.771484, 40900.828125, 63273.093750, 0, 1, 1, 0, 1,0.0,0.0,0.0,0.0,0.0, 10:23:05.094
37120.859375, 46615.878906, 187500.000000, 187500.000000, 52160.117188, 30318.128906, 40781.269531, 63524.035156, 0, 1, 1, 0, 1,0.0,0.0,0.0,0.0,0.0, 10:23:05.094
36669.734375, 46160.507813, 187500.000000, 187500.000000, 52501.765625, 30778.396484, 41206.085938, 63574.929688, 0, 1, 1, 0, 1,0.0,0.0,0.0,0.0,0.0, 10:23:05.094
36691.683594, 46192.246094, 187500.000000, 187500.000000, 52651.921875, 30942.435547, 41376.296875, 63332.972656, 0, 1, 1, 0, 1,0.0,0.0,0.0,0.0,0.0, 10:23:05.094
37227.789063, 46732.421875, 187500.000000, 187500.000000, 52308.644531, 30506.687500, 40955.906250, 63289.007813, 0, 1, 1, 0, 1,0.0,0.0,0.0,0.0,0.0, 10:23:05.094
37251.660156, 46743.957031, 187500.000000, 187500.000000, 52113.804688, 30277.158203, 40723.335938, 63536.976563, 0, 1, 1, 0, 1,0.0,0.0,0.0,0.0,0.0, 10:23:05.094
36714.148438, 46203.824219, 187500.000000, 187500.000000, 52434.843750, 30707.228516, 41120.882813, 63611.968750, 0, 1, 1, 0, 1,0.0,0.0,0.0,0.0,0.0, 10:23:05.095
36603.058594, 46100.917969, 187500.000000, 187500.000000, 52679.507813, 30984.814453, 41403.253906, 63356.957031, 0, 1, 1, 0, 1,0.0,0.0,0.0,0.0,0.0, 10:23:05.095
37093.859375, 46599.453125, 187500.000000, 187500.000000, 52411.574219, 30620.257813, 41066.882813, 63229.863281, 0, 1, 1, 0, 1,0.0,0.0,0.0,0.0,0.0, 10:23:05.095
37296.386719, 46793.332031, 187500.000000, 187500.000000, 52126.121094, 30268.529297, 40727.425781, 63457.628906, 0, 1, 1, 0, 1,0.0,0.0,0.0,0.0,0.0, 10:23:05.095
36790.121094, 46278.882813, 187500.000000, 187500.000000, 52380.730469, 30613.349609, 41045.714844, 63604.324219, 0, 1, 1, 0, 1,0.0,0.0,0.0,0.0,0.0, 10:23:05.095
36613.320313, 46110.328125, 187500.000000, 187500.000000, 52671.707031, 30969.144531, 41395.785156, 63410.980469, 0, 1, 1, 0, 1,0.0,0.0,0.0,0.0,0.0, 10:23:05.095
37073.539063, 46583.312500, 187500.000000, 187500.000000, 52456.660156, 30684.652344, 41132.503906, 63270.769531, 0, 1, 1, 0, 1,0.0,0.0,0.0,0.0,0.0, 10:23:05.095
37303.472656, 46805.535156, 187500.000000, 187500.000000, 52132.804688, 30274.587891, 40737.574219, 63440.820313, 0, 1, 1, 0, 1,0.0,0.0,0.0,0.0,0.0, 10:23:05.095
36907.781250, 46398.464844, 187500.000000, 187500.000000, 52297.132813, 30509.371094, 40947.746094, 63624.929688, 0, 1, 1, 0, 1,0.0,0.0,0.0,0.0,0.0, 10:23:05.096
36556.812500, 46052.257813, 187500.000000, 187500.000000, 52650.738281, 30946.837891, 41373.347656, 63472.558594, 0, 1, 1, 0, 1,0.0,0.0,0.0,0.0,0.0, 10:23:05.096
36885.382813, 46394.375000, 187500.000000, 187500.000000, 52554.695313, 30789.683594, 41241.179688, 63237.910156, 0, 1, 1, 0, 1,0.0,0.0,0.0,0.0,0.0, 10:23:05.096
37295.785156, 46800.617188, 187500.000000, 187500.000000, 52184.929688, 30319.894531, 40791.171875, 63354.140625, 0, 1, 1, 0, 1,0.0,0.0,0.0,0.0,0.0, 10:23:05.096
37009.882813, 46502.960938, 187500.000000, 187500.000000, 52244.539063, 30424.634766, 40875.863281, 63603.765625, 0, 1, 1, 0, 1,0.0,0.0,0.0,0.0,0.0, 10:23:05.096
36602.703125, 46094.234375, 187500.000000, 187500.000000, 52608.113281, 30895.138672, 41323.925781, 63533.332031, 0, 1, 1, 0, 1,0.0,0.0,0.0,0.0,0.0, 10:23:05.096
36816.519531, 46320.390625, 187500.000000, 187500.000000, 52607.308594, 30855.621094, 41305.238281, 63276.222656, 0, 1, 1, 0, 1,0.0,0.0,0.0,0.0,0.0, 10:23:05.096
37305.730469, 46810.988281, 187500.000000, 187500.000000, 52220.402344, 30365.111328, 40835.363281, 63332.125000, 0, 1, 1, 0, 1,0.0,0.0,0.0,0.0,0.0, 10:23:05.096
37125.664063, 46619.234375, 187500.000000, 187500.000000, 52177.597656, 30342.582031, 40796.445313, 63602.714844, 0, 1, 1, 0, 1,0.0,0.0,0.0,0.0,0.0, 10:23:05.097
36595.347656, 46088.804688, 187500.000000, 187500.000000, 52561.890625, 30839.908203, 41265.789063, 63565.585938, 0, 1, 1, 0, 1,0.0,0.0,0.0,0.0,0.0, 10:23:05.097
36731.312500, 46236.414063, 187500.000000, 187500.000000, 52647.812500, 30913.667969, 41355.171875, 63301.097656, 0, 1, 1, 0, 1,0.0,0.0,0.0,0.0,0.0, 10:23:05.097
37226.894531, 46734.031250, 187500.000000, 187500.000000, 52290.472656, 30448.373047, 40915.023438, 63286.996094, 0, 1, 1, 0, 1,0.0,0.0,0.0,0.0,0.0, 10:23:05.097
37172.937500, 46669.414063, 187500.000000, 187500.000000, 52158.820313, 30297.095703, 40761.289063, 63545.875000, 0, 1, 1, 0, 1,0.0,0.0,0.0,0.0,0.0, 10:23:05.097
36632.316406, 46122.109375, 187500.000000, 187500.000000, 52516.628906, 30765.632813, 41200.566406, 63579.421875, 0, 1, 1, 0, 1,0.0,0.0,0.0,0.0,0.0, 10:23:05.097
36602.859375, 46101.656250, 187500.000000, 187500.000000, 52706.304688, 30967.111328, 41412.035156, 63307.222656, 0, 1, 1, 0, 1,0.0,0.0,0.0,0.0,0.0, 10:23:05.097
37127.898438, 46635.281250, 187500.000000, 187500.000000, 52393.000000, 30551.861328, 41020.078125, 63215.425781, 0, 1, 1, 0, 1,0.0,0.0,0.0,0.0,0.0, 10:23:05.097
37260.894531, 46756.136719, 187500.000000, 187500.000000, 52156.386719, 30275.080078, 40743.675781, 63474.636719, 0, 1, 1, 0, 1,0.0,0.0,0.0,0.0,0.0, 10:23:05.097
36749.218750, 46237.464844, 187500.000000, 187500.000000, 52446.511719, 30677.478516, 41111.160156, 63614.695313, 0, 1, 1, 0, 1,0.0,0.0,0.0,0.0,0.0, 10:23:05.097
36594.050781, 46096.269531, 187500.000000, 187500.000000, 52704.562500, 30980.433594, 41412.261719, 63387.601563, 0, 1, 1, 0, 1,0.0,0.0,0.0,0.0,0.0, 10:23:05.098
37098.218750, 46614.226563, 187500.000000, 187500.000000, 52437.457031, 30630.761719, 41082.257813, 63262.789063, 0, 1, 1, 0, 1,0.0,0.0,0.0,0.0,0.0, 10:23:05.098
37278.437500, 46788.949219, 187500.000000, 187500.000000, 52143.621094, 30269.357422, 40729.167969, 63464.960938, 0, 1, 1, 0, 1,0.0,0.0,0.0,0.0,0.0, 10:23:05.098
36841.933594, 46345.109375, 187500.000000, 187500.000000, 52355.917969, 30576.783203, 41004.140625, 63631.324219, 0, 1, 1, 0, 1,0.0,0.0,0.0,0.0,0.0, 10:23:05.098
36574.113281, 46084.800781, 187500.000000, 187500.000000, 52666.250000, 30960.427734, 41375.625000, 63446.855469, 0, 1, 1, 0, 1,0.0,0.0,0.0,0.0,0.0, 10:23:05.098
36915.312500, 46434.363281, 187500.000000, 187500.000000, 52513.386719, 30730.384766, 41168.917969, 63231.316406, 0, 1, 1, 0, 1,0.0,0.0,0.0,0.0,0.0, 10:23:05.098
37280.226563, 46794.960938, 187500.000000, 187500.000000, 52159.179688, 30286.589844, 40740.566406, 63382.078125, 0, 1, 1, 0, 1,0.0,0.0,0.0,0.0,0.0, 10:23:05.098
36882.230469, 46386.371094, 187500.000000, 187500.000000, 52288.527344, 30485.566406, 40913.660156, 63612.035156, 0, 1, 1, 0, 1,0.0,0.0,0.0,0.0,0.0, 10:23:05.098
36509.562500, 46017.253906, 187500.000000, 187500.000000, 52650.605469, 30940.357422, 41352.691406, 63464.578125, 0, 1, 1, 0, 1,0.0,0.0,0.0,0.0,0.0, 10:23:05.098
36828.500000, 46350.566406, 187500.000000, 187500.000000, 52567.925781, 30808.212891, 41242.363281, 63237.105469, 0, 1, 1, 0, 1,0.0,0.0,0.0,0.0,0.0, 10:23:05.098
37269.410156, 46789.082031, 187500.000000, 187500.000000, 52182.156250, 30325.347656, 40778.386719, 63346.226563, 0, 1, 1, 0, 1,0.0,0.0,0.0,0.0,0.0, 10:23:05.099
36998.214844, 46504.480469, 187500.000000, 187500.000000, 52217.964844, 30401.232422, 40833.328125, 63600.566406, 0, 1, 1, 0, 1,0.0,0.0,0.0,0.0,0.0, 10:23:05.099
36520.558594, 46028.699219, 187500.000000, 187500.000000, 52603.597656, 30895.406250, 41303.585938, 63521.175781, 0, 1, 1, 0, 1,0.0,0.0,0.0,0.0,0.0, 10:23:05.099
36731.179688, 46250.832031, 187500.000000, 187500.000000, 52625.707031, 30886.511719, 41314.562500, 63252.839844, 0, 1, 1, 0, 1,0.0,0.0,0.0,0.0,0.0, 10:23:05.099
37233.265625, 46751.445313, 187500.000000, 187500.000000, 52242.753906, 30398.259766, 40848.011719, 63298.796875, 0, 1, 1, 0, 1,0.0,0.0,0.0,0.0,0.0, 10:23:05.099
37067.304688, 46571.667969, 187500.000000, 187500.000000, 52182.984375, 30344.324219, 40783.304688, 63556.000000, 0, 1, 1, 0, 1,0.0,0.0,0.0,0.0,0.0, 10:23:05.099
36549.593750, 46051.992188, 187500.000000, 187500.000000, 52561.777344, 30836.912109, 41243.953125, 63544.464844, 0, 1, 1, 0, 1,0.0,0.0,0.0,0.0,0.0, 10:23:05.099
36671.613281, 46187.015625, 187500.000000, 187500.000000, 52665.804688, 30940.042969, 41359.308594, 63295.242188, 0, 1, 1, 0, 1,0.0,0.0,0.0,0.0,0.0, 10:23:05.099
37176.804688, 46694.246094, 187500.000000, 187500.000000, 52309.359375, 30478.814453, 40922.710938, 63272.554688, 0, 1, 1, 0, 1,0.0,0.0,0.0,0.0,0.0, 10:23:05.099
37149.089844, 46654.191406, 187500.000000, 187500.000000, 52158.242188, 30302.572266, 40742.085938, 63518.648438, 0, 1, 1, 0, 1,0.0,0.0,0.0,0.0,0.0, 10:23:05.100
36650.019531, 46152.996094, 187500.000000, 187500.000000, 52488.777344, 30748.890625, 41153.738281, 63593.078125, 0, 1, 1, 0, 1,0.0,0.0,0.0,0.0,0.0, 10:23:05.100
36591.367188, 46106.394531, 187500.000000, 187500.000000, 52692.582031, 30976.185547, 41385.414063, 63343.968750, 0, 1, 1, 0, 1,0.0,0.0,0.0,0.0,0.0, 10:23:05.100
37105.683594, 46630.500000, 187500.000000, 187500.000000, 52384.597656, 30573.855469, 41003.804688, 63248.527344, 0, 1, 1, 0, 1,0.0,0.0,0.0,0.0,0.0, 10:23:05.100
37203.964844, 46719.703125, 187500.000000, 187500.000000, 52144.808594, 30285.048828, 40714.417969, 63476.246094, 0, 1, 1, 0, 1,0.0,0.0,0.0,0.0,0.0, 10:23:05.100
36720.585938, 46229.308594, 187500.000000, 187500.000000, 52421.656250, 30667.843750, 41060.980469, 63599.964844, 0, 1, 1, 0, 1,0.0,0.0,0.0,0.0,0.0, 10:23:05.100
36575.097656, 46088.199219, 187500.000000, 187500.000000, 52683.976563, 30984.880859, 41373.144531, 63388.472656, 0, 1, 1, 0, 1,0.0,0.0,0.0,0.0,0.0, 10:23:05.100
36979.550781, 46500.320313, 187500.000000, 187500.000000, 52461.417969, 30677.343750, 41090.015625, 63232.859375, 0, 1, 1, 0, 1,0.0,0.0,0.0,0.0,0.0, 10:23:05.100
37242.699219, 46757.277344, 187500.000000, 187500.000000, 52154.238281, 30293.005859, 40718.910156, 63410.488281, 0, 1, 1, 0, 1,0.0,0.0,0.0,0.0,0.0, 10:23:05.100
36821.859375, 46327.476563, 187500.000000, 187500.000000, 52346.910156, 30575.486328, 40971.261719, 63615.902344, 0, 1, 1, 0, 1,0.0,0.0,0.0,0.0,0.0, 10:23:05.101
36532.785156, 46045.484375, 187500.000000, 187500.000000, 52676.867188, 30983.583984, 41369.300781, 63442.496094, 0, 1, 1, 0, 1,0.0,0.0,0.0,0.0,0.0, 10:23:05.101
36895.375000, 46417.597656, 187500.000000, 187500.000000, 52538.265625, 30775.511719, 41185.902344, 63236.546875, 0, 1, 1, 0, 1,0.0,0.0,0.0,0.0,0.0, 10:23:05.101
37269.812500, 46786.109375, 187500.000000, 187500.000000, 52178.847656, 30324.119141, 40750.828125, 63381.097656, 0, 1, 1, 0, 1,0.0,0.0,0.0,0.0,0.0, 10:23:05.559
36907.468750, 46412.613281, 187500.000000, 187500.000000, 52293.109375, 30497.031250, 40898.863281, 63602.601563, 0, 1, 1, 0, 1,0.0,0.0,0.0,0.0,0.0, 10:23:05.559
36550.062500, 46058.382813, 187500.000000, 187500.000000, 52651.363281, 30952.269531, 41335.257813, 63481.367188, 0, 1, 1, 0, 1,0.0,0.0,0.0,0.0,0.0, 10:23:05.560
36820.250000, 46337.085938, 187500.000000, 187500.000000, 52599.375000, 30853.363281, 41255.820313, 63252.953125, 0, 1, 1, 0, 1,0.0,0.0,0.0,0.0,0.0, 10:23:05.560
37267.039063, 46783.449219, 187500.000000, 187500.000000, 52223.597656, 30374.031250, 40794.972656, 63339.789063, 0, 1, 1, 0, 1,0.0,0.0,0.0,0.0,0.0, 10:23:05.560
37013.414063, 46519.031250, 187500.000000, 187500.000000, 52236.562500, 30419.136719, 40820.453125, 63595.964844, 0, 1, 1, 0, 1,0.0,0.0,0.0,0.0,0.0, 10:23:05.560
36543.246094, 46048.996094, 187500.000000, 187500.000000, 52616.539063, 30911.388672, 41284.027344, 63533.289063, 0, 1, 1, 0, 1,0.0,0.0,0.0,0.0,0.0, 10:23:05.560
36705.050781, 46219.250000, 187500.000000, 187500.000000, 52664.375000, 30936.289063, 41326.562500, 63276.355469, 0, 1, 1, 0, 1,0.0,0.0,0.0,0.0,0.0, 10:23:05.560
37185.500000, 46700.546875, 187500.000000, 187500.000000, 52298.164063, 30458.095703, 40876.042969, 63284.042969, 0, 1, 1, 0, 1,0.0,0.0,0.0,0.0,0.0, 10:23:05.560
37109.750000, 46613.535156, 187500.000000, 187500.000000, 52200.640625, 30360.753906, 40771.167969, 63548.957031, 0, 1, 1, 0, 1,0.0,0.0,0.0,0.0,0.0, 10:23:05.561
36605.359375, 46105.320313, 187500.000000, 187500.000000, 52556.324219, 30837.515625, 41213.843750, 63579.355469, 0, 1, 1, 0, 1,0.0,0.0,0.0,0.0,0.0, 10:23:05.561
36634.417969, 46148.304688, 187500.000000, 187500.000000, 52698.726563, 30982.736328, 41370.238281, 63310.242188, 0, 1, 1, 0, 1,0.0,0.0,0.0,0.0,0.0, 10:23:05.561
37152.890625, 46674.218750, 187500.000000, 187500.000000, 52356.859375, 30540.126953, 40950.585938, 63263.167969, 0, 1, 1, 0, 1,0.0,0.0,0.0,0.0,0.0, 10:23:05.561
37188.027344, 46701.308594, 187500.000000, 187500.000000, 52169.148438, 30326.867188, 40733.683594, 63523.453125, 0, 1, 1, 0, 1,0.0,0.0,0.0,0.0,0.0, 10:23:05.561
36653.394531, 46161.847656, 187500.000000, 187500.000000, 52493.761719, 30768.158203, 41138.988281, 63608.054688, 0, 1, 1, 0, 1,0.0,0.0,0.0,0.0,0.0, 10:23:05.561
36580.839844, 46097.476563, 187500.000000, 187500.000000, 52715.984375, 31021.404297, 41395.406250, 63360.578125, 0, 1, 1, 0, 1,0.0,0.0,0.0,0.0,0.0, 10:23:05.561
37059.750000, 46581.929688, 187500.000000, 187500.000000, 52433.324219, 30643.302734, 41041.601563, 63251.277344, 0, 1, 1, 0, 1,0.0,0.0,0.0,0.0,0.0, 10:23:05.561
37179.843750, 46690.871094, 187500.000000, 187500.000000, 52190.250000, 30333.640625, 40742.246094, 63457.738281, 0, 1, 1, 0, 1,0.0,0.0,0.0,0.0,0.0, 10:23:05.561
36748.078125, 46251.054688, 187500.000000, 187500.000000, 52442.464844, 30683.826172, 41062.589844, 63611.968750, 0, 1, 1, 0, 1,0.0,0.0,0.0,0.0,0.0, 10:23:05.561
36549.953125, 46058.269531, 187500.000000, 187500.000000, 52727.785156, 31029.740234, 41403.722656, 63417.730469, 0, 1, 1, 0, 1,0.0,0.0,0.0,0.0,0.0, 10:23:05.562
36949.867188, 46466.593750, 187500.000000, 187500.000000, 52534.332031, 30753.562500, 41150.921875, 63237.171875, 0, 1, 1, 0, 1,0.0,0.0,0.0,0.0,0.0, 10:23:05.562
37235.746094, 46745.296875, 187500.000000, 187500.000000, 52214.789063, 30353.199219, 40763.210938, 63407.070313, 0, 1, 1, 0, 1,0.0,0.0,0.0,0.0,0.0, 10:23:05.562
36845.753906, 46345.042969, 187500.000000, 187500.000000, 52382.316406, 30604.611328, 40983.507813, 63612.617188, 0, 1, 1, 0, 1,0.0,0.0,0.0,0.0,0.0, 10:23:05.562
36530.484375, 46032.789063, 187500.000000, 187500.000000, 52720.410156, 31026.746094, 41392.300781, 63462.480469, 0, 1, 1, 0, 1,0.0,0.0,0.0,0.0,0.0, 10:23:05.562
36896.941406, 46409.507813, 187500.000000, 187500.000000, 52595.195313, 30837.851563, 41227.476563, 63250.382813, 0, 1, 1, 0, 1,0.0,0.0,0.0,0.0,0.0, 10:23:05.562
37290.621094, 46801.421875, 187500.000000, 187500.000000, 52225.652344, 30370.050781, 40780.511719, 63388.023438, 0, 1, 1, 0, 1,0.0,0.0,0.0,0.0,0.0, 10:23:05.562
36957.871094, 46456.468750, 187500.000000, 187500.000000, 52309.093750, 30503.759766, 40895.531250, 63628.507813, 0, 1, 1, 0, 1,0.0,0.0,0.0,0.0,0.0, 10:23:05.562
36537.300781, 46040.324219, 187500.000000, 187500.000000, 52687.171875, 30979.941406, 41351.976563, 63509.214844, 0, 1, 1, 0, 1,0.0,0.0,0.0,0.0,0.0, 10:23:05.562
36810.730469, 46324.367188, 187500.000000, 187500.000000, 52656.863281, 30910.875000, 41299.429688, 63266.386719, 0, 1, 1, 0, 1,0.0,0.0,0.0,0.0,0.0, 10:23:05.562
37249.425781, 46763.757813, 187500.000000, 187500.000000, 52286.785156, 30434.066406, 40844.035156, 63327.250000, 0, 1, 1, 0, 1,0.0,0.0,0.0,0.0,0.0, 10:23:05.563
37054.250000, 46555.664063, 187500.000000, 187500.000000, 52273.644531, 30439.677734, 40838.000000, 63581.859375, 0, 1, 1, 0, 1,0.0,0.0,0.0,0.0,0.0, 10:23:05.563
36589.023438, 46086.726563, 187500.000000, 187500.000000, 52645.644531, 30923.681641, 41295.628906, 63550.835938, 0, 1, 1, 0, 1,0.0,0.0,0.0,0.0,0.0, 10:23:05.563
36698.300781, 46208.519531, 187500.000000, 187500.000000, 52718.332031, 30977.593750, 41367.066406, 63287.531250, 0, 1, 1, 0, 1,0.0,0.0,0.0,0.0,0.0, 10:23:05.563
37176.695313, 46688.949219, 187500.000000, 187500.000000, 52363.921875, 30511.605469, 40927.785156, 63266.699219, 0, 1, 1, 0, 1,0.0,0.0,0.0,0.0,0.0, 10:23:05.563
37144.375000, 46643.953125, 187500.000000, 187500.000000, 52237.589844, 30375.394531, 40785.382813, 63536.328125, 0, 1, 1, 0, 1,0.0,0.0,0.0,0.0,0.0, 10:23:05.563
36637.121094, 46134.421875, 187500.000000, 187500.000000, 52585.339844, 30842.500000, 41215.988281, 63582.597656, 0, 1, 1, 0, 1,0.0,0.0,0.0,0.0,0.0, 10:23:05.563
36661.976563, 46170.253906, 187500.000000, 187500.000000, 52739.609375, 31012.150391, 41388.722656, 63332.750000, 0, 1, 1, 0, 1,0.0,0.0,0.0,0.0,0.0, 10:23:05.563
37139.144531, 46651.261719, 187500.000000, 187500.000000, 52417.386719, 30587.310547, 40990.011719, 63266.140625, 0, 1, 1, 0, 1,0.0,0.0,0.0,0.0,0.0, 10:23:05.563
37179.265625, 46683.761719, 187500.000000, 187500.000000, 52227.507813, 30354.226563, 40761.511719, 63490.621094, 0, 1, 1, 0, 1,0.0,0.0,0.0,0.0,0.0, 10:23:05.563
36681.425781, 46182.121094, 187500.000000, 187500.000000, 52535.761719, 30773.746094, 41146.699219, 63593.191406, 0, 1, 1, 0, 1,0.0,0.0,0.0,0.0,0.0, 10:23:05.564
36553.640625, 46059.031250, 187500.000000, 187500.000000, 52788.156250, 31060.138672, 41436.175781, 63350.785156, 0, 1, 1, 0, 1,0.0,0.0,0.0,0.0,0.0, 10:23:05.564
37062.476563, 46574.128906, 187500.000000, 187500.000000, 52516.023438, 30695.380859, 41096.339844, 63237.886719, 0, 1, 1, 0, 1,0.0,0.0,0.0,0.0,0.0, 10:23:05.564
37214.492188, 46716.261719, 187500.000000, 187500.000000, 52251.203125, 30359.748047, 40771.078125, 63446.519531, 0, 1, 1, 0, 1,0.0,0.0,0.0,0.0,0.0, 10:23:05.564
36757.531250, 46254.140625, 187500.000000, 187500.000000, 52496.378906, 30696.812500, 41077.339844, 63602.691406, 0, 1, 1, 0, 1,0.0,0.0,0.0,0.0,0.0, 10:23:05.564
36566.222656, 46068.351563, 187500.000000, 187500.000000, 52788.714844, 31057.121094, 41430.722656, 63415.273438, 0, 1, 1, 0, 1,0.0,0.0,0.0,0.0,0.0, 10:23:05.564
36980.757813, 46488.429688, 187500.000000, 187500.000000, 52594.503906, 30787.939453, 41185.972656, 63244.503906, 0, 1, 1, 0, 1,0.0,0.0,0.0,0.0,0.0, 10:23:05.564
37272.269531, 46775.917969, 187500.000000, 187500.000000, 52261.640625, 30364.017578, 40778.656250, 63400.765625, 0, 1, 1, 0, 1,0.0,0.0,0.0,0.0,0.0, 10:23:05.564
36833.929688, 46329.597656, 187500.000000, 187500.000000, 52428.003906, 30598.753906, 40986.058594, 63592.632813, 0, 1, 1, 0, 1,0.0,0.0,0.0,0.0,0.0, 10:23:05.564
36514.902344, 46016.785156, 187500.000000, 187500.000000, 52777.855469, 31037.050781, 41407.523438, 63430.000000, 0, 1, 1, 0, 1,0.0,0.0,0.0,0.0,0.0, 10:23:05.564
36910.148438, 46423.320313, 187500.000000, 187500.000000, 52658.515625, 30866.662109, 41255.777344, 63243.765625, 0, 1, 1, 0, 1,0.0,0.0,0.0,0.0,0.0, 10:23:05.565
37311.476563, 46816.710938, 187500.000000, 187500.000000, 52282.828125, 30393.833984, 40800.046875, 63374.480469, 0, 1, 1, 0, 1,0.0,0.0,0.0,0.0,0.0, 10:23:05.565
36990.996094, 46482.105469, 187500.000000, 187500.000000, 52347.605469, 30500.451172, 40886.679688, 63609.128906, 0, 1, 1, 0, 1,0.0,0.0,0.0,0.0,0.0, 10:23:05.565
36546.820313, 46043.652344, 187500.000000, 187500.000000, 52728.589844, 30984.031250, 41349.207031, 63505.929688, 0, 1, 1, 0, 1,0.0,0.0,0.0,0.0,0.0, 10:23:05.566
36832.074219, 46341.648438, 187500.000000, 187500.000000, 52706.285156, 30932.869141, 41316.257813, 63270.855469, 0, 1, 1, 0, 1,0.0,0.0,0.0,0.0,0.0, 10:23:05.566
37282.238281, 46792.660156, 187500.000000, 187500.000000, 52325.992188, 30447.701172, 40853.601563, 63334.179688, 0, 1, 1, 0, 1,0.0,0.0,0.0,0.0,0.0, 10:23:05.566
37114.890625, 46610.628906, 187500.000000, 187500.000000, 52283.523438, 30420.365234, 40814.105469, 63597.707031, 0, 1, 1, 0, 1,0.0,0.0,0.0,0.0,0.0, 10:23:05.567
36626.773438, 46121.281250, 187500.000000, 187500.000000, 52651.296875, 30905.666016, 41270.414063, 63581.367188, 0, 1, 1, 0, 1,0.0,0.0,0.0,0.0,0.0, 10:23:05.567
36747.921875, 46251.726563, 187500.000000, 187500.000000, 52741.105469, 30987.250000, 41364.339844, 63316.812500, 0, 1, 1, 0, 1,0.0,0.0,0.0,0.0,0.0, 10:23:05.567
37233.734375, 46742.546875, 187500.000000, 187500.000000, 52393.312500, 30528.951172, 40932.121094, 63287.332031, 0, 1, 1, 0, 1,0.0,0.0,0.0,0.0,0.0, 10:23:05.567
37186.683594, 46680.699219, 187500.000000, 187500.000000, 52267.136719, 30380.781250, 40782.164063, 63536.550781, 0, 1, 1, 0, 1,0.0,0.0,0.0,0.0,0.0, 10:23:05.567
36676.261719, 46157.222656, 187500.000000, 187500.000000, 52624.812500, 30849.183594, 41221.265625, 63575.867188, 0, 1, 1, 0, 1,0.0,0.0,0.0,0.0,0.0, 10:23:05.567
36710.839844, 46203.648438, 187500.000000, 187500.000000, 52797.746094, 31040.402344, 41422.074219, 63334.558594, 0, 1, 1, 0, 1,0.0,0.0,0.0,0.0,0.0, 10:23:05.567
37204.320313, 46706.671875, 187500.000000, 187500.000000, 52489.785156, 30629.712891, 41040.976563, 63268.867188, 0, 1, 1, 0, 1,0.0,0.0,0.0,0.0,0.0, 10:23:05.568
37298.511719, 46789.375000, 187500.000000, 187500.000000, 52276.257813, 30365.111328, 40782.476563, 63496.207031, 0, 1, 1, 0, 1,0.0,0.0,0.0,0.0,0.0, 10:23:05.568
36824.542969, 46304.273438, 187500.000000, 187500.000000, 52564.394531, 30760.984375, 41145.289063, 63618.515625, 0, 1, 1, 0, 1,0.0,0.0,0.0,0.0,0.0, 10:23:05.568
36706.191406, 46189.296875, 187500.000000, 187500.000000, 52823.183594, 31063.513672, 41448.738281, 63393.792969, 0, 1, 1, 0, 1,0.0,0.0,0.0,0.0,0.0, 10:23:05.568
37197.167969, 46688.949219, 187500.000000, 187500.000000, 52574.632813, 30726.583984, 41136.460938, 63265.312500, 0, 1, 1, 0, 1,0.0,0.0,0.0,0.0,0.0, 10:23:05.568
37426.050781, 46910.656250, 187500.000000, 187500.000000, 52281.332031, 30362.541016, 40784.734375, 63470.816406, 0, 1, 1, 0, 1,0.0,0.0,0.0,0.0,0.0, 10:23:05.568
36985.117188, 46461.718750, 187500.000000, 187500.000000, 52492.890625, 30671.822266, 41062.277344, 63647.574219, 0, 1, 1, 0, 1,0.0,0.0,0.0,0.0,0.0, 10:23:05.568
36696.625000, 46180.714844, 187500.000000, 187500.000000, 52823.496094, 31074.533203, 41457.054688, 63434.339844, 0, 1, 1, 0, 1,0.0,0.0,0.0,0.0,0.0, 10:23:05.568
37129.734375, 46622.585938, 187500.000000, 187500.000000, 52651.589844, 30833.582031, 41239.347656, 63245.441406, 0, 1, 1, 0, 1,0.0,0.0,0.0,0.0,0.0, 10:23:05.568
37467.558594, 46956.074219, 187500.000000, 187500.000000, 52298.988281, 30392.134766, 40813.324219, 63412.253906, 0, 1, 1, 0, 1,0.0,0.0,0.0,0.0,0.0, 10:23:05.568
37064.578125, 46543.460938, 187500.000000, 187500.000000, 52436.164063, 30594.865234, 40987.265625, 63620.863281, 0, 1, 1, 0, 1,0.0,0.0,0.0,0.0,0.0, 10:23:05.569
36678.921875, 46163.703125, 187500.000000, 187500.000000, 52806.398438, 31054.820313, 41426.585938, 63471.398438, 0, 1, 1, 0, 1,0.0,0.0,0.0,0.0,0.0, 10:23:05.569
37012.722656, 46511.093750, 187500.000000, 187500.000000, 52733.328125, 30926.587891, 41319.121094, 63236.503906, 0, 1, 1, 0, 1,0.0,0.0,0.0,0.0,0.0, 10:23:05.569
37478.488281, 46974.179688, 187500.000000, 187500.000000, 52345.078125, 30439.654297, 40850.964844, 63350.785156, 0, 1, 1, 0, 1,0.0,0.0,0.0,0.0,0.0, 10:23:05.569
37233.355469, 46719.035156, 187500.000000, 187500.000000, 52359.562500, 30500.720703, 40887.195313, 63631.925781, 0, 1, 1, 0, 1,0.0,0.0,0.0,0.0,0.0, 10:23:05.569
36761.890625, 46252.550781, 187500.000000, 187500.000000, 52730.421875, 30985.708984, 41341.406250, 63569.632813, 0, 1, 1, 0, 1,0.0,0.0,0.0,0.0,0.0, 10:23:05.569
36940.660156, 46442.429688, 187500.000000, 187500.000000, 52754.941406, 30982.578125, 41353.230469, 63305.750000, 0, 1, 1, 0, 1,0.0,0.0,0.0,0.0,0.0, 10:23:05.569
37384.410156, 46888.527344, 187500.000000, 187500.000000, 52393.695313, 30509.816406, 40904.675781, 63325.953125, 0, 1, 1, 0, 1,0.0,0.0,0.0,0.0,0.0, 10:23:05.569
37251.238281, 46745.164063, 187500.000000, 187500.000000, 52321.453125, 30443.119141, 40827.761719, 63582.105469, 0, 1, 1, 0, 1,0.0,0.0,0.0,0.0,0.0, 10:23:05.569
36730.644531, 46218.132813, 187500.000000, 187500.000000, 52690.906250, 30931.326172, 41282.464844, 63580.609375, 0, 1, 1, 0, 1,0.0,0.0,0.0,0.0,0.0, 10:23:05.570
36819.824219, 46318.558594, 187500.000000, 187500.000000, 52804.875000, 31045.611328, 41404.503906, 63326.511719, 0, 1, 1, 0, 1,0.0,0.0,0.0,0.0,0.0, 10:23:05.570
37308.187500, 46811.144531, 187500.000000, 187500.000000, 52458.378906, 30593.078125, 40976.625000, 63299.265625, 0, 1, 1, 0, 1,0.0,0.0,0.0,0.0,0.0, 10:23:05.570
37278.773438, 46770.332031, 187500.000000, 187500.000000, 52305.023438, 30412.207031, 40794.078125, 63539.503906, 0, 1, 1, 0, 1,0.0,0.0,0.0,0.0,0.0, 10:23:05.570
36782.164063, 46267.105469, 187500.000000, 187500.000000, 52627.539063, 30853.699219, 41198.800781, 63610.425781, 0, 1, 1, 0, 1,0.0,0.0,0.0,0.0,0.0, 10:23:05.570
36703.351563, 46198.664063, 187500.000000, 187500.000000, 52834.203125, 31087.296875, 41436.265625, 63361.964844, 0, 1, 1, 0, 1,0.0,0.0,0.0,0.0,0.0, 10:23:05.570
37204.320313, 46705.332031, 187500.000000, 187500.000000, 52534.531250, 30688.855469, 41065.472656, 63261.000000, 0, 1, 1, 0, 1,0.0,0.0,0.0,0.0,0.0, 10:23:05.570
37309.261719, 46803.523438, 187500.000000, 187500.000000, 52288.394531, 30385.898438, 40772.687500, 63485.902344, 0, 1, 1, 0, 1,0.0,0.0,0.0,0.0,0.0, 10:23:05.570
36835.898438, 46322.246094, 187500.000000, 187500.000000, 52550.937500, 30753.541016, 41110.488281, 63619.746094, 0, 1, 1, 0, 1,0.0,0.0,0.0,0.0,0.0, 10:23:05.570
36663.097656, 46152.593750, 187500.000000, 187500.000000, 52819.671875, 31074.802734, 41430.679688, 63413.664063, 0, 1, 1, 0, 1,0.0,0.0,0.0,0.0,0.0, 10:23:05.570
37123.429688, 46620.574219, 187500.000000, 187500.000000, 52583.550781, 30755.552734, 41135.949219, 63272.175781, 0, 1, 1, 0, 1,0.0,0.0,0.0,0.0,0.0, 10:23:05.571
37344.937500, 46835.195313, 187500.000000, 187500.000000, 52280.035156, 30373.203125, 40766.363281, 63462.410156, 0, 1, 1, 0, 1,0.0,0.0,0.0,0.0,0.0, 10:23:05.571
36921.078125, 46403.359375, 187500.000000, 187500.000000, 52467.722656, 30649.828125, 41008.117188, 63662.707031, 0, 1, 1, 0, 1,0.0,0.0,0.0,0.0,0.0, 10:23:05.571
36581.914063, 46069.402344, 187500.000000, 187500.000000, 52808.476563, 31069.951172, 41411.656250, 63472.359375, 0, 1, 1, 0, 1,0.0,0.0,0.0,0.0,0.0, 10:23:05.571
36962.386719, 46459.214844, 187500.000000, 187500.000000, 52670.519531, 30864.046875, 41228.707031, 63250.718750, 0, 1, 1, 0, 1,0.0,0.0,0.0,0.0,0.0, 10:23:05.571
37332.015625, 46820.621094, 187500.000000, 187500.000000, 52311.929688, 30412.654297, 40793.652344, 63404.296875, 0, 1, 1, 0, 1,0.0,0.0,0.0,0.0,0.0, 10:23:05.571
36961.917969, 46440.015625, 187500.000000, 187500.000000, 52428.250000, 30585.433594, 40941.933594, 63617.285156, 0, 1, 1, 0, 1,0.0,0.0,0.0,0.0,0.0, 10:23:05.571
36626.574219, 46108.183594, 187500.000000, 187500.000000, 52777.136719, 31037.498047, 41371.601563, 63511.382813, 0, 1, 1, 0, 1,0.0,0.0,0.0,0.0,0.0, 10:23:05.571
36926.132813, 46419.410156, 187500.000000, 187500.000000, 52711.378906, 30933.494141, 41286.664063, 63301.570313, 0, 1, 1, 0, 1,0.0,0.0,0.0,0.0,0.0, 10:23:05.571
37334.898438, 46828.109375, 187500.000000, 187500.000000, 52338.531250, 30459.525391, 40835.519531, 63387.175781, 0, 1, 1, 0, 1,0.0,0.0,0.0,0.0,0.0, 10:23:05.571
37109.660156, 46590.445313, 187500.000000, 187500.000000, 52337.636719, 30491.064453, 40848.839844, 63645.027344, 0, 1, 1, 0, 1,0.0,0.0,0.0,0.0,0.0, 10:23:05.571
36626.281250, 46103.937500, 187500.000000, 187500.000000, 52716.542969, 30980.767578, 41307.968750, 63592.386719, 0, 1, 1, 0, 1,0.0,0.0,0.0,0.0,0.0, 10:23:05.572
36776.644531, 46265.582031, 187500.000000, 187500.000000, 52769.738281, 31006.875000, 41353.386719, 63325.863281, 0, 1, 1, 0, 1,0.0,0.0,0.0,0.0,0.0, 10:23:05.572
37271.667969, 46763.511719, 187500.000000, 187500.000000, 52403.597656, 30527.207031, 40904.027344, 63329.328125, 0, 1, 1, 0, 1,0.0,0.0,0.0,0.0,0.0, 10:23:05.572
37167.171875, 46649.363281, 187500.000000, 187500.000000, 52311.058594, 30429.150391, 40799.644531, 63583.089844, 0, 1, 1, 0, 1,0.0,0.0,0.0,0.0,0.0, 10:23:05.572
36669.332031, 46149.218750, 187500.000000, 187500.000000, 52666.207031, 30902.716797, 41240.218750, 63600.031250, 0, 1, 1, 0, 1,0.0,0.0,0.0,0.0,0.0, 10:23:05.572
36730.777344, 46219.628906, 187500.000000, 187500.000000, 52800.832031, 31044.179688, 41392.566406, 63351.636719, 0, 1, 1, 0, 1,0.0,0.0,0.0,0.0,0.0, 10:23:05.572
37206.398438, 46697.375000, 187500.000000, 187500.000000, 52478.562500, 30610.466797, 40989.992188, 63292.070313, 0, 1, 1, 0, 1,0.0,0.0,0.0,0.0,0.0, 10:23:05.572
37246.878906, 46726.902344, 187500.000000, 187500.000000, 52295.300781, 30388.626953, 40774.273438, 63541.449219, 0, 1, 1, 0, 1,0.0,0.0,0.0,0.0,0.0, 10:23:05.572
36744.187500, 46218.375000, 187500.000000, 187500.000000, 52603.488281, 30812.347656, 41162.167969, 63646.722656, 0, 1, 1, 0, 1,0.0,0.0,0.0,0.0,0.0, 10:23:05.573
36632.742188, 46116.566406, 187500.000000, 187500.000000, 52830.289063, 31068.119141, 41424.085938, 63394.531250, 0, 1, 1, 0, 1,0.0,0.0,0.0,0.0,0.0, 10:23:05.573
37140.082031, 46632.710938, 187500.000000, 187500.000000, 52540.144531, 30682.328125, 41068.847656, 63288.000000, 0, 1, 1, 0, 1,0.0,0.0,0.0,0.0,0.0, 10:23:05.573
37250.925781, 46736.781250, 187500.000000, 187500.000000, 52294.074219, 30368.330078, 40768.148438, 63495.402344, 0, 1, 1, 0, 1,0.0,0.0,0.0,0.0,0.0, 10:23:05.573
36784.128906, 46263.011719, 187500.000000, 187500.000000, 52553.957031, 30724.505859, 41091.468750, 63624.976563, 0, 1, 1, 0, 1,0.0,0.0,0.0,0.0,0.0, 10:23:05.573
36617.722656, 46103.308594, 187500.000000, 187500.000000, 52833.710938, 31068.722656, 41425.984375, 63430.894531, 0, 1, 1, 0, 1,0.0,0.0,0.0,0.0,0.0, 10:23:05.573
37052.640625, 46545.496094, 187500.000000, 187500.000000, 52625.234375, 30781.703125, 41164.667969, 63294.683594, 0, 1, 1, 0, 1,0.0,0.0,0.0,0.0,0.0, 10:23:05.573
37325.757813, 46810.160156, 187500.000000, 187500.000000, 52307.148438, 30377.070313, 40780.332031, 63475.375000, 0, 1, 1, 0, 1,0.0,0.0,0.0,0.0,0.0, 10:23:05.574
36881.851563, 46353.023438, 187500.000000, 187500.000000, 52492.378906, 30634.316406, 41010.800781, 63660.089844, 0, 1, 1, 0, 1,0.0,0.0,0.0,0.0,0.0, 10:23:05.574
36619.800781, 46098.167969, 187500.000000, 187500.000000, 52819.269531, 31043.308594, 41404.191406, 63500.117188, 0, 1, 1, 0, 1,0.0,0.0,0.0,0.0,0.0, 10:23:05.574
36985.160156, 46469.187500, 187500.000000, 187500.000000, 52687.574219, 30851.462891, 41238.117188, 63316.878906, 0, 1, 1, 0, 1,0.0,0.0,0.0,0.0,0.0, 10:23:06.039
37336.152344, 46814.519531, 187500.000000, 187500.000000, 52336.855469, 30396.181641, 40809.835938, 63437.066406, 0, 1, 1, 0, 1,0.0,0.0,0.0,0.0,0.0, 10:23:06.039
37014.980469, 46484.675781, 187500.000000, 187500.000000, 52418.617188, 30527.140625, 40921.996094, 63665.050781, 0, 1, 1, 0, 1,0.0,0.0,0.0,0.0,0.0, 10:23:06.039
36574.089844, 46046.871094, 187500.000000, 187500.000000, 52799.488281, 31004.751953, 41380.386719, 63545.539063, 0, 1, 1, 0, 1,0.0,0.0,0.0,0.0,0.0, 10:23:06.039
36832.320313, 46318.199219, 187500.000000, 187500.000000, 52783.242188, 30941.384766, 41342.476563, 63291.843750, 0, 1, 1, 0, 1,0.0,0.0,0.0,0.0,0.0, 10:23:06.040
37310.761719, 46796.191406, 187500.000000, 187500.000000, 52402.746094, 30450.808594, 40879.707031, 63365.605469, 0, 1, 1, 0, 1,0.0,0.0,0.0,0.0,0.0, 10:23:06.040
37117.640625, 46592.007813, 187500.000000, 187500.000000, 52372.347656, 30443.007813, 40858.921875, 63631.750000, 0, 1, 1, 0, 1,0.0,0.0,0.0,0.0,0.0, 10:23:06.040
36618.234375, 46088.492188, 187500.000000, 187500.000000, 52744.281250, 30928.041016, 41314.964844, 63596.656250, 0, 1, 1, 0, 1,0.0,0.0,0.0,0.0,0.0, 10:23:06.040
36772.574219, 46254.832031, 187500.000000, 187500.000000, 52812.500000, 30979.851563, 41380.765625, 63344.460938, 0, 1, 1, 0, 1,0.0,0.0,0.0,0.0,0.0, 10:23:06.040
37262.636719, 46748.312500, 187500.000000, 187500.000000, 52452.277344, 30510.375000, 40936.210938, 63354.519531, 0, 1, 1, 0, 1,0.0,0.0,0.0,0.0,0.0, 10:23:06.040
37184.183594, 46657.453125, 187500.000000, 187500.000000, 52338.238281, 30385.519531, 40806.035156, 63604.589844, 0, 1, 1, 0, 1,0.0,0.0,0.0,0.0,0.0, 10:23:06.040
36672.707031, 46140.503906, 187500.000000, 187500.000000, 52691.351563, 30859.419922, 41241.558594, 63627.234375, 0, 1, 1, 0, 1,0.0,0.0,0.0,0.0,0.0, 10:23:06.040
36715.601563, 46195.398438, 187500.000000, 187500.000000, 52838.449219, 31025.962891, 41409.957031, 63382.414063, 0, 1, 1, 0, 1,0.0,0.0,0.0,0.0,0.0, 10:23:06.040
37218.738281, 46704.726563, 187500.000000, 187500.000000, 52508.023438, 30596.720703, 41004.878906, 63327.789063, 0, 1, 1, 0, 1,0.0,0.0,0.0,0.0,0.0, 10:23:06.041
37258.187500, 46735.796875, 187500.000000, 187500.000000, 52306.140625, 30353.623047, 40767.656250, 63567.507813, 0, 1, 1, 0, 1,0.0,0.0,0.0,0.0,0.0, 10:23:06.041
36744.679688, 46216.632813, 187500.000000, 187500.000000, 52610.171875, 30771.199219, 41150.230469, 63660.558594, 0, 1, 1, 0, 1,0.0,0.0,0.0,0.0,0.0, 10:23:06.041
36648.476563, 46126.085938, 187500.000000, 187500.000000, 52841.554688, 31046.482422, 41425.378906, 63438.761719, 0, 1, 1, 0, 1,0.0,0.0,0.0,0.0,0.0, 10:23:06.041
37090.640625, 46577.792969, 187500.000000, 187500.000000, 52589.964844, 30700.992188, 41107.808594, 63310.398438, 0, 1, 1, 0, 1,0.0,0.0,0.0,0.0,0.0, 10:23:06.041
37275.980469, 46754.976563, 187500.000000, 187500.000000, 52320.312500, 30360.798828, 40781.023438, 63509.039063, 0, 1, 1, 0, 1,0.0,0.0,0.0,0.0,0.0, 10:23:06.041
36836.566406, 46306.242188, 187500.000000, 187500.000000, 52549.105469, 30688.855469, 41072.199219, 63669.187500, 0, 1, 1, 0, 1,0.0,0.0,0.0,0.0,0.0, 10:23:06.041
36625.589844, 46101.453125, 187500.000000, 187500.000000, 52842.718750, 31055.601563, 41425.222656, 63488.832031, 0, 1, 1, 0, 1,0.0,0.0,0.0,0.0,0.0, 10:23:06.042
37023.359375, 46508.636719, 187500.000000, 187500.000000, 52664.933594, 30803.005859, 41195.113281, 63313.257813, 0, 1, 1, 0, 1,0.0,0.0,0.0,0.0,0.0, 10:23:06.042
37325.468750, 46804.527344, 187500.000000, 187500.000000, 52333.746094, 30384.267578, 40794.144531, 63476.292969, 0, 1, 1, 0, 1,0.0,0.0,0.0,0.0,0.0, 10:23:06.042
36919.671875, 46384.832031, 187500.000000, 187500.000000, 52484.441406, 30611.136719, 40989.789063, 63674.460938, 0, 1, 1, 0, 1,0.0,0.0,0.0,0.0,0.0, 10:23:06.042
36585.937500, 46054.628906, 187500.000000, 187500.000000, 52830.761719, 31054.193359, 41409.914063, 63517.820313, 0, 1, 1, 0, 1,0.0,0.0,0.0,0.0,0.0, 10:23:06.043
36924.500000, 46403.492188, 187500.000000, 187500.000000, 52733.574219, 30905.398438, 41279.914063, 63305.636719, 0, 1, 1, 0, 1,0.0,0.0,0.0,0.0,0.0, 10:23:06.043
37337.582031, 46816.890625, 187500.000000, 187500.000000, 52363.632813, 30436.458984, 40832.925781, 63420.031250, 0, 1, 1, 0, 1,0.0,0.0,0.0,0.0,0.0, 10:23:06.043
37081.585938, 46551.261719, 187500.000000, 187500.000000, 52396.199219, 30526.134766, 40897.050781, 63677.679688, 0, 1, 1, 0, 1,0.0,0.0,0.0,0.0,0.0, 10:23:06.043
36660.906250, 46130.199219, 187500.000000, 187500.000000, 52752.417969, 31003.835938, 41341.160156, 63606.714844, 0, 1, 1, 0, 1,0.0,0.0,0.0,0.0,0.0, 10:23:06.043
36863.589844, 46343.703125, 187500.000000, 187500.000000, 52756.597656, 30979.830078, 41332.554688, 63363.101563, 0, 1, 1, 0, 1,0.0,0.0,0.0,0.0,0.0, 10:23:06.044
37300.722656, 46785.082031, 187500.000000, 187500.000000, 52398.433594, 30511.828125, 40890.371094, 63388.023438, 0, 1, 1, 0, 1,0.0,0.0,0.0,0.0,0.0, 10:23:06.044
37135.500000, 46607.074219, 187500.000000, 187500.000000, 52353.171875, 30482.279297, 40846.851563, 63630.117188, 0, 1, 1, 0, 1,0.0,0.0,0.0,0.0,0.0, 10:23:06.044
36646.042969, 46113.300781, 187500.000000, 187500.000000, 52719.179688, 30972.408203, 41299.316406, 63599.941406, 0, 1, 1, 0, 1,0.0,0.0,0.0,0.0,0.0, 10:23:06.044
36771.656250, 46249.714844, 187500.000000, 187500.000000, 52808.542969, 31061.861328, 41395.628906, 63349.894531, 0, 1, 1, 0, 1,0.0,0.0,0.0,0.0,0.0, 10:23:06.045
37273.343750, 46754.460938, 187500.000000, 187500.000000, 52455.093750, 30606.869141, 40958.878906, 63340.394531, 0, 1, 1, 0, 1,0.0,0.0,0.0,0.0,0.0, 10:23:06.045
37223.656250, 46693.148438, 187500.000000, 187500.000000, 52317.718750, 30454.630859, 40798.281250, 63593.796875, 0, 1, 1, 0, 1,0.0,0.0,0.0,0.0,0.0, 10:23:06.045
36728.632813, 46192.738281, 187500.000000, 187500.000000, 52648.949219, 30909.935547, 41215.273438, 63643.503906, 0, 1, 1, 0, 1,0.0,0.0,0.0,0.0,0.0, 10:23:06.045
36732.050781, 46204.609375, 187500.000000, 187500.000000, 52815.472656, 31104.843750, 41414.339844, 63413.527344, 0, 1, 1, 0, 1,0.0,0.0,0.0,0.0,0.0, 10:23:06.045
37197.996094, 46678.039063, 187500.000000, 187500.000000, 52514.058594, 30700.500000, 41041.824219, 63327.207031, 0, 1, 1, 0, 1,0.0,0.0,0.0,0.0,0.0, 10:23:06.045
37315.722656, 46784.054688, 187500.000000, 187500.000000, 52278.023438, 30420.968750, 40768.261719, 63568.335938, 0, 1, 1, 0, 1,0.0,0.0,0.0,0.0,0.0, 10:23:06.046
36773.781250, 46231.542969, 187500.000000, 187500.000000, 52567.500000, 30824.886719, 41133.152344, 63674.843750, 0, 1, 1, 0, 1,0.0,0.0,0.0,0.0,0.0, 10:23:06.046
36641.949219, 46112.542969, 187500.000000, 187500.000000, 52821.417969, 31133.251953, 41433.582031, 63439.480469, 0, 1, 1, 0, 1,0.0,0.0,0.0,0.0,0.0, 10:23:06.046
37112.859375, 46595.292969, 187500.000000, 187500.000000, 52572.597656, 30801.037109, 41126.472656, 63309.101563, 0, 1, 1, 0, 1,0.0,0.0,0.0,0.0,0.0, 10:23:06.046
37307.765625, 46788.054688, 187500.000000, 187500.000000, 52281.332031, 30438.693359, 40778.476563, 63502.734375, 0, 1, 1, 0, 1,0.0,0.0,0.0,0.0,0.0, 10:23:06.046
36862.964844, 46338.160156, 187500.000000, 187500.000000, 52487.167969, 30742.230469, 41045.378906, 63670.371094, 0, 1, 1, 0, 1,0.0,0.0,0.0,0.0,0.0, 10:23:06.046
36625.164063, 46111.246094, 187500.000000, 187500.000000, 52785.742188, 31125.271484, 41411.140625, 63493.234375, 0, 1, 1, 0, 1,0.0,0.0,0.0,0.0,0.0, 10:23:06.046
36995.019531, 46493.414063, 187500.000000, 187500.000000, 52620.386719, 30897.306641, 41203.585938, 63318.800781, 0, 1, 1, 0, 1,0.0,0.0,0.0,0.0,0.0, 10:23:06.046
37276.003906, 46771.828125, 187500.000000, 187500.000000, 52287.210938, 30474.277344, 40797.320313, 63455.394531, 0, 1, 1, 0, 1,0.0,0.0,0.0,0.0,0.0, 10:23:06.046
36908.496094, 46391.335938, 187500.000000, 187500.000000, 52411.710938, 30668.425781, 40961.625000, 63653.230469, 0, 1, 1, 0, 1,0.0,0.0,0.0,0.0,0.0, 10:23:06.047
36563.453125, 46048.503906, 187500.000000, 187500.000000, 52755.769531, 31115.794922, 41383.941406, 63536.128906, 0, 1, 1, 0, 1,0.0,0.0,0.0,0.0,0.0, 10:23:06.047
36822.105469, 46321.664063, 187500.000000, 187500.000000, 52696.000000, 31006.361328, 41297.730469, 63302.730469, 0, 1, 1, 0, 1,0.0,0.0,0.0,0.0,0.0, 10:23:06.047
37272.941406, 46771.941406, 187500.000000, 187500.000000, 52319.597656, 30527.988281, 40843.609375, 63399.402344, 0, 1, 1, 0, 1,0.0,0.0,0.0,0.0,0.0, 10:23:06.047
37043.210938, 46530.429688, 187500.000000, 187500.000000, 52329.164063, 30581.701172, 40876.511719, 63668.875000, 0, 1, 1, 0, 1,0.0,0.0,0.0,0.0,0.0, 10:23:06.047
36599.660156, 46089.628906, 187500.000000, 187500.000000, 52686.992188, 31060.765625, 41321.824219, 63620.191406, 0, 1, 1, 0, 1,0.0,0.0,0.0,0.0,0.0, 10:23:06.047
36784.375000, 46282.324219, 187500.000000, 187500.000000, 52705.949219, 31060.609375, 41338.476563, 63385.007813, 0, 1, 1, 0, 1,0.0,0.0,0.0,0.0,0.0, 10:23:06.047
37218.804688, 46715.523438, 187500.000000, 187500.000000, 52351.492188, 30598.083984, 40905.570313, 63401.257813, 0, 1, 1, 0, 1,0.0,0.0,0.0,0.0,0.0, 10:23:06.047
37072.578125, 46560.781250, 187500.000000, 187500.000000, 52286.160156, 30539.566406, 40836.457031, 63630.855469, 0, 1, 1, 0, 1,0.0,0.0,0.0,0.0,0.0, 10:23:06.048
36581.355469, 46067.167969, 187500.000000, 187500.000000, 52643.921875, 31022.455078, 41280.945313, 63625.511719, 0, 1, 1, 0, 1,0.0,0.0,0.0,0.0,0.0, 10:23:06.048
36664.503906, 46161.156250, 187500.000000, 187500.000000, 52759.792969, 31141.142578, 41411.386719, 63369.652344, 0, 1, 1, 0, 1,0.0,0.0,0.0,0.0,0.0, 10:23:06.048
37198.578125, 46699.742188, 187500.000000, 187500.000000, 52411.753906, 30688.742188, 40990.570313, 63347.234375, 0, 1, 1, 0, 1,0.0,0.0,0.0,0.0,0.0, 10:23:06.048
37184.898438, 46672.652344, 187500.000000, 187500.000000, 52252.789063, 30507.314453, 40810.683594, 63610.000000, 0, 1, 1, 0, 1,0.0,0.0,0.0,0.0,0.0, 10:23:06.048
36679.925781, 46164.933594, 187500.000000, 187500.000000, 52577.136719, 30960.316406, 41222.515625, 63674.910156, 0, 1, 1, 0, 1,0.0,0.0,0.0,0.0,0.0, 10:23:06.049
36631.960938, 46130.800781, 187500.000000, 187500.000000, 52774.835938, 31198.072266, 41458.484375, 63443.882813, 0, 1, 1, 0, 1,0.0,0.0,0.0,0.0,0.0, 10:23:06.049
37095.175781, 46600.835938, 187500.000000, 187500.000000, 52491.214844, 30824.261719, 41103.671875, 63345.937500, 0, 1, 1, 0, 1,0.0,0.0,0.0,0.0,0.0, 10:23:06.049
37222.515625, 46716.910156, 187500.000000, 187500.000000, 52247.355469, 30533.800781, 40809.253906, 63562.191406, 0, 1, 1, 0, 1,0.0,0.0,0.0,0.0,0.0, 10:23:06.049
36729.324219, 46212.878906, 187500.000000, 187500.000000, 52514.996094, 30917.111328, 41143.816406, 63684.500000, 0, 1, 1, 0, 1,0.0,0.0,0.0,0.0,0.0, 10:23:06.049
36561.394531, 46054.113281, 187500.000000, 187500.000000, 52789.031250, 31250.843750, 41463.980469, 63460.332031, 0, 1, 1, 0, 1,0.0,0.0,0.0,0.0,0.0, 10:23:06.049
36990.281250, 46495.492188, 187500.000000, 187500.000000, 52575.906250, 30952.449219, 41187.738281, 63308.921875, 0, 1, 1, 0, 1,0.0,0.0,0.0,0.0,0.0, 10:23:06.049
37268.468750, 46770.019531, 187500.000000, 187500.000000, 52262.445313, 30564.376953, 40808.875000, 63503.203125, 0, 1, 1, 0, 1,0.0,0.0,0.0,0.0,0.0, 10:23:06.049
36873.222656, 46359.394531, 187500.000000, 187500.000000, 52432.093750, 30831.794922, 41034.156250, 63708.660156, 0, 1, 1, 0, 1,0.0,0.0,0.0,0.0,0.0, 10:23:06.050
36530.816406, 46018.933594, 187500.000000, 187500.000000, 52770.433594, 31253.773438, 41435.796875, 63529.265625, 0, 1, 1, 0, 1,0.0,0.0,0.0,0.0,0.0, 10:23:06.050
36915.828125, 46420.816406, 187500.000000, 187500.000000, 52631.250000, 31049.923828, 41253.382813, 63314.800781, 0, 1, 1, 0, 1,0.0,0.0,0.0,0.0,0.0, 10:23:06.050
37267.175781, 46767.648438, 187500.000000, 187500.000000, 52274.000000, 30600.677734, 40821.996094, 63453.203125, 0, 1, 1, 0, 1,0.0,0.0,0.0,0.0,0.0, 10:23:06.050
36947.566406, 46431.613281, 187500.000000, 187500.000000, 52358.246094, 30756.714844, 40945.332031, 63676.808594, 0, 1, 1, 0, 1,0.0,0.0,0.0,0.0,0.0, 10:23:06.050
36552.992188, 46038.937500, 187500.000000, 187500.000000, 52707.246094, 31218.859375, 41377.683594, 63565.585938, 0, 1, 1, 0, 1,0.0,0.0,0.0,0.0,0.0, 10:23:06.050
36818.218750, 46316.277344, 187500.000000, 187500.000000, 52666.988281, 31137.968750, 41318.515625, 63334.941406, 0, 1, 1, 0, 1,0.0,0.0,0.0,0.0,0.0, 10:23:06.050
37290.464844, 46785.796875, 187500.000000, 187500.000000, 52288.484375, 30660.580078, 40864.375000, 63423.652344, 0, 1, 1, 0, 1,0.0,0.0,0.0,0.0,0.0, 10:23:06.050
37045.800781, 46526.808594, 187500.000000, 187500.000000, 52283.656250, 30693.570313, 40873.894531, 63678.351563, 0, 1, 1, 0, 1,0.0,0.0,0.0,0.0,0.0, 10:23:06.051
36556.746094, 46035.406250, 187500.000000, 187500.000000, 52656.910156, 31187.722656, 41332.375000, 63611.609375, 0, 1, 1, 0, 1,0.0,0.0,0.0,0.0,0.0, 10:23:06.051
36728.230469, 46218.757813, 187500.000000, 187500.000000, 52708.628906, 31220.000000, 41384.566406, 63362.523438, 0, 1, 1, 0, 1,0.0,0.0,0.0,0.0,0.0, 10:23:06.051
37197.859375, 46688.703125, 187500.000000, 187500.000000, 52354.445313, 30755.685547, 40951.992188, 63377.476563, 0, 1, 1, 0, 1,0.0,0.0,0.0,0.0,0.0, 10:23:06.051
37106.597656, 46587.113281, 187500.000000, 187500.000000, 52264.343750, 30662.279297, 40849.421875, 63608.636719, 0, 1, 1, 0, 1,0.0,0.0,0.0,0.0,0.0, 10:23:06.051
36677.691406, 46148.460938, 187500.000000, 187500.000000, 52580.957031, 31113.449219, 41255.195313, 63664.226563, 0, 1, 1, 0, 1,0.0,0.0,0.0,0.0,0.0, 10:23:06.051
36675.835938, 46157.265625, 187500.000000, 187500.000000, 52728.234375, 31268.994141, 41419.367188, 63417.730469, 0, 1, 1, 0, 1,0.0,0.0,0.0,0.0,0.0, 10:23:06.051
37221.285156, 46709.378906, 187500.000000, 187500.000000, 52388.957031, 30824.931641, 41002.777344, 63372.894531, 0, 1, 1, 0, 1,0.0,0.0,0.0,0.0,0.0, 10:23:06.051
37247.480469, 46726.746094, 187500.000000, 187500.000000, 52191.187500, 30595.044922, 40771.277344, 63641.003906, 0, 1, 1, 0, 1,0.0,0.0,0.0,0.0,0.0, 10:23:06.052
36706.925781, 46178.902344, 187500.000000, 187500.000000, 52500.402344, 31022.521484, 41158.812500, 63714.539063, 0, 1, 1, 0, 1,0.0,0.0,0.0,0.0,0.0, 10:23:06.052
36652.636719, 46130.468750, 187500.000000, 187500.000000, 52709.613281, 31269.507813, 41410.941406, 63482.664063, 0, 1, 1, 0, 1,0.0,0.0,0.0,0.0,0.0, 10:23:06.052
37128.480469, 46616.394531, 187500.000000, 187500.000000, 52427.378906, 30893.373047, 41068.289063, 63391.398438, 0, 1, 1, 0, 1,0.0,0.0,0.0,0.0,0.0, 10:23:06.052
37225.355469, 46707.367188, 187500.000000, 187500.000000, 52179.832031, 30577.564453, 40774.476563, 63595.851563, 0, 1, 1, 0, 1,0.0,0.0,0.0,0.0,0.0, 10:23:06.052
36732.386719, 46202.617188, 187500.000000, 187500.000000, 52432.765625, 30930.097656, 41101.882813, 63709.421875, 0, 1, 1, 0, 1,0.0,0.0,0.0,0.0,0.0, 10:23:06.052
36559.808594, 46034.019531, 187500.000000, 187500.000000, 52709.792969, 31272.660156, 41445.855469, 63522.046875, 0, 1, 1, 0, 1,0.0,0.0,0.0,0.0,0.0, 10:23:06.052
37021.929688, 46504.187500, 187500.000000, 187500.000000, 52498.457031, 30984.121094, 41187.199219, 63382.527344, 0, 1, 1, 0, 1,0.0,0.0,0.0,0.0,0.0, 10:23:06.052
37289.078125, 46767.738281, 187500.000000, 187500.000000, 52169.394531, 30571.195313, 40799.242188, 63577.367188, 0, 1, 1, 0, 1,0.0,0.0,0.0,0.0,0.0, 10:23:06.053
36828.765625, 46296.183594, 187500.000000, 187500.000000, 52326.550781, 30816.683594, 41008.117188, 63754.304688, 0, 1, 1, 0, 1,0.0,0.0,0.0,0.0,0.0, 10:23:06.053
36512.199219, 45985.582031, 187500.000000, 187500.000000, 52655.164063, 31232.046875, 41401.105469, 63574.683594, 0, 1, 1, 0, 1,0.0,0.0,0.0,0.0,0.0, 10:23:06.053
36909.480469, 46391.757813, 187500.000000, 187500.000000, 52520.382813, 31042.236328, 41238.968750, 63395.894531, 0, 1, 1, 0, 1,0.0,0.0,0.0,0.0,0.0, 10:23:06.053
37263.015625, 46742.769531, 187500.000000, 187500.000000, 52152.609375, 30583.599609, 40799.507813, 63523.542969, 0, 1, 1, 0, 1,0.0,0.0,0.0,0.0,0.0, 10:23:06.053
36911.132813, 46382.417969, 187500.000000, 187500.000000, 52221.875000, 30710.937500, 40894.660156, 63727.750000, 0, 1, 1, 0, 1,0.0,0.0,0.0,0.0,0.0, 10:23:06.053
36531.890625, 46000.468750, 187500.000000, 187500.000000, 52559.789063, 31165.953125, 41314.917969, 63635.347656, 0, 1, 1, 0, 1,0.0,0.0,0.0,0.0,0.0, 10:23:06.053
36777.605469, 46253.468750, 187500.000000, 187500.000000, 52532.832031, 31101.244141, 41271.957031, 63422.335938, 0, 1, 1, 0, 1,0.0,0.0,0.0,0.0,0.0, 10:23:06.053
37241.648438, 46723.546875, 187500.000000, 187500.000000, 52150.105469, 30613.841797, 40806.796875, 63505.125000, 0, 1, 1, 0, 1,0.0,0.0,0.0,0.0,0.0, 10:23:06.053
37040.660156, 46513.687500, 187500.000000, 187500.000000, 52103.902344, 30596.966797, 40765.824219, 63757.031250, 0, 1, 1, 0, 1,0.0,0.0,0.0,0.0,0.0, 10:23:06.054
36555.628906, 46025.570313, 187500.000000, 187500.000000, 52446.554688, 31063.960938, 41191.671875, 63720.910156, 0, 1, 1, 0, 1,0.0,0.0,0.0,0.0,0.0, 10:23:06.054
36685.714844, 46165.539063, 187500.000000, 187500.000000, 52509.746094, 31115.169922, 41255.460938, 63468.781250, 0, 1, 1, 0, 1,0.0,0.0,0.0,0.0,0.0, 10:23:06.054
37142.382813, 46620.394531, 187500.000000, 187500.000000, 52159.558594, 30652.265625, 40824.273438, 63452.667969, 0, 1, 1, 0, 1,0.0,0.0,0.0,0.0,0.0, 10:23:06.054
37097.816406, 46564.828125, 187500.000000, 187500.000000, 52024.980469, 30509.437500, 40675.433594, 63696.703125, 0, 1, 1, 0, 1,0.0,0.0,0.0,0.0,0.0, 10:23:06.054
36609.718750, 46068.039063, 187500.000000, 187500.000000, 52334.597656, 30952.113281, 41072.535156, 63743.753906, 0, 1, 1, 0, 1,0.0,0.0,0.0,0.0,0.0, 10:23:06.054
36583.566406, 46050.113281, 187500.000000, 187500.000000, 52500.601563, 31133.318359, 41264.089844, 63497.058594, 0, 1, 1, 0, 1,0.0,0.0,0.0,0.0,0.0, 10:23:06.054
37065.917969, 46538.566406, 187500.000000, 187500.000000, 52198.562500, 30726.785156, 40890.035156, 63425.734375, 0, 1, 1, 0, 1,0.0,0.0,0.0,0.0,0.0, 10:23:06.054
37189.992188, 46653.164063, 187500.000000, 187500.000000, 51971.359375, 30466.187500, 40631.691406, 63684.789063, 0, 1, 1, 0, 1,0.0,0.0,0.0,0.0,0.0, 10:23:06.055
36714.214844, 46167.550781, 187500.000000, 187500.000000, 52225.140625, 30852.939453, 40969.984375, 63814.742188, 0, 1, 1, 0, 1,0.0,0.0,0.0,0.0,0.0, 10:23:06.055
36580.507813, 46038.871094, 187500.000000, 187500.000000, 52453.976563, 31131.552734, 41246.945313, 63588.609375, 0, 1, 1, 0, 1,0.0,0.0,0.0,0.0,0.0, 10:23:06.055
37047.613281, 46511.406250, 187500.000000, 187500.000000, 52203.257813, 30790.935547, 40935.585938, 63475.914063, 0, 1, 1, 0, 1,0.0,0.0,0.0,0.0,0.0, 10:23:06.055
37244.644531, 46699.878906, 187500.000000, 187500.000000, 51928.980469, 30453.892578, 40613.832031, 63690.175781, 0, 1, 1, 0, 1,0.0,0.0,0.0,0.0,0.0, 10:23:06.055
36849.195313, 46292.359375, 187500.000000, 187500.000000, 52113.269531, 30753.919922, 40872.199219, 63879.292969, 0, 1, 1, 0, 1,0.0,0.0,0.0,0.0,0.0, 10:23:06.055
36607.484375, 46051.519531, 187500.000000, 187500.000000, 52400.578125, 31125.630859, 41231.390625, 63708.503906, 0, 1, 1, 0, 1,0.0,0.0,0.0,0.0,0.0, 10:23:06.055
36994.527344, 46448.511719, 187500.000000, 187500.000000, 52235.734375, 30890.802734, 41026.984375, 63532.527344, 0, 1, 1, 0, 1,0.0,0.0,0.0,0.0,0.0, 10:23:06.056
37332.777344, 46783.117188, 187500.000000, 187500.000000, 51898.402344, 30476.066406, 40630.777344, 63715.679688, 0, 1, 1, 0, 1,0.0,0.0,0.0,0.0,0.0, 10:23:06.056
36970.074219, 46402.843750, 187500.000000, 187500.000000, 52011.253906, 30682.998047, 40797.519531, 63944.292969, 0, 1, 1, 0, 1,0.0,0.0,0.0,0.0,0.0, 10:23:06.056
36569.417969, 46003.261719, 187500.000000, 187500.000000, 52356.703125, 31132.357422, 41221.867188, 63785.886719, 0, 1, 1, 0, 1,0.0,0.0,0.0,0.0,0.0, 10:23:06.520
36934.960938, 46383.488281, 187500.000000, 187500.000000, 52264.859375, 30993.888672, 41109.058594, 63568.738281, 0, 1, 1, 0, 1,0.0,0.0,0.0,0.0,0.0, 10:23:06.520
37376.093750, 46821.472656, 187500.000000, 187500.000000, 51892.433594, 30533.666016, 40675.011719, 63724.621094, 0, 1, 1, 0, 1,0.0,0.0,0.0,0.0,0.0, 10:23:06.520
37141.156250, 46571.355469, 187500.000000, 187500.000000, 51899.273438, 30610.802734, 40728.453125, 64003.191406, 0, 1, 1, 0, 1,0.0,0.0,0.0,0.0,0.0, 10:23:06.520
36663.050781, 46093.027344, 187500.000000, 187500.000000, 52245.570313, 31088.056641, 41180.496094, 63921.425781, 0, 1, 1, 0, 1,0.0,0.0,0.0,0.0,0.0, 10:23:06.520
36887.128906, 46326.582031, 187500.000000, 187500.000000, 52252.988281, 31077.685547, 41210.558594, 63687.089844, 0, 1, 1, 0, 1,0.0,0.0,0.0,0.0,0.0, 10:23:06.520
37379.738281, 46819.570313, 187500.000000, 187500.000000, 51883.628906, 30612.457031, 40790.253906, 63758.035156, 0, 1, 1, 0, 1,0.0,0.0,0.0,0.0,0.0, 10:23:06.520
37225.843750, 46650.480469, 187500.000000, 187500.000000, 51802.335938, 30564.869141, 40725.636719, 64025.406250, 0, 1, 1, 0, 1,0.0,0.0,0.0,0.0,0.0, 10:23:06.521
36727.355469, 46149.464844, 187500.000000, 187500.000000, 52131.796875, 31035.664063, 41143.503906, 63994.605469, 0, 1, 1, 0, 1,0.0,0.0,0.0,0.0,0.0, 10:23:06.521
36842.625000, 46273.117188, 187500.000000, 187500.000000, 52217.117188, 31128.892578, 41235.300781, 63757.992188, 0, 1, 1, 0, 1,0.0,0.0,0.0,0.0,0.0, 10:23:06.521
37352.066406, 46785.128906, 187500.000000, 187500.000000, 51863.085938, 30682.373047, 40801.187500, 63772.945313, 0, 1, 1, 0, 1,0.0,0.0,0.0,0.0,0.0, 10:23:06.521
37301.996094, 46722.050781, 187500.000000, 187500.000000, 51701.238281, 30520.791016, 40618.394531, 64032.804688, 0, 1, 1, 0, 1,0.0,0.0,0.0,0.0,0.0, 10:23:06.521
36777.156250, 46189.746094, 187500.000000, 187500.000000, 52000.640625, 30965.144531, 40998.441406, 64066.042969, 0, 1, 1, 0, 1,0.0,0.0,0.0,0.0,0.0, 10:23:06.521
36786.769531, 46210.753906, 187500.000000, 187500.000000, 52172.144531, 31176.011719, 41202.132813, 63839.621094, 0, 1, 1, 0, 1,0.0,0.0,0.0,0.0,0.0, 10:23:06.521
37284.363281, 46712.441406, 187500.000000, 187500.000000, 51869.480469, 30789.392578, 40835.449219, 63802.917969, 0, 1, 1, 0, 1,0.0,0.0,0.0,0.0,0.0, 10:23:06.521
37341.562500, 46759.648438, 187500.000000, 187500.000000, 51650.230469, 30539.478516, 40580.687500, 64042.394531, 0, 1, 1, 0, 1,0.0,0.0,0.0,0.0,0.0, 10:23:06.521
36805.097656, 46216.187500, 187500.000000, 187500.000000, 51928.777344, 30947.173828, 40935.250000, 64124.671875, 0, 1, 1, 0, 1,0.0,0.0,0.0,0.0,0.0, 10:23:06.521
36656.054688, 46072.687500, 187500.000000, 187500.000000, 52200.820313, 31279.611328, 41259.730469, 63897.175781, 0, 1, 1, 0, 1,0.0,0.0,0.0,0.0,0.0, 10:23:06.522
37095.312500, 46518.113281, 187500.000000, 187500.000000, 52000.816406, 30990.447266, 41002.550781, 63763.019531, 0, 1, 1, 0, 1,0.0,0.0,0.0,0.0,0.0, 10:23:06.522
37323.722656, 46734.410156, 187500.000000, 187500.000000, 51731.007813, 30645.447266, 40672.597656, 63973.910156, 0, 1, 1, 0, 1,0.0,0.0,0.0,0.0,0.0, 10:23:06.522
36913.503906, 46314.066406, 187500.000000, 187500.000000, 51922.183594, 30932.220703, 40919.335938, 64141.992188, 0, 1, 1, 0, 1,0.0,0.0,0.0,0.0,0.0, 10:23:06.522
36643.312500, 46048.214844, 187500.000000, 187500.000000, 52240.832031, 31325.230469, 41303.988281, 63990.406250, 0, 1, 1, 0, 1,0.0,0.0,0.0,0.0,0.0, 10:23:06.522
37017.214844, 46432.304688, 187500.000000, 187500.000000, 52122.679688, 31121.025391, 41139.882813, 63824.308594, 0, 1, 1, 0, 1,0.0,0.0,0.0,0.0,0.0, 10:23:06.522
37370.574219, 46780.500000, 187500.000000, 187500.000000, 51795.179688, 30688.093750, 40741.058594, 63995.589844, 0, 1, 1, 0, 1,0.0,0.0,0.0,0.0,0.0, 10:23:06.522
37018.265625, 46415.808594, 187500.000000, 187500.000000, 51890.109375, 30845.898438, 40876.800781, 64201.113281, 0, 1, 1, 0, 1,0.0,0.0,0.0,0.0,0.0, 10:23:06.522
36684.664063, 46083.550781, 187500.000000, 187500.000000, 52217.070313, 31270.134766, 41283.156250, 64073.507813, 0, 1, 1, 0, 1,0.0,0.0,0.0,0.0,0.0, 10:23:06.523
36965.671875, 46377.097656, 187500.000000, 187500.000000, 52165.101563, 31156.453125, 41205.753906, 63887.699219, 0, 1, 1, 0, 1,0.0,0.0,0.0,0.0,0.0, 10:23:06.523
37376.964844, 46785.820313, 187500.000000, 187500.000000, 51819.410156, 30696.587891, 40778.632813, 63999.570313, 0, 1, 1, 0, 1,0.0,0.0,0.0,0.0,0.0, 10:23:06.523
37159.417969, 46552.511719, 187500.000000, 187500.000000, 51817.464844, 30736.843750, 40797.320313, 64264.546875, 0, 1, 1, 0, 1,0.0,0.0,0.0,0.0,0.0, 10:23:06.523
36720.832031, 46113.144531, 187500.000000, 187500.000000, 52165.214844, 31204.621094, 41240.105469, 64214.613281, 0, 1, 1, 0, 1,0.0,0.0,0.0,0.0,0.0, 10:23:06.523
36895.867188, 46296.562500, 187500.000000, 187500.000000, 52220.960938, 31230.861328, 41299.449219, 64022.343750, 0, 1, 1, 0, 1,0.0,0.0,0.0,0.0,0.0, 10:23:06.523
37319.476563, 46720.710938, 187500.000000, 187500.000000, 51913.355469, 30800.748047, 40910.867188, 64078.222656, 0, 1, 1, 0, 1,0.0,0.0,0.0,0.0,0.0, 10:23:06.523
37157.203125, 46542.945313, 187500.000000, 187500.000000, 51863.042969, 30750.634766, 40857.085938, 64318.328125, 0, 1, 1, 0, 1,0.0,0.0,0.0,0.0,0.0, 10:23:06.523
36678.136719, 46061.511719, 187500.000000, 187500.000000, 52212.488281, 31221.474609, 41295.046875, 64296.871094, 0, 1, 1, 0, 1,0.0,0.0,0.0,0.0,0.0, 10:23:06.523
36792.085938, 46183.886719, 187500.000000, 187500.000000, 52344.968750, 31348.701172, 41444.246094, 64099.078125, 0, 1, 1, 0, 1,0.0,0.0,0.0,0.0,0.0, 10:23:06.524
37251.996094, 46646.746094, 187500.000000, 187500.000000, 52062.820313, 30940.490234, 41084.160156, 64106.164063, 0, 1, 1, 0, 1,0.0,0.0,0.0,0.0,0.0, 10:23:06.524
37286.152344, 46669.011719, 187500.000000, 187500.000000, 51914.875000, 30753.787109, 40914.488281, 64386.007813, 0, 1, 1, 0, 1,0.0,0.0,0.0,0.0,0.0, 10:23:06.524
36772.082031, 46144.996094, 187500.000000, 187500.000000, 52223.976563, 31181.173828, 41314.226563, 64448.144531, 0, 1, 1, 0, 1,0.0,0.0,0.0,0.0,0.0, 10:23:06.524
36700.468750, 46082.410156, 187500.000000, 187500.000000, 52456.011719, 31427.199219, 41588.792969, 64206.078125, 0, 1, 1, 0, 1,0.0,0.0,0.0,0.0,0.0, 10:23:06.524
37169.070313, 46552.109375, 187500.000000, 187500.000000, 52218.410156, 31068.566406, 41286.285156, 64169.105469, 0, 1, 1, 0, 1,0.0,0.0,0.0,0.0,0.0, 10:23:06.524
37259.148438, 46634.878906, 187500.000000, 187500.000000, 52022.656250, 30796.455078, 41044.687500, 64417.882813, 0, 1, 1, 0, 1,0.0,0.0,0.0,0.0,0.0, 10:23:06.524
36820.875000, 46199.152344, 187500.000000, 187500.000000, 52260.410156, 31137.365234, 41358.707031, 64547.523438, 0, 1, 1, 0, 1,0.0,0.0,0.0,0.0,0.0, 10:23:06.524
36641.949219, 46033.460938, 187500.000000, 187500.000000, 52533.972656, 31456.792969, 41697.156250, 64365.289063, 0, 1, 1, 0, 1,0.0,0.0,0.0,0.0,0.0, 10:23:06.524
37030.828125, 46428.617188, 187500.000000, 187500.000000, 52369.375000, 31182.158203, 41479.671875, 64245.550781, 0, 1, 1, 0, 1,0.0,0.0,0.0,0.0,0.0, 10:23:06.524
37276.250000, 46671.425781, 187500.000000, 187500.000000, 52099.300781, 30808.927734, 41147.750000, 64468.933594, 0, 1, 1, 0, 1,0.0,0.0,0.0,0.0,0.0, 10:23:06.525
36870.789063, 46261.605469, 187500.000000, 187500.000000, 52256.410156, 31044.203125, 41371.421875, 64675.261719, 0, 1, 1, 0, 1,0.0,0.0,0.0,0.0,0.0, 10:23:06.525
36532.449219, 45922.125000, 187500.000000, 187500.000000, 52605.253906, 31457.531250, 41807.730469, 64513.300781, 0, 1, 1, 0, 1,0.0,0.0,0.0,0.0,0.0, 10:23:06.525
36867.234375, 46266.746094, 187500.000000, 187500.000000, 52538.667969, 31293.871094, 41717.316406, 64376.105469, 0, 1, 1, 0, 1,0.0,0.0,0.0,0.0,0.0, 10:23:06.525
37206.042969, 46605.261719, 187500.000000, 187500.000000, 52254.062500, 30880.320313, 41366.753906, 64601.164063, 0, 1, 1, 0, 1,0.0,0.0,0.0,0.0,0.0, 10:23:06.525
36896.714844, 46282.324219, 187500.000000, 187500.000000, 52350.824219, 31025.515625, 41515.437500, 64860.199219, 0, 1, 1, 0, 1,0.0,0.0,0.0,0.0,0.0, 10:23:06.525
36521.742188, 45909.429688, 187500.000000, 187500.000000, 52707.511719, 31489.203125, 41982.812500, 64786.730469, 0, 1, 1, 0, 1,0.0,0.0,0.0,0.0,0.0, 10:23:06.525
36798.277344, 46191.597656, 187500.000000, 187500.000000, 52715.828125, 31446.601563, 41991.148438, 64655.191406, 0, 1, 1, 0, 1,0.0,0.0,0.0,0.0,0.0, 10:23:06.525
37227.523438, 46615.769531, 187500.000000, 187500.000000, 52412.359375, 31016.308594, 41612.398438, 64864.203125, 0, 1, 1, 0, 1,0.0,0.0,0.0,0.0,0.0, 10:23:06.525
37000.988281, 46380.605469, 187500.000000, 187500.000000, 52423.042969, 31042.482422, 41639.734375, 65183.628906, 0, 1, 1, 0, 1,0.0,0.0,0.0,0.0,0.0, 10:23:06.526
36542.843750, 45920.027344, 187500.000000, 187500.000000, 52785.878906, 31511.421875, 42096.625000, 65172.386719, 0, 1, 1, 0, 1,0.0,0.0,0.0,0.0,0.0, 10:23:06.526
36699.976563, 46086.078125, 187500.000000, 187500.000000, 52882.324219, 31567.255859, 42198.328125, 65018.562500, 0, 1, 1, 0, 1,0.0,0.0,0.0,0.0,0.0, 10:23:06.526
37160.062500, 46551.328125, 187500.000000, 187500.000000, 52589.519531, 31142.080078, 41819.351563, 65171.605469, 0, 1, 1, 0, 1,0.0,0.0,0.0,0.0,0.0, 10:23:06.526
37085.433594, 46459.796875, 187500.000000, 187500.000000, 52502.390625, 31051.691406, 41721.382813, 65547.132813, 0, 1, 1, 0, 1,0.0,0.0,0.0,0.0,0.0, 10:23:06.526
36574.089844, 45946.402344, 187500.000000, 187500.000000, 52839.007813, 31518.328125, 42149.039063, 65611.304688, 0, 1, 1, 0, 1,0.0,0.0,0.0,0.0,0.0, 10:23:06.526
36626.796875, 46009.140625, 187500.000000, 187500.000000, 53010.492188, 31690.681641, 42340.171875, 65466.492188, 0, 1, 1, 0, 1,0.0,0.0,0.0,0.0,0.0, 10:23:06.526
37099.804688, 46486.554688, 187500.000000, 187500.000000, 52745.308594, 31298.164063, 41987.101563, 65558.265625, 0, 1, 1, 0, 1,0.0,0.0,0.0,0.0,0.0, 10:23:06.526
37147.167969, 46525.488281, 187500.000000, 187500.000000, 52575.683594, 31082.111328, 41770.691406, 65893.500000, 0, 1, 1, 0, 1,0.0,0.0,0.0,0.0,0.0, 10:23:06.526
36654.960938, 46025.390625, 187500.000000, 187500.000000, 52856.332031, 31487.460938, 42123.582031, 66009.906250, 0, 1, 1, 0, 1,0.0,0.0,0.0,0.0,0.0, 10:23:06.527
36580.304688, 45961.644531, 187500.000000, 187500.000000, 53089.593750, 31759.056641, 42391.132813, 65839.695313, 0, 1, 1, 0, 1,0.0,0.0,0.0,0.0,0.0, 10:23:06.527
37045.914063, 46431.703125, 187500.000000, 187500.000000, 52874.277344, 31436.431641, 42092.511719, 65879.351563, 0, 1, 1, 0, 1,0.0,0.0,0.0,0.0,0.0, 10:23:06.527
37194.554688, 46576.832031, 187500.000000, 187500.000000, 52659.679688, 31153.369141, 41804.578125, 66198.914063, 0, 1, 1, 0, 1,0.0,0.0,0.0,0.0,0.0, 10:23:06.527
36728.898438, 46096.425781, 187500.000000, 187500.000000, 52889.164063, 31505.632813, 42088.355469, 66349.429688, 0, 1, 1, 0, 1,0.0,0.0,0.0,0.0,0.0, 10:23:06.527
36528.359375, 45898.968750, 187500.000000, 187500.000000, 53191.269531, 31890.304688, 42442.472656, 66173.390625, 0, 1, 1, 0, 1,0.0,0.0,0.0,0.0,0.0, 10:23:06.527
36932.367188, 46313.503906, 187500.000000, 187500.000000, 53052.355469, 31666.140625, 42237.039063, 66127.789063, 0, 1, 1, 0, 1,0.0,0.0,0.0,0.0,0.0, 10:23:06.527
37223.968750, 46597.773438, 187500.000000, 187500.000000, 52768.800781, 31289.802734, 41866.695313, 66417.179688, 0, 1, 1, 0, 1,0.0,0.0,0.0,0.0,0.0, 10:23:06.527
36812.964844, 46176.042969, 187500.000000, 187500.000000, 52915.675781, 31524.496094, 42053.152344, 66622.187500, 0, 1, 1, 0, 1,0.0,0.0,0.0,0.0,0.0, 10:23:06.527
36517.585938, 45883.234375, 187500.000000, 187500.000000, 53243.015625, 31948.443359, 42453.316406, 66469.390625, 0, 1, 1, 0, 1,0.0,0.0,0.0,0.0,0.0, 10:23:06.528
36858.785156, 46234.246094, 187500.000000, 187500.000000, 53176.585938, 31814.109375, 42342.964844, 66339.351563, 0, 1, 1, 0, 1,0.0,0.0,0.0,0.0,0.0, 10:23:06.528
37252.734375, 46621.734375, 187500.000000, 187500.000000, 52855.929688, 31386.876953, 41919.867188, 66564.656250, 0, 1, 1, 0, 1,0.0,0.0,0.0,0.0,0.0, 10:23:06.528
36966.183594, 46319.832031, 187500.000000, 187500.000000, 52910.421875, 31506.437500, 41982.632813, 66793.914063, 0, 1, 1, 0, 1,0.0,0.0,0.0,0.0,0.0, 10:23:06.528
36559.429688, 45914.617188, 187500.000000, 187500.000000, 53252.785156, 31972.291016, 42395.492188, 66670.132813, 0, 1, 1, 0, 1,0.0,0.0,0.0,0.0,0.0, 10:23:06.528
36780.062500, 46145.085938, 187500.000000, 187500.000000, 53278.265625, 31955.169922, 42391.625000, 66477.859375, 0, 1, 1, 0, 1,0.0,0.0,0.0,0.0,0.0, 10:23:06.528
37259.910156, 46623.859375, 187500.000000, 187500.000000, 52942.945313, 31496.177734, 41954.871094, 66639.648438, 0, 1, 1, 0, 1,0.0,0.0,0.0,0.0,0.0, 10:23:06.528
37063.347656, 46415.339844, 187500.000000, 187500.000000, 52905.617188, 31475.345703, 41908.222656, 66916.179688, 0, 1, 1, 0, 1,0.0,0.0,0.0,0.0,0.0, 10:23:06.528
36590.074219, 45941.707031, 187500.000000, 187500.000000, 53247.308594, 31941.849609, 42326.378906, 66827.984375, 0, 1, 1, 0, 1,0.0,0.0,0.0,0.0,0.0, 10:23:06.528
36760.437500, 46122.933594, 187500.000000, 187500.000000, 53335.617188, 32017.263672, 42404.253906, 66630.796875, 0, 1, 1, 0, 1,0.0,0.0,0.0,0.0,0.0, 10:23:06.528
37192.273438, 46555.957031, 187500.000000, 187500.000000, 53041.894531, 31598.972656, 41999.238281, 66701.046875, 0, 1, 1, 0, 1,0.0,0.0,0.0,0.0,0.0, 10:23:06.529
37130.312500, 46485.523438, 187500.000000, 187500.000000, 52928.324219, 31465.644531, 41844.273438, 66958.757813, 0, 1, 1, 0, 1,0.0,0.0,0.0,0.0,0.0, 10:23:06.529
36659.542969, 46006.839844, 187500.000000, 187500.000000, 53225.582031, 31893.501953, 42219.000000, 66954.828125, 0, 1, 1, 0, 1,0.0,0.0,0.0,0.0,0.0, 10:23:06.529
36670.136719, 46026.152344, 187500.000000, 187500.000000, 53405.355469, 32084.185547, 42416.433594, 66735.578125, 0, 1, 1, 0, 1,0.0,0.0,0.0,0.0,0.0, 10:23:06.529
37155.238281, 46521.042969, 187500.000000, 187500.000000, 53142.031250, 31690.435547, 42056.234375, 66758.351563, 0, 1, 1, 0, 1,0.0,0.0,0.0,0.0,0.0, 10:23:06.529
37231.613281, 46586.597656, 187500.000000, 187500.000000, 52946.699219, 31439.158203, 41796.308594, 67034.156250, 0, 1, 1, 0, 1,0.0,0.0,0.0,0.0,0.0, 10:23:06.529
36725.570313, 46070.339844, 187500.000000, 187500.000000, 53209.308594, 31819.070313, 42119.445313, 67047.273438, 0, 1, 1, 0, 1,0.0,0.0,0.0,0.0,0.0, 10:23:06.529
36581.667969, 45939.179688, 187500.000000, 187500.000000, 53466.667969, 32114.515625, 42414.156250, 66780.882813, 0, 1, 1, 0, 1,0.0,0.0,0.0,0.0,0.0, 10:23:06.529
37018.824219, 46383.757813, 187500.000000, 187500.000000, 53276.363281, 31807.068359, 42141.015625, 66705.757813, 0, 1, 1, 0, 1,0.0,0.0,0.0,0.0,0.0, 10:23:06.529
37231.968750, 46586.824219, 187500.000000, 187500.000000, 53022.558594, 31462.962891, 41809.472656, 66952.460938, 0, 1, 1, 0, 1,0.0,0.0,0.0,0.0,0.0, 10:23:06.530
36791.664063, 46136.210938, 187500.000000, 187500.000000, 53205.890625, 31745.197266, 42047.628906, 67071.031250, 0, 1, 1, 0, 1,0.0,0.0,0.0,0.0,0.0, 10:23:06.530
36580.707031, 45932.898438, 187500.000000, 187500.000000, 53494.027344, 32101.439453, 42399.289063, 66876.796875, 0, 1, 1, 0, 1,0.0,0.0,0.0,0.0,0.0, 10:23:06.530
36990.347656, 46351.480469, 187500.000000, 187500.000000, 53353.300781, 31857.873047, 42199.445313, 66786.453125, 0, 1, 1, 0, 1,0.0,0.0,0.0,0.0,0.0, 10:23:06.530
37273.121094, 46628.777344, 187500.000000, 187500.000000, 53058.726563, 31442.107422, 41816.179688, 66990.257813, 0, 1, 1, 0, 1,0.0,0.0,0.0,0.0,0.0, 10:23:06.530
36914.394531, 46261.605469, 187500.000000, 187500.000000, 53156.449219, 31606.595703, 41952.570313, 67151.210938, 0, 1, 1, 0, 1,0.0,0.0,0.0,0.0,0.0, 10:23:06.530
36568.101563, 45918.863281, 187500.000000, 187500.000000, 53468.542969, 32013.888672, 42347.480469, 66966.140625, 0, 1, 1, 0, 1,0.0,0.0,0.0,0.0,0.0, 10:23:06.530
36895.710938, 46256.957031, 187500.000000, 187500.000000, 53404.597656, 31877.587891, 42253.894531, 66815.796875, 0, 1, 1, 0, 1,0.0,0.0,0.0,0.0,0.0, 10:23:06.530
37263.328125, 46615.812500, 187500.000000, 187500.000000, 53082.261719, 31423.734375, 41842.820313, 66991.218750, 0, 1, 1, 0, 1,0.0,0.0,0.0,0.0,0.0, 10:23:06.530
36989.632813, 46321.707031, 187500.000000, 187500.000000, 53101.015625, 31474.763672, 41879.523438, 67199.351563, 0, 1, 1, 0, 1,0.0,0.0,0.0,0.0,0.0, 10:23:06.530
36617.902344, 45949.777344, 187500.000000, 187500.000000, 53415.839844, 31901.771484, 42285.027344, 67088.445313, 0, 1, 1, 0, 1,0.0,0.0,0.0,0.0,0.0, 10:23:06.531
36843.921875, 46184.425781, 187500.000000, 187500.000000, 53434.257813, 31875.798828, 42296.003906, 66909.812500, 0, 1, 1, 0, 1,0.0,0.0,0.0,0.0,0.0, 10:23:06.531
37308.546875, 46649.074219, 187500.000000, 187500.000000, 53091.648438, 31398.455078, 41860.187500, 67046.312500, 0, 1, 1, 0, 1,0.0,0.0,0.0,0.0,0.0, 10:23:06.531
37131.476563, 46457.339844, 187500.000000, 187500.000000, 53028.550781, 31332.181641, 41784.281250, 67286.125000, 0, 1, 1, 0, 1,0.0,0.0,0.0,0.0,0.0, 10:23:06.531
36647.136719, 45971.679688, 187500.000000, 187500.000000, 53353.031250, 31771.886719, 42192.179688, 67178.765625, 0, 1, 1, 0, 1,0.0,0.0,0.0,0.0,0.0, 10:23:06.531
36770.429688, 46103.062500, 187500.000000, 187500.000000, 53456.230469, 31856.419922, 42308.476563, 66969.914063, 0, 1, 1, 0, 1,0.0,0.0,0.0,0.0,0.0, 10:23:06.531
37242.878906, 46573.566406, 187500.000000, 187500.000000, 53154.054688, 31418.548828, 41920.070313, 67039.476563, 0, 1, 1, 0, 1,0.0,0.0,0.0,0.0,0.0, 10:23:06.531
37196.363281, 46515.140625, 187500.000000, 187500.000000, 53014.402344, 31244.027344, 41749.414063, 67308.367188, 0, 1, 1, 0, 1,0.0,0.0,0.0,0.0,0.0, 10:23:06.531
36735.761719, 46054.492188, 187500.000000, 187500.000000, 53289.171875, 31643.162109, 42111.398438, 67301.148438, 0, 1, 1, 0, 1,0.0,0.0,0.0,0.0,0.0, 10:23:06.531
36706.347656, 46035.898438, 187500.000000, 187500.000000, 53469.417969, 31838.449219, 42330.671875, 67073.984375, 0, 1, 1, 0, 1,0.0,0.0,0.0,0.0,0.0, 10:23:06.531
37167.328125, 46509.531250, 187500.000000, 187500.000000, 53209.019531, 31448.210938, 41993.429688, 67055.882813, 0, 1, 1, 0, 1,0.0,0.0,0.0,0.0,0.0, 10:23:06.532
37292.609375, 46626.160156, 187500.000000, 187500.000000, 52975.488281, 31149.814453, 41710.164063, 67338.585938, 0, 1, 1, 0, 1,0.0,0.0,0.0,0.0,0.0, 10:23:06.532
36791.683594, 46115.132813, 187500.000000, 187500.000000, 53204.011719, 31492.667969, 42014.593750, 67401.750000, 0, 1, 1, 0, 1,0.0,0.0,0.0,0.0,0.0, 10:23:06.532
36640.320313, 45967.746094, 187500.000000, 187500.000000, 53461.437500, 31794.283203, 42329.644531, 67140.726563, 0, 1, 1, 0, 1,0.0,0.0,0.0,0.0,0.0, 10:23:06.532
37101.347656, 46435.433594, 187500.000000, 187500.000000, 53265.011719, 31484.978516, 42071.523438, 67073.406250, 0, 1, 1, 0, 1,0.0,0.0,0.0,0.0,0.0, 10:23:06.532
37340.488281, 46664.785156, 187500.000000, 187500.000000, 52987.804688, 31116.398438, 41726.593750, 67340.507813, 0, 1, 1, 0, 1,0.0,0.0,0.0,0.0,0.0, 10:23:06.532
36930.625000, 46245.488281, 187500.000000, 187500.000000, 53135.167969, 31362.960938, 41937.101563, 67496.882813, 0, 1, 1, 0, 1,0.0,0.0,0.0,0.0,0.0, 10:23:06.532
36643.492188, 45965.625000, 187500.000000, 187500.000000, 53433.632813, 31739.654297, 42314.128906, 67273.695313, 0, 1, 1, 0, 1,0.0,0.0,0.0,0.0,0.0, 10:23:06.532
37028.816406, 46360.378906, 187500.000000, 187500.000000, 53312.484375, 31525.949219, 42149.957031, 67135.921875, 0, 1, 1, 0, 1,0.0,0.0,0.0,0.0,0.0, 10:23:06.532
37381.816406, 46707.722656, 187500.000000, 187500.000000, 52991.757813, 31089.845703, 41749.726563, 67353.179688, 0, 1, 1, 0, 1,0.0,0.0,0.0,0.0,0.0, 10:23:06.533
37038.515625, 46354.746094, 187500.000000, 187500.000000, 53063.464844, 31230.951172, 41861.531250, 67541.023438, 0, 1, 1, 0, 1,29.530743,34.08038,17.405916,20.787088,16.591629, 10:23:06.999
36664.234375, 45984.332031, 187500.000000, 187500.000000, 53391.117188, 31663.435547, 42279.687500, 67348.304688, 0, 1, 1, 0, 1,29.530743,34.08038,17.405916,20.787088,16.591629, 10:23:07.000
36935.339844, 46266.097656, 187500.000000, 187500.000000, 53360.742188, 31570.921875, 42227.292969, 67151.898438, 0, 1, 1, 0, 1,29.530743,34.08038,17.405916,20.787088,16.591629, 10:23:07.000
37341.539063, 46670.507813, 187500.000000, 187500.000000, 53041.046875, 31119.238281, 41811.105469, 67293.921875, 0, 1, 1, 0, 1,29.530743,34.08038,17.405916,20.787088,16.591629, 10:23:07.000
37129.218750, 46446.675781, 187500.000000, 187500.000000, 53031.703125, 31137.587891, 41806.523438, 67527.546875, 0, 1, 1, 0, 1,29.530743,34.08038,17.405916,20.787088,16.591629, 10:23:07.000
36662.492188, 45982.519531, 187500.000000, 187500.000000, 53364.808594, 31585.673828, 42227.382813, 67393.500000, 0, 1, 1, 0, 1,29.530743,34.08038,17.405916,20.787088,16.591629, 10:23:07.001
36844.078125, 46182.324219, 187500.000000, 187500.000000, 53420.019531, 31599.554688, 42282.882813, 67146.625000, 0, 1, 1, 0, 1,29.530743,34.08038,17.405916,20.787088,16.591629, 10:23:07.001
37300.187500, 46641.875000, 187500.000000, 187500.000000, 53108.144531, 31145.187500, 41880.371094, 67259.656250, 0, 1, 1, 0, 1,29.530743,34.08038,17.405916,20.787088,16.591629, 10:23:07.001
37195.937500, 46527.187500, 187500.000000, 187500.000000, 53024.683594, 31049.679688, 41784.281250, 67534.382813, 0, 1, 1, 0, 1,29.530743,34.08038,17.405916,20.787088,16.591629, 10:23:07.001
36693.449219, 46024.273438, 187500.000000, 187500.000000, 53342.078125, 31491.572266, 42199.265625, 67456.843750, 0, 1, 1, 0, 1,29.530743,34.08038,17.405916,20.787088,16.591629, 10:23:07.001
36790.500000, 46132.343750, 187500.000000, 187500.000000, 53470.601563, 31609.925781, 42358.296875, 67212.070313, 0, 1, 1, 0, 1,29.530743,34.08038,17.405916,20.787088,16.591629, 10:23:07.001
37292.296875, 46635.414063, 187500.000000, 187500.000000, 53170.886719, 31174.333984, 41978.675781, 67287.734375, 0, 1, 1, 0, 1,29.530743,34.08038,17.405916,20.787088,16.591629, 10:23:07.001
37284.742188, 46617.468750, 187500.000000, 187500.000000, 53005.191406, 30970.552734, 41783.320313, 67576.742188, 0, 1, 1, 0, 1,29.530743,34.08038,17.405916,20.787088,16.591629, 10:23:07.002
36787.082031, 46116.230469, 187500.000000, 187500.000000, 53275.738281, 31368.302734, 42145.085938, 67585.328125, 0, 1, 1, 0, 1,29.530743,34.08038,17.405916,20.787088,16.591629, 10:23:07.002
36700.734375, 46039.117188, 187500.000000, 187500.000000, 53492.796875, 31607.935547, 42410.734375, 67340.820313, 0, 1, 1, 0, 1,29.530743,34.08038,17.405916,20.787088,16.591629, 10:23:07.002
37158.453125, 46504.054688, 187500.000000, 187500.000000, 53264.003906, 31249.681641, 42110.617188, 67300.140625, 0, 1, 1, 0, 1,29.530743,34.08038,17.405916,20.787088,16.591629, 10:23:07.002
37337.894531, 46676.296875, 187500.000000, 187500.000000, 53018.625000, 30926.587891, 41810.703125, 67588.406250, 0, 1, 1, 0, 1,29.530743,34.08038,17.405916,20.787088,16.591629, 10:23:07.002
36860.683594, 46193.097656, 187500.000000, 187500.000000, 53231.972656, 31248.185547, 42098.882813, 67675.515625, 0, 1, 1, 0, 1,31.168026,33.88589,17.662056,20.476547,15.338929, 10:23:07.002
36650.289063, 45991.148438, 187500.000000, 187500.000000, 53514.187500, 31587.304688, 42454.968750, 67434.851563, 0, 1, 1, 0, 1,31.168026,33.88589,17.662056,20.476547,15.338929, 10:23:07.002
37054.585938, 46398.734375, 187500.000000, 187500.000000, 53369.636719, 31332.607422, 42274.433594, 67334.984375, 0, 1, 1, 0, 1,31.168026,33.88589,17.662056,20.476547,15.338929, 10:23:07.002
37346.320313, 46681.324219, 187500.000000, 187500.000000, 53088.273438, 30952.539063, 41963.589844, 67608.859375, 0, 1, 1, 0, 1,31.168026,33.88589,17.662056,20.476547,15.338929, 10:23:07.002
36953.042969, 46276.601563, 187500.000000, 187500.000000, 53229.582031, 31182.470703, 42182.457031, 67781.484375, 0, 1, 1, 0, 1,31.168026,33.88589,17.662056,20.476547,15.338929, 10:23:07.003
36668.058594, 45995.687500, 187500.000000, 187500.000000, 53541.859375, 31580.263672, 42579.691406, 67572.898438, 0, 1, 1, 0, 1,31.168026,33.88589,17.662056,20.476547,15.338929, 10:23:07.003
37006.308594, 46343.949219, 187500.000000, 187500.000000, 53462.039063, 31409.564453, 42453.695313, 67405.039063, 0, 1, 1, 0, 1,31.168026,33.88589,17.662056,20.476547,15.338929, 10:23:07.003
37360.378906, 46695.496094, 187500.000000, 187500.000000, 53151.933594, 30975.761719, 42045.441406, 67608.210938, 0, 1, 1, 0, 1,31.168026,33.88589,17.662056,20.476547,15.338929, 10:23:07.003
37021.261719, 46344.820313, 187500.000000, 187500.000000, 53226.812500, 31106.183594, 42139.964844, 67800.304688, 0, 1, 1, 0, 1,31.168026,33.88589,17.662056,20.476547,15.338929, 10:23:07.003
36646.933594, 45973.132813, 187500.000000, 187500.000000, 53561.148438, 31548.904297, 42555.417969, 67630.945313, 0, 1, 1, 0, 1,31.168026,33.88589,17.662056,20.476547,15.338929, 10:23:07.003
36924.925781, 46260.085938, 187500.000000, 187500.000000, 53551.605469, 31478.742188, 42519.902344, 67453.585938, 0, 1, 1, 0, 1,31.168026,33.88589,17.662056,20.476547,15.338929, 10:23:07.003
37347.796875, 46681.304688, 187500.000000, 187500.000000, 53233.382813, 31024.755859, 42097.050781, 67571.492188, 0, 1, 1, 0, 1,31.168026,33.88589,17.662056,20.476547,15.338929, 10:23:07.003
37153.382813, 46479.890625, 187500.000000, 187500.000000, 53200.300781, 31025.427734, 42062.875000, 67817.695313, 0, 1, 1, 0, 1,31.168026,33.88589,17.662056,20.476547,15.338929, 10:23:07.003
36690.679688, 46016.070313, 187500.000000, 187500.000000, 53534.460938, 31485.605469, 42483.468750, 67711.429688, 0, 1, 1, 0, 1,31.168026,33.88589,17.662056,20.476547,15.338929, 10:23:07.004
36868.062500, 46194.996094, 187500.000000, 187500.000000, 53608.019531, 31529.458984, 42553.851563, 67507.945313, 0, 1, 1, 0, 1,31.168026,33.88589,17.662056,20.476547,15.338929, 10:23:07.004
37317.488281, 46642.812500, 187500.000000, 187500.000000, 53302.070313, 31085.687500, 42141.062500, 67578.843750, 0, 1, 1, 0, 1,31.168026,33.88589,17.662056,20.476547,15.338929, 10:23:07.004
37244.105469, 46560.539063, 187500.000000, 187500.000000, 53191.742188, 30963.244141, 41996.601563, 67838.031250, 0, 1, 1, 0, 1,31.168026,33.88589,17.662056,20.476547,15.338929, 10:23:07.004
36706.167969, 46019.601563, 187500.000000, 187500.000000, 53507.414063, 31412.558594, 42392.921875, 67770.289063, 0, 1, 1, 0, 1,31.168026,33.88589,17.662056,20.476547,15.338929, 10:23:07.004
36744.792969, 46070.230469, 187500.000000, 187500.000000, 53673.355469, 31573.916016, 42570.371094, 67480.671875, 0, 1, 1, 0, 1,31.168026,33.88589,17.662056,20.476547,15.338929, 10:23:07.004
37221.621094, 46550.679688, 187500.000000, 187500.000000, 53408.105469, 31163.181641, 42196.136719, 67480.960938, 0, 1, 1, 0, 1,31.168026,33.88589,17.662056,20.476547,15.338929, 10:23:07.004
37280.808594, 46604.613281, 187500.000000, 187500.000000, 53219.078125, 30913.376953, 41945.214844, 67774.445313, 0, 1, 1, 0, 1,31.168026,33.88589,17.662056,20.476547,15.338929, 10:23:07.004
36821.367188, 46137.531250, 187500.000000, 187500.000000, 53469.371094, 31281.443359, 42262.945313, 67838.257813, 0, 1, 1, 0, 1,31.168026,33.88589,17.662056,20.476547,15.338929, 10:23:07.004
36705.386719, 46025.347656, 187500.000000, 187500.000000, 53702.121094, 31541.595703, 42527.878906, 67607.429688, 0, 1, 1, 0, 1,31.168026,33.88589,17.662056,20.476547,15.338929, 10:23:07.004
37172.625000, 46488.968750, 187500.000000, 187500.000000, 53475.964844, 31182.492188, 42208.562500, 67544.820313, 0, 1, 1, 0, 1,31.168026,33.88589,17.662056,20.476547,15.338929, 10:23:07.005
37334.898438, 46645.585938, 187500.000000, 187500.000000, 53228.843750, 30837.269531, 41875.031250, 67792.968750, 0, 1, 1, 0, 1,31.168026,33.88589,17.662056,20.476547,15.338929, 10:23:07.005
36858.359375, 46176.152344, 187500.000000, 187500.000000, 53438.593750, 31140.248047, 42127.718750, 67877.460938, 0, 1, 1, 0, 1,31.168026,33.88589,17.662056,20.476547,15.338929, 10:23:07.005
36625.722656, 45950.847656, 187500.000000, 187500.000000, 53739.203125, 31492.802734, 42469.093750, 67641.203125, 0, 1, 1, 0, 1,31.168026,33.88589,17.662056,20.476547,15.338929, 10:23:07.005
37014.265625, 46342.562500, 187500.000000, 187500.000000, 53602.519531, 31247.089844, 42253.648438, 67494.468750, 0, 1, 1, 0, 1,31.168026,33.88589,17.662056,20.476547,15.338929, 10:23:07.005
37346.679688, 46667.535156, 187500.000000, 187500.000000, 53290.312500, 30828.105469, 41844.320313, 67730.320313, 0, 1, 1, 0, 1,31.168026,33.88589,17.662056,20.476547,15.338929, 10:23:07.005
36966.902344, 46277.652344, 187500.000000, 187500.000000, 53397.601563, 31028.556641, 41980.710938, 67911.835938, 0, 1, 1, 0, 1,31.168026,33.88589,17.662056,20.476547,15.338929, 10:23:07.005
36659.140625, 45972.460938, 187500.000000, 187500.000000, 53704.625000, 31442.578125, 42352.664063, 67714.632813, 0, 1, 1, 0, 1,31.168026,33.88589,17.662056,20.476547,15.338929, 10:23:07.005
36973.269531, 46296.339844, 187500.000000, 187500.000000, 53624.984375, 31286.048828, 42221.617188, 67547.234375, 0, 1, 1, 0, 1,31.168026,33.88589,17.662056,20.476547,15.338929, 10:23:07.005
37326.203125, 46647.375000, 187500.000000, 187500.000000, 53303.566406, 30829.066406, 41793.535156, 67709.156250, 0, 1, 1, 0, 1,31.168026,33.88589,17.662056,20.476547,15.338929, 10:23:07.005
37036.257813, 46349.960938, 187500.000000, 187500.000000, 53342.527344, 30910.583984, 41836.742188, 67923.484375, 0, 1, 1, 0, 1,31.168026,33.88589,17.662056,20.476547,15.338929, 10:23:07.006
36657.886719, 45962.269531, 187500.000000, 187500.000000, 53668.125000, 31345.302734, 42235.878906, 67816.039063, 0, 1, 1, 0, 1,31.168026,33.88589,17.662056,20.476547,15.338929, 10:23:07.006
36879.101563, 46190.304688, 187500.000000, 187500.000000, 53688.640625, 31296.978516, 42225.617188, 67597.570313, 0, 1, 1, 0, 1,31.168026,33.88589,17.662056,20.476547,15.338929, 10:23:07.006
37326.496094, 46642.343750, 187500.000000, 187500.000000, 53372.074219, 30820.283203, 41790.406250, 67683.359375, 0, 1, 1, 0, 1,31.168026,33.88589,17.662056,20.476547,15.338929, 10:23:07.006
37149.582031, 46454.097656, 187500.000000, 187500.000000, 53349.320313, 30792.343750, 41734.730469, 67913.070313, 0, 1, 1, 0, 1,31.168026,33.88589,17.662056,20.476547,15.338929, 10:23:07.006
36706.679688, 46009.855469, 187500.000000, 187500.000000, 53696.800781, 31268.099609, 42148.167969, 67808.171875, 0, 1, 1, 0, 1,31.168026,33.88589,17.662056,20.476547,15.338929, 10:23:07.006
36879.617188, 46183.195313, 187500.000000, 187500.000000, 53796.445313, 31351.091797, 42238.132813, 67553.585938, 0, 1, 1, 0, 1,31.168026,33.88589,17.662056,20.476547,15.338929, 10:23:07.006
37400.367188, 46689.304688, 187500.000000, 187500.000000, 53487.253906, 30901.798828, 41820.871094, 67605.617188, 0, 1, 1, 0, 1,31.168026,33.88589,17.662056,20.476547,15.338929, 10:23:07.006
37388.453125, 46665.031250, 187500.000000, 187500.000000, 53351.691406, 30740.732422, 41641.164063, 67877.195313, 0, 1, 1, 0, 1,31.168026,33.88589,17.662056,20.476547,15.338929, 10:23:07.007
36889.496094, 46175.593750, 187500.000000, 187500.000000, 53661.886719, 31184.794922, 42017.253906, 67859.156250, 0, 1, 1, 0, 1,31.168026,33.88589,17.662056,20.476547,15.338929, 10:23:07.007
36924.500000, 46219.738281, 187500.000000, 187500.000000, 53845.484375, 31391.794922, 42207.355469, 67601.640625, 0, 1, 1, 0, 1,31.168026,33.88589,17.662056,20.476547,15.338929, 10:23:07.007
37441.917969, 46744.582031, 187500.000000, 187500.000000, 53570.066406, 30991.876953, 41823.890625, 67572.648438, 0, 1, 1, 0, 1,31.168026,33.88589,17.662056,20.476547,15.338929, 10:23:07.007
37554.660156, 46850.839844, 187500.000000, 187500.000000, 53364.921875, 30724.974609, 41540.089844, 67827.953125, 0, 1, 1, 0, 1,31.168026,33.88589,17.662056,20.476547,15.338929, 10:23:07.007
37062.992188, 46345.023438, 187500.000000, 187500.000000, 53627.242188, 31115.884766, 41843.960938, 67874.398438, 0, 1, 1, 0, 1,31.168026,33.88589,17.662056,20.476547,15.338929, 10:23:07.008
36959.480469, 46242.136719, 187500.000000, 187500.000000, 53879.503906, 31419.779297, 42106.191406, 67600.523438, 0, 1, 1, 0, 1,31.168026,33.88589,17.662056,20.476547,15.338929, 10:23:07.008
37479.335938, 46762.574219, 187500.000000, 187500.000000, 53658.066406, 31078.781250, 41767.363281, 67533.445313, 0, 1, 1, 0, 1,31.168026,33.88589,17.662056,20.476547,15.338929, 10:23:07.008
37698.160156, 46967.027344, 187500.000000, 187500.000000, 53390.671875, 30721.064453, 41350.433594, 67798.445313, 0, 1, 1, 0, 1,31.168026,33.88589,17.662056,20.476547,15.338929, 10:23:07.008
37256.714844, 46510.269531, 187500.000000, 187500.000000, 53585.332031, 31029.316406, 41545.140625, 67895.679688, 0, 1, 1, 0, 1,31.168026,33.88589,17.662056,20.476547,15.338929, 10:23:07.008
37082.078125, 46337.222656, 187500.000000, 187500.000000, 53873.000000, 31412.537109, 41883.613281, 67663.000000, 0, 1, 1, 0, 1,31.168026,33.88589,17.662056,20.476547,15.338929, 10:23:07.008
37488.703125, 46749.500000, 187500.000000, 187500.000000, 53732.117188, 31187.365234, 41670.871094, 67516.726563, 0, 1, 1, 0, 1,31.168026,33.88589,17.662056,20.476547,15.338929, 10:23:07.009
37795.679688, 47046.062500, 187500.000000, 187500.000000, 53436.179688, 30775.021484, 41259.351563, 67692.390625, 0, 1, 1, 0, 1,31.168026,33.88589,17.662056,20.476547,15.338929, 10:23:07.009
37438.703125, 46677.792969, 187500.000000, 187500.000000, 53555.785156, 30972.275391, 41378.644531, 67845.117188, 0, 1, 1, 0, 1,31.168026,33.88589,17.662056,20.476547,15.338929, 10:23:07.009
37116.722656, 46358.097656, 187500.000000, 187500.000000, 53889.070313, 31417.185547, 41763.093750, 67663.687500, 0, 1, 1, 0, 1,31.168026,33.88589,17.662056,20.476547,15.338929, 10:23:07.009
37433.894531, 46686.332031, 187500.000000, 187500.000000, 53843.183594, 31306.902344, 41668.300781, 67469.117188, 0, 1, 1, 0, 1,31.168026,33.88589,17.662056,20.476547,15.338929, 10:23:07.009
37844.250000, 47088.218750, 187500.000000, 187500.000000, 53523.910156, 30859.332031, 41246.097656, 67614.023438, 0, 1, 1, 0, 1,31.168026,33.88589,17.662056,20.476547,15.338929, 10:23:07.009
37588.660156, 46813.402344, 187500.000000, 187500.000000, 53552.609375, 30933.025391, 41280.296875, 67839.757813, 0, 1, 1, 0, 1,31.168026,33.88589,17.662056,20.476547,15.338929, 10:23:07.010
37167.753906, 46384.316406, 187500.000000, 187500.000000, 53899.890625, 31411.822266, 41707.191406, 67702.804688, 0, 1, 1, 0, 1,31.168026,33.88589,17.662056,20.476547,15.338929, 10:23:07.010
37394.421875, 46621.132813, 187500.000000, 187500.000000, 53926.734375, 31409.654297, 41711.035156, 67475.804688, 0, 1, 1, 0, 1,31.168026,33.88589,17.662056,20.476547,15.338929, 10:23:07.010
37856.925781, 47081.980469, 187500.000000, 187500.000000, 53593.984375, 30945.050781, 41263.820313, 67537.250000, 0, 1, 1, 0, 1,31.168026,33.88589,17.662056,20.476547,15.338929, 10:23:07.010
37746.976563, 46958.710938, 187500.000000, 187500.000000, 53513.226563, 30872.720703, 41155.015625, 67782.804688, 0, 1, 1, 0, 1,31.168026,33.88589,17.662056,20.476547,15.338929, 10:23:07.010
37224.527344, 46420.234375, 187500.000000, 187500.000000, 53848.031250, 31347.582031, 41559.222656, 67699.562500, 0, 1, 1, 0, 1,31.168026,33.88589,17.662056,20.476547,15.338929, 10:23:07.010
37299.406250, 46504.949219, 187500.000000, 187500.000000, 53982.097656, 31473.826172, 41691.949219, 67392.609375, 0, 1, 1, 0, 1,31.168026,33.88589,17.662056,20.476547,15.338929, 10:23:07.010
37812.757813, 47029.363281, 187500.000000, 187500.000000, 53672.101563, 31016.798828, 41280.675781, 67395.023438, 0, 1, 1, 0, 1,31.168026,33.88589,17.662056,20.476547,15.338929, 10:23:07.010
37809.269531, 47011.683594, 187500.000000, 187500.000000, 53519.640625, 30817.802734, 41081.765625, 67656.132813, 0, 1, 1, 0, 1,31.168026,33.88589,17.662056,20.476547,15.338929, 10:23:07.010
37314.000000, 46506.402344, 187500.000000, 187500.000000, 53814.394531, 31244.898438, 41449.410156, 67668.117188, 0, 1, 1, 0, 1,31.168026,33.88589,17.662056,20.476547,15.338929, 10:23:07.010
37265.183594, 46461.093750, 187500.000000, 187500.000000, 54018.175781, 31470.070313, 41676.523438, 67391.046875, 0, 1, 1, 0, 1,31.168026,33.88589,17.662056,20.476547,15.338929, 10:23:07.011
37754.441406, 46954.687500, 187500.000000, 187500.000000, 53760.769531, 31078.132813, 41329.023438, 67321.148438, 0, 1, 1, 0, 1,31.168026,33.88589,17.662056,20.476547,15.338929, 10:23:07.011
37881.824219, 47067.765625, 187500.000000, 187500.000000, 53535.933594, 30777.300781, 41043.187500, 67568.312500, 0, 1, 1, 0, 1,31.168026,33.88589,17.662056,20.476547,15.338929, 10:23:07.011
37376.050781, 46559.554688, 187500.000000, 187500.000000, 53783.191406, 31138.302734, 41355.464844, 67637.515625, 0, 1, 1, 0, 1,31.168026,33.88589,17.662056,20.476547,15.338929, 10:23:07.011
37202.265625, 46397.839844, 187500.000000, 187500.000000, 54056.328125, 31459.341797, 41672.121094, 67358.234375, 0, 1, 1, 0, 1,31.168026,33.88589,17.662056,20.476547,15.338929, 10:23:07.011
37682.625000, 46877.148438, 187500.000000, 187500.000000, 53854.449219, 31139.308594, 41391.093750, 67242.539063, 0, 1, 1, 0, 1,31.168026,33.88589,17.662056,20.476547,15.338929, 10:23:07.011
37979.234375, 47163.363281, 187500.000000, 187500.000000, 53556.140625, 30739.480469, 41010.332031, 67496.406250, 0, 1, 1, 0, 1,31.168026,33.88589,17.662056,20.476547,15.338929, 10:23:07.011
37535.484375, 46709.535156, 187500.000000, 187500.000000, 53721.746094, 30999.611328, 41225.644531, 67669.656250, 0, 1, 1, 0, 1,31.168026,33.88589,17.662056,20.476547,15.338929, 10:23:07.011
37212.792969, 46398.843750, 187500.000000, 187500.000000, 54047.230469, 31402.904297, 41615.394531, 67411.539063, 0, 1, 1, 0, 1,31.168026,33.88589,17.662056,20.476547,15.338929, 10:23:07.011
37575.113281, 46772.320313, 187500.000000, 187500.000000, 53937.394531, 31191.187500, 41452.449219, 67197.609375, 0, 1, 1, 0, 1,31.168026,33.88589,17.662056,20.476547,15.338929, 10:23:07.011
37919.890625, 47115.328125, 187500.000000, 187500.000000, 53626.593750, 30743.392578, 41052.488281, 67369.765625, 0, 1, 1, 0, 1,31.168026,33.88589,17.662056,20.476547,15.338929, 10:23:07.012
37566.621094, 46748.738281, 187500.000000, 187500.000000, 53727.378906, 30900.591797, 41186.597656, 67564.914063, 0, 1, 1, 0, 1,31.168026,33.88589,17.662056,20.476547,15.338929, 10:23:07.012
37166.835938, 46344.195313, 187500.000000, 187500.000000, 54084.000000, 31358.691406, 41626.703125, 67351.656250, 0, 1, 1, 0, 1,31.168026,33.88589,17.662056,20.476547,15.338929, 10:23:07.012
37480.722656, 46672.945313, 187500.000000, 187500.000000, 54052.125000, 31254.779297, 41567.000000, 67107.828125, 0, 1, 1, 0, 1,31.168026,33.88589,17.662056,20.476547,15.338929, 10:23:07.012
37938.933594, 47124.226563, 187500.000000, 187500.000000, 53701.917969, 30760.447266, 41123.832031, 67256.085938, 0, 1, 1, 0, 1,31.168026,33.88589,17.662056,20.476547,15.338929, 10:23:07.012
37694.292969, 46865.882813, 187500.000000, 187500.000000, 53707.304688, 30788.050781, 41142.183594, 67495.828125, 0, 1, 1, 0, 1,31.168026,33.88589,17.662056,20.476547,15.338929, 10:23:07.012
37219.921875, 46394.621094, 187500.000000, 187500.000000, 54057.960938, 31261.373047, 41591.589844, 67377.367188, 0, 1, 1, 0, 1,31.168026,33.88589,17.662056,20.476547,15.338929, 10:23:07.012
37388.253906, 46579.378906, 187500.000000, 187500.000000, 54111.582031, 31275.878906, 41652.207031, 67098.031250, 0, 1, 1, 0, 1,31.168026,33.88589,17.662056,20.476547,15.338929, 10:23:07.012
37885.511719, 47080.058594, 187500.000000, 187500.000000, 53769.398438, 30785.480469, 41223.187500, 67154.226563, 0, 1, 1, 0, 1,31.168026,33.88589,17.662056,20.476547,15.338929, 10:23:07.013
37780.414063, 46962.667969, 187500.000000, 187500.000000, 53669.464844, 30670.482422, 41111.652344, 67418.265625, 0, 1, 1, 0, 1,31.168026,33.88589,17.662056,20.476547,15.338929, 10:23:07.013
37249.449219, 46430.269531, 187500.000000, 187500.000000, 54000.671875, 31135.330078, 41527.394531, 67370.812500, 0, 1, 1, 0, 1,31.168026,33.88589,17.662056,20.476547,15.338929, 10:23:07.013
37312.054688, 46506.847656, 187500.000000, 187500.000000, 54132.035156, 31269.128906, 41670.714844, 67094.523438, 0, 1, 1, 0, 1,31.168026,33.88589,17.662056,20.476547,15.338929, 10:23:07.013
37798.230469, 46999.593750, 187500.000000, 187500.000000, 53819.800781, 30821.445313, 41268.539063, 67074.703125, 0, 1, 1, 0, 1,31.168026,33.88589,17.662056,20.476547,15.338929, 10:23:07.013
37806.878906, 47000.488281, 187500.000000, 187500.000000, 53641.816406, 30595.603516, 41050.003906, 67324.929688, 0, 1, 1, 0, 1,31.168026,33.88589,17.662056,20.476547,15.338929, 10:23:07.013
37275.757813, 46464.761719, 187500.000000, 187500.000000, 53928.632813, 31013.089844, 41417.246094, 67339.343750, 0, 1, 1, 0, 1,31.168026,33.88589,17.662056,20.476547,15.338929, 10:23:07.013
37239.480469, 46438.562500, 187500.000000, 187500.000000, 54111.917969, 31242.015625, 41642.058594, 67076.218750, 0, 1, 1, 0, 1,31.168026,33.88589,17.662056,20.476547,15.338929, 10:23:07.013
37719.371094, 46932.023438, 187500.000000, 187500.000000, 53831.695313, 30852.179688, 41288.566406, 67008.406250, 0, 1, 1, 0, 1,31.168026,33.88589,17.662056,20.476547,15.338929, 10:23:07.014
37797.246094, 46998.320313, 187500.000000, 187500.000000, 53590.695313, 30540.283203, 40995.578125, 67246.156250, 0, 1, 1, 0, 1,31.168026,33.88589,17.662056,20.476547,15.338929, 10:23:07.014
37295.449219, 46492.429688, 187500.000000, 187500.000000, 53822.753906, 30899.183594, 41305.710938, 67310.843750, 0, 1, 1, 0, 1,31.168026,33.88589,17.662056,20.476547,15.338929, 10:23:07.014
37112.210938, 46331.476563, 187500.000000, 187500.000000, 54073.136719, 31238.103516, 41622.390625, 67059.921875, 0, 1, 1, 0, 1,31.168026,33.88589,17.662056,20.476547,15.338929, 10:23:07.014
37536.199219, 46757.074219, 187500.000000, 187500.000000, 53861.464844, 30948.939453, 41353.050781, 66929.304688, 0, 1, 1, 0, 1,31.168026,33.88589,17.662056,20.476547,15.338929, 10:23:07.014
37791.343750, 47013.851563, 187500.000000, 187500.000000, 53546.484375, 30547.949219, 40960.062500, 67130.062500, 0, 1, 1, 0, 1,31.168026,33.88589,17.662056,20.476547,15.338929, 10:23:07.014
37381.367188, 46597.597656, 187500.000000, 187500.000000, 53680.125000, 30796.210938, 41149.226563, 67296.382813, 0, 1, 1, 0, 1,31.168026,33.88589,17.662056,20.476547,15.338929, 10:23:07.014
37014.242188, 46229.171875, 187500.000000, 187500.000000, 53992.804688, 31225.474609, 41545.007813, 67072.531250, 0, 1, 1, 0, 1,31.168026,33.88589,17.662056,20.476547,15.338929, 10:23:07.014
37324.550781, 46547.417969, 187500.000000, 187500.000000, 53894.546875, 31054.171875, 41410.382813, 66833.476563, 0, 1, 1, 0, 1,31.168026,33.88589,17.662056,20.476547,15.338929, 10:23:07.014
37715.304688, 46941.656250, 187500.000000, 187500.000000, 53548.339844, 30585.208984, 40984.492188, 66988.312500, 0, 1, 1, 0, 1,31.168026,33.88589,17.662056,20.476547,15.338929, 10:23:07.015
37426.855469, 46645.988281, 187500.000000, 187500.000000, 53593.757813, 30696.365234, 41072.804688, 67228.906250, 0, 1, 1, 0, 1,0.0,61.194714,17.294622,17.459,8.360127, 10:23:07.479
37006.710938, 46224.812500, 187500.000000, 187500.000000, 53917.949219, 31153.011719, 41494.203125, 67092.804688, 0, 1, 1, 0, 1,0.0,61.194714,17.294622,17.459,8.360127, 10:23:07.479
37243.054688, 46469.253906, 187500.000000, 187500.000000, 53883.011719, 31077.841797, 41437.628906, 66833.835938, 0, 1, 1, 0, 1,0.0,61.194714,17.294622,17.459,8.360127, 10:23:07.479
37677.351563, 46906.093750, 187500.000000, 187500.000000, 53521.742188, 30585.679688, 40974.566406, 66922.843750, 0, 1, 1, 0, 1,0.0,61.194714,17.294622,17.459,8.360127, 10:23:07.480
37501.980469, 46728.085938, 187500.000000, 187500.000000, 53474.535156, 30569.943359, 40923.003906, 67189.921875, 0, 1, 1, 0, 1,0.0,61.194714,17.294622,17.459,8.360127, 10:23:07.480
37043.632813, 46265.917969, 187500.000000, 187500.000000, 53790.968750, 31038.837891, 41319.457031, 67115.132813, 0, 1, 1, 0, 1,0.0,61.194714,17.294622,17.459,8.360127, 10:23:07.480
37157.292969, 46390.375000, 187500.000000, 187500.000000, 53842.781250, 31086.693359, 41365.277344, 66822.750000, 0, 1, 1, 0, 1,0.0,61.194714,17.294622,17.459,8.360127, 10:23:07.480
37622.878906, 46861.078125, 187500.000000, 187500.000000, 53500.285156, 30611.607422, 40925.730469, 66825.031250, 0, 1, 1, 0, 1,0.0,61.194714,17.294622,17.459,8.360127, 10:23:07.480
37572.187500, 46800.640625, 187500.000000, 187500.000000, 53369.792969, 30473.763672, 40775.617188, 67090.367188, 0, 1, 1, 0, 1,0.0,61.194714,17.294622,17.459,8.360127, 10:23:07.480
37080.781250, 46306.621094, 187500.000000, 187500.000000, 53664.949219, 30928.554688, 41169.789063, 67092.804688, 0, 1, 1, 0, 1,0.0,61.194714,17.294622,17.459,8.360127, 10:23:07.480
37088.269531, 46327.273438, 187500.000000, 187500.000000, 53795.664063, 31094.740234, 41332.644531, 66819.304688, 0, 1, 1, 0, 1,0.0,61.194714,17.294622,17.459,8.360127, 10:23:07.480
37541.632813, 46786.828125, 187500.000000, 187500.000000, 53491.945313, 30670.437500, 40947.546875, 66771.789063, 0, 1, 1, 0, 1,0.0,61.194714,17.294622,17.459,8.360127, 10:23:07.480
37598.964844, 46835.843750, 187500.000000, 187500.000000, 53292.347656, 30423.382813, 40712.003906, 67017.234375, 0, 1, 1, 0, 1,0.0,61.194714,17.294622,17.459,8.360127, 10:23:07.481
37093.722656, 46327.585938, 187500.000000, 187500.000000, 53557.953125, 30835.839844, 41075.777344, 67081.468750, 0, 1, 1, 0, 1,0.0,61.194714,17.294622,17.459,8.360127, 10:23:07.481
36986.750000, 46224.902344, 187500.000000, 187500.000000, 53761.441406, 31106.496094, 41341.160156, 66818.656250, 0, 1, 1, 0, 1,0.0,61.194714,17.294622,17.459,8.360127, 10:23:07.483
37462.394531, 46709.535156, 187500.000000, 187500.000000, 53490.382813, 30732.216797, 41007.203125, 66723.578125, 0, 1, 1, 0, 1,0.0,61.194714,17.294622,17.459,8.360127, 10:23:07.483
37574.824219, 46814.140625, 187500.000000, 187500.000000, 53237.718750, 30396.671875, 40696.625000, 66946.132813, 0, 1, 1, 0, 1,0.0,61.194714,17.294622,17.459,8.360127, 10:23:07.483
37135.902344, 46366.277344, 187500.000000, 187500.000000, 53449.703125, 30730.429688, 40985.320313, 67052.750000, 0, 1, 1, 0, 1,0.0,61.194714,17.294622,17.459,8.360127, 10:23:07.483
36930.871094, 46163.929688, 187500.000000, 187500.000000, 53714.011719, 31089.933594, 41330.789063, 66834.929688, 0, 1, 1, 0, 1,0.0,61.194714,17.294622,17.459,8.360127, 10:23:07.483
37343.972656, 46591.449219, 187500.000000, 187500.000000, 53529.007813, 30818.070313, 41107.335938, 66675.453125, 0, 1, 1, 0, 1,0.0,61.194714,17.294622,17.459,8.360127, 10:23:07.483
37627.171875, 46873.304688, 187500.000000, 187500.000000, 53210.089844, 30395.041016, 40728.988281, 66877.710938, 0, 1, 1, 0, 1,0.0,61.194714,17.294622,17.459,8.360127, 10:23:07.483
37222.468750, 46458.679688, 187500.000000, 187500.000000, 53341.789063, 30625.375000, 40928.726563, 67064.039063, 0, 1, 1, 0, 1,0.0,61.194714,17.294622,17.459,8.360127, 10:23:07.484
36859.410156, 46099.464844, 187500.000000, 187500.000000, 53667.921875, 31071.628906, 41349.562500, 66846.640625, 0, 1, 1, 0, 1,0.0,61.194714,17.294622,17.459,8.360127, 10:23:07.484
37172.468750, 46423.789063, 187500.000000, 187500.000000, 53575.140625, 30916.619141, 41228.125000, 66602.921875, 0, 1, 1, 0, 1,0.0,61.194714,17.294622,17.459,8.360127, 10:23:07.484
37581.753906, 46829.832031, 187500.000000, 187500.000000, 53223.324219, 30441.845703, 40790.078125, 66745.523438, 0, 1, 1, 0, 1,0.0,61.194714,17.294622,17.459,8.360127, 10:23:07.484
37313.933594, 46552.535156, 187500.000000, 187500.000000, 53260.382813, 30535.029297, 40849.734375, 66987.820313, 0, 1, 1, 0, 1,0.0,61.194714,17.294622,17.459,8.360127, 10:23:07.484
36911.871094, 46155.726563, 187500.000000, 187500.000000, 53588.351563, 31002.583984, 41265.812500, 66845.726563, 0, 1, 1, 0, 1,0.0,61.194714,17.294622,17.459,8.360127, 10:23:07.484
37155.394531, 46409.304688, 187500.000000, 187500.000000, 53557.394531, 30948.134766, 41227.074219, 66609.562500, 0, 1, 1, 0, 1,0.0,61.194714,17.294622,17.459,8.360127, 10:23:07.485
37595.187500, 46851.847656, 187500.000000, 187500.000000, 53197.304688, 30456.083984, 40780.777344, 66685.687500, 0, 1, 1, 0, 1,0.0,61.194714,17.294622,17.459,8.360127, 10:23:07.485
37388.207031, 46636.332031, 187500.000000, 187500.000000, 53157.007813, 30430.156250, 40749.800781, 66940.093750, 0, 1, 1, 0, 1,0.0,61.194714,17.294622,17.459,8.360127, 10:23:07.485
36927.113281, 46178.566406, 187500.000000, 187500.000000, 53487.789063, 30914.541016, 41189.277344, 66870.828125, 0, 1, 1, 0, 1,0.0,61.194714,17.294622,17.459,8.360127, 10:23:07.485
37022.625000, 46280.695313, 187500.000000, 187500.000000, 53555.804688, 30991.453125, 41278.484375, 66598.203125, 0, 1, 1, 0, 1,0.0,61.194714,17.294622,17.459,8.360127, 10:23:07.485
37505.398438, 46773.347656, 187500.000000, 187500.000000, 53217.644531, 30522.892578, 40856.527344, 66600.148438, 0, 1, 1, 0, 1,0.0,61.194714,17.294622,17.459,8.360127, 10:23:07.485
37478.777344, 46740.132813, 187500.000000, 187500.000000, 53076.761719, 30360.507813, 40697.136719, 66892.664063, 0, 1, 1, 0, 1,0.0,61.194714,17.294622,17.459,8.360127, 10:23:07.485
36969.492188, 46226.199219, 187500.000000, 187500.000000, 53389.910156, 30823.076172, 41107.472656, 66896.132813, 0, 1, 1, 0, 1,0.0,61.194714,17.294622,17.459,8.360127, 10:23:07.485
36922.734375, 46191.218750, 187500.000000, 187500.000000, 53555.203125, 31023.750000, 41306.625000, 66588.906250, 0, 1, 1, 0, 1,0.0,61.194714,17.294622,17.459,8.360127, 10:23:07.485
37404.972656, 46681.304688, 187500.000000, 187500.000000, 53259.488281, 30603.828125, 40926.019531, 66512.890625, 0, 1, 1, 0, 1,0.0,61.194714,17.294622,17.459,8.360127, 10:23:07.486
37503.320313, 46770.890625, 187500.000000, 187500.000000, 53041.558594, 30323.560547, 40657.730469, 66783.921875, 0, 1, 1, 0, 1,0.0,61.194714,17.294622,17.459,8.360127, 10:23:07.486
37019.359375, 46274.972656, 187500.000000, 187500.000000, 53308.281250, 30726.382813, 41009.996094, 66880.593750, 0, 1, 1, 0, 1,0.0,61.194714,17.294622,17.459,8.360127, 10:23:07.486
36893.250000, 46162.855469, 187500.000000, 187500.000000, 53530.906250, 31022.500000, 41291.582031, 66639.960938, 0, 1, 1, 0, 1,0.0,61.194714,17.294622,17.459,8.360127, 10:23:07.486
37320.394531, 46599.183594, 187500.000000, 187500.000000, 53294.402344, 30678.326172, 40983.152344, 66484.726563, 0, 1, 1, 0, 1,0.0,61.194714,17.294622,17.459,8.360127, 10:23:07.486
37534.878906, 46803.343750, 187500.000000, 187500.000000, 53017.800781, 30304.695313, 40629.546875, 66687.789063, 0, 1, 1, 0, 1,0.0,61.194714,17.294622,17.459,8.360127, 10:23:07.486
37096.988281, 46358.523438, 187500.000000, 187500.000000, 53221.042969, 30617.865234, 40888.804688, 66843.695313, 0, 1, 1, 0, 1,0.0,61.194714,17.294622,17.459,8.360127, 10:23:07.486
36857.847656, 46132.097656, 187500.000000, 187500.000000, 53508.933594, 31006.025391, 41242.632813, 66626.992188, 0, 1, 1, 0, 1,0.0,61.194714,17.294622,17.459,8.360127, 10:23:07.486
37260.511719, 46548.242188, 187500.000000, 187500.000000, 53342.035156, 30758.255859, 41025.664063, 66449.140625, 0, 1, 1, 0, 1,0.0,61.194714,17.294622,17.459,8.360127, 10:23:07.486
37577.976563, 46863.000000, 187500.000000, 187500.000000, 53010.312500, 30312.652344, 40622.886719, 66641.210938, 0, 1, 1, 0, 1,0.0,61.194714,17.294622,17.459,8.360127, 10:23:07.486
37192.472656, 46467.417969, 187500.000000, 187500.000000, 53137.941406, 30522.892578, 40811.402344, 66833.656250, 0, 1, 1, 0, 1,0.0,61.194714,17.294622,17.459,8.360127, 10:23:07.487
36846.894531, 46125.058594, 187500.000000, 187500.000000, 53463.402344, 30981.214844, 41239.906250, 66651.000000, 0, 1, 1, 0, 1,0.0,61.194714,17.294622,17.459,8.360127, 10:23:07.487
37155.839844, 46446.968750, 187500.000000, 187500.000000, 53380.457031, 30851.777344, 41137.757813, 66415.125000, 0, 1, 1, 0, 1,0.0,61.194714,17.294622,17.459,8.360127, 10:23:07.487
37566.820313, 46855.781250, 187500.000000, 187500.000000, 53020.480469, 30370.386719, 40690.699219, 66543.960938, 0, 1, 1, 0, 1,0.0,61.194714,17.294622,17.459,8.360127, 10:23:07.487
37267.800781, 46541.964844, 187500.000000, 187500.000000, 53062.570313, 30459.927734, 40741.238281, 66786.562500, 0, 1, 1, 0, 1,0.0,61.194714,17.294622,17.459,8.360127, 10:23:07.487
36829.636719, 46105.367188, 187500.000000, 187500.000000, 53420.464844, 30961.546875, 41172.046875, 66654.132813, 0, 1, 1, 0, 1,0.0,61.194714,17.294622,17.459,8.360127, 10:23:07.487
37054.988281, 46343.300781, 187500.000000, 187500.000000, 53421.269531, 30944.916016, 41155.347656, 66386.507813, 0, 1, 1, 0, 1,0.0,61.194714,17.294622,17.459,8.360127, 10:23:07.487
37527.593750, 46815.503906, 187500.000000, 187500.000000, 53056.980469, 30450.628906, 40698.523438, 66455.914063, 0, 1, 1, 0, 1,0.0,61.194714,17.294622,17.459,8.360127, 10:23:07.487
37341.738281, 46616.550781, 187500.000000, 187500.000000, 53004.277344, 30401.746094, 40646.980469, 66709.671875, 0, 1, 1, 0, 1,0.0,61.194714,17.294622,17.459,8.360127, 10:23:07.487
36847.632813, 46122.085938, 187500.000000, 187500.000000, 53351.218750, 30901.642578, 41105.460938, 66658.242188, 0, 1, 1, 0, 1,0.0,61.194714,17.294622,17.459,8.360127, 10:23:07.488
36940.101563, 46226.156250, 187500.000000, 187500.000000, 53448.316406, 31010.607422, 41229.667969, 66378.710938, 0, 1, 1, 0, 1,0.0,61.194714,17.294622,17.459,8.360127, 10:23:07.488
37456.292969, 46745.117188, 187500.000000, 187500.000000, 53102.445313, 30532.839844, 40798.300781, 66376.093750, 0, 1, 1, 0, 1,0.0,61.194714,17.294622,17.459,8.360127, 10:23:07.488
37431.882813, 46710.160156, 187500.000000, 187500.000000, 52952.757813, 30341.753906, 40610.929688, 66656.187500, 0, 1, 1, 0, 1,0.0,61.194714,17.294622,17.459,8.360127, 10:23:07.488
36897.074219, 46170.789063, 187500.000000, 187500.000000, 53281.125000, 30808.615234, 41020.636719, 66681.914063, 0, 1, 1, 0, 1,0.0,61.194714,17.294622,17.459,8.360127, 10:23:07.488
36871.437500, 46157.937500, 187500.000000, 187500.000000, 53455.691406, 31027.751953, 41224.082031, 66394.890625, 0, 1, 1, 0, 1,0.0,61.194714,17.294622,17.459,8.360127, 10:23:07.488
37368.179688, 46665.613281, 187500.000000, 187500.000000, 53159.351563, 30612.769531, 40844.703125, 66327.187500, 0, 1, 1, 0, 1,0.0,61.194714,17.294622,17.459,8.360127, 10:23:07.488
37464.695313, 46754.238281, 187500.000000, 187500.000000, 52936.171875, 30317.816406, 40564.457031, 66572.367188, 0, 1, 1, 0, 1,0.0,61.194714,17.294622,17.459,8.360127, 10:23:07.488
36949.777344, 46230.156250, 187500.000000, 187500.000000, 53213.222656, 30726.136719, 40918.578125, 66666.554688, 0, 1, 1, 0, 1,0.0,61.194714,17.294622,17.459,8.360127, 10:23:07.488
36797.429688, 46089.652344, 187500.000000, 187500.000000, 53467.851563, 31061.414063, 41225.242188, 66396.007813, 0, 1, 1, 0, 1,0.0,61.194714,17.294622,17.459,8.360127, 10:23:07.488
37270.617188, 46574.417969, 187500.000000, 187500.000000, 53232.332031, 30731.859375, 40910.753906, 66264.132813, 0, 1, 1, 0, 1,0.0,61.194714,17.294622,17.459,8.360127, 10:23:07.489
37501.667969, 46795.296875, 187500.000000, 187500.000000, 52937.757813, 30340.703125, 40537.234375, 66488.304688, 0, 1, 1, 0, 1,0.0,61.194714,17.294622,17.459,8.360127, 10:23:07.489
37039.609375, 46324.593750, 187500.000000, 187500.000000, 53141.449219, 30649.695313, 40809.835938, 66649.031250, 0, 1, 1, 0, 1,0.0,61.194714,17.294622,17.459,8.360127, 10:23:07.489
36770.562500, 46062.183594, 187500.000000, 187500.000000, 53449.925781, 31068.857422, 41205.707031, 66431.726563, 0, 1, 1, 0, 1,0.0,61.194714,17.294622,17.459,8.360127, 10:23:07.489
37131.031250, 46430.695313, 187500.000000, 187500.000000, 53313.984375, 30855.152344, 41032.570313, 66227.343750, 0, 1, 1, 0, 1,0.0,61.194714,17.294622,17.459,8.360127, 10:23:07.489
37452.000000, 46746.972656, 187500.000000, 187500.000000, 52996.988281, 30408.496094, 40637.503906, 66371.179688, 0, 1, 1, 0, 1,0.0,61.194714,17.294622,17.459,8.360127, 10:23:07.489
37115.695313, 46400.500000, 187500.000000, 187500.000000, 53109.664063, 30588.025391, 40803.554688, 66582.851563, 0, 1, 1, 0, 1,0.0,61.194714,17.294622,17.459,8.360127, 10:23:07.489
36740.566406, 46028.855469, 187500.000000, 187500.000000, 53458.531250, 31061.099609, 41259.574219, 66426.273438, 0, 1, 1, 0, 1,0.0,61.194714,17.294622,17.459,8.360127, 10:23:07.489
37050.160156, 46349.312500, 187500.000000, 187500.000000, 53397.132813, 30948.246094, 41189.660156, 66192.500000, 0, 1, 1, 0, 1,0.0,61.194714,17.294622,17.459,8.360127, 10:23:07.489
37489.328125, 46784.769531, 187500.000000, 187500.000000, 53036.820313, 30448.126953, 40754.960938, 66316.148438, 0, 1, 1, 0, 1,0.0,61.194714,17.294622,17.459,8.360127, 10:23:07.489
37256.156250, 46538.343750, 187500.000000, 187500.000000, 53049.425781, 30485.699219, 40803.644531, 66582.539063, 0, 1, 1, 0, 1,0.0,61.194714,17.294622,17.459,8.360127, 10:23:07.490
36786.945313, 46068.464844, 187500.000000, 187500.000000, 53414.117188, 30988.210938, 41292.410156, 66488.304688, 0, 1, 1, 0, 1,0.0,61.194714,17.294622,17.459,8.360127, 10:23:07.490
36960.531250, 46254.652344, 187500.000000, 187500.000000, 53448.093750, 31001.130859, 41360.335938, 66204.882813, 0, 1, 1, 0, 1,0.0,61.194714,17.294622,17.459,8.360127, 10:23:07.490
37432.062500, 46727.570313, 187500.000000, 187500.000000, 53098.199219, 30509.482422, 40988.828125, 66229.398438, 0, 1, 1, 0, 1,0.0,61.194714,17.294622,17.459,8.360127, 10:23:07.490
37305.460938, 46586.980469, 187500.000000, 187500.000000, 53025.398438, 30422.980469, 41030.335938, 66482.734375, 0, 1, 1, 0, 1,0.0,61.194714,17.294622,17.459,8.360127, 10:23:07.490
36810.773438, 46084.800781, 187500.000000, 187500.000000, 53376.277344, 30919.144531, 41556.160156, 66457.593750, 0, 1, 1, 0, 1,0.0,61.194714,17.294622,17.459,8.360127, 10:23:07.490
36859.500000, 46146.804688, 187500.000000, 187500.000000, 53505.023438, 31065.035156, 41727.820313, 66175.242188, 0, 1, 1, 0, 1,0.0,61.194714,17.294622,17.459,8.360127, 10:23:07.490
37389.660156, 46683.093750, 187500.000000, 187500.000000, 53174.105469, 30609.460938, 41316.660156, 66158.500000, 0, 1, 1, 0, 1,0.0,61.194714,17.294622,17.459,8.360127, 10:23:07.490
37405.218750, 46684.210938, 187500.000000, 187500.000000, 53008.925781, 30403.378906, 41116.902344, 66453.117188, 0, 1, 1, 0, 1,0.0,61.194714,17.294622,17.459,8.360127, 10:23:07.490
36881.425781, 46158.453125, 187500.000000, 187500.000000, 53324.644531, 30862.953125, 41528.019531, 66504.531250, 0, 1, 1, 0, 1,0.0,61.194714,17.294622,17.459,8.360127, 10:23:07.491
36843.316406, 46131.160156, 187500.000000, 187500.000000, 53512.980469, 31109.201172, 41763.742188, 66232.617188, 0, 1, 1, 0, 1,0.0,61.194714,17.294622,17.459,8.360127, 10:23:07.491
37327.656250, 46622.964844, 187500.000000, 187500.000000, 53233.785156, 30721.554688, 41410.652344, 66136.281250, 0, 1, 1, 0, 1,0.0,61.194714,17.294622,17.459,8.360127, 10:23:07.491
37498.492188, 46787.406250, 187500.000000, 187500.000000, 52969.609375, 30389.296875, 41092.136719, 66405.820313, 0, 1, 1, 0, 1,0.0,61.194714,17.294622,17.459,8.360127, 10:23:07.491
36956.507813, 46232.726563, 187500.000000, 187500.000000, 53232.152344, 30781.345703, 41435.820313, 66519.859375, 0, 1, 1, 0, 1,0.0,61.194714,17.294622,17.459,8.360127, 10:23:07.491
36747.207031, 46028.968750, 187500.000000, 187500.000000, 53511.570313, 31141.835938, 41778.605469, 66234.679688, 0, 1, 1, 0, 1,0.0,61.194714,17.294622,17.459,8.360127, 10:23:07.491
37240.285156, 46531.769531, 187500.000000, 187500.000000, 53288.367188, 30825.267578, 41496.929688, 66091.960938, 0, 1, 1, 0, 1,0.0,61.194714,17.294622,17.459,8.360127, 10:23:07.491
37482.734375, 46765.660156, 187500.000000, 187500.000000, 52985.546875, 30411.669922, 41115.832031, 66303.429688, 0, 1, 1, 0, 1,0.0,61.194714,17.294622,17.459,8.360127, 10:23:07.491
37071.304688, 46343.257813, 187500.000000, 187500.000000, 53158.863281, 30675.957031, 41346.410156, 66485.398438, 0, 1, 1, 0, 1,0.0,61.194714,17.294622,17.459,8.360127, 10:23:07.491
36729.816406, 46008.875000, 187500.000000, 187500.000000, 53488.304688, 31108.330078, 41755.785156, 66269.546875, 0, 1, 1, 0, 1,0.0,61.194714,17.294622,17.459,8.360127, 10:23:07.491
37072.667969, 46363.238281, 187500.000000, 187500.000000, 53374.554688, 30914.271484, 41598.761719, 66030.984375, 0, 1, 1, 0, 1,0.0,61.194714,17.294622,17.459,8.360127, 10:23:07.492
37492.679688, 46780.792969, 187500.000000, 187500.000000, 53014.113281, 30427.541016, 41151.035156, 66207.812500, 0, 1, 1, 0, 1,0.0,61.194714,17.294622,17.459,8.360127, 10:23:07.492
37144.507813, 46420.906250, 187500.000000, 187500.000000, 53105.328125, 30582.013672, 41278.351563, 66456.718750, 0, 1, 1, 0, 1,0.0,61.194714,17.294622,17.459,8.360127, 10:23:07.492
36763.367188, 46039.832031, 187500.000000, 187500.000000, 53455.625000, 31067.449219, 41721.785156, 66307.320313, 0, 1, 1, 0, 1,0.0,61.194714,17.294622,17.459,8.360127, 10:23:07.492
37019.046875, 46303.558594, 187500.000000, 187500.000000, 53421.652344, 30993.753906, 41663.425781, 66056.062500, 0, 1, 1, 0, 1,0.0,61.194714,17.294622,17.459,8.360127, 10:23:07.492
37454.660156, 46740.109375, 187500.000000, 187500.000000, 53064.671875, 30501.167969, 41203.898438, 66136.734375, 0, 1, 1, 0, 1,0.0,61.194714,17.294622,17.459,8.360127, 10:23:07.492
37255.910156, 46532.843750, 187500.000000, 187500.000000, 53052.890625, 30512.722656, 41193.636719, 66412.554688, 0, 1, 1, 0, 1,0.0,61.194714,17.294622,17.459,8.360127, 10:23:07.492
36770.027344, 46046.000000, 187500.000000, 187500.000000, 53419.371094, 31022.945313, 41654.507813, 66337.429688, 0, 1, 1, 0, 1,0.0,61.194714,17.294622,17.459,8.360127, 10:23:07.492
