%OpenBCI Raw EEG Data
%
%Sample Rate = 250.0 Hz
%First Column = SampleIndex
%Last Column = Timestamp 
%Other Columns = EEG data in microvolts followed by Accel Data (in G) interleaved with Aux Data
0, -62986.01, -71977.04, -104991.44, -140505.39, -92962.20, -83919.31, -133733.20, -125059.88, 0.090, 0.200, 0.440, 12:26:38.967
1, -63154.34, -72148.99, -105122.84, -140674.88, -93146.94, -83557.73, -133899.23, -125189.59, 0.000, 0.000, 0.000, 12:26:38.969
2, -63052.44, -72040.70, -105150.11, -140598.75, -93063.98, -83652.98, -133801.81, -125241.67, 0.000, 0.000, 0.000, 12:26:38.970
3, -62889.20, -71876.73, -105041.66, -140444.59, -92898.63, -84064.88, -133645.95, -125122.98, 0.000, 0.000, 0.000, 12:26:38.970
4, -62963.36, -71950.22, -104989.13, -140485.56, -92944.48, -84081.16, -133706.23, -125050.80, 0.000, 0.000, 0.000, 12:26:38.971
5, -63161.16, -72145.28, -105098.26, -140660.34, -93133.81, -83698.92, -133896.38, -125167.62, 0.000, 0.000, 0.000, 12:26:38.971
6, -63097.00, -72076.70, -105149.35, -140623.00, -93098.23, -83678.91, -133842.70, -125252.45, 0.138, 0.288, 0.664, 12:26:38.971
7, -62909.92, -71886.94, -105050.16, -140453.66, -92913.23, -84087.69, -133656.75, -125157.38, 0.000, 0.000, 0.000, 12:26:38.972
8, -62938.58, -71921.92, -104988.04, -140464.75, -92922.32, -84206.71, -133685.91, -125069.95, 0.000, 0.000, 0.000, 12:26:38.972
9, -63129.21, -72108.71, -105076.38, -140634.02, -93106.55, -83839.34, -133868.86, -125152.82, 0.000, 0.000, 0.000, 12:26:38.972
10, -63132.66, -72110.86, -105167.91, -140666.19, -93143.59, -83705.78, -133887.30, -125258.37, 0.000, 0.000, 0.000, 12:26:38.973
11, -62956.52, -71931.84, -105105.19, -140512.69, -92974.85, -84067.03, -133722.14, -125204.99, 0.000, 0.000, 0.000, 12:26:38.973
12, -62925.05, -71896.82, -105000.02, -140451.94, -92899.23, -84283.87, -133671.34, -125074.77, 0.000, 0.000, 0.000, 12:26:38.974
13, -63103.84, -72079.19, -105054.78, -140610.78, -93077.04, -83949.15, -133846.39, -125115.95, 0.000, 0.000, 0.000, 12:26:38.974
14, -63127.71, -72102.81, -105141.75, -140650.11, -93124.09, -83742.93, -133872.39, -125223.54, 0.000, 0.000, 0.000, 12:26:38.975
15, -62944.34, -71925.97, -105077.88, -140493.45, -92951.18, -84063.95, -133697.98, -125175.27, 0.000, 0.000, 0.000, 12:26:38.975
16, -62881.49, -71857.26, -104966.05, -140413.97, -92863.36, -84350.23, -133626.09, -125051.23, 0.168, 0.330, 0.778, 12:26:38.975
17, -63065.82, -72040.14, -105010.59, -140569.88, -93038.57, -84079.02, -133810.38, -125083.29, 0.000, 0.000, 0.000, 12:26:38.976
18, -63167.19, -72138.71, -105141.48, -140682.34, -93163.30, -83786.05, -133915.13, -125229.31, 0.000, 0.000, 0.000, 12:26:38.977
19, -62995.19, -71959.70, -105111.53, -140537.53, -93012.71, -84022.80, -133753.38, -125212.37, 0.000, 0.000, 0.000, 12:26:38.977
20, -62865.64, -71828.54, -104982.32, -140401.27, -92862.69, -84376.52, -133613.16, -125069.67, 0.000, 0.000, 0.000, 12:26:38.978
21, -63008.31, -71983.39, -104983.48, -140514.13, -92983.79, -84203.65, -133748.44, -125045.38, 0.000, 0.000, 0.000, 12:26:38.979
22, -63149.31, -72127.38, -105111.69, -140659.66, -93146.65, -83844.32, -133900.44, -125191.42, 0.000, 0.000, 0.000, 12:26:38.979
23, -63020.00, -71999.21, -105125.66, -140566.19, -93051.07, -83976.28, -133790.77, -125229.47, 0.000, 0.000, 0.000, 12:26:38.979
24, -62854.54, -71835.71, -104999.53, -140402.45, -92874.83, -84370.70, -133622.33, -125093.63, 0.000, 0.000, 0.000, 12:26:38.980
25, -62968.91, -71939.91, -104966.38, -140482.03, -92963.79, -84301.03, -133729.16, -125038.60, 0.000, 0.000, 0.000, 12:26:38.980
26, -63183.51, -72152.63, -105103.35, -140678.83, -93172.33, -83890.99, -133936.36, -125189.12, 0.182, 0.364, 0.830, 12:26:38.981
27, -63111.89, -72072.55, -105151.48, -140628.98, -93119.55, -83917.12, -133860.45, -125263.84, 0.000, 0.000, 0.000, 12:26:38.981
28, -62933.50, -71885.33, -105045.08, -140456.86, -92930.88, -84317.41, -133669.95, -125148.09, 0.000, 0.000, 0.000, 12:26:38.982
29, -62967.37, -71931.42, -104971.09, -140466.89, -92944.95, -84343.95, -133706.31, -125048.10, 0.000, 0.000, 0.000, 12:26:38.982
30, -63144.73, -72115.04, -105064.62, -140636.77, -93126.62, -83941.50, -133888.27, -125146.54, 0.000, 0.000, 0.000, 12:26:38.983
31, -63106.55, -72075.77, -105130.78, -140625.48, -93117.79, -83878.38, -133859.70, -125241.31, 0.000, 0.000, 0.000, 12:26:38.983
32, -62930.66, -71894.31, -105048.16, -140463.59, -92945.14, -84247.88, -133689.67, -125155.82, 0.000, 0.000, 0.000, 12:26:38.984
33, -62952.99, -71919.75, -104978.72, -140462.63, -92942.73, -84358.99, -133707.48, -125064.55, 0.000, 0.000, 0.000, 12:26:38.984
34, -63158.92, -72127.49, -105068.53, -140644.72, -93138.53, -83963.14, -133899.73, -125144.91, 0.000, 0.000, 0.000, 12:26:38.985
35, -63174.84, -72138.76, -105168.69, -140683.78, -93181.98, -83775.16, -133924.98, -125263.33, 0.190, 0.374, 0.864, 12:26:38.985
36, -62979.14, -71957.91, -105106.55, -140523.36, -93013.85, -84091.38, -133750.95, -125207.02, 0.000, 0.000, 0.000, 12:26:38.986
37, -62922.95, -71911.69, -105006.10, -140465.88, -92950.24, -84292.41, -133705.25, -125088.49, 0.000, 0.000, 0.000, 12:26:38.986
38, -63128.07, -72093.85, -105055.70, -140621.09, -93112.96, -83970.70, -133879.34, -125127.09, 0.000, 0.000, 0.000, 12:26:38.987
39, -63204.63, -72155.32, -105167.13, -140701.64, -93205.36, -83717.52, -133950.02, -125264.24, 0.000, 0.000, 0.000, 12:26:38.987
40, -63029.10, -71979.66, -105128.86, -140556.64, -93051.98, -83999.84, -133785.16, -125247.64, 0.000, 0.000, 0.000, 12:26:38.987
41, -62923.31, -71874.87, -105004.78, -140441.48, -92931.78, -84313.64, -133680.45, -125105.88, 0.000, 0.000, 0.000, 12:26:38.988
42, -63096.58, -72057.91, -105031.23, -140590.02, -93081.84, -84062.74, -133846.28, -125115.09, 0.000, 0.000, 0.000, 12:26:38.988
43, -63190.91, -72158.29, -105150.91, -140701.25, -93201.20, -83738.21, -133944.75, -125242.95, 0.000, 0.000, 0.000, 12:26:38.989
44, -63045.15, -71995.26, -105131.34, -140574.97, -93071.48, -83935.55, -133796.27, -125241.54, 0.000, 0.000, 0.000, 12:26:38.989
45, -62918.13, -71870.35, -105015.51, -140449.33, -92943.49, -84276.96, -133678.83, -125113.98, 0.200, 0.384, 0.878, 12:26:38.990
46, -63067.37, -72033.81, -105022.20, -140570.97, -93067.01, -84093.20, -133820.67, -125100.20, 0.000, 0.000, 0.000, 12:26:38.990
47, -63223.96, -72185.27, -105156.33, -140724.72, -93228.32, -83699.37, -133971.53, -125244.09, 0.000, 0.000, 0.000, 12:26:38.991
48, -63092.20, -72048.07, -105160.84, -140622.98, -93127.13, -83799.33, -133855.67, -125270.57, 0.000, 0.000, 0.000, 12:26:38.991
49, -62923.27, -71880.91, -105046.04, -140463.88, -92959.72, -84177.65, -133700.39, -125150.30, 0.000, 0.000, 0.000, 12:26:38.992
50, -63026.73, -71989.71, -105010.75, -140534.84, -93020.29, -84112.16, -133776.66, -125080.34, 0.000, 0.000, 0.000, 12:26:38.992
51, -63202.50, -72177.34, -105139.98, -140716.34, -93216.85, -83681.60, -133963.66, -125213.73, 0.000, 0.000, 0.000, 12:26:38.993
52, -63139.03, -72098.99, -105188.02, -140668.94, -93168.98, -83668.81, -133899.08, -125288.84, 0.000, 0.000, 0.000, 12:26:38.993
53, -62965.09, -71920.36, -105078.72, -140496.80, -92984.98, -84050.42, -133725.28, -125183.13, 0.000, 0.000, 0.000, 12:26:38.993
54, -63033.71, -71991.34, -105029.19, -140539.69, -93033.59, -84072.28, -133787.95, -125104.97, 0.204, 0.380, 0.878, 12:26:38.994
55, -63238.56, -72192.96, -105144.03, -140730.63, -93231.85, -83637.97, -133974.05, -125214.18, 0.000, 0.000, 0.000, 12:26:38.994
56, -63198.26, -72148.63, -105210.02, -140715.31, -93216.54, -83528.49, -133945.59, -125299.16, 0.000, 0.000, 0.000, 12:26:38.995
57, -62998.52, -71952.63, -105118.13, -140534.27, -93031.82, -83902.50, -133756.23, -125210.71, 0.000, 0.000, 0.000, 12:26:38.995
58, -62986.70, -71947.18, -105026.46, -140507.67, -93002.81, -84053.02, -133750.80, -125098.62, 0.000, 0.000, 0.000, 12:26:38.996
59, -63179.57, -72131.70, -105095.41, -140676.88, -93177.73, -83651.06, -133935.72, -125175.71, 0.000, 0.000, 0.000, 12:26:38.996
60, -63208.18, -72163.74, -105187.17, -140724.83, -93229.81, -83426.92, -133978.55, -125301.10, 0.000, 0.000, 0.000, 12:26:38.997
61, -63025.14, -71979.30, -105133.46, -140566.86, -93070.11, -83747.63, -133802.36, -125255.41, 0.000, 0.000, 0.000, 12:26:38.997
62, -62969.24, -71912.35, -105020.61, -140486.88, -92979.34, -83992.06, -133727.36, -125112.23, 0.000, 0.000, 0.000, 12:26:38.997
63, -63148.55, -72096.17, -105062.13, -140642.72, -93140.45, -83648.47, -133905.09, -125139.03, 0.000, 0.000, 0.000, 12:26:39.004
64, -63219.45, -72162.60, -105174.63, -140724.52, -93234.06, -83361.72, -133976.39, -125265.19, 0.206, 0.382, 0.874, 12:26:39.005
65, -63052.05, -72007.13, -105150.63, -140589.61, -93094.16, -83615.66, -133825.50, -125259.38, 0.000, 0.000, 0.000, 12:26:39.005
66, -62941.26, -71895.88, -105030.64, -140475.86, -92977.24, -83918.34, -133734.38, -125132.75, 0.000, 0.000, 0.000, 12:26:39.005
67, -63112.54, -72063.30, -105041.64, -140607.80, -93118.30, -83669.41, -133882.27, -125114.94, 0.000, 0.000, 0.000, 12:26:39.006
68, -63258.50, -72214.53, -105181.31, -140755.53, -93258.83, -83314.09, -133992.27, -125250.59, 0.000, 0.000, 0.000, 12:26:39.006
69, -63132.63, -72083.45, -105191.20, -140660.06, -93150.69, -83473.75, -133882.05, -125288.66, 0.000, 0.000, 0.000, 12:26:39.006
70, -62996.82, -71942.71, -105076.69, -140524.16, -93008.13, -83812.42, -133756.59, -125172.52, 0.000, 0.000, 0.000, 12:26:39.007
71, -63099.96, -72055.36, -105052.62, -140605.91, -93100.29, -83661.37, -133864.97, -125132.64, 0.000, 0.000, 0.000, 12:26:39.007
72, -63252.64, -72207.64, -105173.83, -140753.75, -93266.72, -83265.54, -134017.64, -125251.08, 0.000, 0.000, 0.000, 12:26:39.007
73, -63168.80, -72117.97, -105213.37, -140694.70, -93206.10, -83324.38, -133945.14, -125312.95, 0.212, 0.394, 0.878, 12:26:39.008
74, -62972.55, -71925.88, -105087.75, -140514.44, -93015.58, -83712.60, -133759.47, -125184.45, 0.000, 0.000, 0.000, 12:26:39.008
75, -63046.87, -72002.48, -105034.27, -140558.03, -93068.01, -83688.48, -133836.70, -125105.19, 0.000, 0.000, 0.000, 12:26:39.009
76, -63239.83, -72196.53, -105153.80, -140740.77, -93249.77, -83274.26, -133998.72, -125219.25, 0.000, 0.000, 0.000, 12:26:39.009
77, -63185.86, -72144.74, -105216.19, -140709.30, -93211.27, -83256.00, -133935.09, -125305.77, 0.000, 0.000, 0.000, 12:26:39.009
78, -62982.32, -71941.52, -105104.36, -140516.36, -93016.27, -83667.43, -133758.17, -125201.98, 0.000, 0.000, 0.000, 12:26:39.010
79, -63019.22, -71976.21, -105026.46, -140520.83, -93019.87, -83750.22, -133773.02, -125094.57, 0.000, 0.000, 0.000, 12:26:39.010
80, -63216.92, -72166.20, -105118.59, -140699.11, -93204.49, -83364.78, -133957.48, -125184.85, 0.000, 0.000, 0.000, 12:26:39.011
81, -63207.91, -72148.81, -105204.20, -140719.81, -93220.90, -83258.41, -133966.09, -125297.64, 0.000, 0.000, 0.000, 12:26:39.011
82, -62972.89, -71917.09, -105097.77, -140516.45, -93005.12, -83640.43, -133750.44, -125195.24, 0.000, 0.000, 0.000, 12:26:39.011
83, -62980.78, -71938.15, -105017.52, -140501.08, -92994.12, -83829.12, -133763.39, -125089.48, 0.220, 0.420, 0.890, 12:26:39.012
84, -63188.40, -72135.83, -105094.05, -140674.08, -93160.21, -83476.37, -133914.91, -125150.14, 0.000, 0.000, 0.000, 12:26:39.012
85, -63199.38, -72142.47, -105165.45, -140701.19, -93190.09, -83286.60, -133933.53, -125246.97, 0.000, 0.000, 0.000, 12:26:39.012
86, -63027.29, -71971.30, -105113.79, -140554.56, -93037.66, -83603.86, -133772.08, -125200.01, 0.000, 0.000, 0.000, 12:26:39.013
87, -62957.31, -71907.44, -105005.83, -140474.72, -92953.99, -83856.05, -133707.81, -125077.54, 0.000, 0.000, 0.000, 12:26:39.013
88, -63143.48, -72091.68, -105049.71, -140634.73, -93123.04, -83545.90, -133888.89, -125108.68, 0.000, 0.000, 0.000, 12:26:39.013
89, -63226.91, -72168.77, -105171.37, -140731.41, -93230.35, -83242.68, -133978.72, -125245.78, 0.000, 0.000, 0.000, 12:26:39.013
90, -63081.32, -72015.28, -105158.23, -140612.39, -93100.65, -83482.89, -133835.47, -125245.63, 0.000, 0.000, 0.000, 12:26:39.014
91, -62958.38, -71891.12, -105036.43, -140488.28, -92967.30, -83808.60, -133718.91, -125111.78, 0.000, 0.000, 0.000, 12:26:39.014
92, -63104.92, -72043.58, -105035.56, -140604.67, -93087.39, -83586.60, -133856.39, -125091.06, 0.000, 0.000, 0.000, 12:26:39.014
93, -63237.48, -72175.68, -105165.42, -140740.53, -93242.13, -83221.06, -133993.16, -125232.93, 0.222, 0.426, 0.894, 12:26:39.015
94, -63119.63, -72049.66, -105183.23, -140646.98, -93147.52, -83358.98, -133880.94, -125265.07, 0.000, 0.000, 0.000, 12:26:39.015
95, -62943.72, -71870.22, -105050.76, -140480.16, -92965.82, -83721.49, -133717.05, -125121.41, 0.000, 0.000, 0.000, 12:26:39.015
96, -63065.60, -71996.28, -105021.21, -140569.20, -93059.27, -83577.57, -133826.97, -125073.38, 0.000, 0.000, 0.000, 12:26:39.016
97, -63247.70, -72176.38, -105154.88, -140735.83, -93245.87, -83154.34, -133995.23, -125212.52, 0.000, 0.000, 0.000, 12:26:39.016
98, -63152.50, -72065.17, -105189.18, -140664.34, -93173.40, -83193.88, -133903.73, -125263.91, 0.000, 0.000, 0.000, 12:26:39.017
99, -62980.53, -71882.25, -105059.88, -140480.31, -92974.31, -83580.61, -133712.69, -125134.34, 0.000, 0.000, 0.000, 12:26:39.017
100, -63068.93, -71978.52, -105008.70, -140539.14, -93028.38, -83546.80, -133792.39, -125064.51, 0.000, 0.000, 0.000, 12:26:39.017
101, -63249.64, -72160.44, -105123.18, -140716.55, -93222.33, -83114.47, -133974.66, -125180.94, 0.000, 0.000, 0.000, 12:26:39.017
102, -63195.62, -72108.55, -105186.21, -140692.48, -93200.58, -83057.31, -133933.70, -125258.14, 0.214, 0.410, 0.874, 12:26:39.018
103, -62995.86, -71906.81, -105088.09, -140516.97, -93011.93, -83426.23, -133748.97, -125157.78, 0.000, 0.000, 0.000, 12:26:39.018
104, -63034.55, -71938.44, -105020.77, -140531.20, -93022.99, -83491.07, -133778.30, -125068.20, 0.000, 0.000, 0.000, 12:26:39.018
105, -63226.89, -72138.66, -105111.00, -140706.59, -93213.59, -83071.87, -133966.66, -125157.23, 0.000, 0.000, 0.000, 12:26:39.018
106, -63237.84, -72130.69, -105206.22, -140737.52, -93246.69, -82902.08, -133979.64, -125273.90, 0.000, 0.000, 0.000, 12:26:39.019
107, -63046.18, -71947.13, -105138.40, -140571.03, -93070.52, -83226.83, -133797.58, -125209.33, 0.000, 0.000, 0.000, 12:26:39.019
108, -63030.22, -71944.56, -105043.61, -140536.31, -93036.27, -83377.79, -133778.78, -125092.96, 0.000, 0.000, 0.000, 12:26:39.019
109, -63232.75, -72145.53, -105113.01, -140712.20, -93222.15, -82969.85, -133970.92, -125156.40, 0.000, 0.000, 0.000, 12:26:39.020
110, -63273.61, -72176.71, -105207.49, -140764.70, -93280.13, -82699.77, -134008.78, -125278.62, 0.000, 0.000, 0.000, 12:26:39.020
111, -63087.37, -71992.66, -105157.22, -140612.56, -93122.26, -82966.68, -133841.55, -125242.77, 0.000, 0.000, 0.000, 12:26:39.020
112, -62992.55, -71884.19, -105033.66, -140506.39, -93007.23, -83224.30, -133747.38, -125102.40, 0.218, 0.406, 0.882, 12:26:39.020
113, -63166.25, -72065.13, -105061.11, -140649.22, -93163.12, -82924.97, -133913.59, -125115.31, 0.000, 0.000, 0.000, 12:26:39.021
114, -63256.35, -72169.51, -105185.30, -140751.80, -93280.27, -82605.45, -134007.22, -125251.10, 0.000, 0.000, 0.000, 12:26:39.023
115, -63084.36, -71992.75, -105157.49, -140609.92, -93135.54, -82828.41, -133853.66, -125235.92, 0.000, 0.000, 0.000, 12:26:39.023
116, -62943.20, -71852.02, -105018.93, -140464.92, -92987.01, -83169.81, -133719.17, -125087.91, 0.000, 0.000, 0.000, 12:26:39.024
117, -63120.36, -72036.56, -105038.53, -140614.38, -93144.70, -82944.41, -133888.75, -125084.76, 0.000, 0.000, 0.000, 12:26:39.024
118, -63254.41, -72167.12, -105171.34, -140754.67, -93293.77, -82556.21, -134019.41, -125229.98, 0.000, 0.000, 0.000, 12:26:39.024
119, -63116.63, -72011.15, -105161.22, -140633.81, -93167.61, -82680.51, -133879.44, -125241.89, 0.000, 0.000, 0.000, 12:26:39.024
120, -62938.38, -71831.28, -105023.06, -140461.31, -92985.78, -83057.36, -133702.56, -125094.69, 0.000, 0.000, 0.000, 12:26:39.447
121, -63044.41, -71952.03, -104990.37, -140541.30, -93072.66, -82960.44, -133804.22, -125042.07, 0.212, 0.398, 0.884, 12:26:39.448
122, -63218.69, -72130.48, -105113.52, -140712.98, -93255.79, -82545.15, -133980.39, -125175.77, 0.000, 0.000, 0.000, 12:26:39.448
123, -63149.96, -72054.04, -105161.96, -140668.95, -93204.07, -82563.34, -133914.22, -125249.18, 0.000, 0.000, 0.000, 12:26:39.449
124, -62956.64, -71860.38, -105047.27, -140490.75, -93012.98, -82948.70, -133726.45, -125138.47, 0.000, 0.000, 0.000, 12:26:39.449
125, -63002.39, -71915.53, -104973.49, -140510.97, -93034.59, -82956.66, -133762.38, -125039.16, 0.000, 0.000, 0.000, 12:26:39.449
126, -63222.38, -72136.81, -105097.09, -140714.44, -93252.84, -82527.98, -133975.50, -125160.42, 0.000, 0.000, 0.000, 12:26:39.450
127, -63179.15, -72083.86, -105166.02, -140694.86, -93239.72, -82447.67, -133941.80, -125258.86, 0.000, 0.000, 0.000, 12:26:39.450
128, -62963.66, -71867.59, -105053.04, -140498.39, -93033.68, -82831.02, -133735.20, -125161.18, 0.000, 0.000, 0.000, 12:26:39.450
129, -62999.48, -71906.74, -104979.26, -140503.53, -93036.59, -82942.72, -133747.38, -125047.43, 0.000, 0.000, 0.000, 12:26:39.451
130, -63212.36, -72123.47, -105075.77, -140695.16, -93242.06, -82530.38, -133952.02, -125117.04, 0.000, 0.000, 0.000, 12:26:39.451
131, -63215.36, -72127.55, -105174.70, -140726.63, -93279.30, -82351.29, -133973.41, -125250.90, 0.210, 0.384, 0.882, 12:26:39.451
132, -63008.71, -71922.50, -105094.45, -140545.11, -93090.25, -82702.32, -133788.06, -125173.05, 0.000, 0.000, 0.000, 12:26:39.451
133, -63001.83, -71918.57, -105010.10, -140519.47, -93054.13, -82886.66, -133771.30, -125073.59, 0.000, 0.000, 0.000, 12:26:39.452
134, -63203.33, -72120.38, -105087.70, -140696.53, -93245.95, -82506.23, -133948.05, -125131.38, 0.000, 0.000, 0.000, 12:26:39.452
135, -63257.13, -72174.72, -105194.39, -140767.53, -93322.30, -82231.66, -134015.83, -125246.68, 0.000, 0.000, 0.000, 12:26:39.452
136, -63071.34, -71981.76, -105144.66, -140607.59, -93148.92, -82494.67, -133838.38, -125225.09, 0.000, 0.000, 0.000, 12:26:39.452
137, -62973.40, -71875.09, -105010.80, -140486.23, -93031.35, -82772.77, -133737.72, -125073.52, 0.000, 0.000, 0.000, 12:26:39.452
138, -63150.31, -72053.02, -105039.47, -140634.73, -93197.74, -82482.92, -133911.47, -125091.91, 0.000, 0.000, 0.000, 12:26:39.452
139, -63235.41, -72138.46, -105142.29, -140724.72, -93280.64, -82150.73, -133978.50, -125209.93, 0.000, 0.000, 0.000, 12:26:39.452
140, -63098.17, -71993.31, -105130.82, -140611.91, -93159.74, -82338.93, -133845.02, -125215.98, 0.224, 0.396, 0.882, 12:26:39.453
141, -62974.29, -71869.57, -105016.74, -140488.73, -93030.05, -82669.69, -133724.17, -125091.29, 0.000, 0.000, 0.000, 12:26:39.453
142, -63115.67, -72013.79, -105012.16, -140595.63, -93143.94, -82472.73, -133862.20, -125065.29, 0.000, 0.000, 0.000, 12:26:39.453
143, -63258.74, -72155.20, -105129.95, -140733.17, -93298.19, -82087.16, -134002.09, -125194.98, 0.000, 0.000, 0.000, 12:26:39.453
144, -63125.75, -72018.26, -105135.47, -140627.83, -93187.68, -82216.20, -133879.33, -125229.69, 0.000, 0.000, 0.000, 12:26:39.454
145, -62980.11, -71872.79, -105025.93, -140484.20, -93040.79, -82607.89, -133741.59, -125107.67, 0.000, 0.000, 0.000, 12:26:39.455
146, -63089.72, -71984.28, -104998.61, -140556.38, -93112.94, -82540.25, -133817.08, -125050.90, 0.000, 0.000, 0.000, 12:26:39.455
147, -63259.70, -72161.22, -105112.45, -140717.50, -93284.45, -82142.23, -133980.86, -125167.62, 0.000, 0.000, 0.000, 12:26:39.455
148, -63194.32, -72090.41, -105160.22, -140673.31, -93229.55, -82162.95, -133910.13, -125236.93, 0.000, 0.000, 0.000, 12:26:39.455
149, -63018.59, -71914.70, -105055.97, -140507.05, -93047.13, -82560.77, -133735.20, -125126.20, 0.000, 0.000, 0.000, 12:26:39.455
150, -63093.41, -71984.10, -104999.26, -140539.78, -93079.63, -82594.81, -133786.39, -125043.90, 0.234, 0.406, 0.884, 12:26:39.455
151, -63306.98, -72191.30, -105104.74, -140719.81, -93268.88, -82189.58, -133974.08, -125147.34, 0.000, 0.000, 0.000, 12:26:39.455
152, -63271.46, -72152.08, -105173.56, -140704.55, -93256.98, -82111.63, -133945.39, -125240.06, 0.000, 0.000, 0.000, 12:26:39.456
153, -63096.85, -71974.00, -105084.47, -140531.14, -93075.74, -82498.05, -133761.58, -125152.38, 0.000, 0.000, 0.000, 12:26:39.456
154, -63109.97, -71988.69, -104997.80, -140508.41, -93056.77, -82640.12, -133756.14, -125042.63, 0.000, 0.000, 0.000, 12:26:39.456
155, -63320.86, -72195.87, -105083.02, -140687.81, -93252.28, -82265.48, -133951.08, -125115.59, 0.000, 0.000, 0.000, 12:26:39.457
156, -63348.29, -72216.67, -105186.32, -140727.50, -93301.74, -82091.95, -133978.67, -125241.11, 0.000, 0.000, 0.000, 12:26:39.457
157, -63136.55, -72013.27, -105101.27, -140539.31, -93109.88, -82448.48, -133777.36, -125170.01, 0.000, 0.000, 0.000, 12:26:39.457
158, -63126.89, -72004.33, -105010.44, -140501.86, -93067.01, -82677.89, -133751.06, -125059.52, 0.000, 0.000, 0.000, 12:26:39.457
159, -63327.00, -72202.55, -105075.46, -140672.84, -93250.05, -82347.65, -133936.47, -125115.83, 0.000, 0.000, 0.000, 12:26:39.458
160, -63384.20, -72254.29, -105172.27, -140737.06, -93315.18, -82094.71, -133988.48, -125232.69, 0.250, 0.400, 0.888, 12:26:39.458
161, -63202.37, -72069.94, -105128.50, -140587.28, -93151.54, -82375.49, -133822.48, -125204.84, 0.000, 0.000, 0.000, 12:26:39.458
162, -63093.25, -71954.48, -105003.30, -140474.09, -93027.09, -82696.49, -133715.42, -125060.89, 0.000, 0.000, 0.000, 12:26:39.458
163, -63245.60, -72113.77, -105012.70, -140599.67, -93162.31, -82460.77, -133857.16, -125052.89, 0.000, 0.000, 0.000, 12:26:39.459
164, -63348.24, -72231.00, -105129.44, -140717.38, -93293.97, -82134.05, -133973.48, -125187.73, 0.000, 0.000, 0.000, 12:26:39.459
165, -63183.15, -72065.27, -105117.03, -140589.27, -93159.63, -82335.15, -133826.30, -125194.71, 0.000, 0.000, 0.000, 12:26:39.459
166, -63022.35, -71914.32, -104982.48, -140444.70, -93003.35, -82705.32, -133685.67, -125052.93, 0.000, 0.000, 0.000, 12:26:39.460
167, -63147.45, -72048.70, -104976.40, -140551.31, -93119.76, -82557.84, -133813.42, -125025.22, 0.000, 0.000, 0.000, 12:26:39.460
168, -63286.19, -72174.92, -105090.12, -140686.95, -93269.05, -82192.15, -133948.02, -125148.42, 0.000, 0.000, 0.000, 12:26:39.461
169, -63171.95, -72045.73, -105099.58, -140597.81, -93175.23, -82301.27, -133838.59, -125184.49, 0.262, 0.404, 0.884, 12:26:39.461
170, -62976.98, -71851.00, -104962.89, -140414.59, -92981.87, -82717.50, -133654.05, -125046.65, 0.000, 0.000, 0.000, 12:26:39.461
171, -63086.50, -71965.82, -104938.98, -140503.94, -93072.55, -82666.16, -133764.45, -124994.51, 0.000, 0.000, 0.000, 12:26:39.461
172, -63249.94, -72136.50, -105063.43, -140674.25, -93259.59, -82258.59, -133938.22, -125120.77, 0.000, 0.000, 0.000, 12:26:39.462
173, -63176.24, -72061.06, -105113.34, -140630.13, -93218.66, -82256.77, -133877.53, -125189.30, 0.000, 0.000, 0.000, 12:26:39.462
174, -62965.40, -71848.48, -104994.52, -140440.03, -93017.16, -82658.83, -133679.91, -125071.75, 0.000, 0.000, 0.000, 12:26:39.462
175, -63012.43, -71899.91, -104925.12, -140466.67, -93040.23, -82710.39, -133725.61, -124979.95, 0.000, 0.000, 0.000, 12:26:39.462
176, -63219.56, -72108.83, -105041.88, -140659.14, -93248.52, -82285.51, -133928.14, -125091.51, 0.000, 0.000, 0.000, 12:26:39.463
177, -63195.66, -72081.24, -105117.61, -140658.52, -93248.77, -82174.95, -133912.47, -125187.58, 0.000, 0.000, 0.000, 12:26:39.463
178, -63015.20, -71897.76, -105042.35, -140496.88, -93076.82, -82536.41, -133738.02, -125117.10, 0.000, 0.000, 0.000, 12:26:39.463
179, -62983.04, -71870.34, -104940.68, -140446.94, -93021.16, -82697.85, -133701.42, -124986.26, 0.250, 0.388, 0.884, 12:26:39.463
180, -63170.86, -72062.40, -105002.70, -140611.83, -93201.61, -82325.98, -133883.19, -125039.74, 0.000, 0.000, 0.000, 12:26:39.464
181, -63222.04, -72110.81, -105116.95, -140683.28, -93284.64, -82110.13, -133945.33, -125180.70, 0.000, 0.000, 0.000, 12:26:39.464
182, -63054.11, -71937.21, -105073.11, -140540.09, -93136.77, -82415.04, -133789.80, -125157.23, 0.000, 0.000, 0.000, 12:26:39.464
183, -62962.05, -71848.25, -104949.20, -140435.88, -93026.41, -82667.41, -133697.27, -125012.97, 0.000, 0.000, 0.000, 12:26:39.464
184, -63130.38, -72021.03, -104973.06, -140577.47, -93170.13, -82358.17, -133857.98, -125012.72, 0.000, 0.000, 0.000, 12:26:39.465
185, -63207.40, -72094.32, -105089.54, -140667.48, -93275.52, -82073.95, -133942.58, -125148.44, 0.000, 0.000, 0.000, 12:26:39.465
186, -63056.30, -71943.09, -105071.01, -140543.25, -93140.07, -82319.52, -133798.92, -125145.73, 0.000, 0.000, 0.000, 12:26:39.465
187, -62949.13, -71835.58, -104954.63, -140425.59, -93017.72, -82631.18, -133679.44, -125000.70, 0.000, 0.000, 0.000, 12:26:39.465
188, -63116.32, -72007.86, -104974.85, -140566.52, -93166.80, -82391.92, -133841.55, -125000.05, 0.238, 0.370, 0.886, 12:26:39.465
189, -63219.76, -72113.74, -105092.42, -140685.11, -93287.70, -82039.88, -133949.58, -125143.37, 0.000, 0.000, 0.000, 12:26:39.466
190, -63086.54, -71972.66, -105080.80, -140574.34, -93173.00, -82202.65, -133822.11, -125148.35, 0.000, 0.000, 0.000, 12:26:39.466
191, -62967.23, -71855.24, -104983.13, -140459.39, -93053.70, -82547.00, -133712.05, -125039.01, 0.000, 0.000, 0.000, 12:26:39.466
192, -63066.70, -71949.99, -104951.43, -140527.95, -93132.48, -82407.98, -133802.83, -124990.28, 0.000, 0.000, 0.000, 12:26:39.466
193, -63224.05, -72102.91, -105064.21, -140680.17, -93299.64, -82010.96, -133959.16, -125116.66, 0.000, 0.000, 0.000, 12:26:39.466
194, -63104.88, -71985.71, -105084.31, -140594.03, -93207.02, -82080.48, -133857.69, -125166.03, 0.000, 0.000, 0.000, 12:26:39.467
195, -62940.92, -71825.92, -104971.57, -140434.42, -93039.70, -82465.10, -133702.16, -125047.75, 0.000, 0.000, 0.000, 12:26:39.467
196, -63021.43, -71912.40, -104927.55, -140486.16, -93097.60, -82430.13, -133761.58, -124969.59, 0.000, 0.000, 0.000, 12:26:39.467
197, -63203.27, -72090.25, -105034.46, -140658.73, -93279.05, -82010.78, -133933.08, -125077.83, 0.000, 0.000, 0.000, 12:26:39.467
198, -63147.63, -72036.09, -105096.18, -140633.70, -93248.37, -81967.82, -133898.92, -125166.61, 0.224, 0.362, 0.892, 12:26:39.468
199, -62957.17, -71848.80, -105001.45, -140465.22, -93074.56, -82345.84, -133727.22, -125075.33, 0.000, 0.000, 0.000, 12:26:39.468
200, -62988.04, -71878.18, -104924.18, -140464.27, -93082.07, -82419.95, -133746.11, -124983.93, 0.000, 0.000, 0.000, 12:26:39.468
201, -63183.98, -72077.20, -105013.41, -140644.13, -93277.23, -82015.77, -133938.02, -125072.20, 0.000, 0.000, 0.000, 12:26:39.468
202, -63180.29, -72058.02, -105099.44, -140658.73, -93302.95, -81883.45, -133943.83, -125187.40, 0.000, 0.000, 0.000, 12:26:39.468
203, -62999.89, -71856.56, -105012.09, -140481.98, -93119.38, -82245.77, -133759.25, -125108.55, 0.000, 0.000, 0.000, 12:26:39.468
204, -62998.61, -71867.00, -104934.48, -140463.50, -93082.92, -82414.27, -133749.34, -125008.56, 0.000, 0.000, 0.000, 12:26:39.469
205, -63171.14, -72050.13, -104997.41, -140621.09, -93250.36, -82053.41, -133909.13, -125050.80, 0.000, 0.000, 0.000, 12:26:39.469
206, -63203.09, -72076.62, -105093.67, -140676.33, -93309.86, -81836.62, -133949.94, -125172.85, 0.000, 0.000, 0.000, 12:26:39.469
207, -63010.75, -71881.71, -105029.41, -140514.23, -93140.86, -82149.23, -133776.13, -125127.14, 0.000, 0.000, 0.000, 12:26:39.469
208, -62934.15, -71806.18, -104910.45, -140425.41, -93047.98, -82422.70, -133695.09, -124988.24, 0.218, 0.362, 0.898, 12:26:39.469
209, -63124.95, -71997.47, -104958.24, -140585.09, -93221.44, -82127.01, -133872.23, -125017.44, 0.000, 0.000, 0.000, 12:26:39.469
210, -63208.90, -72085.40, -105080.53, -140677.31, -93321.81, -81831.08, -133966.38, -125152.02, 0.000, 0.000, 0.000, 12:26:39.470
211, -63048.68, -71927.58, -105062.38, -140549.42, -93189.16, -82067.04, -133819.63, -125146.83, 0.000, 0.000, 0.000, 12:26:39.470
212, -62926.15, -71810.23, -104939.16, -140424.63, -93054.55, -82404.22, -133699.55, -125012.25, 0.000, 0.000, 0.000, 12:26:39.470
213, -63084.93, -71960.21, -104937.57, -140541.64, -93173.83, -82194.36, -133837.17, -124989.68, 0.000, 0.000, 0.000, 12:26:39.470
214, -63217.13, -72092.04, -105063.73, -140680.67, -93316.81, -81825.95, -133962.84, -125124.70, 0.000, 0.000, 0.000, 12:26:39.470
215, -63085.43, -71957.26, -105074.56, -140584.91, -93214.75, -81964.78, -133841.53, -125154.07, 0.000, 0.000, 0.000, 12:26:39.470
216, -62897.63, -71771.49, -104931.20, -140405.03, -93024.54, -82359.27, -133658.78, -125000.98, 0.000, 0.000, 0.000, 12:26:39.470
217, -63024.25, -71900.89, -104908.11, -140500.48, -93124.65, -82252.77, -133780.55, -124961.11, 0.220, 0.368, 0.898, 12:26:39.471
218, -63199.76, -72073.17, -105037.17, -140669.80, -93310.46, -81852.51, -133952.25, -125098.59, 0.000, 0.000, 0.000, 12:26:39.471
219, -63102.79, -71972.86, -105073.98, -140601.78, -93239.85, -81908.73, -133867.78, -125156.31, 0.000, 0.000, 0.000, 12:26:39.471
220, -62905.88, -71777.35, -104949.98, -140415.55, -93041.68, -82318.79, -133682.84, -125033.04, 0.000, 0.000, 0.000, 12:26:39.471
221, -62972.91, -71853.03, -104891.39, -140456.06, -93084.89, -82323.13, -133744.81, -124949.48, 0.000, 0.000, 0.000, 12:26:39.471
222, -63159.59, -72041.99, -105006.28, -140635.70, -93275.93, -81910.73, -133926.48, -125061.49, 0.000, 0.000, 0.000, 12:26:39.471
223, -63107.22, -71987.10, -105062.65, -140606.97, -93249.51, -81864.27, -133882.55, -125135.56, 0.000, 0.000, 0.000, 12:26:39.472
224, -62932.34, -71817.02, -104980.69, -140453.38, -93082.43, -82237.81, -133717.77, -125057.73, 0.000, 0.000, 0.000, 12:26:39.472
225, -62908.91, -71803.50, -104884.48, -140420.97, -93047.65, -82351.63, -133698.27, -124941.35, 0.000, 0.000, 0.000, 12:26:39.472
226, -63109.46, -71988.24, -104954.47, -140581.61, -93222.10, -81971.73, -133872.64, -125003.67, 0.000, 0.000, 0.000, 12:26:39.472
227, -63132.43, -72001.76, -105044.81, -140608.36, -93255.09, -81831.08, -133883.86, -125111.41, 0.218, 0.364, 0.900, 12:26:39.472
228, -62941.32, -71811.62, -104970.18, -140434.78, -93073.15, -82195.88, -133694.19, -125045.11, 0.000, 0.000, 0.000, 12:26:39.473
229, -62914.26, -71786.52, -104877.45, -140392.89, -93020.49, -82402.81, -133666.52, -124933.10, 0.000, 0.000, 0.000, 12:26:39.473
230, -63117.90, -71994.66, -104947.72, -140570.47, -93205.01, -82052.63, -133859.70, -124996.52, 0.000, 0.000, 0.000, 12:26:39.473
231, -63180.11, -72058.58, -105060.48, -140647.20, -93290.21, -81809.41, -133925.70, -125131.14, 0.000, 0.000, 0.000, 12:26:39.474
232, -63006.77, -71876.88, -105016.47, -140495.39, -93127.55, -82097.89, -133754.48, -125098.57, 0.000, 0.000, 0.000, 12:26:39.474
233, -62914.05, -71782.38, -104894.05, -140389.05, -93012.55, -82386.91, -133658.78, -124959.21, 0.000, 0.000, 0.000, 12:26:39.474
234, -63079.48, -71955.56, -104922.52, -140533.03, -93168.08, -82115.12, -133826.23, -124974.70, 0.000, 0.000, 0.000, 12:26:39.474
235, -63181.85, -72054.42, -105048.32, -140647.19, -93292.80, -81802.06, -133932.41, -125113.51, 0.000, 0.000, 0.000, 12:26:39.474
236, -63008.98, -71876.30, -105020.47, -140504.42, -93140.21, -82030.77, -133766.95, -125104.48, 0.216, 0.356, 0.902, 12:26:39.474
237, -62904.58, -71769.80, -104902.14, -140389.56, -93019.15, -82379.27, -133658.20, -124973.98, 0.000, 0.000, 0.000, 12:26:39.475
238, -63065.27, -71938.23, -104921.07, -140521.80, -93160.05, -82183.72, -133801.19, -124969.98, 0.000, 0.000, 0.000, 12:26:39.475
239, -63193.12, -72061.89, -105045.23, -140651.39, -93303.60, -81816.63, -133924.47, -125099.49, 0.000, 0.000, 0.000, 12:26:39.475
240, -63068.84, -71933.30, -105049.93, -140552.53, -93203.91, -81942.43, -133810.19, -125124.19, 0.000, 0.000, 0.000, 12:26:39.928
241, -62923.00, -71787.63, -104937.66, -140408.77, -93044.27, -82318.63, -133671.11, -125003.67, 0.000, 0.000, 0.000, 12:26:39.928
242, -63025.97, -71896.84, -104913.59, -140488.33, -93130.55, -82230.91, -133777.56, -124958.14, 0.000, 0.000, 0.000, 12:26:39.929
243, -63194.73, -72061.93, -105027.67, -140648.66, -93304.49, -81827.05, -133941.08, -125081.95, 0.000, 0.000, 0.000, 12:26:39.929
244, -63109.61, -71971.72, -105069.83, -140592.72, -93248.91, -81853.29, -133869.75, -125152.20, 0.000, 0.000, 0.000, 12:26:39.929
245, -62900.00, -71770.06, -104947.29, -140407.69, -93051.05, -82258.35, -133677.70, -125025.95, 0.000, 0.000, 0.000, 12:26:39.929
246, -62957.06, -71828.36, -104881.34, -140434.34, -93078.07, -82284.26, -133723.16, -124938.13, 0.222, 0.338, 0.900, 12:26:39.929
247, -63162.14, -72024.96, -104988.13, -140616.92, -93265.18, -81876.38, -133911.98, -125046.70, 0.000, 0.000, 0.000, 12:26:39.930
248, -63125.17, -71969.28, -105048.32, -140594.55, -93241.73, -81812.14, -133870.30, -125132.70, 0.000, 0.000, 0.000, 12:26:39.930
249, -62926.51, -71764.05, -104946.11, -140412.67, -93049.17, -82204.35, -133675.91, -125033.30, 0.000, 0.000, 0.000, 12:26:39.930
250, -62940.99, -71784.88, -104867.27, -140408.09, -93036.25, -82330.55, -133688.11, -124929.66, 0.000, 0.000, 0.000, 12:26:39.930
251, -63134.42, -71980.15, -104950.06, -140580.38, -93220.56, -81946.66, -133871.95, -125004.09, 0.000, 0.000, 0.000, 12:26:39.930
252, -63161.76, -72007.84, -105054.05, -140629.33, -93278.01, -81766.16, -133910.13, -125130.23, 0.000, 0.000, 0.000, 12:26:39.931
253, -62963.32, -71805.73, -104980.20, -140456.33, -93097.18, -82102.47, -133722.03, -125075.69, 0.000, 0.000, 0.000, 12:26:39.931
254, -62921.77, -71762.42, -104872.33, -140393.50, -93032.41, -82320.42, -133667.31, -124946.27, 0.000, 0.000, 0.000, 12:26:39.931
255, -63108.38, -71955.88, -104923.04, -140551.34, -93201.20, -81983.27, -133840.59, -124971.48, 0.222, 0.338, 0.902, 12:26:39.931
0, -63149.84, -71993.65, -105022.64, -140608.20, -93264.46, -81734.52, -133888.67, -125091.91, 0.000, 0.000, 0.000, 12:26:39.932
1, -62957.62, -71792.99, -104964.17, -140442.91, -93087.73, -82025.80, -133706.23, -125046.80, 0.000, 0.000, 0.000, 12:26:39.932
2, -62877.00, -71715.03, -104855.13, -140353.45, -92989.11, -82324.89, -133621.89, -124918.48, 0.000, 0.000, 0.000, 12:26:39.932
3, -63092.63, -71935.45, -104914.30, -140538.64, -93183.66, -82048.42, -133823.52, -124954.95, 0.000, 0.000, 0.000, 12:26:39.933
4, -63206.30, -72042.33, -105054.67, -140663.64, -93318.73, -81701.30, -133935.50, -125110.17, 0.000, 0.000, 0.000, 12:26:39.933
5, -63037.55, -71869.02, -105033.48, -140524.36, -93174.16, -81897.77, -133778.14, -125105.28, 0.000, 0.000, 0.000, 12:26:39.933
6, -62901.32, -71729.25, -104906.48, -140386.83, -93029.92, -82250.93, -133644.94, -124962.48, 0.000, 0.000, 0.000, 12:26:39.933
7, -63020.85, -71849.05, -104885.24, -140478.61, -93123.80, -82090.34, -133754.36, -124918.89, 0.000, 0.000, 0.000, 12:26:39.933
8, -63166.30, -71999.52, -105006.05, -140626.75, -93283.82, -81706.82, -133899.17, -125050.43, 0.000, 0.000, 0.000, 12:26:39.933
9, -63052.77, -71892.55, -105033.75, -140550.52, -93209.19, -81801.10, -133810.59, -125098.20, 0.210, 0.342, 0.896, 12:26:39.934
10, -62868.91, -71704.30, -104902.03, -140372.73, -93016.16, -82196.23, -133627.02, -124958.52, 0.000, 0.000, 0.000, 12:26:39.934
11, -62965.89, -71795.16, -104858.58, -140436.47, -93079.12, -82140.20, -133703.39, -124885.27, 0.000, 0.000, 0.000, 12:26:39.934
12, -63153.04, -71979.05, -104977.69, -140612.11, -93265.69, -81736.10, -133883.56, -125010.11, 0.000, 0.000, 0.000, 12:26:39.934
13, -63087.53, -71914.41, -105029.75, -140570.42, -93221.68, -81743.19, -133822.84, -125084.85, 0.000, 0.000, 0.000, 12:26:39.934
14, -62912.98, -71738.75, -104929.68, -140404.06, -93048.27, -82133.07, -133651.22, -124983.62, 0.000, 0.000, 0.000, 12:26:39.934
15, -62968.13, -71792.68, -104868.10, -140431.78, -93080.26, -82171.58, -133693.58, -124900.94, 0.000, 0.000, 0.000, 12:26:39.934
16, -63176.58, -72005.43, -104979.41, -140624.86, -93287.55, -81753.91, -133897.92, -125010.30, 0.000, 0.000, 0.000, 12:26:39.935
17, -63151.32, -71979.37, -105064.41, -140627.53, -93293.61, -81652.51, -133886.05, -125118.40, 0.000, 0.000, 0.000, 12:26:39.935
18, -62923.69, -71747.69, -104958.24, -140422.95, -93080.23, -82037.18, -133672.70, -125016.70, 0.000, 0.000, 0.000, 12:26:39.935
19, -62914.53, -71737.30, -104858.45, -140392.17, -93047.09, -82196.70, -133661.30, -124891.84, 0.212, 0.350, 0.902, 12:26:39.935
20, -63114.98, -71936.67, -104948.16, -140578.30, -93251.16, -81819.18, -133865.86, -124974.90, 0.000, 0.000, 0.000, 12:26:39.935
21, -63132.57, -71958.53, -105038.24, -140611.95, -93288.78, -81632.08, -133886.77, -125089.95, 0.000, 0.000, 0.000, 12:26:39.935
22, -62942.18, -71767.02, -104960.37, -140436.50, -93103.28, -81964.73, -133696.33, -125024.77, 0.000, 0.000, 0.000, 12:26:39.936
23, -62866.96, -71692.86, -104829.25, -140345.45, -93008.98, -82212.82, -133619.27, -124880.13, 0.000, 0.000, 0.000, 12:26:39.936
24, -63055.66, -71887.77, -104878.65, -140511.48, -93182.16, -81887.52, -133802.09, -124915.16, 0.000, 0.000, 0.000, 12:26:39.936
25, -63127.71, -71961.35, -105000.16, -140606.81, -93283.08, -81609.70, -133890.36, -125056.11, 0.000, 0.000, 0.000, 12:26:39.936
26, -62952.70, -71783.32, -104969.29, -140465.48, -93136.70, -81873.97, -133736.11, -125049.78, 0.000, 0.000, 0.000, 12:26:39.936
27, -62830.93, -71665.44, -104834.66, -140333.23, -92998.19, -82204.10, -133610.50, -124894.34, 0.000, 0.000, 0.000, 12:26:39.937
28, -62999.86, -71836.88, -104853.73, -140472.91, -93140.70, -81969.41, -133765.66, -124887.35, 0.222, 0.344, 0.898, 12:26:39.937
29, -63132.43, -71968.05, -104990.63, -140614.58, -93294.44, -81620.70, -133902.53, -125039.70, 0.000, 0.000, 0.000, 12:26:39.937
30, -63006.73, -71835.06, -105000.58, -140515.16, -93194.23, -81791.09, -133784.17, -125071.51, 0.000, 0.000, 0.000, 12:26:39.937
31, -62845.75, -71674.04, -104869.46, -140356.23, -93028.02, -82165.28, -133631.22, -124933.55, 0.000, 0.000, 0.000, 12:26:39.937
32, -62954.45, -71791.88, -104835.78, -140439.89, -93108.29, -82039.44, -133731.52, -124881.34, 0.000, 0.000, 0.000, 12:26:39.938
33, -63124.66, -71964.86, -104965.58, -140612.06, -93289.16, -81649.96, -133902.45, -125024.30, 0.000, 0.000, 0.000, 12:26:39.938
34, -63026.87, -71859.41, -105002.48, -140545.44, -93219.22, -81729.62, -133817.19, -125083.76, 0.000, 0.000, 0.000, 12:26:39.938
35, -62859.83, -71689.33, -104889.31, -140382.94, -93046.38, -82126.37, -133653.38, -124965.38, 0.000, 0.000, 0.000, 12:26:39.939
36, -62931.40, -71767.36, -104840.09, -140425.98, -93093.91, -82100.16, -133714.03, -124896.29, 0.000, 0.000, 0.000, 12:26:39.939
37, -63104.29, -71936.38, -104937.10, -140580.59, -93261.55, -81707.05, -133875.25, -124993.88, 0.000, 0.000, 0.000, 12:26:39.939
38, -63065.29, -71895.28, -105010.21, -140568.94, -93253.84, -81682.34, -133852.19, -125088.20, 0.220, 0.344, 0.908, 12:26:39.939
39, -62881.09, -71712.71, -104917.99, -140403.02, -93072.30, -82066.15, -133681.16, -124998.17, 0.000, 0.000, 0.000, 12:26:39.939
40, -62904.18, -71731.82, -104832.63, -140394.56, -93061.06, -82141.79, -133687.05, -124889.25, 0.000, 0.000, 0.000, 12:26:39.940
41, -63115.04, -71943.87, -104928.56, -140584.58, -93267.77, -81739.41, -133888.28, -124983.44, 0.000, 0.000, 0.000, 12:26:39.940
42, -63093.16, -71920.60, -105008.76, -140590.48, -93274.41, -81622.38, -133876.59, -125088.25, 0.000, 0.000, 0.000, 12:26:39.940
43, -62877.69, -71698.63, -104907.82, -140394.86, -93063.61, -82003.85, -133667.31, -124992.27, 0.000, 0.000, 0.000, 12:26:39.940
44, -62862.51, -71679.72, -104805.02, -140353.80, -93015.89, -82188.91, -133640.92, -124861.63, 0.000, 0.000, 0.000, 12:26:39.940
45, -63074.48, -71895.41, -104893.20, -140544.33, -93222.17, -81818.20, -133846.42, -124932.88, 0.000, 0.000, 0.000, 12:26:39.941
46, -63116.00, -71935.63, -105005.50, -140607.58, -93293.95, -81605.75, -133893.30, -125074.08, 0.000, 0.000, 0.000, 12:26:39.941
47, -62912.80, -71726.88, -104941.13, -140432.00, -93106.88, -81924.66, -133707.44, -125027.80, 0.212, 0.344, 0.906, 12:26:39.941
48, -62833.46, -71648.83, -104818.08, -140338.02, -93006.08, -82190.71, -133627.13, -124877.00, 0.000, 0.000, 0.000, 12:26:39.941
49, -63006.84, -71826.45, -104847.88, -140484.55, -93165.24, -81898.89, -133799.44, -124894.39, 0.000, 0.000, 0.000, 12:26:39.941
50, -63109.84, -71926.16, -104974.23, -140596.20, -93286.01, -81606.48, -133903.17, -125044.95, 0.000, 0.000, 0.000, 12:26:39.942
51, -62966.32, -71765.19, -104956.10, -140465.94, -93149.13, -81852.17, -133753.77, -125042.80, 0.000, 0.000, 0.000, 12:26:39.942
52, -62864.30, -71663.36, -104842.95, -140355.42, -93027.64, -82184.70, -133647.02, -124909.41, 0.000, 0.000, 0.000, 12:26:39.942
53, -63030.38, -71833.85, -104863.79, -140493.88, -93172.26, -81964.80, -133794.83, -124906.20, 0.000, 0.000, 0.000, 12:26:39.942
54, -63129.55, -71941.14, -104975.23, -140603.63, -93293.85, -81621.04, -133899.03, -125030.49, 0.000, 0.000, 0.000, 12:26:39.942
55, -62981.63, -71798.70, -104968.23, -140493.27, -93177.13, -81788.41, -133772.50, -125042.41, 0.000, 0.000, 0.000, 12:26:39.942
56, -62863.95, -71675.63, -104867.12, -140373.00, -93039.06, -82151.71, -133644.25, -124932.48, 0.000, 0.000, 0.000, 12:26:39.943
57, -62964.26, -71776.23, -104835.34, -140445.27, -93115.04, -82039.39, -133734.30, -124880.40, 0.220, 0.346, 0.896, 12:26:39.943
58, -63136.14, -71953.75, -104965.04, -140617.64, -93304.05, -81638.89, -133914.55, -125018.27, 0.000, 0.000, 0.000, 12:26:39.943
59, -63042.33, -71846.98, -104996.82, -140541.33, -93227.24, -81700.18, -133824.69, -125072.73, 0.000, 0.000, 0.000, 12:26:39.943
60, -62865.46, -71666.71, -104881.66, -140374.63, -93052.84, -82096.10, -133655.58, -124953.00, 0.000, 0.000, 0.000, 12:26:39.944
61, -62915.15, -71723.66, -104814.84, -140399.84, -93083.44, -82095.07, -133702.92, -124867.50, 0.000, 0.000, 0.000, 12:26:39.944
62, -63081.58, -71892.64, -104902.41, -140554.16, -93253.71, -81702.48, -133867.00, -124959.34, 0.000, 0.000, 0.000, 12:26:39.945
63, -63047.88, -71851.89, -104966.00, -140541.08, -93237.26, -81664.91, -133829.14, -125043.37, 0.000, 0.000, 0.000, 12:26:39.945
64, -62856.50, -71660.72, -104873.27, -140369.47, -93049.17, -82051.48, -133640.09, -124943.54, 0.000, 0.000, 0.000, 12:26:39.945
65, -62877.49, -71689.46, -104793.05, -140370.88, -93047.60, -82146.81, -133661.13, -124839.54, 0.000, 0.000, 0.000, 12:26:39.945
66, -63098.10, -71906.14, -104902.14, -140570.11, -93259.55, -81740.98, -133873.69, -124942.65, 0.232, 0.354, 0.890, 12:26:39.945
67, -63091.84, -71890.41, -104996.29, -140582.66, -93276.66, -81603.84, -133870.58, -125054.16, 0.000, 0.000, 0.000, 12:26:39.946
68, -62887.10, -71680.97, -104907.69, -140401.66, -93085.13, -81973.09, -133678.17, -124977.47, 0.000, 0.000, 0.000, 12:26:39.946
69, -62846.60, -71639.93, -104797.24, -140343.33, -93017.83, -82174.48, -133632.61, -124855.88, 0.000, 0.000, 0.000, 12:26:39.946
70, -63037.01, -71843.69, -104861.80, -140514.95, -93206.34, -81824.68, -133826.78, -124903.42, 0.000, 0.000, 0.000, 12:26:39.946
71, -63093.36, -71895.10, -104979.14, -140583.80, -93285.07, -81591.71, -133884.86, -125038.67, 0.000, 0.000, 0.000, 12:26:39.947
72, -62887.41, -71679.65, -104904.98, -140398.23, -93086.34, -81911.70, -133682.77, -124977.12, 0.000, 0.000, 0.000, 12:26:39.947
73, -62818.61, -71614.98, -104790.36, -140322.03, -93005.36, -82196.34, -133622.34, -124852.68, 0.000, 0.000, 0.000, 12:26:39.947
74, -63010.66, -71811.37, -104832.70, -140484.73, -93174.83, -81914.20, -133797.36, -124880.60, 0.000, 0.000, 0.000, 12:26:39.947
75, -63122.69, -71918.92, -104962.54, -140598.66, -93294.77, -81608.14, -133901.56, -125022.96, 0.000, 0.000, 0.000, 12:26:39.948
76, -62963.92, -71755.11, -104946.73, -140466.20, -93161.51, -81834.09, -133755.27, -125021.08, 0.238, 0.364, 0.894, 12:26:39.948
77, -62837.37, -71627.66, -104825.41, -140335.78, -93024.58, -82179.59, -133632.92, -124884.04, 0.000, 0.000, 0.000, 12:26:39.948
78, -62968.82, -71760.05, -104814.61, -140437.66, -93127.22, -81999.30, -133746.78, -124852.98, 0.000, 0.000, 0.000, 12:26:39.948
79, -63111.85, -71903.93, -104944.21, -140585.67, -93287.53, -81636.13, -133891.58, -124995.17, 0.000, 0.000, 0.000, 12:26:39.948
80, -62980.42, -71771.34, -104957.89, -140487.28, -93187.41, -81779.76, -133779.45, -125029.51, 0.000, 0.000, 0.000, 12:26:39.949
81, -62799.88, -71594.00, -104824.70, -140318.92, -93009.45, -82177.44, -133608.33, -124892.16, 0.000, 0.000, 0.000, 12:26:39.949
82, -62910.82, -71704.70, -104782.07, -140391.91, -93082.98, -82099.01, -133691.45, -124824.09, 0.000, 0.000, 0.000, 12:26:39.949
83, -63094.17, -71886.76, -104907.02, -140567.52, -93271.19, -81701.48, -133876.06, -124956.66, 0.000, 0.000, 0.000, 12:26:39.949
84, -63025.30, -71812.62, -104960.59, -140524.72, -93230.04, -81737.00, -133817.81, -125035.84, 0.000, 0.000, 0.000, 12:26:39.950
85, -62855.38, -71643.75, -104856.05, -140361.69, -93056.26, -82126.88, -133649.80, -124928.39, 0.000, 0.000, 0.000, 12:26:39.950
86, -62909.34, -71703.25, -104798.48, -140391.13, -93084.20, -82134.37, -133696.69, -124842.63, 0.248, 0.368, 0.890, 12:26:39.950
87, -63100.74, -71894.09, -104906.97, -140569.27, -93273.18, -81722.94, -133882.61, -124947.16, 0.000, 0.000, 0.000, 12:26:39.950
88, -63035.85, -71829.16, -104964.03, -140534.28, -93248.86, -81666.99, -133837.64, -125030.40, 0.000, 0.000, 0.000, 12:26:39.950
89, -62841.79, -71626.85, -104862.40, -140350.16, -93054.24, -82060.76, -133646.02, -124935.20, 0.000, 0.000, 0.000, 12:26:39.951
90, -62857.06, -71634.84, -104769.26, -140327.56, -93024.54, -82192.66, -133638.27, -124816.36, 0.000, 0.000, 0.000, 12:26:39.951
91, -63060.95, -71843.58, -104859.23, -140514.19, -93220.88, -81812.59, -133831.53, -124898.13, 0.000, 0.000, 0.000, 12:26:39.951
92, -63061.73, -71841.23, -104950.31, -140543.09, -93249.66, -81666.37, -133845.75, -125007.91, 0.000, 0.000, 0.000, 12:26:39.951
93, -62880.68, -71662.75, -104889.18, -140387.70, -93081.65, -82013.51, -133677.08, -124949.42, 0.000, 0.000, 0.000, 12:26:39.952
94, -62839.09, -71624.87, -104787.57, -140329.80, -93023.84, -82226.27, -133631.44, -124827.36, 0.000, 0.000, 0.000, 12:26:39.952
95, -63032.88, -71821.16, -104836.20, -140491.66, -93199.93, -81888.18, -133815.63, -124868.42, 0.252, 0.370, 0.892, 12:26:39.952
96, -63127.29, -71911.10, -104970.74, -140600.42, -93316.88, -81616.97, -133918.94, -125027.98, 0.000, 0.000, 0.000, 12:26:39.952
97, -62934.24, -71714.56, -104927.83, -140438.98, -93142.31, -81897.05, -133732.69, -124999.24, 0.000, 0.000, 0.000, 12:26:39.952
98, -62831.51, -71616.55, -104802.01, -140326.13, -93014.73, -82193.42, -133614.92, -124849.40, 0.000, 0.000, 0.000, 12:26:39.953
99, -63001.90, -71792.66, -104825.41, -140467.28, -93167.56, -81926.20, -133775.98, -124858.85, 0.000, 0.000, 0.000, 12:26:39.953
100, -63101.14, -71890.52, -104942.02, -140575.61, -93291.80, -81601.08, -133890.67, -124989.59, 0.000, 0.000, 0.000, 12:26:39.953
101, -62956.97, -71738.95, -104931.29, -140457.58, -93169.80, -81801.39, -133751.63, -124995.47, 0.000, 0.000, 0.000, 12:26:39.953
102, -62829.50, -71609.06, -104811.48, -140326.38, -93027.82, -82150.48, -133620.98, -124860.62, 0.000, 0.000, 0.000, 12:26:39.953
103, -62984.00, -71763.11, -104814.75, -140447.25, -93155.81, -81966.88, -133768.69, -124843.18, 0.000, 0.000, 0.000, 12:26:39.954
104, -63121.41, -71910.86, -104948.30, -140599.03, -93311.65, -81582.23, -133911.17, -124985.45, 0.000, 0.000, 0.000, 12:26:39.954
105, -62982.50, -71776.27, -104959.92, -140499.28, -93207.71, -81702.87, -133795.34, -125014.48, 0.252, 0.384, 0.884, 12:26:40.407
106, -62817.95, -71598.02, -104824.47, -140327.67, -93022.37, -82098.45, -133623.66, -124876.11, 0.000, 0.000, 0.000, 12:26:40.407
107, -62955.07, -71727.38, -104799.16, -140421.20, -93120.38, -82014.85, -133733.52, -124834.53, 0.000, 0.000, 0.000, 12:26:40.407
108, -63125.82, -71899.70, -104922.75, -140588.53, -93306.37, -81601.12, -133908.20, -124969.56, 0.000, 0.000, 0.000, 12:26:40.407
109, -63050.38, -71825.70, -104972.33, -140543.70, -93262.00, -81609.73, -133849.55, -125042.94, 0.000, 0.000, 0.000, 12:26:40.407
110, -62865.44, -71643.80, -104868.39, -140374.25, -93082.48, -81996.16, -133675.77, -124941.44, 0.000, 0.000, 0.000, 12:26:40.408
111, -62906.77, -71686.29, -104799.32, -140386.31, -93096.24, -82037.18, -133706.67, -124848.34, 0.000, 0.000, 0.000, 12:26:40.408
112, -63075.57, -71854.87, -104879.95, -140538.88, -93259.14, -81651.30, -133869.38, -124927.85, 0.000, 0.000, 0.000, 12:26:40.408
113, -63040.16, -71818.63, -104942.27, -140527.00, -93248.97, -81579.84, -133841.80, -125011.07, 0.000, 0.000, 0.000, 12:26:40.408
114, -62851.43, -71629.74, -104859.88, -140358.92, -93073.38, -81963.98, -133663.22, -124927.63, 0.250, 0.386, 0.876, 12:26:40.408
115, -62874.81, -71652.29, -104791.66, -140356.48, -93070.47, -82101.82, -133675.55, -124832.68, 0.000, 0.000, 0.000, 12:26:40.409
116, -63092.40, -71871.27, -104887.14, -140550.11, -93278.79, -81714.53, -133882.58, -124920.37, 0.000, 0.000, 0.000, 12:26:40.409
117, -63097.52, -71878.16, -104979.50, -140580.89, -93313.97, -81536.81, -133899.11, -125035.88, 0.000, 0.000, 0.000, 12:26:40.409
118, -62898.43, -71678.73, -104902.88, -140406.66, -93133.32, -81876.96, -133713.36, -124971.91, 0.000, 0.000, 0.000, 12:26:40.410
119, -62862.11, -71642.48, -104805.25, -140352.91, -93075.81, -82108.30, -133666.59, -124852.21, 0.000, 0.000, 0.000, 12:26:40.410
120, -63060.24, -71841.61, -104866.16, -140523.31, -93254.45, -81776.11, -133851.56, -124902.41, 0.000, 0.000, 0.000, 12:26:40.410
121, -63083.82, -71863.70, -104949.62, -140563.17, -93302.46, -81533.10, -133880.31, -125007.63, 0.000, 0.000, 0.000, 12:26:40.410
122, -62927.89, -71702.85, -104909.45, -140426.63, -93153.57, -81810.38, -133727.08, -124980.09, 0.000, 0.000, 0.000, 12:26:40.411
123, -62839.27, -71617.38, -104805.27, -140335.00, -93051.78, -82119.57, -133644.03, -124863.75, 0.000, 0.000, 0.000, 12:26:40.411
124, -63023.36, -71807.41, -104839.38, -140490.95, -93216.47, -81863.06, -133814.02, -124884.20, 0.250, 0.384, 0.884, 12:26:40.411
125, -63142.58, -71918.21, -104968.93, -140611.05, -93351.34, -81519.40, -133932.03, -125024.68, 0.000, 0.000, 0.000, 12:26:40.411
126, -62987.01, -71753.61, -104952.10, -140480.84, -93212.56, -81710.84, -133782.73, -125024.01, 0.000, 0.000, 0.000, 12:26:40.411
127, -62844.14, -71609.65, -104826.86, -140337.66, -93055.78, -82076.56, -133635.31, -124875.75, 0.000, 0.000, 0.000, 12:26:40.411
128, -62945.62, -71723.05, -104796.93, -140414.06, -93140.54, -81937.98, -133730.84, -124823.05, 0.000, 0.000, 0.000, 12:26:40.412
129, -63086.37, -71864.84, -104901.88, -140551.25, -93287.17, -81569.45, -133866.98, -124935.61, 0.000, 0.000, 0.000, 12:26:40.412
130, -62992.22, -71761.91, -104933.08, -140479.28, -93216.70, -81668.06, -133783.17, -124980.89, 0.000, 0.000, 0.000, 12:26:40.412
131, -62831.69, -71600.10, -104825.52, -140324.16, -93051.00, -82066.91, -133629.20, -124865.71, 0.000, 0.000, 0.000, 12:26:40.412
132, -62940.03, -71714.54, -104800.42, -140405.97, -93135.94, -82022.59, -133727.23, -124816.36, 0.000, 0.000, 0.000, 12:26:40.412
133, -63114.82, -71887.21, -104911.69, -140570.77, -93314.73, -81618.11, -133896.06, -124935.20, 0.244, 0.376, 0.888, 12:26:40.412
134, -63050.76, -71813.27, -104956.88, -140524.27, -93268.08, -81617.70, -133839.36, -125007.09, 0.000, 0.000, 0.000, 12:26:40.412
135, -62851.41, -71614.49, -104849.62, -140341.28, -93076.26, -82022.56, -133653.17, -124902.44, 0.000, 0.000, 0.000, 12:26:40.413
136, -62895.48, -71660.52, -104774.88, -140356.70, -93090.23, -82097.35, -133686.73, -124804.31, 0.000, 0.000, 0.000, 12:26:40.413
137, -63089.43, -71854.73, -104872.59, -140536.83, -93277.23, -81700.92, -133867.61, -124901.59, 0.000, 0.000, 0.000, 12:26:40.413
138, -63075.41, -71844.12, -104949.57, -140544.72, -93286.16, -81597.59, -133858.56, -125002.82, 0.000, 0.000, 0.000, 12:26:40.413
139, -62875.88, -71646.03, -104865.17, -140365.91, -93098.45, -81976.79, -133670.38, -124925.30, 0.000, 0.000, 0.000, 12:26:40.413
140, -62853.24, -71624.27, -104756.50, -140319.44, -93051.23, -82160.16, -133645.14, -124797.88, 0.000, 0.000, 0.000, 12:26:40.413
141, -63074.00, -71845.68, -104845.28, -140516.45, -93260.91, -81788.65, -133854.77, -124875.99, 0.000, 0.000, 0.000, 12:26:40.413
142, -63110.84, -71879.45, -104955.61, -140571.28, -93322.15, -81583.06, -133897.38, -125004.95, 0.000, 0.000, 0.000, 12:26:40.414
143, -62897.88, -71663.78, -104880.08, -140384.38, -93125.23, -81918.38, -133698.39, -124941.15, 0.244, 0.382, 0.884, 12:26:40.414
144, -62836.32, -71607.52, -104767.09, -140312.09, -93047.02, -82172.88, -133637.09, -124805.59, 0.000, 0.000, 0.000, 12:26:40.415
145, -63048.79, -71816.13, -104823.17, -140487.39, -93236.99, -81850.21, -133834.58, -124850.29, 0.000, 0.000, 0.000, 12:26:40.415
146, -63118.42, -71879.63, -104935.20, -140567.02, -93322.04, -81562.25, -133903.86, -124980.53, 0.000, 0.000, 0.000, 12:26:40.415
147, -62932.07, -71690.98, -104887.77, -140408.56, -93151.14, -81819.95, -133725.59, -124946.13, 0.000, 0.000, 0.000, 12:26:40.415
148, -62824.63, -71588.01, -104766.13, -140295.88, -93034.87, -82143.38, -133623.02, -124810.62, 0.000, 0.000, 0.000, 12:26:40.415
149, -62991.68, -71768.52, -104794.38, -140443.94, -93192.33, -81900.79, -133793.45, -124821.05, 0.000, 0.000, 0.000, 12:26:40.415
150, -63121.68, -71893.69, -104925.03, -140578.77, -93337.46, -81534.22, -133918.50, -124956.95, 0.000, 0.000, 0.000, 12:26:40.415
151, -62983.88, -71741.09, -104923.82, -140463.23, -93214.13, -81692.18, -133787.75, -124976.71, 0.000, 0.000, 0.000, 12:26:40.416
152, -62843.94, -71599.14, -104802.79, -140320.02, -93060.97, -82060.18, -133642.11, -124850.94, 0.000, 0.000, 0.000, 12:26:40.416
153, -62982.23, -71738.52, -104795.05, -140426.33, -93169.04, -81918.63, -133763.42, -124815.80, 0.246, 0.396, 0.878, 12:26:40.416
154, -63147.70, -71900.73, -104927.45, -140588.05, -93345.02, -81504.45, -133927.05, -124951.66, 0.000, 0.000, 0.000, 12:26:40.416
155, -63021.10, -71779.43, -104945.41, -140497.03, -93258.54, -81573.74, -133824.16, -124991.55, 0.000, 0.000, 0.000, 12:26:40.416
156, -62852.07, -71606.18, -104830.95, -140333.75, -93080.08, -81964.23, -133655.81, -124872.51, 0.000, 0.000, 0.000, 12:26:40.416
157, -62935.89, -71685.23, -104781.42, -140384.86, -93126.77, -81932.30, -133720.45, -124799.75, 0.000, 0.000, 0.000, 12:26:40.416
158, -63120.96, -71868.21, -104888.75, -140560.58, -93317.57, -81510.57, -133904.31, -124913.41, 0.000, 0.000, 0.000, 12:26:40.416
159, -63065.58, -71804.44, -104951.18, -140534.78, -93296.52, -81472.71, -133863.14, -124999.29, 0.000, 0.000, 0.000, 12:26:40.417
160, -62876.15, -71620.73, -104855.27, -140359.52, -93108.11, -81862.52, -133673.89, -124905.37, 0.000, 0.000, 0.000, 12:26:40.417
161, -62883.66, -71637.07, -104766.49, -140343.98, -93097.38, -81956.40, -133680.92, -124794.84, 0.000, 0.000, 0.000, 12:26:40.417
162, -63091.29, -71847.29, -104863.34, -140532.31, -93296.67, -81556.20, -133872.55, -124878.32, 0.248, 0.400, 0.876, 12:26:40.417
163, -63109.10, -71860.09, -104966.59, -140568.59, -93334.96, -81416.20, -133891.80, -125001.77, 0.000, 0.000, 0.000, 12:26:40.417
164, -62929.46, -71669.39, -104897.67, -140402.08, -93159.92, -81773.16, -133714.88, -124940.21, 0.000, 0.000, 0.000, 12:26:40.417
165, -62882.72, -71627.75, -104790.98, -140342.33, -93094.03, -81966.46, -133669.78, -124808.78, 0.000, 0.000, 0.000, 12:26:40.417
166, -63067.32, -71817.38, -104846.30, -140507.17, -93267.61, -81612.67, -133844.80, -124850.00, 0.000, 0.000, 0.000, 12:26:40.418
167, -63125.62, -71869.38, -104956.63, -140579.91, -93343.34, -81378.70, -133906.30, -124984.11, 0.000, 0.000, 0.000, 12:26:40.418
168, -62947.36, -71684.73, -104905.96, -140420.45, -93176.98, -81676.87, -133731.06, -124943.95, 0.000, 0.000, 0.000, 12:26:40.418
169, -62873.69, -71605.58, -104788.66, -140323.83, -93076.33, -81945.52, -133646.27, -124809.59, 0.000, 0.000, 0.000, 12:26:40.418
170, -63061.55, -71799.01, -104826.02, -140486.78, -93251.67, -81643.59, -133835.25, -124839.83, 0.000, 0.000, 0.000, 12:26:40.418
171, -63149.40, -71886.74, -104947.23, -140589.77, -93361.47, -81334.55, -133923.20, -124979.04, 0.000, 0.000, 0.000, 12:26:40.418
172, -62970.20, -71702.59, -104913.30, -140439.63, -93202.66, -81576.96, -133751.41, -124962.70, 0.252, 0.408, 0.874, 12:26:40.418
173, -62827.98, -71563.66, -104773.95, -140296.44, -93044.41, -81928.95, -133603.14, -124806.86, 0.000, 0.000, 0.000, 12:26:40.418
174, -62969.64, -71712.35, -104764.57, -140404.84, -93164.44, -81732.44, -133740.81, -124772.40, 0.000, 0.000, 0.000, 12:26:40.419
175, -63113.05, -71860.54, -104900.60, -140555.56, -93334.11, -81356.63, -133896.06, -124920.92, 0.000, 0.000, 0.000, 12:26:40.419
176, -62989.00, -71729.65, -104912.40, -140456.95, -93230.82, -81493.14, -133779.17, -124953.98, 0.000, 0.000, 0.000, 12:26:40.419
177, -62850.31, -71581.55, -104793.89, -140310.25, -93071.63, -81869.14, -133629.28, -124833.91, 0.000, 0.000, 0.000, 12:26:40.419
178, -62950.76, -71692.19, -104759.47, -140385.88, -93147.00, -81765.00, -133713.30, -124779.21, 0.000, 0.000, 0.000, 12:26:40.419
179, -63119.80, -71867.16, -104887.55, -140558.36, -93332.01, -81356.59, -133887.22, -124913.05, 0.000, 0.000, 0.000, 12:26:40.420
180, -63032.41, -71769.26, -104927.60, -140494.50, -93266.14, -81400.67, -133809.08, -124972.66, 0.000, 0.000, 0.000, 12:26:40.420
181, -62828.47, -71568.34, -104807.37, -140305.45, -93074.02, -81805.39, -133623.73, -124847.45, 0.250, 0.410, 0.878, 12:26:40.420
182, -62913.23, -71650.95, -104752.63, -140351.31, -93123.22, -81808.97, -133691.14, -124769.38, 0.000, 0.000, 0.000, 12:26:40.421
183, -63109.84, -71838.13, -104862.02, -140527.06, -93308.23, -81392.84, -133870.25, -124879.70, 0.000, 0.000, 0.000, 12:26:40.421
184, -63061.93, -71789.02, -104922.08, -140506.56, -93286.32, -81338.80, -133832.56, -124959.97, 0.000, 0.000, 0.000, 12:26:40.421
185, -62872.37, -71597.59, -104831.66, -140335.00, -93104.94, -81728.30, -133649.14, -124870.01, 0.000, 0.000, 0.000, 12:26:40.421
186, -62880.91, -71608.15, -104743.87, -140318.92, -93088.69, -81844.27, -133645.86, -124758.63, 0.000, 0.000, 0.000, 12:26:40.421
187, -63080.80, -71813.20, -104829.88, -140503.00, -93282.56, -81449.17, -133836.56, -124839.92, 0.000, 0.000, 0.000, 12:26:40.421
188, -63076.89, -71805.36, -104914.34, -140523.88, -93307.00, -81297.54, -133845.17, -124949.73, 0.000, 0.000, 0.000, 12:26:40.421
189, -62914.10, -71641.12, -104856.50, -140379.55, -93158.09, -81636.88, -133695.41, -124903.20, 0.000, 0.000, 0.000, 12:26:40.422
190, -62873.36, -71605.24, -104764.34, -140327.64, -93101.38, -81835.95, -133653.45, -124792.76, 0.000, 0.000, 0.000, 12:26:40.422
191, -63045.26, -71781.33, -104811.33, -140478.14, -93263.32, -81493.81, -133821.14, -124820.48, 0.252, 0.406, 0.876, 12:26:40.422
192, -63099.55, -71836.29, -104921.90, -140551.31, -93344.73, -81246.63, -133882.16, -124946.98, 0.000, 0.000, 0.000, 12:26:40.422
193, -62918.97, -71651.95, -104871.48, -140395.45, -93179.88, -81542.49, -133712.25, -124913.10, 0.000, 0.000, 0.000, 12:26:40.422
194, -62827.89, -71564.83, -104750.59, -140293.61, -93073.15, -81836.62, -133624.06, -124770.07, 0.000, 0.000, 0.000, 12:26:40.422
195, -63024.77, -71758.98, -104791.16, -140455.72, -93245.20, -81554.49, -133805.92, -124798.52, 0.000, 0.000, 0.000, 12:26:40.422
196, -63132.63, -71869.13, -104922.26, -140580.73, -93369.11, -81224.09, -133909.83, -124951.08, 0.000, 0.000, 0.000, 12:26:40.423
197, -62958.74, -71693.69, -104895.34, -140432.73, -93217.19, -81439.72, -133745.55, -124941.53, 0.000, 0.000, 0.000, 12:26:40.423
198, -62850.11, -71584.39, -104780.02, -140309.55, -93092.35, -81782.35, -133627.70, -124804.56, 0.000, 0.000, 0.000, 12:26:40.423
199, -62979.28, -71709.00, -104760.70, -140400.16, -93192.94, -81601.97, -133742.91, -124767.10, 0.000, 0.000, 0.000, 12:26:40.423
200, -63136.21, -71863.98, -104883.84, -140556.69, -93353.38, -81214.81, -133897.61, -124904.49, 0.250, 0.402, 0.870, 12:26:40.423
201, -63024.56, -71748.23, -104913.20, -140476.94, -93269.60, -81326.91, -133801.67, -124952.33, 0.000, 0.000, 0.000, 12:26:40.423
202, -62848.34, -71570.38, -104790.92, -140305.84, -93089.60, -81720.63, -133629.03, -124814.46, 0.000, 0.000, 0.000, 12:26:40.423
203, -62957.13, -71688.50, -104760.12, -140387.81, -93180.33, -81636.93, -133736.98, -124761.04, 0.000, 0.000, 0.000, 12:26:40.423
204, -63135.36, -71866.78, -104885.60, -140560.59, -93357.84, -81220.47, -133898.14, -124892.42, 0.000, 0.000, 0.000, 12:26:40.424
205, -63057.00, -71781.73, -104931.04, -140508.36, -93305.55, -81242.87, -133833.75, -124962.43, 0.000, 0.000, 0.000, 12:26:40.424
206, -62861.80, -71584.01, -104818.14, -140327.31, -93118.98, -81646.41, -133650.59, -124853.64, 0.000, 0.000, 0.000, 12:26:40.424
207, -62900.54, -71636.49, -104743.38, -140349.03, -93141.99, -81679.53, -133693.92, -124758.02, 0.000, 0.000, 0.000, 12:26:40.424
208, -63098.32, -71833.84, -104843.85, -140526.66, -93337.77, -81263.32, -133883.28, -124863.19, 0.000, 0.000, 0.000, 12:26:40.424
209, -63067.61, -71789.11, -104913.48, -140513.09, -93323.70, -81186.45, -133849.89, -124954.49, 0.000, 0.000, 0.000, 12:26:40.424
210, -62854.71, -71569.21, -104804.17, -140311.02, -93110.63, -81590.08, -133635.91, -124847.61, 0.252, 0.406, 0.874, 12:26:40.424
211, -62858.33, -71573.95, -104705.20, -140285.52, -93084.62, -81738.13, -133627.42, -124725.19, 0.000, 0.000, 0.000, 12:26:40.424
212, -63073.65, -71796.95, -104802.38, -140486.47, -93300.13, -81344.99, -133843.52, -124814.95, 0.000, 0.000, 0.000, 12:26:40.425
213, -63095.13, -71817.54, -104908.22, -140533.33, -93350.72, -81162.71, -133874.63, -124942.91, 0.000, 0.000, 0.000, 12:26:40.425
214, -62883.30, -71605.55, -104830.15, -140348.31, -93150.27, -81515.09, -133671.08, -124876.48, 0.000, 0.000, 0.000, 12:26:40.425
215, -62822.91, -71548.34, -104711.21, -140273.48, -93071.55, -81755.77, -133611.64, -124735.07, 0.000, 0.000, 0.000, 12:26:40.425
216, -63026.24, -71753.99, -104767.25, -140447.05, -93257.51, -81419.18, -133804.48, -124779.08, 0.000, 0.000, 0.000, 12:26:40.425
217, -63090.86, -71812.87, -104880.64, -140525.22, -93344.70, -81156.63, -133867.97, -124911.76, 0.000, 0.000, 0.000, 12:26:40.425
218, -62916.45, -71634.25, -104846.53, -140376.86, -93184.35, -81437.77, -133699.70, -124887.62, 0.000, 0.000, 0.000, 12:26:40.425
219, -62811.39, -71531.48, -104723.26, -140263.67, -93064.32, -81755.55, -133598.30, -124748.59, 0.000, 0.000, 0.000, 12:26:40.425
220, -63008.89, -71730.14, -104766.13, -140438.39, -93245.46, -81486.81, -133791.97, -124770.38, 0.252, 0.416, 0.876, 12:26:40.426
221, -63133.35, -71857.30, -104920.16, -140588.78, -93406.08, -81125.74, -133929.66, -124937.89, 0.000, 0.000, 0.000, 12:26:40.426
222, -62974.00, -71690.47, -104894.14, -140433.39, -93259.39, -81325.21, -133762.00, -124937.26, 0.000, 0.000, 0.000, 12:26:40.427
223, -62834.73, -71546.91, -104754.15, -140276.38, -93090.99, -81697.79, -133612.58, -124778.88, 0.000, 0.000, 0.000, 12:26:40.427
224, -62979.43, -71696.30, -104745.28, -140390.25, -93203.28, -81535.59, -133744.61, -124747.32, 0.000, 0.000, 0.000, 12:26:40.427
225, -63104.00, -71824.42, -104856.84, -140524.50, -93353.53, -81155.65, -133882.94, -124872.46, 0.000, 0.000, 0.000, 12:26:40.888
226, -62975.64, -71697.94, -104867.36, -140435.30, -93259.05, -81265.71, -133773.02, -124909.75, 0.000, 0.000, 0.000, 12:26:40.888
227, -62828.11, -71536.80, -104753.52, -140281.38, -93089.78, -81661.11, -133603.91, -124788.17, 0.000, 0.000, 0.000, 12:26:40.888
228, -62924.11, -71635.08, -104709.34, -140340.58, -93155.27, -81609.05, -133685.16, -124719.24, 0.000, 0.000, 0.000, 12:26:40.888
229, -63094.95, -71817.02, -104824.29, -140514.44, -93343.83, -81194.52, -133870.27, -124837.70, 0.250, 0.420, 0.878, 12:26:40.888
230, -63045.02, -71762.22, -104896.58, -140493.41, -93322.95, -81179.25, -133825.88, -124927.47, 0.000, 0.000, 0.000, 12:26:40.888
231, -62846.00, -71549.66, -104785.76, -140300.59, -93117.63, -81583.77, -133624.63, -124815.20, 0.000, 0.000, 0.000, 12:26:40.888
232, -62880.57, -71587.43, -104710.12, -140306.83, -93125.03, -81642.45, -133649.13, -124709.30, 0.000, 0.000, 0.000, 12:26:40.888
233, -63082.14, -71793.87, -104811.46, -140494.48, -93323.72, -81227.87, -133849.06, -124802.57, 0.000, 0.000, 0.000, 12:26:40.889
234, -63053.87, -71764.14, -104885.71, -140493.78, -93318.35, -81126.64, -133828.89, -124898.86, 0.000, 0.000, 0.000, 12:26:40.889
235, -62869.26, -71578.46, -104809.67, -140333.34, -93147.74, -81497.32, -133652.72, -124829.30, 0.000, 0.000, 0.000, 12:26:40.889
236, -62863.05, -71571.18, -104715.70, -140298.13, -93110.97, -81655.52, -133634.73, -124715.42, 0.000, 0.000, 0.000, 12:26:40.889
237, -63047.43, -71758.75, -104780.44, -140457.95, -93279.13, -81282.41, -133808.06, -124770.65, 0.000, 0.000, 0.000, 12:26:40.889
238, -63076.22, -71781.87, -104876.44, -140503.22, -93331.83, -81088.57, -133840.66, -124886.08, 0.000, 0.000, 0.000, 12:26:40.889
239, -62897.89, -71605.13, -104823.91, -140353.13, -93168.41, -81418.17, -133669.50, -124844.79, 0.250, 0.420, 0.874, 12:26:40.889
240, -62846.20, -71546.12, -104715.44, -140279.00, -93089.40, -81666.37, -133607.23, -124721.50, 0.000, 0.000, 0.000, 12:26:40.889
241, -63055.88, -71757.28, -104772.10, -140454.84, -93280.76, -81338.84, -133801.78, -124761.64, 0.000, 0.000, 0.000, 12:26:40.889
242, -63107.00, -71813.00, -104879.03, -140524.98, -93356.46, -81061.48, -133860.08, -124886.70, 0.000, 0.000, 0.000, 12:26:40.890
243, -62930.02, -71640.60, -104845.57, -140385.67, -93208.98, -81329.66, -133705.36, -124866.49, 0.000, 0.000, 0.000, 12:26:40.890
244, -62835.76, -71547.71, -104737.95, -140287.41, -93105.59, -81650.79, -133614.08, -124746.38, 0.000, 0.000, 0.000, 12:26:40.890
245, -63006.19, -71721.29, -104749.66, -140416.02, -93244.91, -81416.45, -133768.13, -124742.73, 0.000, 0.000, 0.000, 12:26:40.890
246, -63110.39, -71823.51, -104861.46, -140526.58, -93364.95, -81075.85, -133870.89, -124870.61, 0.000, 0.000, 0.000, 12:26:40.890
247, -62958.52, -71665.97, -104849.57, -140403.06, -93237.86, -81265.87, -133735.09, -124878.41, 0.000, 0.000, 0.000, 12:26:40.890
248, -62833.50, -71538.37, -104733.14, -140270.78, -93100.38, -81641.94, -133608.55, -124752.37, 0.248, 0.422, 0.874, 12:26:40.890
249, -62968.01, -71682.96, -104728.05, -140379.28, -93213.84, -81499.58, -133736.98, -124721.57, 0.000, 0.000, 0.000, 12:26:40.891
250, -63124.23, -71841.16, -104858.00, -140537.73, -93385.38, -81099.23, -133887.38, -124862.63, 0.000, 0.000, 0.000, 12:26:40.891
251, -62987.79, -71701.09, -104865.44, -140431.83, -93277.11, -81190.52, -133759.39, -124892.58, 0.000, 0.000, 0.000, 12:26:40.891
252, -62832.74, -71545.36, -104750.04, -140277.17, -93102.19, -81589.09, -133605.52, -124774.05, 0.000, 0.000, 0.000, 12:26:40.891
253, -62913.59, -71630.95, -104706.25, -140332.50, -93160.44, -81553.35, -133681.84, -124710.77, 0.000, 0.000, 0.000, 12:26:40.891
254, -63087.37, -71803.55, -104804.89, -140497.23, -93338.22, -81140.48, -133851.67, -124816.54, 0.000, 0.000, 0.000, 12:26:40.891
255, -63036.57, -71754.10, -104865.98, -140471.86, -93316.32, -81112.09, -133807.84, -124901.07, 0.000, 0.000, 0.000, 12:26:40.892
0, -62842.71, -71560.45, -104762.47, -140291.92, -93125.57, -81505.21, -133616.58, -124794.99, 0.000, 0.000, 0.000, 12:26:40.892
1, -62857.73, -71578.20, -104678.49, -140283.83, -93119.06, -81589.09, -133629.09, -124682.12, 0.000, 0.000, 0.000, 12:26:40.892
2, -63045.64, -71765.75, -104758.78, -140451.97, -93305.03, -81194.19, -133812.30, -124758.76, 0.244, 0.416, 0.868, 12:26:40.892
3, -63052.79, -71769.86, -104849.50, -140481.22, -93336.77, -81066.06, -133824.52, -124880.76, 0.000, 0.000, 0.000, 12:26:40.892
4, -62846.38, -71563.27, -104768.21, -140298.83, -93146.00, -81438.34, -133629.77, -124809.05, 0.000, 0.000, 0.000, 12:26:40.893
5, -62835.54, -71549.30, -104672.26, -140259.63, -93104.31, -81618.60, -133608.75, -124679.91, 0.000, 0.000, 0.000, 12:26:40.893
6, -63055.41, -71765.13, -104753.37, -140451.77, -93302.46, -81243.34, -133806.28, -124748.93, 0.000, 0.000, 0.000, 12:26:40.894
7, -63090.75, -71807.52, -104865.59, -140516.36, -93370.85, -81019.91, -133854.06, -124882.08, 0.000, 0.000, 0.000, 12:26:40.894
8, -62893.43, -71613.98, -104815.73, -140355.22, -93200.05, -81335.13, -133679.36, -124841.59, 0.000, 0.000, 0.000, 12:26:40.894
9, -62829.39, -71541.59, -104699.03, -140269.28, -93108.02, -81603.73, -133602.50, -124710.13, 0.000, 0.000, 0.000, 12:26:40.894
10, -63026.69, -71736.49, -104736.02, -140428.83, -93275.77, -81296.31, -133780.64, -124736.90, 0.000, 0.000, 0.000, 12:26:40.894
11, -63098.28, -71808.66, -104847.80, -140517.17, -93369.49, -80998.72, -133857.03, -124871.46, 0.000, 0.000, 0.000, 12:26:40.894
12, -62924.92, -71636.94, -104821.14, -140378.72, -93221.44, -81249.95, -133700.11, -124861.71, 0.248, 0.418, 0.870, 12:26:40.894
13, -62810.48, -71521.53, -104700.89, -140255.50, -93089.36, -81590.93, -133576.84, -124722.20, 0.000, 0.000, 0.000, 12:26:40.894
14, -62965.84, -71669.73, -104703.21, -140372.39, -93217.68, -81379.93, -133715.73, -124698.41, 0.000, 0.000, 0.000, 12:26:40.895
15, -63099.71, -71806.14, -104828.83, -140511.83, -93371.08, -81013.80, -133856.34, -124833.69, 0.000, 0.000, 0.000, 12:26:40.895
16, -62963.97, -71679.29, -104843.02, -140415.52, -93269.69, -81156.74, -133740.63, -124863.81, 0.000, 0.000, 0.000, 12:26:40.895
17, -62805.85, -71514.29, -104714.03, -140251.80, -93094.92, -81538.16, -133573.47, -124723.87, 0.000, 0.000, 0.000, 12:26:40.895
18, -62917.86, -71627.75, -104681.87, -140329.52, -93173.53, -81421.34, -133668.66, -124660.01, 0.000, 0.000, 0.000, 12:26:40.895
19, -63095.75, -71801.11, -104807.37, -140500.22, -93359.43, -81008.59, -133845.73, -124792.11, 0.000, 0.000, 0.000, 12:26:40.895
20, -63027.31, -71726.50, -104859.23, -140457.53, -93314.91, -81044.98, -133788.28, -124874.21, 0.000, 0.000, 0.000, 12:26:40.895
21, -62839.18, -71545.38, -104744.79, -140286.31, -93129.81, -81436.03, -133608.22, -124755.48, 0.246, 0.422, 0.874, 12:26:40.895
22, -62899.35, -71616.41, -104689.24, -140328.88, -93176.30, -81420.61, -133668.52, -124673.65, 0.000, 0.000, 0.000, 12:26:40.896
23, -63100.11, -71805.45, -104796.10, -140501.25, -93370.66, -80996.33, -133853.27, -124786.86, 0.000, 0.000, 0.000, 12:26:40.896
24, -63041.57, -71735.22, -104849.73, -140465.44, -93335.67, -80952.12, -133807.38, -124866.59, 0.000, 0.000, 0.000, 12:26:40.896
25, -62842.87, -71532.60, -104746.59, -140283.30, -93142.47, -81343.94, -133615.13, -124764.13, 0.000, 0.000, 0.000, 12:26:40.896
26, -62852.25, -71555.80, -104659.67, -140273.08, -93132.09, -81444.50, -133617.97, -124655.02, 0.000, 0.000, 0.000, 12:26:40.896
27, -63044.64, -71756.25, -104742.38, -140446.73, -93321.39, -81045.16, -133803.78, -124732.50, 0.000, 0.000, 0.000, 12:26:40.896
28, -63053.69, -71770.38, -104837.14, -140477.95, -93357.71, -80890.83, -133821.95, -124846.65, 0.000, 0.000, 0.000, 12:26:40.896
29, -62875.50, -71590.53, -104780.55, -140326.80, -93194.05, -81233.34, -133653.66, -124799.87, 0.000, 0.000, 0.000, 12:26:40.896
30, -62831.55, -71544.73, -104669.51, -140268.34, -93127.67, -81434.53, -133608.44, -124673.47, 0.000, 0.000, 0.000, 12:26:40.896
31, -63032.05, -71738.99, -104731.45, -140440.83, -93311.73, -81075.43, -133795.50, -124728.32, 0.236, 0.416, 0.868, 12:26:40.897
32, -63079.68, -71784.81, -104833.23, -140501.11, -93371.84, -80838.10, -133841.28, -124854.38, 0.000, 0.000, 0.000, 12:26:40.897
33, -62905.20, -71610.59, -104788.75, -140350.28, -93212.47, -81137.59, -133674.52, -124816.74, 0.000, 0.000, 0.000, 12:26:40.897
34, -62812.87, -71528.06, -104677.51, -140257.03, -93117.56, -81422.35, -133594.78, -124689.13, 0.000, 0.000, 0.000, 12:26:40.897
35, -62973.85, -71688.73, -104697.11, -140389.94, -93260.02, -81148.23, -133748.19, -124696.27, 0.000, 0.000, 0.000, 12:26:40.897
36, -63073.29, -71784.99, -104816.65, -140500.27, -93376.17, -80838.12, -133848.36, -124835.92, 0.000, 0.000, 0.000, 12:26:40.897
37, -62905.85, -71609.89, -104782.54, -140355.16, -93224.66, -81078.31, -133685.78, -124818.30, 0.000, 0.000, 0.000, 12:26:40.897
38, -62798.70, -71506.55, -104674.53, -140243.72, -93108.36, -81429.77, -133582.77, -124692.24, 0.000, 0.000, 0.000, 12:26:40.897
39, -62934.38, -71642.57, -104671.52, -140346.75, -93219.31, -81249.88, -133707.77, -124667.92, 0.000, 0.000, 0.000, 12:26:40.897
40, -63083.82, -71792.93, -104799.13, -140497.72, -93379.30, -80881.46, -133851.06, -124805.23, 0.234, 0.412, 0.858, 12:26:40.898
41, -62959.83, -71663.84, -104813.83, -140403.23, -93279.21, -81017.56, -133732.81, -124837.48, 0.000, 0.000, 0.000, 12:26:40.898
42, -62794.70, -71495.49, -104692.05, -140234.77, -93109.23, -81417.48, -133568.23, -124701.59, 0.000, 0.000, 0.000, 12:26:40.898
43, -62903.20, -71606.80, -104658.58, -140311.38, -93188.20, -81335.49, -133674.25, -124647.56, 0.000, 0.000, 0.000, 12:26:40.898
44, -63084.02, -71784.34, -104788.87, -140487.39, -93378.01, -80927.77, -133852.44, -124786.30, 0.000, 0.000, 0.000, 12:26:40.898
45, -62979.10, -71672.90, -104823.04, -140411.17, -93302.68, -80974.20, -133757.19, -124837.26, 0.000, 0.000, 0.000, 12:26:40.898
46, -62806.99, -71501.53, -104718.08, -140250.75, -93130.33, -81380.44, -133593.69, -124730.06, 0.000, 0.000, 0.000, 12:26:40.898
47, -62868.79, -71574.91, -104669.04, -140293.53, -93169.16, -81398.48, -133648.36, -124652.32, 0.000, 0.000, 0.000, 12:26:40.898
48, -63062.20, -71765.13, -104773.66, -140470.94, -93360.82, -80986.18, -133835.58, -124753.11, 0.000, 0.000, 0.000, 12:26:40.899
49, -63009.03, -71703.81, -104828.60, -140438.86, -93332.19, -80930.03, -133789.31, -124830.76, 0.000, 0.000, 0.000, 12:26:40.899
50, -62847.40, -71537.94, -104751.83, -140288.73, -93173.63, -81310.32, -133633.63, -124757.46, 0.242, 0.418, 0.864, 12:26:40.899
51, -62862.56, -71548.29, -104676.77, -140281.38, -93165.29, -81429.73, -133636.20, -124659.85, 0.000, 0.000, 0.000, 12:26:40.899
52, -63035.29, -71724.47, -104746.44, -140435.56, -93327.78, -81050.09, -133796.47, -124718.73, 0.000, 0.000, 0.000, 12:26:40.899
53, -63052.64, -71744.38, -104835.65, -140469.59, -93364.04, -80890.36, -133818.75, -124830.71, 0.000, 0.000, 0.000, 12:26:40.899
54, -62869.09, -71560.38, -104776.64, -140312.27, -93197.72, -81235.94, -133643.63, -124783.55, 0.000, 0.000, 0.000, 12:26:40.900
55, -62834.15, -71525.00, -104683.38, -140265.94, -93143.20, -81453.58, -133610.20, -124667.84, 0.000, 0.000, 0.000, 12:26:40.900
56, -63013.90, -71704.91, -104732.16, -140422.34, -93300.91, -81116.02, -133782.70, -124705.48, 0.000, 0.000, 0.000, 12:26:40.900
57, -63067.99, -71764.41, -104833.55, -140491.08, -93376.63, -80868.03, -133839.56, -124825.97, 0.000, 0.000, 0.000, 12:26:40.900
58, -62888.33, -71583.27, -104792.62, -140339.22, -93213.68, -81164.44, -133669.19, -124795.64, 0.000, 0.000, 0.000, 12:26:40.900
59, -62814.64, -71505.55, -104687.19, -140253.55, -93123.11, -81464.08, -133591.39, -124675.48, 0.242, 0.428, 0.872, 12:26:40.900
60, -62966.18, -71655.60, -104701.49, -140379.70, -93264.70, -81207.59, -133740.25, -124674.74, 0.000, 0.000, 0.000, 12:26:40.900
61, -63075.10, -71772.37, -104820.38, -140498.17, -93396.85, -80879.47, -133855.03, -124813.16, 0.000, 0.000, 0.000, 12:26:40.900
62, -62927.13, -71620.40, -104810.66, -140374.52, -93267.61, -81089.33, -133711.84, -124822.09, 0.000, 0.000, 0.000, 12:26:40.901
63, -62772.37, -71462.99, -104674.34, -140212.73, -93098.55, -81470.02, -133554.55, -124672.02, 0.000, 0.000, 0.000, 12:26:40.901
64, -62904.11, -71590.94, -104648.96, -140307.58, -93198.95, -81317.77, -133676.34, -124627.04, 0.000, 0.000, 0.000, 12:26:40.901
65, -63047.25, -71731.77, -104767.52, -140453.22, -93358.16, -80945.41, -133819.36, -124760.44, 0.000, 0.000, 0.000, 12:26:40.901
66, -62942.98, -71625.78, -104797.24, -140381.25, -93285.05, -81057.10, -133727.16, -124805.23, 0.000, 0.000, 0.000, 12:26:40.901
67, -62766.69, -71452.40, -104681.42, -140219.16, -93112.20, -81456.59, -133560.09, -124679.44, 0.000, 0.000, 0.000, 12:26:40.901
68, -62881.20, -71566.66, -104653.28, -140300.05, -93199.02, -81384.62, -133659.30, -124624.36, 0.000, 0.000, 0.000, 12:26:40.901
69, -63060.24, -71740.54, -104770.27, -140468.17, -93376.94, -80966.09, -133835.77, -124746.71, 0.238, 0.422, 0.864, 12:26:40.901
70, -62960.75, -71640.22, -104803.98, -140402.09, -93312.74, -80980.05, -133747.94, -124808.80, 0.000, 0.000, 0.000, 12:26:40.902
71, -62776.53, -71457.18, -104690.54, -140226.50, -93123.35, -81387.08, -133563.50, -124691.64, 0.000, 0.000, 0.000, 12:26:40.902
72, -62842.35, -71526.18, -104633.98, -140261.14, -93153.93, -81421.28, -133614.41, -124605.41, 0.000, 0.000, 0.000, 12:26:40.902
73, -63036.59, -71727.13, -104738.93, -140444.92, -93353.40, -81002.18, -133806.61, -124711.53, 0.000, 0.000, 0.000, 12:26:40.902
74, -63004.92, -71690.11, -104811.20, -140437.61, -93350.05, -80911.91, -133784.13, -124814.69, 0.000, 0.000, 0.000, 12:26:40.902
75, -62809.54, -71490.29, -104722.21, -140261.34, -93164.98, -81299.80, -133594.20, -124730.20, 0.000, 0.000, 0.000, 12:26:40.902
76, -62787.64, -71474.04, -104618.03, -140222.09, -93125.52, -81460.26, -133568.61, -124604.63, 0.000, 0.000, 0.000, 12:26:40.902
77, -62975.01, -71662.23, -104682.31, -140390.83, -93303.46, -81080.41, -133751.53, -124661.84, 0.000, 0.000, 0.000, 12:26:40.902
78, -63028.52, -71704.64, -104796.10, -140451.97, -93378.09, -80882.16, -133803.17, -124796.87, 0.000, 0.000, 0.000, 12:26:40.903
79, -62826.19, -71507.61, -104732.38, -140277.31, -93195.66, -81220.05, -133611.61, -124741.26, 0.246, 0.418, 0.878, 12:26:40.903
80, -62768.23, -71452.96, -104620.55, -140201.31, -93114.95, -81465.06, -133553.02, -124608.20, 0.000, 0.000, 0.000, 12:26:40.903
81, -62963.95, -71646.26, -104669.57, -140363.39, -93287.22, -81141.66, -133739.25, -124646.42, 0.000, 0.000, 0.000, 12:26:40.903
82, -63049.51, -71726.88, -104797.02, -140464.73, -93395.29, -80860.88, -133830.75, -124786.14, 0.000, 0.000, 0.000, 12:26:40.903
83, -62888.40, -71563.38, -104774.67, -140334.42, -93247.88, -81119.41, -133672.59, -124774.98, 0.000, 0.000, 0.000, 12:26:40.903
84, -62771.54, -71455.09, -104654.93, -140216.94, -93118.86, -81434.94, -133558.22, -124634.91, 0.000, 0.000, 0.000, 12:26:40.903
85, -62937.88, -71630.74, -104672.16, -140355.67, -93271.16, -81182.77, -133723.38, -124632.79, 0.000, 0.000, 0.000, 12:26:40.903
86, -63080.71, -71756.41, -104803.17, -140489.66, -93418.94, -80828.29, -133854.36, -124785.47, 0.000, 0.000, 0.000, 12:26:40.904
87, -62921.07, -71589.08, -104785.58, -140355.67, -93278.45, -81017.80, -133705.98, -124795.28, 0.000, 0.000, 0.000, 12:26:40.904
88, -62756.05, -71436.33, -104654.57, -140201.72, -93115.93, -81395.53, -133559.09, -124654.98, 0.238, 0.414, 0.874, 12:26:40.904
89, -62869.58, -71559.87, -104631.84, -140290.88, -93209.16, -81257.17, -133670.27, -124606.05, 0.000, 0.000, 0.000, 12:26:41.367
90, -63027.85, -71714.43, -104750.44, -140445.55, -93377.00, -80870.20, -133823.44, -124735.18, 0.000, 0.000, 0.000, 12:26:41.367
91, -62943.56, -71611.66, -104787.10, -140376.50, -93310.88, -80955.06, -133736.20, -124793.34, 0.000, 0.000, 0.000, 12:26:41.367
92, -62773.62, -71438.19, -104674.83, -140211.70, -93142.89, -81358.65, -133570.80, -124673.34, 0.000, 0.000, 0.000, 12:26:41.367
93, -62854.09, -71526.85, -104628.55, -140268.75, -93200.78, -81319.64, -133648.78, -124602.86, 0.000, 0.000, 0.000, 12:26:41.368
94, -63049.89, -71727.46, -104753.37, -140458.56, -93397.70, -80898.91, -133844.95, -124729.66, 0.000, 0.000, 0.000, 12:26:41.368
95, -62986.14, -71658.26, -104810.09, -140419.42, -93354.80, -80883.63, -133782.27, -124813.70, 0.000, 0.000, 0.000, 12:26:41.368
96, -62780.39, -71448.42, -104690.12, -140223.17, -93146.13, -81299.48, -133581.13, -124696.34, 0.000, 0.000, 0.000, 12:26:41.368
97, -62831.80, -71507.12, -104628.09, -140251.17, -93175.88, -81366.45, -133630.41, -124602.23, 0.000, 0.000, 0.000, 12:26:41.368
98, -63033.68, -71710.59, -104736.96, -140440.63, -93371.19, -80949.73, -133814.23, -124703.13, 0.246, 0.406, 0.878, 12:26:41.368
99, -62989.92, -71665.23, -104800.93, -140425.95, -93351.97, -80839.87, -133770.38, -124787.95, 0.000, 0.000, 0.000, 12:26:41.368
100, -62808.55, -71485.39, -104721.45, -140265.80, -93185.54, -81209.49, -133602.00, -124718.84, 0.000, 0.000, 0.000, 12:26:41.368
101, -62808.27, -71481.08, -104635.95, -140237.75, -93151.14, -81370.23, -133591.05, -124612.11, 0.000, 0.000, 0.000, 12:26:41.369
102, -63007.42, -71681.33, -104704.77, -140409.11, -93338.49, -80994.47, -133783.97, -124672.17, 0.000, 0.000, 0.000, 12:26:41.369
103, -63041.62, -71713.85, -104807.02, -140464.58, -93400.65, -80782.02, -133824.22, -124798.93, 0.000, 0.000, 0.000, 12:26:41.369
104, -62841.05, -71509.98, -104748.48, -140298.13, -93227.49, -81102.38, -133638.97, -124753.28, 0.000, 0.000, 0.000, 12:26:41.369
105, -62774.71, -71439.46, -104629.90, -140204.80, -93128.70, -81369.73, -133563.41, -124611.04, 0.000, 0.000, 0.000, 12:26:41.369
106, -62973.22, -71641.63, -104679.09, -140374.73, -93307.96, -81051.54, -133757.73, -124646.17, 0.000, 0.000, 0.000, 12:26:41.369
107, -63037.08, -71708.20, -104792.57, -140460.41, -93401.21, -80761.01, -133829.44, -124781.73, 0.238, 0.404, 0.874, 12:26:41.369
108, -62861.08, -71532.22, -104755.91, -140314.14, -93243.02, -81019.53, -133658.75, -124754.89, 0.000, 0.000, 0.000, 12:26:41.369
109, -62755.74, -71426.41, -104636.67, -140199.33, -93125.73, -81351.12, -133547.69, -124609.01, 0.000, 0.000, 0.000, 12:26:41.370
110, -62931.11, -71600.15, -104657.30, -140342.27, -93276.71, -81118.12, -133713.92, -124612.76, 0.000, 0.000, 0.000, 12:26:41.370
111, -63051.23, -71723.59, -104785.06, -140472.58, -93416.74, -80757.41, -133837.84, -124754.60, 0.000, 0.000, 0.000, 12:26:41.370
112, -62907.84, -71573.66, -104775.63, -140352.59, -93285.72, -80923.84, -133701.02, -124768.64, 0.000, 0.000, 0.000, 12:26:41.370
113, -62754.29, -71414.24, -104651.89, -140197.20, -93124.38, -81306.66, -133550.80, -124635.65, 0.000, 0.000, 0.000, 12:26:41.370
114, -62875.19, -71538.48, -104627.88, -140288.59, -93224.48, -81189.94, -133666.84, -124588.38, 0.000, 0.000, 0.000, 12:26:41.370
115, -63039.27, -71713.24, -104760.05, -140457.59, -93413.81, -80787.05, -133838.27, -124731.07, 0.000, 0.000, 0.000, 12:26:41.370
116, -62953.48, -71619.37, -104799.37, -140392.95, -93344.73, -80851.82, -133755.22, -124792.24, 0.000, 0.000, 0.000, 12:26:41.370
117, -62774.36, -71438.56, -104683.56, -140221.67, -93157.82, -81257.20, -133578.02, -124668.23, 0.242, 0.398, 0.874, 12:26:41.371
118, -62861.13, -71529.07, -104639.38, -140281.05, -93220.77, -81240.12, -133659.22, -124601.34, 0.000, 0.000, 0.000, 12:26:41.371
119, -63057.22, -71720.17, -104760.97, -140466.30, -93416.84, -80815.14, -133839.67, -124723.35, 0.000, 0.000, 0.000, 12:26:41.371
120, -63006.30, -71666.38, -104822.88, -140439.58, -93390.10, -80772.85, -133795.45, -124805.90, 0.000, 0.000, 0.000, 12:26:41.371
121, -62799.32, -71449.72, -104715.70, -140248.72, -93193.45, -81177.45, -133598.72, -124703.44, 0.000, 0.000, 0.000, 12:26:41.371
122, -62828.63, -71477.84, -104630.70, -140248.56, -93193.18, -81274.72, -133611.50, -124591.73, 0.000, 0.000, 0.000, 12:26:41.371
123, -63029.73, -71693.35, -104726.99, -140436.28, -93393.20, -80864.34, -133807.08, -124687.13, 0.000, 0.000, 0.000, 12:26:41.371
124, -63012.52, -71683.90, -104811.62, -140442.84, -93398.30, -80730.41, -133800.06, -124789.61, 0.000, 0.000, 0.000, 12:26:41.372
125, -62825.66, -71486.76, -104728.42, -140267.00, -93207.42, -81100.30, -133608.89, -124697.72, 0.000, 0.000, 0.000, 12:26:41.372
126, -62811.13, -71471.02, -104642.08, -140236.05, -93173.83, -81290.27, -133594.73, -124592.38, 0.238, 0.396, 0.874, 12:26:41.372
127, -62994.90, -71651.51, -104706.09, -140396.53, -93350.02, -80934.37, -133770.84, -124647.38, 0.000, 0.000, 0.000, 12:26:41.372
128, -63044.10, -71697.38, -104801.25, -140452.52, -93414.44, -80706.65, -133803.33, -124769.49, 0.000, 0.000, 0.000, 12:26:41.372
129, -62852.01, -71505.27, -104748.41, -140291.38, -93250.34, -81014.41, -133625.20, -124727.63, 0.000, 0.000, 0.000, 12:26:41.372
130, -62773.06, -71417.69, -104630.66, -140195.33, -93149.13, -81300.11, -133544.72, -124592.13, 0.000, 0.000, 0.000, 12:26:41.372
131, -62958.25, -71606.72, -104661.62, -140348.98, -93307.51, -81012.98, -133726.73, -124610.66, 0.000, 0.000, 0.000, 12:26:41.372
132, -63065.27, -71713.05, -104793.40, -140465.08, -93435.05, -80699.77, -133839.00, -124759.86, 0.000, 0.000, 0.000, 12:26:41.373
133, -62873.36, -71516.77, -104752.19, -140304.72, -93270.88, -80951.60, -133661.55, -124739.29, 0.000, 0.000, 0.000, 12:26:41.373
134, -62748.41, -71392.32, -104623.23, -140177.55, -93125.21, -81307.58, -133532.42, -124599.82, 0.000, 0.000, 0.000, 12:26:41.373
135, -62888.13, -71529.63, -104614.85, -140286.66, -93246.60, -81118.05, -133668.88, -124569.53, 0.000, 0.000, 0.000, 12:26:41.373
136, -63029.28, -71687.70, -104747.22, -140441.77, -93413.15, -80739.04, -133829.88, -124716.18, 0.238, 0.406, 0.870, 12:26:41.373
137, -62911.91, -71572.01, -104769.75, -140353.69, -93316.72, -80877.20, -133710.17, -124752.44, 0.000, 0.000, 0.000, 12:26:41.373
138, -62781.96, -71424.15, -104663.65, -140209.73, -93160.99, -81259.67, -133563.72, -124634.51, 0.000, 0.000, 0.000, 12:26:41.373
139, -62893.09, -71534.21, -104629.56, -140284.19, -93243.80, -81159.12, -133663.86, -124584.02, 0.000, 0.000, 0.000, 12:26:41.373
140, -63049.71, -71694.02, -104742.04, -140438.89, -93413.79, -80756.56, -133828.77, -124710.93, 0.000, 0.000, 0.000, 12:26:41.374
141, -62959.36, -71604.73, -104783.55, -140388.27, -93357.13, -80793.26, -133761.73, -124775.23, 0.000, 0.000, 0.000, 12:26:41.374
142, -62774.74, -71422.34, -104678.29, -140223.02, -93178.20, -81190.63, -133581.53, -124663.77, 0.000, 0.000, 0.000, 12:26:41.374
143, -62837.52, -71479.11, -104616.91, -140246.66, -93207.11, -81206.48, -133624.05, -124572.02, 0.000, 0.000, 0.000, 12:26:41.374
144, -63021.84, -71669.10, -104713.05, -140418.75, -93387.55, -80792.63, -133804.27, -124668.84, 0.000, 0.000, 0.000, 12:26:41.374
145, -62967.41, -71620.66, -104773.22, -140398.16, -93363.55, -80735.68, -133759.03, -124755.72, 0.000, 0.000, 0.000, 12:26:41.374
146, -62769.80, -71416.97, -104672.73, -140217.88, -93180.33, -81136.59, -133571.73, -124654.87, 0.238, 0.424, 0.874, 12:26:41.374
147, -62784.84, -71433.63, -104595.92, -140218.66, -93181.55, -81255.20, -133590.81, -124557.64, 0.000, 0.000, 0.000, 12:26:41.374
148, -62984.44, -71641.88, -104680.41, -140397.92, -93373.13, -80857.86, -133786.88, -124640.56, 0.000, 0.000, 0.000, 12:26:41.374
149, -62984.22, -71637.25, -104763.54, -140410.33, -93392.94, -80701.62, -133788.86, -124749.75, 0.000, 0.000, 0.000, 12:26:41.374
150, -62812.96, -71454.68, -104699.75, -140252.75, -93224.16, -81054.27, -133612.83, -124696.47, 0.000, 0.000, 0.000, 12:26:41.374
151, -62798.52, -71441.52, -104610.23, -140215.33, -93179.30, -81261.30, -133586.17, -124583.86, 0.000, 0.000, 0.000, 12:26:41.375
152, -63013.61, -71655.35, -104690.59, -140403.94, -93371.77, -80889.10, -133793.05, -124647.85, 0.000, 0.000, 0.000, 12:26:41.375
153, -63053.98, -71692.63, -104796.06, -140460.95, -93438.56, -80633.38, -133840.72, -124777.31, 0.000, 0.000, 0.000, 12:26:41.375
154, -62844.09, -71486.35, -104731.13, -140284.89, -93253.46, -80935.82, -133643.36, -124722.15, 0.000, 0.000, 0.000, 12:26:41.375
155, -62772.50, -71409.44, -104620.66, -140202.97, -93160.01, -81226.33, -133569.59, -124598.30, 0.246, 0.430, 0.872, 12:26:41.375
156, -62946.60, -71581.30, -104647.89, -140345.14, -93313.21, -80952.77, -133732.03, -124606.37, 0.000, 0.000, 0.000, 12:26:41.375
157, -63053.57, -71685.30, -104767.65, -140453.89, -93441.48, -80622.16, -133837.06, -124740.52, 0.000, 0.000, 0.000, 12:26:41.375
158, -62890.97, -71522.79, -104749.57, -140320.92, -93299.40, -80836.47, -133689.67, -124736.41, 0.000, 0.000, 0.000, 12:26:41.375
159, -62764.39, -71400.45, -104627.88, -140191.17, -93151.48, -81190.97, -133562.55, -124602.12, 0.000, 0.000, 0.000, 12:26:41.375
160, -62909.59, -71553.95, -104623.95, -140308.47, -93273.13, -81001.34, -133693.61, -124577.42, 0.000, 0.000, 0.000, 12:26:41.375
161, -63058.45, -71702.74, -104754.13, -140461.86, -93446.02, -80613.59, -133842.53, -124721.19, 0.000, 0.000, 0.000, 12:26:41.376
162, -62944.41, -71583.07, -104782.74, -140382.30, -93369.31, -80724.09, -133747.78, -124776.71, 0.000, 0.000, 0.000, 12:26:41.376
163, -62770.78, -71402.29, -104656.52, -140205.94, -93181.98, -81126.86, -133579.23, -124643.18, 0.000, 0.000, 0.000, 12:26:41.376
164, -62878.16, -71506.73, -104611.05, -140271.34, -93254.47, -81057.10, -133672.25, -124578.20, 0.000, 0.000, 0.000, 12:26:41.376
165, -63036.59, -71673.28, -104717.41, -140430.08, -93424.99, -80646.30, -133836.55, -124695.15, 0.244, 0.428, 0.874, 12:26:41.376
166, -62962.18, -71604.17, -104769.35, -140388.38, -93383.41, -80657.98, -133778.73, -124774.81, 0.000, 0.000, 0.000, 12:26:41.376
167, -62741.86, -71388.09, -104641.90, -140185.55, -93169.53, -81074.29, -133569.55, -124645.48, 0.000, 0.000, 0.000, 12:26:41.376
168, -62805.43, -71445.92, -104572.79, -140211.86, -93198.41, -81115.02, -133619.47, -124546.09, 0.000, 0.000, 0.000, 12:26:41.376
169, -63009.27, -71655.78, -104687.92, -140401.45, -93404.54, -80699.59, -133816.84, -124657.87, 0.000, 0.000, 0.000, 12:26:41.376
170, -62991.86, -71626.50, -104765.53, -140397.73, -93398.26, -80618.63, -133789.88, -124753.17, 0.000, 0.000, 0.000, 12:26:41.376
171, -62803.04, -71424.13, -104678.80, -140222.25, -93216.02, -81009.36, -133604.52, -124669.02, 0.000, 0.000, 0.000, 12:26:41.376
172, -62792.11, -71423.19, -104585.35, -140195.44, -93190.39, -81158.84, -133596.86, -124550.13, 0.000, 0.000, 0.000, 12:26:41.377
173, -62976.11, -71624.17, -104659.29, -140372.34, -93376.73, -80769.12, -133780.81, -124619.94, 0.000, 0.000, 0.000, 12:26:41.377
174, -62969.82, -71615.41, -104740.56, -140393.53, -93405.91, -80594.04, -133788.31, -124731.34, 0.242, 0.418, 0.868, 12:26:41.377
175, -62800.58, -71430.92, -104685.27, -140249.61, -93249.28, -80929.00, -133630.41, -124681.71, 0.000, 0.000, 0.000, 12:26:41.377
176, -62779.03, -71412.37, -104596.52, -140201.02, -93190.50, -81152.95, -133590.66, -124574.09, 0.000, 0.000, 0.000, 12:26:41.377
177, -62965.09, -71603.56, -104642.80, -140346.36, -93350.00, -80824.15, -133750.53, -124604.42, 0.000, 0.000, 0.000, 12:26:41.377
178, -63034.98, -71677.15, -104748.45, -140427.95, -93434.78, -80552.24, -133819.86, -124731.40, 0.000, 0.000, 0.000, 12:26:41.377
179, -62839.29, -71480.18, -104705.63, -140272.03, -93272.53, -80829.07, -133648.47, -124709.12, 0.000, 0.000, 0.000, 12:26:41.377
180, -62724.58, -71363.48, -104573.44, -140147.72, -93143.94, -81150.77, -133535.44, -124560.50, 0.000, 0.000, 0.000, 12:26:41.378
181, -62923.20, -71557.05, -104609.06, -140305.83, -93313.79, -80888.93, -133709.53, -124576.80, 0.000, 0.000, 0.000, 12:26:41.378
182, -63017.21, -71646.21, -104723.75, -140409.81, -93429.41, -80556.00, -133810.70, -124707.66, 0.000, 0.000, 0.000, 12:26:41.378
183, -62872.19, -71502.13, -104722.26, -140301.67, -93309.57, -80742.97, -133681.55, -124722.20, 0.000, 0.000, 0.000, 12:26:41.378
184, -62729.92, -71365.05, -104593.13, -140157.38, -93147.09, -81112.49, -133530.59, -124578.25, 0.240, 0.414, 0.874, 12:26:41.378
185, -62897.11, -71542.59, -104607.14, -140291.80, -93294.88, -80938.75, -133690.88, -124564.79, 0.000, 0.000, 0.000, 12:26:41.378
186, -63041.91, -71691.70, -104739.51, -140444.45, -93456.57, -80535.91, -133839.94, -124707.44, 0.000, 0.000, 0.000, 12:26:41.378
187, -62886.83, -71535.82, -104730.41, -140325.67, -93332.77, -80649.36, -133702.34, -124720.54, 0.000, 0.000, 0.000, 12:26:41.378
188, -62725.90, -71365.56, -104606.88, -140165.17, -93157.42, -81054.95, -133536.20, -124587.62, 0.000, 0.000, 0.000, 12:26:41.378
189, -62852.10, -71489.19, -104589.04, -140254.38, -93250.63, -80995.12, -133647.72, -124536.59, 0.000, 0.000, 0.000, 12:26:41.378
190, -63050.49, -71690.29, -104726.28, -140443.41, -93452.82, -80568.31, -133839.61, -124674.31, 0.000, 0.000, 0.000, 12:26:41.379
191, -62968.26, -71604.02, -104771.05, -140389.41, -93392.34, -80564.31, -133765.33, -124746.29, 0.000, 0.000, 0.000, 12:26:41.379
192, -62790.88, -71418.72, -104669.02, -140215.64, -93206.37, -80962.30, -133589.05, -124641.10, 0.000, 0.000, 0.000, 12:26:41.379
193, -62812.56, -71447.13, -104588.97, -140217.88, -93212.72, -81031.69, -133612.72, -124535.38, 0.236, 0.410, 0.872, 12:26:41.379
194, -63013.34, -71651.73, -104689.11, -140405.23, -93402.93, -80621.27, -133800.28, -124632.56, 0.000, 0.000, 0.000, 12:26:41.379
195, -63004.04, -71630.84, -104771.54, -140411.03, -93404.63, -80515.83, -133791.69, -124743.36, 0.000, 0.000, 0.000, 12:26:41.379
196, -62804.22, -71434.66, -104686.72, -140239.11, -93215.24, -80892.46, -133606.08, -124669.66, 0.000, 0.000, 0.000, 12:26:41.379
197, -62801.79, -71441.23, -104604.23, -140221.63, -93198.63, -81052.50, -133601.73, -124560.59, 0.000, 0.000, 0.000, 12:26:41.379
198, -63002.99, -71624.30, -104683.54, -140393.52, -93392.34, -80673.95, -133791.77, -124617.95, 0.000, 0.000, 0.000, 12:26:41.379
199, -63022.91, -71645.56, -104778.42, -140429.84, -93442.29, -80468.94, -133823.16, -124734.95, 0.000, 0.000, 0.000, 12:26:41.379
200, -62808.11, -71446.84, -104695.59, -140239.69, -93237.26, -80811.21, -133616.64, -124669.89, 0.000, 0.000, 0.000, 12:26:41.379
201, -62749.86, -71389.26, -104583.34, -140167.89, -93163.88, -81068.66, -133563.63, -124540.02, 0.000, 0.000, 0.000, 12:26:41.380
202, -62952.48, -71592.57, -104640.02, -140345.73, -93348.64, -80737.67, -133749.73, -124581.40, 0.000, 0.000, 0.000, 12:26:41.380
203, -63001.36, -71632.35, -104735.55, -140407.55, -93417.73, -80462.73, -133802.92, -124702.44, 0.242, 0.410, 0.866, 12:26:41.380
204, -62838.75, -71470.17, -104702.74, -140274.98, -93275.64, -80724.66, -133651.33, -124687.70, 0.000, 0.000, 0.000, 12:26:41.380
205, -62752.54, -71383.42, -104601.80, -140179.88, -93170.88, -81043.49, -133560.09, -124565.71, 0.000, 0.000, 0.000, 12:26:41.380
206, -62914.10, -71541.25, -104618.43, -140306.28, -93303.38, -80805.53, -133705.05, -124553.68, 0.000, 0.000, 0.000, 12:26:41.380
207, -63051.61, -71676.21, -104748.59, -140445.27, -93453.80, -80439.14, -133841.66, -124698.81, 0.000, 0.000, 0.000, 12:26:41.380
208, -62910.79, -71524.17, -104749.26, -140331.17, -93334.66, -80598.96, -133711.03, -124724.90, 0.000, 0.000, 0.000, 12:26:41.380
209, -62751.71, -71364.36, -104617.72, -140174.63, -93168.41, -80972.88, -133556.16, -124585.63, 0.000, 0.000, 0.000, 12:26:41.504
210, -62876.77, -71498.42, -104601.27, -140272.14, -93269.24, -80838.10, -133668.86, -124544.23, 0.000, 0.000, 0.000, 12:26:41.504
211, -63027.45, -71649.03, -104724.00, -140428.27, -93435.07, -80440.30, -133822.27, -124674.85, 0.000, 0.000, 0.000, 12:26:41.504
212, -62942.09, -71558.48, -104762.16, -140365.39, -93371.77, -80513.08, -133748.59, -124737.30, 0.000, 0.000, 0.000, 12:26:41.504
213, -62751.27, -71377.52, -104645.50, -140192.89, -93194.92, -80912.28, -133578.31, -124621.68, 0.248, 0.414, 0.864, 12:26:41.504
214, -62816.40, -71451.04, -104581.15, -140232.81, -93235.20, -80888.03, -133639.27, -124534.35, 0.000, 0.000, 0.000, 12:26:41.504
215, -63023.78, -71644.71, -104701.58, -140419.20, -93431.72, -80460.96, -133825.41, -124652.88, 0.000, 0.000, 0.000, 12:26:41.504
216, -62946.58, -71566.51, -104755.27, -140376.50, -93393.27, -80436.52, -133768.17, -124730.46, 0.000, 0.000, 0.000, 12:26:41.504
217, -62761.71, -71371.77, -104649.34, -140198.31, -93207.45, -80840.05, -133584.23, -124627.98, 0.000, 0.000, 0.000, 12:26:41.505
218, -62815.62, -71418.07, -104580.50, -140212.23, -93224.98, -80921.67, -133620.28, -124530.37, 0.000, 0.000, 0.000, 12:26:41.505
219, -63013.77, -71622.12, -104683.43, -140399.48, -93426.47, -80504.30, -133812.94, -124627.29, 0.000, 0.000, 0.000, 12:26:41.505
220, -62990.79, -71603.07, -104758.63, -140402.92, -93429.26, -80371.59, -133799.70, -124728.79, 0.000, 0.000, 0.000, 12:26:41.505
221, -62782.52, -71392.90, -104664.34, -140212.48, -93226.30, -80747.95, -133597.58, -124639.23, 0.000, 0.000, 0.000, 12:26:41.505
222, -62764.39, -71376.59, -104570.33, -140178.27, -93190.14, -80934.70, -133582.38, -124522.95, 0.246, 0.410, 0.870, 12:26:41.505
223, -62977.85, -71597.75, -104654.93, -140370.72, -93390.97, -80563.59, -133784.23, -124590.52, 0.000, 0.000, 0.000, 12:26:41.505
224, -63000.71, -71625.88, -104757.46, -140422.75, -93448.20, -80341.17, -133820.30, -124713.23, 0.000, 0.000, 0.000, 12:26:41.505
225, -62806.43, -71429.24, -104697.52, -140260.25, -93276.11, -80653.79, -133635.89, -124667.38, 0.000, 0.000, 0.000, 12:26:41.505
226, -62727.13, -71336.87, -104570.15, -140153.34, -93170.90, -80935.41, -133547.05, -124525.90, 0.000, 0.000, 0.000, 12:26:41.505
227, -62904.33, -71509.27, -104593.24, -140295.88, -93324.61, -80645.56, -133708.42, -124535.51, 0.000, 0.000, 0.000, 12:26:41.506
228, -62977.76, -71594.63, -104706.48, -140391.95, -93425.80, -80346.16, -133793.42, -124670.96, 0.000, 0.000, 0.000, 12:26:41.506
229, -62813.90, -71434.36, -104676.91, -140260.92, -93283.28, -80589.37, -133646.81, -124656.68, 0.000, 0.000, 0.000, 12:26:41.506
230, -62718.08, -71331.59, -104570.64, -140148.27, -93161.95, -80928.00, -133535.23, -124531.00, 0.000, 0.000, 0.000, 12:26:41.506
231, -62900.76, -71512.59, -104591.72, -140290.03, -93309.92, -80708.73, -133699.39, -124531.82, 0.000, 0.000, 0.000, 12:26:41.506
232, -63047.92, -71652.70, -104732.80, -140438.67, -93473.63, -80332.50, -133841.14, -124679.95, 0.250, 0.416, 0.868, 12:26:41.506
233, -62891.86, -71493.80, -104736.45, -140324.27, -93355.50, -80489.14, -133709.16, -124700.55, 0.000, 0.000, 0.000, 12:26:41.506
234, -62715.55, -71328.41, -104596.30, -140155.98, -93177.63, -80884.81, -133541.78, -124555.16, 0.000, 0.000, 0.000, 12:26:41.506
235, -62834.77, -71452.06, -104560.02, -140235.05, -93264.10, -80779.36, -133642.59, -124497.85, 0.000, 0.000, 0.000, 12:26:41.506
236, -62978.77, -71603.32, -104672.86, -140387.84, -93431.14, -80380.24, -133798.23, -124618.13, 0.000, 0.000, 0.000, 12:26:41.507
237, -62876.80, -71497.02, -104700.73, -140317.70, -93359.75, -80432.86, -133712.95, -124673.55, 0.000, 0.000, 0.000, 12:26:41.507
238, -62702.36, -71319.95, -104582.58, -140143.28, -93176.51, -80838.45, -133536.89, -124557.26, 0.000, 0.000, 0.000, 12:26:41.507
240, -62919.67, -71535.19, -11718.75, 39035.91, -102665.56, 127549.35, -64394.70, -105400.79, 0, 12:26:41.507
241, -62748.21, -71364.22, -104533.12, -140166.02, -93211.82, -80875.74, -133585.11, -124488.44, 0, 12:26:42.004
242, -62943.98, -71554.73, -104619.19, -140339.48, -93391.71, -80475.04, -133759.52, -124564.95, 0, 12:26:42.004
243, -62945.71, -71557.97, -104715.70, -140376.48, -93429.13, -80317.84, -133773.80, -124684.46, 0, 12:26:42.004
244, -62730.10, -71343.75, -104631.55, -140185.69, -93235.20, -80686.91, -133578.69, -124610.68, 0, 12:26:42.004
245, -62709.96, -71322.63, -104524.29, -140133.30, -93182.23, -80904.05, -133542.77, -124480.80, 0, 12:26:42.004
246, -62912.18, -71530.81, -104595.61, -140311.64, -93372.66, -80549.83, -133734.73, -124539.91, 0, 12:26:42.004
247, -62947.14, -71556.34, -104695.37, -140366.22, -93428.99, -80315.65, -133779.80, -124660.93, 0, 12:26:42.004
248, -62760.77, -71362.55, -104635.84, -140201.33, -93257.06, -80625.13, -133604.44, -124614.39, 0, 12:26:42.004
249, -62690.36, -71296.50, -104520.71, -140114.13, -93160.57, -80922.66, -133518.91, -124484.77, 0, 12:26:42.004
250, -62878.11, -71491.16, -104561.75, -140272.09, -93330.38, -80653.25, -133694.58, -124507.46, 0, 12:26:42.005
251, -62981.67, -71593.77, -104686.67, -140385.88, -93455.95, -80342.67, -133805.50, -124651.30, 0, 12:26:42.005
252, -62844.86, -71448.80, -104684.19, -140273.11, -93340.75, -80564.29, -133683.25, -124669.66, 0, 12:26:42.005
253, -62730.66, -71332.02, -104573.51, -140153.05, -93212.20, -80915.23, -133569.89, -124552.23, 0, 12:26:42.005
254, -62858.85, -71471.49, -104570.24, -140259.50, -93331.77, -80728.20, -133701.45, -124533.90, 0, 12:26:42.005
0, -62860.46, -71464.83, -104692.10, -140294.14, -93369.78, -80500.16, -133708.83, -124683.03, 0, 12:26:42.005
1, -62709.79, -71310.31, -104579.25, -140143.63, -93205.52, -80895.05, -133547.22, -124549.99, 0, 12:26:42.005
2, -62823.80, -71427.88, -104548.02, -140223.33, -93286.48, -80816.02, -133647.83, -124497.13, 0, 12:26:42.005
3, -62978.07, -71589.33, -104665.17, -140382.36, -93457.47, -80412.66, -133812.63, -124623.29, 0, 12:26:42.005
4, -62900.51, -71509.42, -104709.67, -140332.20, -93405.12, -80441.63, -133739.67, -124685.38, 0, 12:26:42.005
5, -62705.47, -71305.95, -104592.99, -140143.58, -93208.89, -80847.91, -133535.91, -124554.00, 0, 12:26:42.006
6, -62745.59, -71349.25, -104515.84, -140158.17, -93228.38, -80884.99, -133581.39, -124458.69, 0, 12:26:42.006
7, -62935.58, -71537.85, -104613.27, -140334.64, -93422.27, -80476.85, -133771.08, -124566.27, 0, 12:26:42.006
8, -62908.96, -71508.10, -104688.35, -140333.83, -93416.52, -80396.16, -133739.38, -124665.11, 0, 12:26:42.006
9, -62710.03, -71316.63, -104603.79, -140163.67, -93238.53, -80777.80, -133563.89, -124584.26, 0, 12:26:42.006
10, -62728.69, -71335.39, -104527.21, -140155.25, -93232.34, -80904.05, -133573.81, -124482.36, 0, 12:26:42.006
11, -62934.06, -71535.70, -104609.45, -140332.98, -93423.00, -80513.62, -133762.58, -124553.84, 0, 12:26:42.006
12, -62956.23, -71551.10, -104707.99, -140375.25, -93469.83, -80333.09, -133794.72, -124685.65, 0, 12:26:42.006
13, -62769.93, -71362.03, -104639.66, -140210.91, -93291.23, -80672.52, -133615.28, -124630.02, 0, 12:26:42.006
41, -107298.74, 30447.79, 121059.26, 107911.49, -184570.33, 0.00, 1107.93, 21727.64, 0.000, 0.000, 0.000, 12:26:42.006
15, -62912.16, -71512.75, -104594.23, -140313.50, -93398.77, -80563.77, -133742.31, -124534.04, 0, 12:26:42.021
16, -62958.18, -71559.47, -104694.49, -140374.42, -93469.34, -80318.69, -133790.97, -124649.46, 0, 12:26:42.021
17, -62780.01, -71388.43, -104652.90, -140229.45, -93316.32, -80607.14, -133635.75, -124624.96, 0, 12:26:42.021
18, -62704.17, -71301.91, -104547.91, -140141.00, -93214.10, -80905.29, -133545.77, -124498.30, 0, 12:26:42.021
19, -62876.44, -71469.79, -104571.11, -140279.75, -93357.84, -80638.74, -133695.95, -124502.84, 0, 12:26:42.022
20, -62994.39, -71588.08, -104691.39, -140395.97, -93482.57, -80298.39, -133808.56, -124636.66, 0, 12:26:42.022
21, -62866.07, -71454.88, -104696.33, -140290.03, -93371.70, -80481.41, -133685.94, -124660.44, 0, 12:26:42.022
22, -62697.38, -71293.91, -104557.23, -140126.84, -93200.49, -80847.24, -133524.20, -124513.56, 0, 12:26:42.022
23, -62814.10, -71422.80, -104535.22, -140221.27, -93303.64, -80684.97, -133641.33, -124468.57, 0, 12:26:42.022
24, -62960.75, -71561.43, -104649.05, -140360.45, -93451.75, -80302.75, -133772.09, -124585.69, 0, 12:26:42.022
25, -62854.45, -71443.17, -104667.76, -140273.48, -93364.48, -80405.46, -133669.17, -124627.04, 0, 12:26:42.023
26, -62690.88, -71280.52, -104554.10, -140117.98, -93199.59, -80797.89, -133514.41, -124506.72, 0, 12:26:42.023
27, -62778.40, -71379.94, -104517.24, -140184.81, -93272.28, -80735.05, -133603.70, -124447.36, 0, 12:26:42.023
28, -62977.74, -71582.06, -104647.49, -140375.67, -93475.46, -80308.70, -133799.69, -124581.27, 0, 12:26:42.023
29, -62918.68, -71516.77, -104718.45, -140345.39, -93444.41, -80297.74, -133750.53, -124673.42, 0, 12:26:42.023
30, -62711.01, -71306.48, -104600.05, -140150.78, -93239.12, -80707.16, -133551.20, -124556.92, 0, 12:26:42.023
31, -62743.33, -71340.38, -104510.61, -140151.88, -93243.63, -80773.95, -133574.48, -124448.36, 0, 12:26:42.023
32, -62926.57, -71531.80, -104601.98, -140326.58, -93432.93, -80372.76, -133757.33, -124538.08, 0, 12:26:42.023
33, -62892.73, -71499.00, -104671.54, -140321.09, -93423.05, -80287.62, -133727.69, -124632.07, 0, 12:26:42.023
34, -62707.35, -71308.09, -104588.19, -140155.31, -93242.91, -80673.86, -133549.81, -124551.41, 0, 12:26:42.023
35, -62714.48, -71311.14, -104506.94, -140140.94, -93222.38, -80827.19, -133545.39, -124451.31, 0, 12:26:42.024
36, -62919.60, -71514.16, -104584.93, -140311.33, -93406.15, -80455.05, -133728.72, -124517.45, 0, 12:26:42.024
37, -62948.59, -71542.43, -104680.79, -140352.67, -93457.96, -80269.11, -133758.58, -124632.18, 0, 12:26:42.024
38, -62768.03, -71359.41, -104625.43, -140198.42, -93291.06, -80602.45, -133588.89, -124594.48, 0, 12:26:42.024
39, -62691.75, -71290.95, -104510.90, -140115.75, -93202.55, -80855.11, -133521.36, -124464.61, 0, 12:26:42.024
40, -62867.86, -71466.62, -104551.69, -140265.59, -93364.82, -80548.22, -133691.41, -124488.59, 0, 12:26:42.024
41, -62945.24, -71538.48, -104664.97, -140360.08, -93467.23, -80276.29, -133778.41, -124623.40, 0, 12:26:42.024
83, -58957.91, -111644.14, 68325.93, -116208.99, 128906.26, 0.00, 1107.93, 62743.09, 20175, 12:26:42.024
43, -62677.91, -71264.45, -104517.85, -140107.64, -93207.69, -80877.26, -133519.45, -124473.15, 0, 12:26:42.024
44, -62845.82, -71436.33, -104539.44, -140244.03, -93355.05, -80643.13, -133677.16, -124473.64, 0, 12:26:42.025
45, -62946.76, -71538.03, -104654.69, -140353.66, -93478.41, -80306.89, -133783.33, -124604.53, 0, 12:26:42.025
46, -62819.02, -71402.96, -104653.50, -140251.16, -93367.34, -80483.29, -133661.28, -124622.98, 0, 12:26:42.025
47, -62698.38, -71282.05, -104548.34, -140129.47, -93231.25, -80847.53, -133537.41, -124500.58, 0, 12:26:42.025
48, -62815.35, -71405.02, -104529.85, -140216.22, -93324.70, -80706.67, -133646.34, -124461.95, 0, 12:26:42.025
49, -62958.54, -71552.71, -104637.27, -140356.52, -93479.15, -80322.33, -133792.55, -124580.73, 0, 12:26:42.025
50, -62843.07, -71436.44, -104659.83, -140274.72, -93392.80, -80411.02, -133689.89, -124627.60, 0, 12:26:42.025
51, -62666.22, -71251.13, -104532.34, -140098.69, -93202.46, -80818.98, -133508.59, -124495.88, 0, 12:26:42.025
52, -62752.54, -71336.55, -104489.69, -140155.45, -93269.49, -80785.20, -133595.28, -124428.60, 0, 12:26:42.026
53, -62948.52, -71534.43, -104607.75, -140335.02, -93462.12, -80362.41, -133771.63, -124545.75, 0, 12:26:42.026
54, -62878.76, -71465.37, -104655.70, -140290.11, -93420.81, -80345.06, -133715.94, -124622.41, 0, 12:26:42.026
55, -62683.86, -71271.09, -104543.73, -140107.81, -93224.77, -80750.52, -133521.73, -124513.77, 0, 12:26:42.026
56, -62717.03, -71308.43, -104474.09, -140121.16, -93238.22, -80824.30, -133554.16, -124421.92, 0, 12:26:42.026
57, -62889.02, -71480.74, -104553.70, -140281.80, -93411.98, -80428.84, -133723.94, -124494.61, 0, 12:26:42.026
58, -62886.41, -71475.89, -104635.42, -140298.13, -93435.77, -80313.81, -133726.59, -124594.68, 0, 12:26:42.026
59, -62706.39, -71297.81, -104567.65, -140141.56, -93272.13, -80680.54, -133561.64, -124541.95, 0, 12:26:42.026
60, -62697.82, -71287.89, -104481.39, -140113.11, -93245.24, -80851.82, -133550.34, -124436.56, 0, 12:26:42.027
61, -62902.41, -71489.08, -104562.28, -140296.95, -93439.12, -80473.19, -133744.41, -124501.02, 0, 12:26:42.027
62, -62943.74, -71534.07, -104668.25, -140352.05, -93496.61, -80249.58, -133780.64, -124617.68, 0, 12:26:42.027
63, -62741.25, -71334.61, -104601.55, -140176.08, -93313.66, -80569.14, -133592.77, -124567.61, 0, 12:26:42.027
64, -62658.22, -71258.97, -104477.10, -140081.94, -93215.51, -80843.26, -133512.47, -124427.91, 0, 12:26:42.027
65, -62867.18, -71462.16, -104525.63, -140252.81, -93396.34, -80533.45, -133699.33, -124464.05, 0, 12:26:42.027
66, -62951.65, -71546.66, -104642.17, -140346.39, -93497.66, -80236.75, -133783.36, -124601.83, 0, 12:26:42.027
67, -62782.34, -71373.14, -104610.25, -140204.75, -93344.26, -80485.59, -133621.36, -124586.54, 0, 12:26:42.027
68, -62658.91, -71248.51, -104481.35, -140076.02, -93204.34, -80822.14, -133494.47, -124436.60, 0, 12:26:42.028
69, -62822.66, -71421.58, -104494.73, -140209.92, -93346.05, -80594.62, -133651.89, -124425.32, 0, 12:26:42.028
70, -62953.21, -71551.06, -104623.86, -140344.13, -93494.57, -80220.95, -133787.30, -124567.19, 0, 12:26:42.028
71, -62817.65, -71405.55, -104621.16, -140230.13, -93375.95, -80372.83, -133655.30, -124588.33, 0, 12:26:42.028
72, -62672.88, -71260.60, -104500.05, -140083.09, -93214.20, -80748.24, -133498.78, -124456.66, 0, 12:26:42.028
73, -62796.04, -71383.96, -104480.81, -140176.14, -93313.84, -80625.55, -133611.45, -124412.33, 0, 12:26:42.028
74, -62953.24, -71537.13, -104596.15, -140327.42, -93476.69, -80225.86, -133763.72, -124534.17, 0, 12:26:42.029
75, -62863.86, -71446.21, -104629.79, -140264.17, -93410.24, -80282.45, -133679.56, -124587.50, 0, 12:26:42.029
76, -62699.14, -71287.34, -104527.73, -140112.05, -93247.27, -80674.02, -133525.55, -124486.23, 0, 12:26:42.029
77, -62782.98, -71376.09, -104489.80, -140168.09, -93303.80, -80651.82, -133597.13, -124421.70, 0, 12:26:42.029
78, -62955.05, -71551.33, -104592.44, -140330.11, -93482.08, -80232.50, -133766.33, -124515.69, 0, 12:26:42.029
79, -62900.96, -71503.43, -104651.31, -140306.92, -93460.04, -80186.26, -133724.31, -124595.28, 0, 12:26:42.029
80, -62734.75, -71320.62, -104564.45, -140146.48, -93284.87, -80571.91, -133547.11, -124513.65, 0, 12:26:42.029
81, -62729.48, -71310.06, -104467.47, -140120.64, -93253.66, -80682.02, -133535.22, -124396.71, 0, 12:26:42.029
72, 27467.50, -80881.08, -123568.84, -72264.08, 35156.25, 0.00, 1107.93, 121336.20, 42447, 12:26:42.030
83, -62917.07, -71510.88, -104634.81, -140309.09, -93453.36, -80146.16, -133724.20, -124583.95, 0, 12:26:42.030
84, -62729.07, -71324.57, -104562.33, -140144.88, -93275.99, -80511.07, -133550.47, -124518.37, 0, 12:26:42.030
85, -62704.62, -71310.84, -104477.99, -140114.97, -93245.17, -80704.41, -133535.33, -124413.80, 0, 12:26:42.030
86, -62920.00, -71513.17, -104551.33, -140294.11, -93433.73, -80342.76, -133725.50, -124472.88, 0, 12:26:42.030
87, -62991.73, -71573.10, -104666.63, -140370.30, -93512.03, -80101.54, -133786.34, -124607.04, 0, 12:26:42.030
88, -62797.71, -71379.34, -104615.75, -140207.33, -93338.80, -80403.02, -133603.66, -124570.13, 0, 12:26:42.030
89, -62706.34, -71289.68, -104491.27, -140104.84, -93231.07, -80699.85, -133514.77, -124427.22, 0, 12:26:42.030
90, -62902.03, -71487.07, -104541.07, -140273.42, -93404.96, -80415.83, -133697.83, -124462.45, 0, 12:26:42.030
91, -62972.13, -71553.56, -104646.66, -140353.97, -93494.30, -80120.81, -133768.91, -124573.58, 0, 12:26:42.030
92, -62813.79, -71396.52, -104628.38, -140229.83, -93366.12, -80355.55, -133630.34, -124573.58, 0, 12:26:42.031
93, -62713.09, -71295.45, -104523.15, -140121.56, -93250.29, -80696.43, -133527.91, -124454.89, 0, 12:26:42.031
94, -62847.20, -71429.53, -104516.15, -140223.50, -93363.88, -80501.64, -133652.30, -124429.68, 0, 12:26:42.031
95, -62949.53, -71540.24, -104622.12, -140337.91, -93491.02, -80139.79, -133766.30, -124547.09, 0, 12:26:42.031
96, -62822.62, -71410.11, -104619.30, -140239.44, -93387.89, -80281.85, -133651.33, -124572.77, 0, 12:26:42.031
97, -62694.36, -71266.55, -104506.12, -140097.20, -93239.94, -80663.73, -133510.00, -124456.50, 0, 12:26:42.031
98, -62808.20, -71386.15, -104484.97, -140185.53, -93332.52, -80565.05, -133620.28, -124412.95, 0, 12:26:42.031
99, -62954.71, -71534.23, -104590.89, -140330.64, -93491.06, -80163.16, -133770.36, -124527.87, 0, 12:26:42.031
100, -62862.20, -71442.41, -104623.39, -140267.97, -93424.97, -80199.35, -133684.08, -124576.88, 0, 12:26:42.031
101, -62684.77, -71264.78, -104516.35, -140104.08, -93248.30, -80599.98, -133512.73, -124464.79, 0, 12:26:42.031
102, -62756.68, -71327.19, -104466.77, -140143.25, -93282.56, -80615.50, -133559.61, -124383.20, 0, 12:26:42.031
103, -62948.79, -71524.10, -104572.68, -140311.50, -93468.27, -80199.17, -133739.25, -124482.20, 0, 12:26:42.032
104, -62904.20, -71487.11, -104632.38, -140293.61, -93445.51, -80131.59, -133705.67, -124569.89, 0, 12:26:42.032
105, -62718.79, -71309.82, -104550.88, -140137.41, -93278.50, -80510.53, -133537.50, -124493.67, 0, 12:26:42.463
106, -62745.01, -71324.50, -104478.98, -140133.11, -93275.41, -80624.10, -133549.25, -124395.55, 0, 12:26:42.463
107, -62953.08, -71522.83, -104565.13, -140310.70, -93466.70, -80231.05, -133741.45, -124474.27, 0, 12:26:42.464
56, -182005.67, 89041.86, 185512.77, -104490.18, -73242.20, 0.00, 1107.93, 159422.03, 27855, 12:26:42.464
109, -62761.08, -71329.13, -104585.24, -140169.17, -93323.78, -80409.37, -133579.47, -124531.48, 0, 12:26:42.464
110, -62710.97, -71278.68, -104476.74, -140102.45, -93250.78, -80631.21, -133522.28, -124395.99, 0, 12:26:42.464
111, -62891.41, -71457.05, -104529.25, -140258.44, -93413.26, -80295.04, -133686.66, -124434.28, 0, 12:26:42.464
112, -62936.39, -71506.54, -104626.14, -140319.89, -93481.18, -80051.18, -133739.89, -124545.77, 0, 12:26:42.464
113, -62796.29, -71359.44, -104601.82, -140196.00, -93348.33, -80331.97, -133599.36, -124536.70, 0, 12:26:42.464
114, -62698.63, -71259.57, -104487.49, -140090.41, -93235.36, -80637.00, -133501.75, -124406.77, 0, 12:26:42.464
115, -62870.29, -71435.97, -104514.12, -140235.91, -93385.77, -80372.38, -133664.36, -124408.58, 0, 12:26:42.464
116, -62970.50, -71542.50, -104639.58, -140352.50, -93514.53, -80040.41, -133772.55, -124548.41, 0, 12:26:42.465
117, -62802.79, -71359.08, -104605.65, -140205.64, -93362.18, -80257.38, -133609.81, -124538.44, 0, 12:26:42.465
118, -62686.20, -71236.23, -104484.63, -140077.84, -93221.91, -80616.95, -133484.64, -124403.73, 0, 12:26:42.465
119, -62836.83, -71391.38, -104495.30, -140202.08, -93356.73, -80435.23, -133630.44, -124388.03, 0, 12:26:42.465
120, -62955.00, -71518.18, -104609.58, -140332.50, -93499.55, -80051.74, -133756.23, -124508.16, 0, 12:26:42.465
121, -62818.79, -71377.88, -104605.42, -140222.53, -93383.08, -80175.80, -133626.81, -124531.09, 0, 12:26:42.465
122, -62671.25, -71220.05, -104480.72, -140062.69, -93213.72, -80580.18, -133468.13, -124403.63, 0, 12:26:42.465
123, -62799.59, -71346.45, -104458.91, -140155.25, -93309.08, -80504.99, -133577.33, -124359.34, 0, 12:26:42.465
124, -62964.79, -71510.25, -104575.56, -140317.03, -93489.54, -80091.04, -133747.48, -124481.27, 0, 12:26:42.465
125, -62862.31, -71417.15, -104608.71, -140250.83, -93422.98, -80109.79, -133668.72, -124541.48, 0, 12:26:42.465
126, -62685.82, -71240.80, -104502.38, -140089.91, -93248.21, -80507.36, -133500.69, -124439.49, 0, 12:26:42.466
127, -62729.14, -71278.17, -104437.80, -140109.64, -93275.44, -80550.25, -133545.75, -124355.70, 0, 12:26:42.466
128, -62917.19, -71466.91, -104540.91, -140290.86, -93474.19, -80138.80, -133738.44, -124454.53, 0, 12:26:42.466
129, -62883.05, -71445.47, -104614.43, -140288.75, -93468.98, -80044.01, -133712.80, -124558.83, 0, 12:26:42.466
49, 62623.02, -34004.16, 82973.56, -10740.62, 26367.19, 0.00, 1107.93, -183350.44, 3.450, 2.878, -2.284, 12:26:42.466
131, -62677.17, -71238.94, -104418.16, -140061.19, -93227.80, -80585.77, -133490.05, -124344.20, 0, 12:26:42.466
132, -62879.19, -71437.47, -104490.24, -140235.08, -93414.66, -80211.73, -133679.05, -124406.59, 0, 12:26:42.466
133, -62942.64, -71488.56, -104612.28, -140314.33, -93501.16, -80010.75, -133746.89, -124550.15, 0, 12:26:42.466
134, -62730.30, -71276.20, -104549.03, -140136.52, -93317.21, -80352.66, -133553.81, -124500.89, 0, 12:26:42.466
135, -62683.30, -71239.21, -104445.54, -140074.28, -93245.84, -80589.44, -133498.06, -124371.05, 0, 12:26:42.466
136, -62854.13, -71406.96, -104480.97, -140216.25, -93399.69, -80268.62, -133659.66, -124395.37, 0, 12:26:42.467
137, -62930.20, -71477.99, -104585.62, -140303.27, -93493.41, -79991.46, -133737.28, -124523.55, 0, 12:26:42.467
90, 143190.33, 165213.19, 94693.27, -108884.69, -42480.47, 0.00, 1107.93, -171631.94, 3.514, 2.586, -2.284, 12:26:42.467
139, -62679.18, -71225.73, -104453.66, -140068.56, -93251.16, -80569.77, -133500.45, -124390.74, 0, 12:26:42.467
140, -62839.96, -71392.68, -104474.20, -140201.30, -93394.44, -80319.13, -133653.53, -124387.37, 0, 12:26:42.467
141, -62942.15, -71498.42, -104590.63, -140319.75, -93518.63, -79967.07, -133762.92, -124519.04, 0, 12:26:42.467
142, -62787.86, -71339.44, -104579.14, -140193.80, -93390.99, -80157.02, -133621.94, -124531.38, 0, 12:26:42.467
144, -62761.73, -71315.14, -104427.01, -140140.61, -93331.80, -80401.48, -133593.48, -124354.91, 0, 12:26:42.467
145, -62935.56, -71484.50, -104555.16, -140298.75, -93502.87, -80020.00, -133754.16, -124491.70, 0, 12:26:42.467
146, -62838.82, -71380.49, -104588.13, -140229.78, -93431.00, -80104.38, -133658.75, -124549.10, 0, 12:26:42.467
148, -62769.51, -71312.61, -104440.29, -140133.75, -93321.15, -80471.51, -133579.42, -124357.01, 0, 12:26:42.468
149, -62965.91, -71515.92, -104580.34, -140328.34, -93530.80, -80041.41, -133778.63, -124497.45, 0, 12:26:42.468
150, -62862.34, -71407.49, -104609.67, -140255.22, -93453.22, -80038.27, -133682.00, -124548.59, 0, 12:26:42.468
151, -62677.69, -71222.63, -104501.24, -140085.50, -93269.29, -80435.95, -133498.31, -124439.27, 0, 12:26:42.468
152, -62720.87, -71272.36, -104437.80, -140105.58, -93289.05, -80499.11, -133538.39, -124347.17, 0, 12:26:42.468
153, -62907.35, -71453.20, -104526.92, -140269.23, -93469.43, -80097.72, -133711.22, -124430.80, 0, 12:26:42.468
154, -62875.88, -71423.34, -104594.74, -140268.64, -93475.69, -79993.27, -133696.39, -124528.02, 0, 12:26:42.468
155, -62686.34, -71227.97, -104512.48, -140095.61, -93292.58, -80380.13, -133517.31, -124453.32, 0, 12:26:42.469
156, -62694.54, -71238.07, -104428.15, -140076.67, -93271.19, -80551.73, -133515.34, -124343.80, 0, 12:26:42.469
157, -62890.32, -71437.49, -104512.04, -140254.20, -93465.20, -80180.11, -133704.70, -124415.52, 0, 12:26:42.469
158, -62923.62, -71467.33, -104608.44, -140301.25, -93515.65, -79968.73, -133742.80, -124530.05, 0, 12:26:42.469
159, -62751.78, -71284.18, -104556.79, -140150.84, -93358.63, -80277.09, -133583.50, -124491.32, 0, 12:26:42.469
99, 163698.27, 62673.77, -151400.34, -31247.74, 120117.20, 0.00, 1107.93, -139405.02, 3.578, 3.112, -2.282, 12:26:42.470
161, -62847.65, -71397.57, -104487.16, -140218.61, -93425.80, -80225.08, -133679.52, -124387.90, 0, 12:26:42.470
162, -62950.18, -71487.72, -104612.76, -140323.64, -93536.10, -79923.11, -133774.05, -124531.31, 0, 12:26:42.470
163, -62780.97, -71315.80, -104582.47, -140187.16, -93393.70, -80174.27, -133620.05, -124524.07, 0, 12:26:42.470
164, -62676.99, -71210.51, -104466.17, -140071.61, -93271.08, -80514.09, -133509.72, -124391.16, 0, 12:26:42.470
165, -62834.53, -71370.81, -104469.97, -140189.28, -93391.73, -80292.91, -133638.80, -124369.52, 0, 12:26:42.470
167, -62802.68, -71348.42, -104587.36, -140209.61, -93415.18, -80117.30, -133634.23, -124523.51, 0, 12:26:42.470
168, -62685.29, -71228.44, -104490.65, -140086.89, -93277.49, -80487.49, -133498.77, -124408.27, 0, 12:26:42.470
169, -62786.99, -71320.44, -104458.51, -140152.89, -93347.19, -80371.55, -133584.91, -124352.72, 0, 12:26:42.470
170, -62929.30, -71466.62, -104563.42, -140298.31, -93506.71, -79987.30, -133737.39, -124467.56, 0, 12:26:42.471
171, -62832.63, -71381.34, -104593.17, -140237.08, -93441.27, -80050.40, -133648.83, -124516.73, 0, 12:26:42.471
172, -62652.30, -71197.99, -104480.55, -140070.31, -93266.96, -80448.38, -133488.53, -124408.40, 0, 12:26:42.471
173, -62731.42, -71271.64, -104426.19, -140112.31, -93315.20, -80431.14, -133558.53, -124329.14, 0, 12:26:42.471
174, -62950.02, -71480.07, -104556.56, -140306.61, -93527.45, -80008.94, -133765.17, -124456.84, 0, 12:26:42.471
175, -62881.63, -71405.20, -104610.52, -140266.47, -93487.17, -79975.79, -133703.69, -124543.78, 0, 12:26:42.471
176, -62664.72, -71190.73, -104490.94, -140072.28, -93281.25, -80391.35, -133501.17, -124427.73, 0, 12:26:42.471
177, -62689.29, -71225.20, -104417.83, -140089.38, -93283.20, -80486.02, -133520.42, -124326.81, 0, 12:26:42.471
178, -62893.58, -71417.38, -104515.30, -140268.08, -93473.70, -80088.58, -133708.59, -124413.70, 0, 12:26:42.471
179, -62896.96, -71435.88, -104604.46, -140290.63, -93500.54, -79952.14, -133717.23, -124526.91, 0, 12:26:42.471
180, -62660.97, -71204.32, -104500.59, -140082.20, -93287.70, -80341.63, -133502.81, -124435.76, 0, 12:26:42.471
