%OpenBCI Raw EEG Data
%
%Sample Rate = 250.0 Hz
%First Column = SampleIndex
%5 Columns before Timestamp are Frequency Power factors DELTA THETA ALPHA BETA GAMMA
%Last Column = Timestamp 
%Other Columns = EEG data in microvolts followed by Accel Data (in G) interleaved with Aux Data
0, -117332.73, -117867.12, -171865.02, -172388.58, -172703.88, -172666.14, -172373.89, -173343.30, 0.386, 0.004, 0.288,0.0,0.0,0.0,0.0,0.0, 21:32:49.649
1, -117685.08, -118067.12, -171865.42, -172413.23, -172604.56, -172608.70, -172406.84, -173279.64, 0.000, 0.000, 0.000,0.0,0.0,0.0,0.0,0.0, 21:32:49.650
2, -117914.26, -118230.27, -171855.03, -172396.23, -172582.50, -172569.00, -172361.16, -173229.50, 0.000, 0.000, 0.000,0.0,0.0,0.0,0.0,0.0, 21:32:49.651
3, -117810.20, -118315.31, -171857.02, -172348.06, -172659.23, -172614.42, -172351.41, -173235.41, 0.000, 0.000, 0.000,0.0,0.0,0.0,0.0,0.0, 21:32:49.651
4, -117874.42, -118446.05, -171867.19, -172326.52, -172702.17, -172618.88, -172371.73, -173231.52, 0.000, 0.000, 0.000,0.0,0.0,0.0,0.0,0.0, 21:32:49.651
5, -118205.79, -118647.23, -171862.36, -172410.52, -172606.94, -172530.41, -172398.70, -173177.08, 0.000, 0.000, 0.000,0.0,0.0,0.0,0.0,0.0, 21:32:49.652
6, -118485.30, -118818.07, -171858.47, -172454.20, -172581.19, -172411.67, -172397.20, -173108.95, 0.586, 0.010, 0.446,0.0,0.0,0.0,0.0,0.0, 21:32:49.652
7, -118394.08, -118892.61, -171844.19, -172385.41, -172623.28, -172582.44, -172334.22, -173092.33, 0.000, 0.000, 0.000,0.0,0.0,0.0,0.0,0.0, 21:32:49.653
8, -118386.84, -118990.36, -171845.44, -172393.45, -172665.50, -172839.31, -172349.92, -173079.86, 0.000, 0.000, 0.000,0.0,0.0,0.0,0.0,0.0, 21:32:49.653
9, -118676.45, -119176.79, -171857.45, -172418.09, -172600.36, -172931.33, -172388.42, -173029.45, 0.000, 0.000, 0.000,0.0,0.0,0.0,0.0,0.0, 21:32:49.654
10, -119007.08, -119365.82, -171850.23, -172414.44, -172577.45, -172866.98, -172398.48, -172966.88, 0.000, 0.000, 0.000,0.0,0.0,0.0,0.0,0.0, 21:32:49.654
11, -118983.95, -119467.03, -171839.22, -172347.09, -172627.80, -172886.95, -172338.19, -172960.08, 0.000, 0.000, 0.000,0.0,0.0,0.0,0.0,0.0, 21:32:49.654
12, -118944.94, -119565.65, -171851.73, -172372.94, -172705.00, -172907.56, -172376.30, -172973.69, 0.000, 0.000, 0.000,0.0,0.0,0.0,0.0,0.0, 21:32:49.655
13, -119199.91, -119740.21, -171854.53, -172398.91, -172640.36, -172866.39, -172361.67, -172941.50, 0.000, 0.000, 0.000,0.0,0.0,0.0,0.0,0.0, 21:32:49.655
14, -119564.30, -119934.27, -171862.63, -172465.03, -172584.23, -172791.34, -172383.11, -172880.28, 0.000, 0.000, 0.000,0.0,0.0,0.0,0.0,0.0, 21:32:49.655
15, -119605.48, -120044.64, -171845.02, -172365.11, -172611.39, -172788.45, -172326.59, -172864.86, 0.000, 0.000, 0.000,0.0,0.0,0.0,0.0,0.0, 21:32:49.656
16, -119524.48, -120124.10, -171857.84, -172395.75, -172710.30, -172811.70, -172367.95, -172880.28, 0.686, 0.012, 0.518,0.0,0.0,0.0,0.0,0.0, 21:32:49.656
17, -119735.19, -120278.91, -171861.64, -172416.41, -172673.95, -172772.41, -172361.38, -172854.77, 0.000, 0.000, 0.000,0.0,0.0,0.0,0.0,0.0, 21:32:49.656
18, -120111.01, -120470.76, -171854.84, -172461.89, -172586.44, -172696.08, -172383.22, -172794.30, 0.000, 0.000, 0.000,0.0,0.0,0.0,0.0,0.0, 21:32:49.657
19, -120225.65, -120591.39, -171836.09, -172366.91, -172597.50, -172676.19, -172345.16, -172771.06, 0.000, 0.000, 0.000,0.0,0.0,0.0,0.0,0.0, 21:32:49.657
20, -120121.40, -120660.84, -171841.34, -172379.48, -172706.42, -172712.27, -172375.69, -172791.81, 0.000, 0.000, 0.000,0.0,0.0,0.0,0.0,0.0, 21:32:49.657
21, -120278.06, -120796.02, -171857.89, -172447.59, -172700.81, -172684.81, -172371.08, -172775.83, 0.000, 0.000, 0.000,0.0,0.0,0.0,0.0,0.0, 21:32:49.657
22, -120651.16, -120985.36, -171863.30, -172462.02, -172592.44, -172614.56, -172368.69, -172717.22, 0.000, 0.000, 0.000,0.0,0.0,0.0,0.0,0.0, 21:32:49.658
23, -120839.74, -121122.34, -171840.81, -172377.34, -172573.28, -172579.47, -172332.86, -172683.22, 0.000, 0.000, 0.000,0.0,0.0,0.0,0.0,0.0, 21:32:49.658
24, -120724.30, -121187.27, -171836.73, -172361.83, -172672.39, -172616.75, -172356.78, -172699.81, 0.000, 0.000, 0.000,0.0,0.0,0.0,0.0,0.0, 21:32:49.658
25, -120826.95, -121308.10, -171850.08, -172421.89, -172696.03, -172595.69, -172371.53, -172692.97, 0.000, 0.000, 0.000,0.0,0.0,0.0,0.0,0.0, 21:32:49.659
26, -121178.10, -121494.38, -171858.84, -172482.61, -172595.52, -172464.80, -172360.86, -172638.50, 0.732, 0.008, 0.548,0.0,0.0,0.0,0.0,0.0, 21:32:49.659
27, -121414.34, -121636.31, -171856.72, -172506.09, -172583.20, -172394.11, -172342.16, -172583.53, 0.000, 0.000, 0.000,0.0,0.0,0.0,0.0,0.0, 21:32:49.659
28, -121294.46, -121686.89, -171837.23, -172410.98, -172640.33, -172591.84, -172328.23, -172580.11, 0.000, 0.000, 0.000,0.0,0.0,0.0,0.0,0.0, 21:32:49.660
29, -121327.32, -121778.06, -171844.63, -172439.05, -172671.59, -172835.97, -172346.72, -172557.52, 0.000, 0.000, 0.000,0.0,0.0,0.0,0.0,0.0, 21:32:49.660
30, -121636.89, -121946.22, -171862.16, -172481.67, -172585.45, -172890.84, -172404.03, -172283.13, 0.000, 0.000, 0.000,0.0,0.0,0.0,0.0,0.0, 21:32:49.660
31, -121913.27, -122090.32, -171855.83, -172481.95, -172556.27, -172804.44, -172403.84, -172180.59, 0.000, 0.000, 0.000,0.0,0.0,0.0,0.0,0.0, 21:32:49.660
32, -121818.73, -122141.13, -171835.98, -172399.17, -172596.77, -172803.88, -172332.03, -172387.47, 0.000, 0.000, 0.000,0.0,0.0,0.0,0.0,0.0, 21:32:49.661
33, -121788.66, -122210.84, -171833.33, -172418.58, -172638.52, -172790.09, -172326.17, -172614.27, 0.000, 0.000, 0.000,0.0,0.0,0.0,0.0,0.0, 21:32:49.661
34, -122048.95, -122359.30, -171856.81, -172488.16, -172574.50, -172717.44, -172378.45, -172785.77, 0.000, 0.000, 0.000,0.0,0.0,0.0,0.0,0.0, 21:32:49.661
35, -122367.57, -122517.87, -171841.72, -172451.66, -172535.70, -172625.36, -172404.47, -173028.38, 0.752, 0.010, 0.568,0.0,0.0,0.0,0.0,0.0, 21:32:49.661
36, -122349.96, -122604.88, -171823.05, -172350.08, -172585.95, -172632.89, -172326.33, -173451.47, 0.000, 0.000, 0.000,0.0,0.0,0.0,0.0,0.0, 21:32:49.662
37, -122301.61, -122695.83, -171831.58, -172334.06, -172663.22, -172662.58, -172343.13, -173533.73, 0.000, 0.000, 0.000,0.0,0.0,0.0,0.0,0.0, 21:32:49.662
38, -122552.35, -122868.61, -171827.84, -172350.73, -172609.47, -172635.22, -172339.56, -173496.94, 0.000, 0.000, 0.000,0.0,0.0,0.0,0.0,0.0, 21:32:49.662
39, -122922.66, -123066.94, -171832.09, -172433.91, -172558.13, -172573.75, -172386.84, -173427.20, 0.000, 0.000, 0.000,0.0,0.0,0.0,0.0,0.0, 21:32:49.662
40, -122977.77, -123184.44, -171828.58, -172363.70, -172581.44, -172578.06, -172319.97, -173397.83, 0.000, 0.000, 0.000,0.0,0.0,0.0,0.0,0.0, 21:32:49.662
41, -122889.08, -123274.36, -171835.20, -172299.17, -172672.72, -172621.44, -172335.14, -173407.00, 0.000, 0.000, 0.000,0.0,0.0,0.0,0.0,0.0, 21:32:49.663
42, -123087.25, -123439.96, -171834.64, -172341.44, -172640.75, -172601.14, -172337.16, -173379.38, 0.000, 0.000, 0.000,0.0,0.0,0.0,0.0,0.0, 21:32:49.663
43, -123461.89, -123650.05, -171827.70, -172396.55, -172558.02, -172499.83, -172382.53, -173312.22, 0.000, 0.000, 0.000,0.0,0.0,0.0,0.0,0.0, 21:32:49.663
44, -123580.94, -123783.91, -171821.66, -172368.91, -172569.72, -172423.34, -172321.22, -173269.20, 0.000, 0.000, 0.000,0.0,0.0,0.0,0.0,0.0, 21:32:49.663
45, -123451.16, -123851.95, -171816.28, -172363.66, -172642.20, -172617.98, -172314.59, -173265.16, 0.770, 0.010, 0.580,0.0,0.0,0.0,0.0,0.0, 21:32:49.664
46, -123583.69, -123993.68, -171824.77, -172380.25, -172631.86, -172848.66, -172324.05, -173238.00, 0.000, 0.000, 0.000,0.0,0.0,0.0,0.0,0.0, 21:32:49.664
47, -123945.16, -124196.55, -171829.47, -172409.14, -172558.59, -172851.11, -172384.56, -173174.38, 0.000, 0.000, 0.000,0.0,0.0,0.0,0.0,0.0, 21:32:49.664
48, -124141.23, -124348.80, -171818.61, -172360.89, -172558.30, -172804.95, -172333.17, -173130.73, 0.000, 0.000, 0.000,0.0,0.0,0.0,0.0,0.0, 21:32:49.665
49, -124027.73, -124431.62, -171810.72, -172297.70, -172636.00, -172840.36, -172336.34, -173144.34, 0.000, 0.000, 0.000,0.0,0.0,0.0,0.0,0.0, 21:32:49.666
50, -124117.24, -124563.85, -171823.27, -172347.09, -172659.16, -172823.17, -172351.61, -173140.47, 0.000, 0.000, 0.000,0.0,0.0,0.0,0.0,0.0, 21:32:49.666
51, -124465.28, -124761.89, -171824.14, -172398.48, -172571.02, -172756.38, -172324.33, -173088.97, 0.000, 0.000, 0.000,0.0,0.0,0.0,0.0,0.0, 21:32:49.666
52, -124732.38, -124931.18, -171807.84, -172336.81, -172553.27, -172700.39, -172301.17, -173044.89, 0.000, 0.000, 0.000,0.0,0.0,0.0,0.0,0.0, 21:32:49.667
53, -124641.98, -125011.20, -171801.81, -172310.06, -172625.80, -172732.80, -172304.09, -173055.48, 0.000, 0.000, 0.000,6.265017E-4,8.2985766E-4,0.0010200107,0.0032092961,0.004078631, 21:32:49.673
54, -124674.77, -125119.74, -171813.42, -172344.95, -172685.55, -172730.39, -172336.70, -173058.59, 0.774, 0.010, 0.586,6.265017E-4,8.2985766E-4,0.0010200107,0.0032092961,0.004078631, 21:32:49.674
55, -124990.08, -125300.99, -171822.08, -172383.53, -172589.30, -172674.78, -172331.47, -173012.52, 0.000, 0.000, 0.000,6.265017E-4,8.2985766E-4,0.0010200107,0.0032092961,0.004078631, 21:32:49.674
56, -125304.86, -125472.79, -171822.48, -172399.16, -172548.23, -172608.25, -172351.20, -172956.41, 0.000, 0.000, 0.000,6.265017E-4,8.2985766E-4,0.0010200107,0.0032092961,0.004078631, 21:32:49.674
57, -125252.73, -125552.56, -171807.97, -172305.34, -172605.00, -172632.73, -172311.17, -172956.09, 0.000, 0.000, 0.000,6.265017E-4,8.2985766E-4,0.0010200107,0.0032092961,0.004078631, 21:32:49.674
58, -125236.17, -125639.73, -171816.53, -172320.20, -172690.06, -172646.23, -172343.03, -172965.59, 0.000, 0.000, 0.000,6.265017E-4,8.2985766E-4,0.0010200107,0.0032092961,0.004078631, 21:32:49.675
59, -125515.91, -125804.87, -171817.09, -172359.59, -172609.19, -172601.80, -172318.73, -172927.80, 0.000, 0.000, 0.000,6.265017E-4,8.2985766E-4,0.0010200107,0.0032092961,0.004078631, 21:32:49.675
60, -125872.99, -125984.89, -171817.86, -172407.63, -172536.64, -172510.38, -172341.20, -172870.94, 0.000, 0.000, 0.000,6.265017E-4,8.2985766E-4,0.0010200107,0.0032092961,0.004078631, 21:32:49.676
61, -125871.85, -126067.19, -171801.22, -172331.00, -172571.47, -172449.48, -172294.34, -172854.30, 0.000, 0.000, 0.000,6.265017E-4,8.2985766E-4,0.0010200107,0.0032092961,0.004078631, 21:32:49.676
62, -125791.23, -126123.96, -171803.19, -172367.91, -172650.75, -172601.89, -172318.36, -172852.77, 0.000, 0.000, 0.000,6.265017E-4,8.2985766E-4,0.0010200107,0.0032092961,0.004078631, 21:32:49.676
63, -126009.95, -126264.38, -171819.91, -172416.36, -172592.55, -172813.73, -172327.11, -172808.80, 0.000, 0.000, 0.000,6.265017E-4,8.2985766E-4,0.0010200107,0.0032092961,0.004078631, 21:32:49.677
64, -126378.03, -126445.55, -171823.20, -172414.89, -172540.75, -172833.45, -172357.89, -172740.88, 0.778, 0.008, 0.588,6.265017E-4,8.2985766E-4,0.0010200107,0.0032092961,0.004078631, 21:32:49.677
65, -126455.64, -126556.22, -171808.67, -172358.30, -172566.38, -172826.13, -172297.50, -172717.09, 0.000, 0.000, 0.000,6.265017E-4,8.2985766E-4,0.0010200107,0.0032092961,0.004078631, 21:32:49.678
66, -126359.26, -126632.64, -171808.67, -172276.16, -172655.17, -172862.89, -172335.92, -172733.72, 0.000, 0.000, 0.000,6.265017E-4,8.2985766E-4,0.0010200107,0.0032092961,0.004078631, 21:32:49.678
67, -126545.89, -126785.08, -171806.39, -172298.11, -172627.34, -172838.69, -172322.13, -172714.83, 0.000, 0.000, 0.000,6.265017E-4,8.2985766E-4,0.0010200107,0.0032092961,0.004078631, 21:32:49.679
68, -126926.09, -126991.99, -171798.63, -172352.94, -172538.41, -172776.59, -172307.53, -172657.66, 0.000, 0.000, 0.000,6.265017E-4,8.2985766E-4,0.0010200107,0.0032092961,0.004078631, 21:32:49.679
69, -127076.34, -127134.23, -171802.00, -172327.36, -172539.02, -172759.00, -172277.78, -172625.09, 0.000, 0.000, 0.000,6.265017E-4,8.2985766E-4,0.0010200107,0.0032092961,0.004078631, 21:32:49.679
70, -126963.18, -127212.96, -171807.03, -172280.33, -172630.83, -172807.00, -172304.55, -172638.20, 0.000, 0.000, 0.000,6.265017E-4,8.2985766E-4,0.0010200107,0.0032092961,0.004078631, 21:32:49.680
71, -127091.59, -127354.80, -171813.41, -172302.19, -172636.42, -172796.55, -172314.70, -172623.13, 0.000, 0.000, 0.000,6.265017E-4,8.2985766E-4,0.0010200107,0.0032092961,0.004078631, 21:32:49.680
72, -127451.16, -127556.95, -171808.27, -172357.58, -172544.17, -172739.78, -172341.42, -172560.11, 0.000, 0.000, 0.000,6.265017E-4,8.2985766E-4,0.0010200107,0.0032092961,0.004078631, 21:32:49.680
73, -127667.82, -127717.57, -171790.52, -172309.80, -172535.56, -172707.75, -172286.80, -172513.13, 0.782, 0.012, 0.590,6.265017E-4,8.2985766E-4,0.0010200107,0.0032092961,0.004078631, 21:32:49.681
74, -127561.31, -127803.78, -171794.58, -172279.28, -172615.98, -172760.11, -172280.77, -172522.42, 0.000, 0.000, 0.000,6.265017E-4,8.2985766E-4,0.0010200107,0.0032092961,0.004078631, 21:32:49.681
75, -127640.95, -127939.16, -171807.38, -172293.20, -172652.42, -172764.66, -172301.08, -172486.75, 0.000, 0.000, 0.000,6.265017E-4,8.2985766E-4,0.0010200107,0.0032092961,0.004078631, 21:32:49.681
76, -127978.48, -128139.95, -171812.58, -172404.08, -172551.66, -172711.91, -172353.25, -172188.09, 0.000, 0.000, 0.000,6.265017E-4,8.2985766E-4,0.0010200107,0.0032092961,0.004078631, 21:32:49.682
77, -128233.90, -128297.91, -171815.31, -172442.55, -172531.48, -172645.56, -172373.63, -172139.50, 0.000, 0.000, 0.000,6.265017E-4,8.2985766E-4,0.0010200107,0.0032092961,0.004078631, 21:32:49.682
78, -128123.55, -128365.64, -171790.56, -172336.44, -172581.97, -172666.81, -172290.30, -172352.31, 0.000, 0.000, 0.000,6.265017E-4,8.2985766E-4,0.0010200107,0.0032092961,0.004078631, 21:32:49.682
79, -128120.22, -128460.32, -171794.55, -172394.53, -172616.61, -172660.38, -172287.59, -172570.23, 0.000, 0.000, 0.000,6.265017E-4,8.2985766E-4,0.0010200107,0.0032092961,0.004078631, 21:32:49.683
80, -128396.84, -128625.03, -171823.13, -172477.63, -172535.69, -172590.33, -172346.66, -172731.92, 0.000, 0.000, 0.000,6.265017E-4,8.2985766E-4,0.0010200107,0.0032092961,0.004078631, 21:32:49.683
81, -128692.71, -128784.63, -171802.30, -172426.52, -172499.41, -172447.75, -172366.41, -172943.17, 0.000, 0.000, 0.000,6.265017E-4,8.2985766E-4,0.0010200107,0.0032092961,0.004078631, 21:32:49.684
82, -128627.20, -128855.21, -171779.03, -172344.97, -172538.31, -172421.59, -172285.70, -173379.17, 0.000, 0.000, 0.000,6.265017E-4,8.2985766E-4,0.0010200107,0.0032092961,0.004078631, 21:32:49.684
83, -128578.63, -128935.12, -171773.80, -172341.11, -172587.14, -172605.02, -172274.52, -173479.34, 0.788, 0.014, 0.596,6.265017E-4,8.2985766E-4,0.0010200107,0.0032092961,0.004078631, 21:32:49.685
84, -128834.49, -129099.36, -171795.59, -172400.77, -172529.95, -172802.36, -172304.09, -173430.17, 0.000, 0.000, 0.000,6.265017E-4,8.2985766E-4,0.0010200107,0.0032092961,0.004078631, 21:32:49.685
85, -129187.06, -129283.18, -171787.39, -172359.38, -172495.72, -172781.08, -172333.03, -173363.20, 0.000, 0.000, 0.000,6.265017E-4,8.2985766E-4,0.0010200107,0.0032092961,0.004078631, 21:32:49.685
86, -129207.88, -129384.16, -171773.42, -172298.13, -172531.64, -172770.23, -172256.81, -173349.70, 0.000, 0.000, 0.000,6.265017E-4,8.2985766E-4,0.0010200107,0.0032092961,0.004078631, 21:32:49.686
87, -129132.35, -129461.21, -171776.86, -172300.58, -172610.31, -172777.77, -172299.89, -173365.42, 0.000, 0.000, 0.000,6.265017E-4,8.2985766E-4,0.0010200107,0.0032092961,0.004078631, 21:32:49.686
88, -129348.04, -129611.32, -171779.63, -172343.45, -172564.77, -172719.08, -172289.61, -173336.91, 0.000, 0.000, 0.000,6.265017E-4,8.2985766E-4,0.0010200107,0.0032092961,0.004078631, 21:32:49.686
89, -129717.59, -129798.95, -171788.38, -172395.33, -172515.09, -172632.34, -172306.50, -173274.34, 0.000, 0.000, 0.000,6.265017E-4,8.2985766E-4,0.0010200107,0.0032092961,0.004078631, 21:32:49.687
90, -129807.86, -129912.18, -171781.47, -172329.69, -172536.38, -172607.31, -172265.73, -173249.44, 0.000, 0.000, 0.000,6.265017E-4,8.2985766E-4,0.0010200107,0.0032092961,0.004078631, 21:32:49.687
91, -129704.28, -129979.26, -171778.27, -172262.97, -172633.63, -172633.16, -172303.72, -173269.31, 0.000, 0.000, 0.000,6.265017E-4,8.2985766E-4,0.0010200107,0.0032092961,0.004078631, 21:32:49.687
92, -129875.50, -130116.41, -171782.14, -172310.98, -172619.92, -172597.48, -172297.00, -173255.66, 0.000, 0.000, 0.000,6.265017E-4,8.2985766E-4,0.0010200107,0.0032092961,0.004078631, 21:32:49.688
93, -130249.84, -130304.85, -171787.13, -172389.36, -172516.39, -172500.34, -172289.13, -173198.56, 0.782, 0.008, 0.590,6.265017E-4,8.2985766E-4,0.0010200107,0.0032092961,0.004078631, 21:32:49.688
94, -130407.65, -130426.70, -171776.22, -172342.27, -172508.72, -172385.86, -172264.47, -173158.72, 0.000, 0.000, 0.000,6.265017E-4,8.2985766E-4,0.0010200107,0.0032092961,0.004078631, 21:32:49.689
95, -130270.99, -130468.71, -171764.19, -172312.05, -172587.33, -172534.89, -172234.73, -173164.05, 0.000, 0.000, 0.000,6.265017E-4,8.2985766E-4,0.0010200107,0.0032092961,0.004078631, 21:32:49.689
96, -130363.70, -130569.37, -171777.86, -172366.00, -172588.81, -172766.97, -172298.11, -173144.05, 0.000, 0.000, 0.000,6.265017E-4,8.2985766E-4,0.0010200107,0.0032092961,0.004078631, 21:32:49.690
97, -130707.38, -130743.04, -171784.34, -172362.14, -172511.97, -172807.30, -172365.94, -173077.06, 0.000, 0.000, 0.000,6.265017E-4,8.2985766E-4,0.0010200107,0.0032092961,0.004078631, 21:32:49.690
98, -130932.06, -130884.68, -171773.16, -172339.34, -172504.41, -172759.75, -172305.55, -173025.66, 0.000, 0.000, 0.000,6.265017E-4,8.2985766E-4,0.0010200107,0.0032092961,0.004078631, 21:32:49.691
99, -130821.70, -130952.59, -171762.64, -172242.73, -172578.80, -172802.73, -172265.72, -173035.05, 0.000, 0.000, 0.000,6.265017E-4,8.2985766E-4,0.0010200107,0.0032092961,0.004078631, 21:32:49.691
100, -130885.44, -131067.92, -171777.94, -172277.52, -172622.00, -172804.59, -172285.36, -173032.42, 0.000, 0.000, 0.000,6.265017E-4,8.2985766E-4,0.0010200107,0.0032092961,0.004078631, 21:32:49.692
101, -131223.02, -131256.80, -171772.22, -172335.16, -172527.09, -172753.63, -172299.11, -172980.48, 0.000, 0.000, 0.000,6.265017E-4,8.2985766E-4,0.0010200107,0.0032092961,0.004078631, 21:32:49.692
102, -131519.47, -131426.89, -171767.88, -172342.67, -172502.42, -172697.86, -172286.13, -172923.97, 0.780, 0.008, 0.596,6.265017E-4,8.2985766E-4,0.0010200107,0.0032092961,0.004078631, 21:32:49.692
103, -131448.91, -131509.30, -171764.33, -172268.23, -172556.63, -172731.25, -172255.88, -172924.75, 0.000, 0.000, 0.000,6.265017E-4,8.2985766E-4,0.0010200107,0.0032092961,0.004078631, 21:32:49.693
104, -131459.86, -131612.97, -171779.77, -172280.22, -172614.09, -172739.45, -172285.36, -172925.92, 0.000, 0.000, 0.000,6.265017E-4,8.2985766E-4,0.0010200107,0.0032092961,0.004078631, 21:32:49.693
105, -131764.02, -131797.89, -171773.34, -172346.22, -172530.97, -172692.66, -172294.55, -172878.75, 0.000, 0.000, 0.000,6.265017E-4,8.2985766E-4,0.0010200107,0.0032092961,0.004078631, 21:32:49.694
106, -132105.98, -131984.78, -171766.67, -172343.75, -172498.89, -172627.41, -172312.36, -172815.84, 0.000, 0.000, 0.000,6.265017E-4,8.2985766E-4,0.0010200107,0.0032092961,0.004078631, 21:32:49.694
107, -132086.56, -132082.75, -171761.38, -172264.63, -172541.52, -172647.30, -172257.83, -172806.30, 0.000, 0.000, 0.000,6.265017E-4,8.2985766E-4,0.0010200107,0.0032092961,0.004078631, 21:32:49.694
108, -132053.23, -132177.08, -171775.77, -172291.55, -172611.52, -172665.05, -172283.91, -172815.69, 0.000, 0.000, 0.000,6.265017E-4,8.2985766E-4,0.0010200107,0.0032092961,0.004078631, 21:32:49.695
109, -132318.77, -132350.98, -171770.83, -172329.31, -172544.95, -172618.31, -172282.77, -172778.95, 0.000, 0.000, 0.000,6.265017E-4,8.2985766E-4,0.0010200107,0.0032092961,0.004078631, 21:32:49.695
110, -132687.70, -132545.64, -171774.45, -172383.11, -172492.86, -172539.39, -172326.28, -172711.98, 0.000, 0.000, 0.000,6.265017E-4,8.2985766E-4,0.0010200107,0.0032092961,0.004078631, 21:32:49.695
111, -132733.42, -132658.09, -171758.06, -172293.41, -172514.06, -172536.48, -172252.59, -172690.98, 0.000, 0.000, 0.000,6.265017E-4,8.2985766E-4,0.0010200107,0.0032092961,0.004078631, 21:32:49.696
112, -132659.70, -132744.91, -171768.95, -172262.63, -172607.23, -172563.28, -172270.16, -172703.03, 0.776, 0.010, 0.592,6.265017E-4,8.2985766E-4,0.0010200107,0.0032092961,0.004078631, 21:32:49.696
113, -132879.38, -132910.39, -171768.03, -172294.53, -172565.50, -172524.61, -172274.67, -172677.44, 0.000, 0.000, 0.000,6.265017E-4,8.2985766E-4,0.0010200107,0.0032092961,0.004078631, 21:32:49.696
114, -133260.89, -133109.55, -171768.50, -172381.77, -172484.25, -172375.17, -172335.05, -172611.91, 0.000, 0.000, 0.000,6.265017E-4,8.2985766E-4,0.0010200107,0.0032092961,0.004078631, 21:32:49.697
115, -133367.58, -133225.47, -171761.14, -172325.63, -172492.52, -172354.88, -172252.44, -172572.42, 0.000, 0.000, 0.000,6.265017E-4,8.2985766E-4,0.0010200107,0.0032092961,0.004078631, 21:32:49.697
116, -133252.69, -133289.11, -171760.95, -172301.48, -172561.66, -172563.22, -172239.20, -172575.78, 0.000, 0.000, 0.000,6.265017E-4,8.2985766E-4,0.0010200107,0.0032092961,0.004078631, 21:32:49.698
117, -133408.97, -133426.83, -171763.89, -172338.27, -172545.42, -172774.98, -172256.39, -172549.66, 0.000, 0.000, 0.000,6.265017E-4,8.2985766E-4,0.0010200107,0.0032092961,0.004078631, 21:32:49.698
118, -133781.58, -133623.44, -171768.61, -172369.77, -172483.16, -172757.14, -172337.23, -172402.83, 0.000, 0.000, 0.000,6.265017E-4,8.2985766E-4,0.0010200107,0.0032092961,0.004078631, 21:32:49.698
119, -133954.92, -133758.67, -171758.63, -172337.89, -172485.36, -172695.55, -172276.42, -172128.81, 0.000, 0.000, 0.000,6.265017E-4,8.2985766E-4,0.0010200107,0.0032092961,0.004078631, 21:32:49.699
120, -133822.89, -133817.78, -171743.13, -172282.91, -172545.38, -172708.28, -172237.80, -172274.95, 0.000, 0.000, 0.000,0.0,0.0,0.0,0.0,0.0, 21:32:50.126
121, -133909.31, -133932.94, -171756.83, -172348.47, -172544.86, -172667.27, -172251.66, -172489.69, 0.774, 0.012, 0.590,0.0,0.0,0.0,0.0,0.0, 21:32:50.127
122, -134242.06, -134110.53, -171769.95, -172432.22, -172465.41, -172572.47, -172320.86, -172645.38, 0.000, 0.000, 0.000,0.0,0.0,0.0,0.0,0.0, 21:32:50.127
123, -134471.36, -134255.48, -171750.47, -172352.48, -172454.56, -172492.19, -172297.34, -172872.75, 0.000, 0.000, 0.000,0.0,0.0,0.0,0.0,0.0, 21:32:50.127
124, -134366.44, -134329.27, -171752.34, -172270.05, -172525.00, -172512.55, -172242.47, -173337.91, 0.000, 0.000, 0.000,0.0,0.0,0.0,0.0,0.0, 21:32:50.127
125, -134422.92, -134450.59, -171763.05, -172268.08, -172568.89, -172505.61, -172257.80, -173444.44, 0.000, 0.000, 0.000,0.0,0.0,0.0,0.0,0.0, 21:32:50.128
126, -134757.30, -134645.98, -171754.00, -172315.83, -172484.88, -172402.16, -172281.23, -173392.52, 0.000, 0.000, 0.000,0.0,0.0,0.0,0.0,0.0, 21:32:50.128
127, -135059.73, -134812.52, -171754.75, -172366.03, -172462.14, -172279.08, -172292.42, -173323.83, 0.000, 0.000, 0.000,0.0,0.0,0.0,0.0,0.0, 21:32:50.128
128, -134985.23, -134881.39, -171733.52, -172280.05, -172511.34, -172442.36, -172220.39, -173306.30, 0.000, 0.000, 0.000,0.0,0.0,0.0,0.0,0.0, 21:32:50.129
129, -134973.59, -134968.36, -171738.11, -172284.22, -172564.42, -172686.64, -172235.98, -173296.63, 0.000, 0.000, 0.000,0.0,0.0,0.0,0.0,0.0, 21:32:50.129
130, -135265.67, -135141.75, -171747.89, -172307.22, -172496.70, -172812.81, -172265.69, -173248.86, 0.000, 0.000, 0.000,0.0,0.0,0.0,0.0,0.0, 21:32:50.129
131, -135619.78, -135320.42, -171737.61, -172324.95, -172466.75, -172746.20, -172290.86, -173184.86, 0.780, 0.010, 0.588,0.0,0.0,0.0,0.0,0.0, 21:32:50.129
132, -135624.95, -135413.09, -171724.11, -172222.63, -172507.45, -172751.31, -172219.14, -173177.22, 0.000, 0.000, 0.000,0.0,0.0,0.0,0.0,0.0, 21:32:50.130
133, -135587.11, -135492.98, -171741.05, -172263.66, -172585.50, -172764.03, -172257.22, -173190.52, 0.000, 0.000, 0.000,0.0,0.0,0.0,0.0,0.0, 21:32:50.130
134, -135844.75, -135650.97, -171741.13, -172285.88, -172525.22, -172716.44, -172246.25, -173160.30, 0.000, 0.000, 0.000,0.0,0.0,0.0,0.0,0.0, 21:32:50.131
135, -136230.95, -135836.91, -171740.09, -172337.73, -172470.75, -172639.22, -172272.17, -173100.48, 0.000, 0.000, 0.000,0.0,0.0,0.0,0.0,0.0, 21:32:50.131
136, -136304.64, -135940.98, -171732.17, -172254.14, -172494.13, -172629.69, -172224.34, -173082.67, 0.000, 0.000, 0.000,0.0,0.0,0.0,0.0,0.0, 21:32:50.132
137, -136233.41, -136013.56, -171743.73, -172226.98, -172587.38, -172658.08, -172260.00, -173101.25, 0.000, 0.000, 0.000,0.0,0.0,0.0,0.0,0.0, 21:32:50.132
138, -136448.05, -136159.92, -171746.08, -172273.81, -172554.17, -172623.34, -172249.33, -173079.98, 0.000, 0.000, 0.000,0.0,0.0,0.0,0.0,0.0, 21:32:50.132
139, -136844.80, -136351.94, -171736.66, -172307.83, -172471.02, -172547.86, -172262.78, -173019.80, 0.000, 0.000, 0.000,0.0,0.0,0.0,0.0,0.0, 21:32:50.132
140, -136997.61, -136479.13, -171731.33, -172277.81, -172479.59, -172515.77, -172208.58, -172983.55, 0.000, 0.000, 0.000,0.0,0.0,0.0,0.0,0.0, 21:32:50.133
141, -136902.80, -136548.02, -171745.30, -172238.00, -172583.73, -172540.02, -172226.75, -172994.81, 0.778, 0.016, 0.592,0.0,0.0,0.0,0.0,0.0, 21:32:50.133
142, -137061.05, -136680.84, -171754.02, -172258.83, -172582.58, -172506.98, -172231.73, -172975.20, 0.000, 0.000, 0.000,0.0,0.0,0.0,0.0,0.0, 21:32:50.133
143, -137441.45, -136869.69, -171739.98, -172338.94, -172472.06, -172375.91, -172299.78, -172910.66, 0.000, 0.000, 0.000,0.0,0.0,0.0,0.0,0.0, 21:32:50.134
144, -137641.91, -137001.50, -171741.28, -172314.28, -172465.27, -172299.25, -172265.97, -172858.42, 0.000, 0.000, 0.000,0.0,0.0,0.0,0.0,0.0, 21:32:50.134
145, -137525.52, -137055.69, -171738.89, -172261.84, -172522.17, -172492.70, -172236.03, -172859.00, 0.000, 0.000, 0.000,0.0,0.0,0.0,0.0,0.0, 21:32:50.134
146, -137615.94, -137169.61, -171743.17, -172262.75, -172534.16, -172725.88, -172242.17, -172842.91, 0.000, 0.000, 0.000,0.0,0.0,0.0,0.0,0.0, 21:32:50.135
147, -137974.94, -137371.89, -171729.14, -172285.98, -172465.70, -172775.72, -172255.55, -172787.00, 0.000, 0.000, 0.000,0.0,0.0,0.0,0.0,0.0, 21:32:50.135
148, -138257.20, -137547.94, -171726.30, -172279.31, -172465.14, -172716.80, -172240.41, -172737.27, 0.000, 0.000, 0.000,0.0,0.0,0.0,0.0,0.0, 21:32:50.135
149, -138180.83, -137643.11, -171723.95, -172221.44, -172537.61, -172748.42, -172221.25, -172742.77, 0.000, 0.000, 0.000,0.0,0.0,0.0,0.0,0.0, 21:32:50.135
150, -138231.13, -137772.44, -171741.80, -172251.83, -172594.70, -172746.25, -172246.25, -172743.31, 0.782, 0.012, 0.594,0.0,0.0,0.0,0.0,0.0, 21:32:50.136
151, -138563.11, -137979.33, -171734.08, -172306.22, -172500.72, -172692.41, -172260.91, -172693.80, 0.000, 0.000, 0.000,0.0,0.0,0.0,0.0,0.0, 21:32:50.136
152, -138896.73, -138176.11, -171734.53, -172291.53, -172451.69, -172624.03, -172257.20, -172631.95, 0.000, 0.000, 0.000,0.0,0.0,0.0,0.0,0.0, 21:32:50.137
153, -138864.81, -138281.34, -171727.42, -172210.78, -172506.72, -172650.28, -172201.59, -172631.92, 0.000, 0.000, 0.000,0.0,0.0,0.0,0.0,0.0, 21:32:50.137
154, -138862.02, -138388.03, -171749.03, -172241.73, -172589.72, -172662.08, -172236.38, -172641.22, 0.000, 0.000, 0.000,0.0,0.0,0.0,0.0,0.0, 21:32:50.138
155, -139154.31, -138570.02, -171740.31, -172276.72, -172512.23, -172614.00, -172252.28, -172602.98, 0.000, 0.000, 0.000,0.0,0.0,0.0,0.0,0.0, 21:32:50.138
156, -139523.50, -138761.19, -171730.34, -172306.55, -172463.73, -172539.59, -172280.98, -172542.86, 0.000, 0.000, 0.000,0.0,0.0,0.0,0.0,0.0, 21:32:50.138
157, -139546.45, -138866.13, -171730.75, -172247.77, -172492.58, -172545.77, -172212.61, -172531.86, 0.000, 0.000, 0.000,0.0,0.0,0.0,0.0,0.0, 21:32:50.139
158, -139499.88, -138955.78, -171750.33, -172250.84, -172571.78, -172560.20, -172242.00, -172545.56, 0.000, 0.000, 0.000,0.0,0.0,0.0,0.0,0.0, 21:32:50.139
159, -139749.45, -139125.88, -171747.61, -172273.38, -172514.02, -172506.75, -172237.98, -172517.22, 0.000, 0.000, 0.000,0.0,0.0,0.0,0.0,0.0, 21:32:50.139
160, -140136.25, -139326.00, -171739.08, -172344.13, -172452.89, -172349.36, -172270.91, -172396.58, 0.782, 0.016, 0.590,0.0,0.0,0.0,0.0,0.0, 21:32:50.140
161, -140205.02, -139426.64, -171731.63, -172332.44, -172457.11, -172322.58, -172211.38, -172116.39, 0.000, 0.000, 0.000,0.0,0.0,0.0,0.0,0.0, 21:32:50.140
162, -140080.13, -139465.36, -171720.56, -172351.17, -172499.50, -172483.98, -172193.52, -172207.13, 0.000, 0.000, 0.000,0.0,0.0,0.0,0.0,0.0, 21:32:50.140
163, -140232.58, -139573.97, -171738.55, -172408.31, -172461.73, -172653.27, -172230.25, -172391.00, 0.000, 0.000, 0.000,0.0,0.0,0.0,0.0,0.0, 21:32:50.140
164, -140582.00, -139733.41, -171747.53, -172447.75, -172397.36, -172704.81, -172294.97, -172535.14, 0.000, 0.000, 0.000,0.0,0.0,0.0,0.0,0.0, 21:32:50.141
165, -140711.00, -139835.80, -171719.23, -172327.45, -172406.64, -172644.63, -172244.06, -172743.53, 0.000, 0.000, 0.000,0.0,0.0,0.0,0.0,0.0, 21:32:50.141
166, -140590.44, -139886.11, -171701.00, -172217.23, -172481.28, -172653.78, -172207.33, -173221.91, 0.000, 0.000, 0.000,0.0,0.0,0.0,0.0,0.0, 21:32:50.141
167, -140729.19, -140009.69, -171711.38, -172263.08, -172488.34, -172619.55, -172216.81, -173403.83, 0.000, 0.000, 0.000,0.0,0.0,0.0,0.0,0.0, 21:32:50.142
168, -141096.88, -140190.89, -171719.97, -172326.63, -172435.34, -172538.72, -172258.73, -173346.20, 0.000, 0.000, 0.000,0.0,0.0,0.0,0.0,0.0, 21:32:50.142
169, -141321.92, -140328.69, -171700.22, -172229.48, -172436.08, -172481.39, -172202.33, -173301.97, 0.780, 0.008, 0.584,0.0,0.0,0.0,0.0,0.0, 21:32:50.142
170, -141222.83, -140392.31, -171705.84, -172217.64, -172516.48, -172514.56, -172197.67, -173315.28, 0.000, 0.000, 0.000,0.0,0.0,0.0,0.0,0.0, 21:32:50.143
171, -141307.86, -140501.09, -171720.17, -172246.36, -172551.06, -172503.14, -172218.00, -173310.22, 0.000, 0.000, 0.000,0.0,0.0,0.0,0.0,0.0, 21:32:50.143
172, -141655.77, -140679.27, -171719.14, -172312.00, -172453.16, -172409.55, -172266.72, -173254.95, 0.000, 0.000, 0.000,0.0,0.0,0.0,0.0,0.0, 21:32:50.143
173, -141934.00, -140822.83, -171711.95, -172297.61, -172437.09, -172276.75, -172254.20, -173189.41, 0.000, 0.000, 0.000,0.0,0.0,0.0,0.0,0.0, 21:32:50.144
174, -141841.61, -140873.73, -171693.16, -172221.53, -172492.27, -172435.39, -172182.28, -173175.19, 0.000, 0.000, 0.000,0.0,0.0,0.0,0.0,0.0, 21:32:50.144
175, -141857.63, -140957.47, -171698.16, -172249.36, -172537.80, -172685.25, -172194.66, -173162.02, 0.000, 0.000, 0.000,0.0,0.0,0.0,0.0,0.0, 21:32:50.144
176, -142164.59, -141128.11, -171717.61, -172310.63, -172462.80, -172753.75, -172255.19, -173105.83, 0.000, 0.000, 0.000,0.0,0.0,0.0,0.0,0.0, 21:32:50.145
177, -142495.16, -141299.34, -171708.08, -172286.72, -172435.36, -172683.42, -172266.28, -173038.19, 0.000, 0.000, 0.000,0.0,0.0,0.0,0.0,0.0, 21:32:50.145
178, -142465.81, -141388.61, -171691.25, -172176.20, -172480.50, -172706.88, -172199.70, -173031.06, 0.000, 0.000, 0.000,0.0,0.0,0.0,0.0,0.0, 21:32:50.145
179, -142444.98, -141483.92, -171710.94, -172204.67, -172553.69, -172729.63, -172222.84, -173040.61, 0.778, 0.014, 0.580,0.0,0.0,0.0,0.0,0.0, 21:32:50.146
180, -142721.73, -141661.48, -171712.73, -172233.73, -172481.41, -172696.39, -172216.66, -173003.75, 0.000, 0.000, 0.000,0.0,0.0,0.0,0.0,0.0, 21:32:50.146
181, -143088.53, -141857.06, -171701.38, -172264.31, -172431.08, -172634.77, -172239.52, -172941.14, 0.000, 0.000, 0.000,0.0,0.0,0.0,0.0,0.0, 21:32:50.146
182, -143121.08, -141970.08, -171690.22, -172194.97, -172460.80, -172650.61, -172181.67, -172926.81, 0.000, 0.000, 0.000,0.0,0.0,0.0,0.0,0.0, 21:32:50.146
183, -143056.50, -142063.41, -171706.97, -172193.41, -172541.61, -172685.34, -172217.39, -172941.78, 0.000, 0.000, 0.000,0.0,0.0,0.0,0.0,0.0, 21:32:50.147
184, -143282.48, -142235.19, -171706.86, -172239.20, -172492.20, -172653.50, -172210.63, -172913.17, 0.000, 0.000, 0.000,0.0,0.0,0.0,0.0,0.0, 21:32:50.147
185, -143662.02, -142443.27, -171702.66, -172283.31, -172432.81, -172582.38, -172239.98, -172850.75, 0.000, 0.000, 0.000,0.0,0.0,0.0,0.0,0.0, 21:32:50.147
186, -143759.80, -142576.52, -171693.17, -172236.02, -172449.45, -172567.69, -172184.69, -172825.22, 0.000, 0.000, 0.000,0.0,0.0,0.0,0.0,0.0, 21:32:50.148
187, -143663.16, -142666.83, -171700.91, -172208.55, -172536.11, -172601.06, -172213.50, -172842.06, 0.000, 0.000, 0.000,0.0,0.0,0.0,0.0,0.0, 21:32:50.148
188, -143838.33, -142828.47, -171708.02, -172254.19, -172515.89, -172572.14, -172212.97, -172825.84, 0.784, 0.016, 0.586,0.0,0.0,0.0,0.0,0.0, 21:32:50.148
189, -144215.47, -143039.83, -171707.61, -172330.00, -172436.27, -172502.11, -172243.19, -172766.08, 0.000, 0.000, 0.000,0.0,0.0,0.0,0.0,0.0, 21:32:50.149
190, -144384.28, -143190.05, -171701.16, -172252.42, -172440.63, -172469.31, -172202.58, -172730.08, 0.000, 0.000, 0.000,0.0,0.0,0.0,0.0,0.0, 21:32:50.149
191, -144274.58, -143273.38, -171701.78, -172219.61, -172530.11, -172508.56, -172217.38, -172747.28, 0.000, 0.000, 0.000,0.0,0.0,0.0,0.0,0.0, 21:32:50.150
192, -144394.95, -143410.27, -171710.23, -172270.08, -172543.30, -172488.50, -172220.56, -172736.89, 0.000, 0.000, 0.000,0.0,0.0,0.0,0.0,0.0, 21:32:50.150
193, -144755.95, -143606.80, -171707.45, -172323.94, -172443.69, -172375.95, -172225.27, -172680.75, 0.000, 0.000, 0.000,0.0,0.0,0.0,0.0,0.0, 21:32:50.150
194, -144980.50, -143749.00, -171704.55, -172336.13, -172440.14, -172269.98, -172215.69, -172625.53, 0.000, 0.000, 0.000,0.0,0.0,0.0,0.0,0.0, 21:32:50.151
195, -144857.00, -143799.92, -171692.84, -172263.64, -172504.64, -172445.48, -172189.58, -172619.44, 0.000, 0.000, 0.000,0.0,0.0,0.0,0.0,0.0, 21:32:50.151
196, -144906.78, -143895.66, -171693.95, -172263.72, -172539.61, -172682.69, -172199.52, -172607.25, 0.000, 0.000, 0.000,0.0,0.0,0.0,0.0,0.0, 21:32:50.151
197, -145235.91, -144073.02, -171703.69, -172312.52, -172447.86, -172743.38, -172226.75, -172555.53, 0.000, 0.000, 0.000,0.0,0.0,0.0,0.0,0.0, 21:32:50.151
198, -145527.70, -144229.91, -171695.91, -172291.08, -172427.55, -172677.88, -172222.00, -172501.84, 0.782, 0.012, 0.584,0.0,0.0,0.0,0.0,0.0, 21:32:50.151
199, -145454.78, -144297.97, -171676.45, -172192.58, -172495.20, -172699.42, -172190.86, -172508.72, 0.000, 0.000, 0.000,0.0,0.0,0.0,0.0,0.0, 21:32:50.152
200, -145461.50, -144385.53, -171689.13, -172227.88, -172567.48, -172696.36, -172223.77, -172516.39, 0.000, 0.000, 0.000,0.0,0.0,0.0,0.0,0.0, 21:32:50.152
201, -145761.63, -144559.28, -171700.48, -172276.78, -172478.70, -172646.02, -172192.94, -172475.02, 0.000, 0.000, 0.000,0.0,0.0,0.0,0.0,0.0, 21:32:50.152
202, -146099.31, -144731.70, -171693.25, -172253.48, -172424.34, -172570.48, -172190.81, -172418.80, 0.000, 0.000, 0.000,0.0,0.0,0.0,0.0,0.0, 21:32:50.153
203, -146074.36, -144802.55, -171678.73, -172169.42, -172471.86, -172575.59, -172167.34, -172423.19, 0.000, 0.000, 0.000,0.0,0.0,0.0,0.0,0.0, 21:32:50.153
204, -146031.78, -144868.48, -171691.23, -172188.31, -172564.05, -172575.52, -172221.58, -172442.45, 0.000, 0.000, 0.000,0.0,0.0,0.0,0.0,0.0, 21:32:50.153
205, -146284.34, -145022.09, -171688.70, -172242.22, -172493.72, -172519.31, -172191.11, -172377.92, 0.000, 0.000, 0.000,0.0,0.0,0.0,0.0,0.0, 21:32:50.154
206, -146640.56, -145197.06, -171701.94, -172343.36, -172418.92, -172428.56, -172222.80, -172072.13, 0.000, 0.000, 0.000,0.0,0.0,0.0,0.0,0.0, 21:32:50.154
207, -146658.73, -145272.52, -171687.36, -172273.05, -172430.61, -172398.66, -172181.58, -172094.55, 0.000, 0.000, 0.000,0.0,0.0,0.0,0.0,0.0, 21:32:50.154
208, -146554.22, -145323.75, -171672.09, -172226.69, -172498.38, -172395.28, -172182.91, -172328.19, 0.782, 0.010, 0.576,0.0,0.0,0.0,0.0,0.0, 21:32:50.155
209, -146733.97, -145448.58, -171703.30, -172375.00, -172450.03, -172256.19, -172199.78, -172511.08, 0.000, 0.000, 0.000,0.0,0.0,0.0,0.0,0.0, 21:32:50.155
210, -147063.72, -145599.30, -171709.98, -172413.44, -172363.38, -172194.55, -172251.05, -172639.09, 0.000, 0.000, 0.000,0.0,0.0,0.0,0.0,0.0, 21:32:50.156
211, -147132.86, -145685.58, -171684.81, -172309.70, -172364.06, -172307.52, -172203.36, -172926.23, 0.000, 0.000, 0.000,0.0,0.0,0.0,0.0,0.0, 21:32:50.156
212, -146999.48, -145739.09, -171664.86, -172199.22, -172425.47, -172541.92, -172144.13, -173320.98, 0.000, 0.000, 0.000,0.0,0.0,0.0,0.0,0.0, 21:32:50.156
213, -147147.92, -145881.94, -171678.92, -172240.19, -172422.41, -172740.36, -172179.17, -173334.47, 0.000, 0.000, 0.000,0.0,0.0,0.0,0.0,0.0, 21:32:50.156
214, -147510.72, -146083.02, -171682.38, -172261.22, -172379.53, -172701.06, -172260.08, -173258.36, 0.000, 0.000, 0.000,0.0,0.0,0.0,0.0,0.0, 21:32:50.157
215, -147689.14, -146234.56, -171663.56, -172205.70, -172387.64, -172668.61, -172195.73, -173207.17, 0.000, 0.000, 0.000,0.0,0.0,0.0,0.0,0.0, 21:32:50.157
216, -147572.89, -146322.61, -171666.67, -172164.66, -172467.19, -172716.13, -172162.31, -173211.64, 0.000, 0.000, 0.000,0.0,0.0,0.0,0.0,0.0, 21:32:50.157
217, -147675.75, -146471.05, -171679.78, -172170.09, -172481.56, -172713.69, -172174.61, -173196.08, 0.784, 0.012, 0.584,0.0,0.0,0.0,0.0,0.0, 21:32:50.158
218, -148028.52, -146687.83, -171675.70, -172232.86, -172401.59, -172661.08, -172236.88, -173132.16, 0.000, 0.000, 0.000,0.0,0.0,0.0,0.0,0.0, 21:32:50.158
219, -148275.55, -146868.03, -171660.63, -172192.41, -172400.77, -172615.25, -172197.41, -173076.44, 0.000, 0.000, 0.000,0.0,0.0,0.0,0.0,0.0, 21:32:50.158
220, -148177.17, -146968.81, -171656.27, -172134.64, -172474.03, -172659.55, -172162.67, -173085.33, 0.000, 0.000, 0.000,0.0,0.0,0.0,0.0,0.0, 21:32:50.158
221, -148225.14, -147104.97, -171672.95, -172150.97, -172513.70, -172661.66, -172183.97, -173084.92, 0.000, 0.000, 0.000,0.0,0.0,0.0,0.0,0.0, 21:32:50.159
222, -148550.30, -147317.58, -171668.31, -172196.25, -172421.80, -172607.66, -172194.19, -173033.88, 0.000, 0.000, 0.000,0.0,0.0,0.0,0.0,0.0, 21:32:50.159
223, -148856.78, -147512.36, -171670.69, -172228.14, -172400.14, -172540.69, -172188.61, -172975.27, 0.000, 0.000, 0.000,0.0,0.0,0.0,0.0,0.0, 21:32:50.159
224, -148791.92, -147613.75, -171664.98, -172155.28, -172454.67, -172563.78, -172152.33, -172974.52, 0.000, 0.000, 0.000,0.0,0.0,0.0,0.0,0.0, 21:32:50.159
225, -148789.67, -147728.08, -171678.64, -172159.61, -172518.77, -172570.55, -172187.48, -172982.63, 0.000, 0.000, 0.000,0.0,0.0,0.0,0.0,0.0, 21:32:50.160
226, -149078.73, -147917.33, -171673.17, -172211.31, -172441.22, -172520.17, -172194.55, -172943.91, 0.000, 0.000, 0.000,0.0,0.0,0.0,0.0,0.0, 21:32:50.160
227, -149426.02, -148108.59, -171671.25, -172227.98, -172402.98, -172444.47, -172199.00, -172885.47, 0.786, 0.014, 0.588,0.0,0.0,0.0,0.0,0.0, 21:32:50.160
228, -149420.56, -148210.02, -171667.78, -172171.17, -172442.78, -172452.67, -172147.16, -172880.92, 0.000, 0.000, 0.000,0.0,0.0,0.0,0.0,0.0, 21:32:50.161
229, -149370.88, -148296.27, -171679.20, -172170.94, -172532.89, -172469.72, -172189.41, -172897.55, 0.000, 0.000, 0.000,0.0,0.0,0.0,0.0,0.0, 21:32:50.162
230, -149618.70, -148458.61, -171674.25, -172218.67, -172471.03, -172419.39, -172181.30, -172868.14, 0.000, 0.000, 0.000,0.0,0.0,0.0,0.0,0.0, 21:32:50.162
231, -149987.23, -148640.77, -171675.63, -172281.31, -172397.03, -172257.17, -172219.53, -172805.63, 0.000, 0.000, 0.000,0.0,0.0,0.0,0.0,0.0, 21:32:50.163
232, -150029.47, -148725.64, -171669.08, -172249.56, -172423.30, -172276.16, -172171.41, -172773.86, 0.000, 0.000, 0.000,0.0,0.0,0.0,0.0,0.0, 21:32:50.163
233, -149923.84, -148771.69, -171660.47, -172235.09, -172494.53, -172475.47, -172177.05, -172775.78, 0.000, 0.000, 0.000,0.0,0.0,0.0,0.0,0.0, 21:32:50.163
234, -150108.50, -148897.50, -171668.20, -172243.13, -172456.27, -172684.08, -172173.67, -172744.28, 0.000, 0.000, 0.000,0.0,0.0,0.0,0.0,0.0, 21:32:50.163
235, -150483.77, -149075.94, -171670.80, -172257.17, -172394.81, -172679.09, -172206.38, -172683.11, 0.000, 0.000, 0.000,0.0,0.0,0.0,0.0,0.0, 21:32:50.164
236, -150617.94, -149190.22, -171667.89, -172227.92, -172409.53, -172644.41, -172148.45, -172658.41, 0.784, 0.012, 0.584,0.0,0.0,0.0,0.0,0.0, 21:32:50.164
237, -150511.33, -149248.30, -171668.56, -172147.86, -172504.41, -172671.44, -172187.59, -172680.36, 0.000, 0.000, 0.000,0.0,0.0,0.0,0.0,0.0, 21:32:50.164
238, -150658.75, -149373.33, -171672.50, -172174.05, -172505.06, -172641.63, -172188.58, -172670.64, 0.000, 0.000, 0.000,0.0,0.0,0.0,0.0,0.0, 21:32:50.164
239, -151030.08, -149558.13, -171667.89, -172249.83, -172403.41, -172569.16, -172161.59, -172618.38, 0.000, 0.000, 0.000,0.0,0.0,0.0,0.0,0.0, 21:32:50.165
240, -151234.16, -149693.06, -171660.88, -172225.70, -172389.14, -172520.23, -172150.09, -172583.17, 0.000, 0.000, 0.000,0.0,0.0,0.0,0.0,0.0, 21:32:50.607
241, -151123.31, -149754.47, -171656.72, -172134.56, -172481.80, -172550.98, -172178.03, -172601.28, 0.000, 0.000, 0.000,0.0,0.0,0.0,0.0,0.0, 21:32:50.607
242, -151215.22, -149867.75, -171668.23, -172165.52, -172515.16, -172534.58, -172199.44, -172599.98, 0.000, 0.000, 0.000,0.0,0.0,0.0,0.0,0.0, 21:32:50.607
243, -151566.97, -150055.61, -171658.23, -172202.17, -172412.88, -172474.44, -172152.06, -172550.30, 0.000, 0.000, 0.000,0.0,0.0,0.0,0.0,0.0, 21:32:50.608
244, -151840.73, -150219.34, -171648.14, -172169.38, -172380.56, -172425.39, -172135.36, -172508.56, 0.000, 0.000, 0.000,0.0,0.0,0.0,0.0,0.0, 21:32:50.608
245, -151753.94, -150295.45, -171648.88, -172153.44, -172455.70, -172462.28, -172151.83, -172521.06, 0.000, 0.000, 0.000,0.0,0.0,0.0,0.0,0.0, 21:32:50.608
246, -151789.50, -150401.19, -171661.06, -172170.03, -172515.25, -172463.91, -172185.05, -172524.34, 0.770, 0.008, 0.586,0.0,0.0,0.0,0.0,0.0, 21:32:50.608
247, -152107.23, -150584.86, -171664.08, -172239.00, -172418.05, -172403.69, -172172.16, -172476.45, 0.000, 0.000, 0.000,0.0,0.0,0.0,0.0,0.0, 21:32:50.609
248, -152418.02, -150750.80, -171661.14, -172252.84, -172385.72, -172252.28, -172182.50, -172411.00, 0.000, 0.000, 0.000,0.0,0.0,0.0,0.0,0.0, 21:32:50.609
249, -152346.88, -150816.89, -171653.05, -172187.84, -172427.77, -172336.75, -172129.28, -172393.09, 0.000, 0.000, 0.000,0.0,0.0,0.0,0.0,0.0, 21:32:50.609
250, -152312.27, -150895.27, -171656.56, -172188.25, -172484.09, -172579.09, -172148.14, -172380.42, 0.000, 0.000, 0.000,0.0,0.0,0.0,0.0,0.0, 21:32:50.610
251, -152580.02, -151060.70, -171662.31, -172239.78, -172415.36, -172712.03, -172170.98, -172159.41, 0.000, 0.000, 0.000,0.0,0.0,0.0,0.0,0.0, 21:32:50.610
252, -152913.58, -151231.36, -171671.98, -172300.47, -172371.69, -172639.64, -172229.02, -171958.47, 0.000, 0.000, 0.000,0.0,0.0,0.0,0.0,0.0, 21:32:50.610
253, -152894.20, -151310.36, -171652.14, -172205.08, -172399.64, -172628.97, -172144.59, -172132.86, 0.000, 0.000, 0.000,0.0,0.0,0.0,0.0,0.0, 21:32:50.611
254, -152809.73, -151377.59, -171651.58, -172188.45, -172456.05, -172636.98, -172124.23, -172361.88, 0.000, 0.000, 0.000,0.0,0.0,0.0,0.0,0.0, 21:32:50.611
255, -153017.17, -151521.47, -171661.97, -172289.05, -172404.13, -172584.67, -172161.13, -172542.31, 0.000, 0.000, 0.000,0.0,0.0,0.0,0.0,0.0, 21:32:50.611
0, -153358.36, -151692.50, -171667.66, -172322.27, -172346.78, -172491.84, -172213.34, -172697.31, 0.776, 0.010, 0.590,0.0,0.0,0.0,0.0,0.0, 21:32:50.611
1, -153413.86, -151797.38, -171639.78, -172192.17, -172373.72, -172467.42, -172175.28, -173103.13, 0.000, 0.000, 0.000,0.0,0.0,0.0,0.0,0.0, 21:32:50.612
2, -153313.22, -151878.89, -171642.53, -172120.56, -172455.03, -172498.17, -172139.34, -173355.05, 0.000, 0.000, 0.000,0.0,0.0,0.0,0.0,0.0, 21:32:50.612
3, -153498.39, -152038.77, -171643.89, -172148.64, -172431.78, -172470.91, -172137.17, -173337.13, 0.000, 0.000, 0.000,0.0,0.0,0.0,0.0,0.0, 21:32:50.612
4, -153874.36, -152242.63, -171648.36, -172236.81, -172365.09, -172399.61, -172201.83, -173274.41, 0.000, 0.000, 0.000,0.0,0.0,0.0,0.0,0.0, 21:32:50.613
5, -154022.58, -152380.16, -171636.69, -172172.39, -172377.75, -172367.64, -172148.13, -173237.03, 0.000, 0.000, 0.000,0.0,0.0,0.0,0.0,0.0, 21:32:50.613
6, -153911.06, -152458.00, -171637.78, -172113.61, -172465.16, -172402.52, -172156.42, -173253.78, 0.000, 0.000, 0.000,0.0,0.0,0.0,0.0,0.0, 21:32:50.613
7, -154042.34, -152595.89, -171645.33, -172168.39, -172468.53, -172376.95, -172157.95, -173245.13, 0.000, 0.000, 0.000,0.0,0.0,0.0,0.0,0.0, 21:32:50.613
8, -154402.20, -152792.36, -171638.22, -172222.58, -172365.41, -172241.33, -172149.08, -173189.94, 0.000, 0.000, 0.000,0.0,0.0,0.0,0.0,0.0, 21:32:50.614
9, -154606.47, -152932.50, -171635.83, -172221.38, -172362.39, -172180.47, -172128.61, -173139.27, 0.784, 0.014, 0.588,0.0,0.0,0.0,0.0,0.0, 21:32:50.614
10, -154477.44, -152984.05, -171627.11, -172183.33, -172426.73, -172367.97, -172119.64, -173138.27, 0.000, 0.000, 0.000,0.0,0.0,0.0,0.0,0.0, 21:32:50.614
11, -154535.39, -153081.86, -171630.36, -172190.38, -172448.78, -172588.25, -172135.31, -173125.14, 0.000, 0.000, 0.000,0.0,0.0,0.0,0.0,0.0, 21:32:50.614
12, -154867.20, -153260.77, -171639.47, -172213.95, -172369.63, -172677.97, -172159.61, -173072.09, 0.000, 0.000, 0.000,0.0,0.0,0.0,0.0,0.0, 21:32:50.615
13, -155141.59, -153417.30, -171633.31, -172212.41, -172366.17, -172616.58, -172137.70, -173022.66, 0.000, 0.000, 0.000,0.0,0.0,0.0,0.0,0.0, 21:32:50.615
14, -155056.55, -153486.45, -171620.20, -172102.50, -172439.67, -172641.61, -172121.50, -173032.72, 0.000, 0.000, 0.000,0.0,0.0,0.0,0.0,0.0, 21:32:50.615
15, -155078.83, -153583.22, -171633.55, -172130.39, -172506.27, -172640.05, -172157.42, -173040.14, 0.000, 0.000, 0.000,0.0,0.0,0.0,0.0,0.0, 21:32:50.616
16, -155382.06, -153755.16, -171629.41, -172184.95, -172409.28, -172585.84, -172140.77, -172996.02, 0.000, 0.000, 0.000,0.0,0.0,0.0,0.0,0.0, 21:32:50.616
17, -155709.20, -153929.11, -171621.77, -172174.14, -172345.59, -172522.33, -172138.56, -172942.53, 0.000, 0.000, 0.000,0.0,0.0,0.0,0.0,0.0, 21:32:50.616
18, -155673.14, -154012.83, -171616.84, -172118.31, -172407.83, -172550.80, -172112.78, -172943.20, 0.000, 0.000, 0.000,0.0,0.0,0.0,0.0,0.0, 21:32:50.616
19, -155646.05, -154098.64, -171628.36, -172105.61, -172504.95, -172575.73, -172154.00, -172954.97, 0.778, 0.014, 0.580,0.0,0.0,0.0,0.0,0.0, 21:32:50.617
20, -155915.61, -154267.83, -171628.47, -172153.13, -172436.02, -172544.05, -172137.42, -172920.39, 0.000, 0.000, 0.000,0.0,0.0,0.0,0.0,0.0, 21:32:50.617
21, -156274.03, -154454.95, -171631.58, -172204.52, -172353.05, -172484.52, -172157.20, -172860.19, 0.000, 0.000, 0.000,0.0,0.0,0.0,0.0,0.0, 21:32:50.617
22, -156297.30, -154558.31, -171618.09, -172122.08, -172383.95, -172502.75, -172118.89, -172846.13, 0.000, 0.000, 0.000,0.0,0.0,0.0,0.0,0.0, 21:32:50.617
23, -156225.77, -154643.36, -171627.19, -172091.53, -172488.30, -172540.75, -172157.73, -172860.72, 0.000, 0.000, 0.000,0.0,0.0,0.0,0.0,0.0, 21:32:50.618
24, -156444.92, -154806.64, -171629.81, -172151.47, -172441.94, -172515.58, -172139.56, -172831.89, 0.000, 0.000, 0.000,0.0,0.0,0.0,0.0,0.0, 21:32:50.618
25, -156818.63, -155007.05, -171626.02, -172187.48, -172360.13, -172454.45, -172144.66, -172770.69, 0.000, 0.000, 0.000,0.0,0.0,0.0,0.0,0.0, 21:32:50.618
26, -156915.41, -155136.45, -171617.06, -172134.06, -172376.69, -172452.75, -172100.56, -172748.05, 0.000, 0.000, 0.000,0.0,0.0,0.0,0.0,0.0, 21:32:50.619
27, -156815.78, -155219.83, -171622.98, -172094.17, -172477.66, -172498.11, -172140.20, -172764.72, 0.000, 0.000, 0.000,0.0,0.0,0.0,0.0,0.0, 21:32:50.619
28, -156987.05, -155375.38, -171627.55, -172141.00, -172461.36, -172480.09, -172137.69, -172747.28, 0.776, 0.014, 0.590,0.0,0.0,0.0,0.0,0.0, 21:32:50.619
29, -157359.98, -155581.17, -171623.77, -172189.98, -172360.39, -172418.06, -172148.25, -172689.55, 0.000, 0.000, 0.000,0.0,0.0,0.0,0.0,0.0, 21:32:50.619
30, -157525.72, -155725.88, -171622.95, -172184.06, -172353.94, -172391.17, -172110.23, -172656.27, 0.000, 0.000, 0.000,0.0,0.0,0.0,0.0,0.0, 21:32:50.620
31, -157409.34, -155805.33, -171621.03, -172106.23, -172445.67, -172431.72, -172133.92, -172672.19, 0.000, 0.000, 0.000,0.0,0.0,0.0,0.0,0.0, 21:32:50.620
32, -157526.73, -155942.39, -171628.02, -172147.56, -172453.47, -172413.77, -172142.83, -172661.08, 0.000, 0.000, 0.000,0.0,0.0,0.0,0.0,0.0, 21:32:50.620
33, -157884.48, -156141.02, -171631.48, -172216.92, -172360.59, -172312.66, -172154.52, -172603.78, 0.000, 0.000, 0.000,0.0,0.0,0.0,0.0,0.0, 21:32:50.621
34, -158109.33, -156291.38, -171619.19, -172177.22, -172355.70, -172197.36, -172117.20, -172550.98, 0.000, 0.000, 0.000,0.0,0.0,0.0,0.0,0.0, 21:32:50.621
35, -157985.19, -156352.09, -171618.14, -172172.27, -172416.34, -172369.63, -172107.89, -172546.88, 0.000, 0.000, 0.000,0.0,0.0,0.0,0.0,0.0, 21:32:50.621
36, -158032.55, -156458.88, -171620.94, -172153.00, -172449.05, -172612.66, -172126.69, -172534.36, 0.000, 0.000, 0.000,0.0,0.0,0.0,0.0,0.0, 21:32:50.621
37, -158359.09, -156647.75, -171626.61, -172210.27, -172372.53, -172669.28, -172148.22, -172480.34, 0.000, 0.000, 0.000,0.0,0.0,0.0,0.0,0.0, 21:32:50.622
38, -158643.78, -156816.44, -171626.08, -172172.95, -172349.64, -172606.52, -172127.63, -172425.00, 0.776, 0.014, 0.588,0.0,0.0,0.0,0.0,0.0, 21:32:50.622
39, -158566.73, -156902.16, -171612.11, -172090.39, -172417.14, -172635.64, -172111.52, -172428.84, 0.000, 0.000, 0.000,0.0,0.0,0.0,0.0,0.0, 21:32:50.622
40, -158570.27, -157005.78, -171623.64, -172082.97, -172495.53, -172640.69, -172156.13, -172434.41, 0.000, 0.000, 0.000,0.0,0.0,0.0,0.0,0.0, 21:32:50.623
41, -158862.31, -157188.03, -171623.14, -172154.97, -172407.25, -172594.05, -172114.03, -172392.94, 0.000, 0.000, 0.000,0.0,0.0,0.0,0.0,0.0, 21:32:50.623
42, -159195.84, -157375.36, -171617.63, -172154.38, -172335.61, -172532.81, -172103.98, -172339.03, 0.000, 0.000, 0.000,0.0,0.0,0.0,0.0,0.0, 21:32:50.624
43, -159169.42, -157471.44, -171614.09, -172105.92, -172390.91, -172556.63, -172105.39, -172335.63, 0.000, 0.000, 0.000,0.0,0.0,0.0,0.0,0.0, 21:32:50.624
44, -159124.41, -157560.19, -171625.45, -172083.70, -172498.70, -172580.39, -172160.97, -172343.19, 0.000, 0.000, 0.000,0.0,0.0,0.0,0.0,0.0, 21:32:50.624
45, -159367.34, -157723.47, -171624.78, -172148.19, -172437.67, -172541.84, -172130.23, -172130.00, 0.000, 0.000, 0.000,0.0,0.0,0.0,0.0,0.0, 21:32:50.624
46, -159707.48, -157897.81, -171631.13, -172263.75, -172346.22, -172460.09, -172142.16, -171950.89, 0.000, 0.000, 0.000,0.0,0.0,0.0,0.0,0.0, 21:32:50.625
47, -159715.88, -157982.39, -171614.94, -172161.36, -172369.05, -172442.50, -172107.47, -172129.75, 0.774, 0.008, 0.584,0.0,0.0,0.0,0.0,0.0, 21:32:50.625
48, -159601.53, -158035.86, -171607.84, -172162.00, -172450.23, -172449.06, -172120.83, -172363.22, 0.000, 0.000, 0.000,0.0,0.0,0.0,0.0,0.0, 21:32:50.625
49, -159771.53, -158161.30, -171634.95, -172269.94, -172402.95, -172388.58, -172122.86, -172561.20, 0.000, 0.000, 0.000,0.0,0.0,0.0,0.0,0.0, 21:32:50.625
50, -160101.41, -158321.47, -171635.84, -172290.89, -172333.53, -172219.20, -172105.67, -172799.92, 0.000, 0.000, 0.000,0.0,0.0,0.0,0.0,0.0, 21:32:50.626
51, -160171.97, -158411.48, -171609.17, -172189.58, -172341.36, -172194.44, -172113.28, -173206.77, 0.000, 0.000, 0.000,0.0,0.0,0.0,0.0,0.0, 21:32:50.626
52, -160034.42, -158459.05, -171589.69, -172121.97, -172411.34, -172404.36, -172060.80, -173293.66, 0.000, 0.000, 0.000,0.0,0.0,0.0,0.0,0.0, 21:32:50.626
53, -160166.58, -158583.03, -171602.66, -172173.48, -172397.91, -172629.00, -172094.44, -173267.13, 0.000, 0.000, 0.000,0.0,0.0,0.0,0.0,0.0, 21:32:50.626
54, -160516.97, -158765.31, -171605.63, -172181.16, -172331.47, -172628.53, -172165.17, -173199.42, 0.000, 0.000, 0.000,0.0,0.0,0.0,0.0,0.0, 21:32:50.627
55, -160691.56, -158898.86, -171594.34, -172134.36, -172340.70, -172584.27, -172089.30, -173162.17, 0.000, 0.000, 0.000,0.0,0.0,0.0,0.0,0.0, 21:32:50.627
56, -160570.39, -158960.84, -171599.98, -172077.22, -172431.83, -172614.30, -172125.02, -173174.41, 0.000, 0.000, 0.000,0.0,0.0,0.0,0.0,0.0, 21:32:50.627
57, -160666.70, -159078.77, -171603.14, -172103.98, -172458.61, -172596.05, -172149.16, -173164.53, 0.780, 0.012, 0.584,0.0,0.0,0.0,0.0,0.0, 21:32:50.627
58, -161014.58, -159263.75, -171603.44, -172162.97, -172353.56, -172537.22, -172090.81, -173111.06, 0.000, 0.000, 0.000,0.0,0.0,0.0,0.0,0.0, 21:32:50.628
59, -161261.66, -159416.97, -171603.64, -172165.22, -172326.73, -172493.92, -172070.42, -173064.44, 0.000, 0.000, 0.000,0.0,0.0,0.0,0.0,0.0, 21:32:50.628
60, -161159.11, -159486.31, -171604.80, -172089.63, -172418.42, -172539.56, -172097.19, -173072.72, 0.000, 0.000, 0.000,0.0,0.0,0.0,0.0,0.0, 21:32:50.628
61, -161203.03, -159588.50, -171612.53, -172080.42, -172478.50, -172544.44, -172126.95, -173069.75, 0.000, 0.000, 0.000,0.0,0.0,0.0,0.0,0.0, 21:32:50.628
62, -161521.75, -159766.83, -171602.81, -172145.64, -172375.70, -172498.02, -172107.17, -173019.39, 0.000, 0.000, 0.000,0.0,0.0,0.0,0.0,0.0, 21:32:50.629
63, -161821.42, -159935.16, -171601.05, -172168.42, -172316.44, -172443.75, -172112.83, -172962.80, 0.000, 0.000, 0.000,0.0,0.0,0.0,0.0,0.0, 21:32:50.629
64, -161752.06, -160014.41, -171592.50, -172092.58, -172397.20, -172476.69, -172092.05, -172960.05, 0.000, 0.000, 0.000,0.0,0.0,0.0,0.0,0.0, 21:32:50.629
65, -161742.48, -160109.73, -171601.36, -172096.58, -172486.08, -172490.64, -172127.11, -172963.56, 0.000, 0.000, 0.000,0.0,0.0,0.0,0.0,0.0, 21:32:50.629
66, -162021.55, -160286.77, -171603.25, -172167.53, -172400.61, -172450.34, -172105.08, -172920.27, 0.000, 0.000, 0.000,0.0,0.0,0.0,0.0,0.0, 21:32:50.630
67, -162360.89, -160477.00, -171599.67, -172164.95, -172309.70, -172391.53, -172111.83, -172863.41, 0.780, 0.010, 0.578,0.0,0.0,0.0,0.0,0.0, 21:32:50.630
68, -162349.77, -160582.97, -171585.66, -172083.42, -172360.06, -172418.52, -172084.70, -172861.36, 0.000, 0.000, 0.000,0.0,0.0,0.0,0.0,0.0, 21:32:50.630
69, -162290.17, -160675.53, -171593.91, -172077.94, -172461.67, -172461.31, -172144.38, -172874.00, 0.000, 0.000, 0.000,0.0,0.0,0.0,0.0,0.0, 21:32:50.630
70, -162522.17, -160846.81, -171601.13, -172122.08, -172404.00, -172461.06, -172119.80, -172825.67, 0.000, 0.000, 0.000,0.0,0.0,0.0,0.0,0.0, 21:32:50.631
71, -162882.03, -161050.61, -171600.08, -172157.91, -172326.88, -172403.33, -172054.02, -172763.98, 0.000, 0.000, 0.000,0.0,0.0,0.0,0.0,0.0, 21:32:50.631
72, -162933.42, -161174.48, -171586.42, -172101.14, -172350.63, -172400.23, -172069.33, -172752.38, 0.000, 0.000, 0.000,0.0,0.0,0.0,0.0,0.0, 21:32:50.631
73, -162835.14, -161262.78, -171589.17, -172060.84, -172458.92, -172426.61, -172145.73, -172768.52, 0.000, 0.000, 0.000,0.0,0.0,0.0,0.0,0.0, 21:32:50.631
74, -163019.00, -161424.77, -171601.22, -172102.25, -172426.00, -172389.16, -172133.08, -172745.72, 0.000, 0.000, 0.000,0.0,0.0,0.0,0.0,0.0, 21:32:50.632
75, -163387.92, -161634.56, -171598.38, -172136.08, -172325.31, -172289.41, -172058.97, -172687.38, 0.000, 0.000, 0.000,0.0,0.0,0.0,0.0,0.0, 21:32:50.632
76, -163504.44, -161769.30, -171599.59, -172137.28, -172333.58, -172197.52, -172066.16, -172653.23, 0.784, 0.014, 0.586,0.0,0.0,0.0,0.0,0.0, 21:32:50.632
77, -163364.14, -161833.11, -171594.09, -172091.75, -172415.22, -172362.16, -172119.05, -172650.19, 0.000, 0.000, 0.000,0.0,0.0,0.0,0.0,0.0, 21:32:50.632
78, -163480.77, -161962.39, -171593.59, -172131.81, -172405.23, -172591.27, -172122.58, -172620.14, 0.000, 0.000, 0.000,0.0,0.0,0.0,0.0,0.0, 21:32:50.633
79, -163830.69, -162159.11, -171594.38, -172141.66, -172326.67, -172627.80, -172105.88, -172559.55, 0.000, 0.000, 0.000,0.0,0.0,0.0,0.0,0.0, 21:32:50.633
80, -164016.14, -162303.52, -171591.45, -172130.44, -172319.03, -172584.77, -172140.33, -172521.64, 0.000, 0.000, 0.000,0.0,0.0,0.0,0.0,0.0, 21:32:50.633
81, -163891.64, -162373.22, -171587.98, -172070.73, -172406.13, -172623.08, -172101.66, -172533.09, 0.000, 0.000, 0.000,0.0,0.0,0.0,0.0,0.0, 21:32:50.633
82, -163973.94, -162495.95, -171592.06, -172065.59, -172439.64, -172614.05, -172106.95, -172525.88, 0.000, 0.000, 0.000,0.0,0.0,0.0,0.0,0.0, 21:32:50.634
83, -164311.69, -162685.31, -171591.08, -172151.16, -172338.73, -172560.25, -172098.45, -172472.58, 0.000, 0.000, 0.000,0.0,0.0,0.0,0.0,0.0, 21:32:50.634
84, -164572.95, -162848.55, -171580.75, -172095.28, -172306.28, -172515.27, -172064.48, -172422.36, 0.000, 0.000, 0.000,0.0,0.0,0.0,0.0,0.0, 21:32:50.634
85, -164478.77, -162927.20, -171576.20, -172046.20, -172386.58, -172560.25, -172074.88, -172427.59, 0.000, 0.000, 0.000,0.0,0.0,0.0,0.0,0.0, 21:32:50.634
86, -164511.16, -163034.22, -171586.56, -172072.94, -172451.38, -172569.45, -172112.22, -172423.41, 0.782, 0.012, 0.586,0.0,0.0,0.0,0.0,0.0, 21:32:50.634
87, -164823.70, -163217.22, -171593.08, -172137.70, -172357.45, -172525.75, -172093.89, -172370.52, 0.000, 0.000, 0.000,0.0,0.0,0.0,0.0,0.0, 21:32:50.635
88, -165135.27, -163391.89, -171579.97, -172112.31, -172303.52, -172470.02, -172081.56, -172310.47, 0.000, 0.000, 0.000,0.0,0.0,0.0,0.0,0.0, 21:32:50.635
89, -165082.09, -163478.23, -171584.41, -172080.94, -172362.08, -172505.70, -172061.39, -172304.81, 0.000, 0.000, 0.000,0.0,0.0,0.0,0.0,0.0, 21:32:50.635
90, -165062.44, -163571.33, -171592.28, -172060.34, -172448.19, -172529.63, -172095.78, -172302.95, 0.000, 0.000, 0.000,0.0,0.0,0.0,0.0,0.0, 21:32:50.636
91, -165331.09, -163739.17, -171589.31, -172129.97, -172368.42, -172493.59, -172110.08, -172077.89, 0.000, 0.000, 0.000,0.0,0.0,0.0,0.0,0.0, 21:32:50.636
92, -165660.00, -163905.42, -171591.14, -172196.97, -172311.17, -172421.06, -172152.48, -171893.67, 0.000, 0.000, 0.000,0.0,0.0,0.0,0.0,0.0, 21:32:50.636
93, -165637.75, -163979.61, -171573.81, -172131.88, -172338.58, -172422.64, -172063.80, -172074.98, 0.000, 0.000, 0.000,0.0,0.0,0.0,0.0,0.0, 21:32:50.636
94, -165550.22, -164039.64, -171572.23, -172151.25, -172401.70, -172436.80, -172069.28, -172303.48, 0.000, 0.000, 0.000,0.0,0.0,0.0,0.0,0.0, 21:32:50.636
95, -165754.03, -164177.42, -171589.55, -172189.14, -172347.36, -172383.89, -172094.95, -172487.78, 0.784, 0.016, 0.588,0.0,0.0,0.0,0.0,0.0, 21:32:50.637
96, -166091.22, -164344.03, -171594.17, -172231.23, -172288.84, -172249.80, -172155.25, -172672.58, 0.000, 0.000, 0.000,0.0,0.0,0.0,0.0,0.0, 21:32:50.637
97, -166135.53, -164437.84, -171571.63, -172126.39, -172299.91, -172172.63, -172073.17, -173098.45, 0.000, 0.000, 0.000,0.0,0.0,0.0,0.0,0.0, 21:32:50.637
98, -166018.56, -164504.39, -171553.91, -172099.16, -172360.94, -172360.86, -172066.22, -173261.83, 0.000, 0.000, 0.000,0.0,0.0,0.0,0.0,0.0, 21:32:50.637
99, -166188.52, -164651.48, -171562.97, -172143.31, -172331.78, -172584.50, -172061.58, -173230.38, 0.000, 0.000, 0.000,0.0,0.0,0.0,0.0,0.0, 21:32:50.638
100, -166560.64, -164855.58, -171565.75, -172134.91, -172284.72, -172590.98, -172092.00, -173167.23, 0.000, 0.000, 0.000,0.0,0.0,0.0,0.0,0.0, 21:32:50.638
101, -166709.61, -165001.13, -171557.44, -172096.16, -172303.84, -172561.20, -172036.41, -173135.31, 0.000, 0.000, 0.000,0.0,0.0,0.0,0.0,0.0, 21:32:50.638
102, -166601.16, -165087.05, -171556.88, -172051.11, -172389.08, -172595.27, -172075.72, -173151.88, 0.000, 0.000, 0.000,0.0,0.0,0.0,0.0,0.0, 21:32:50.639
103, -166735.38, -165231.67, -171563.84, -172100.58, -172390.59, -172571.17, -172084.83, -173140.47, 0.000, 0.000, 0.000,0.0,0.0,0.0,0.0,0.0, 21:32:50.639
104, -167098.19, -165433.69, -171565.33, -172163.70, -172296.66, -172500.75, -172070.20, -173083.13, 0.000, 0.000, 0.000,0.0,0.0,0.0,0.0,0.0, 21:32:51.087
105, -167319.31, -165591.06, -171555.36, -172104.33, -172288.94, -172452.20, -172033.45, -173042.17, 0.784, 0.010, 0.596,0.0,0.0,0.0,0.0,0.0, 21:32:51.087
106, -167216.86, -165670.36, -171555.31, -172065.22, -172373.67, -172486.64, -172054.72, -173055.97, 0.000, 0.000, 0.000,0.0,0.0,0.0,0.0,0.0, 21:32:51.087
107, -167298.28, -165790.95, -171567.67, -172106.33, -172412.16, -172472.78, -172078.77, -173052.08, 0.000, 0.000, 0.000,0.0,0.0,0.0,0.0,0.0, 21:32:51.087
108, -167644.17, -165980.00, -171574.02, -172178.09, -172311.73, -172410.33, -172073.22, -173001.69, 0.000, 0.000, 0.000,0.0,0.0,0.0,0.0,0.0, 21:32:51.087
109, -167932.58, -166144.83, -171558.06, -172144.22, -172282.53, -172348.59, -172058.66, -172953.97, 0.000, 0.000, 0.000,0.0,0.0,0.0,0.0,0.0, 21:32:51.087
110, -167857.80, -166221.42, -171556.42, -172082.94, -172355.92, -172374.75, -172048.56, -172962.33, 0.000, 0.000, 0.000,0.0,0.0,0.0,0.0,0.0, 21:32:51.088
111, -167888.38, -166323.59, -171562.02, -172109.52, -172425.91, -172369.20, -172081.88, -172967.83, 0.000, 0.000, 0.000,0.0,0.0,0.0,0.0,0.0, 21:32:51.088
112, -168200.97, -166501.30, -171560.77, -172165.06, -172327.52, -172292.06, -172067.64, -172925.67, 0.000, 0.000, 0.000,0.0,0.0,0.0,0.0,0.0, 21:32:51.088
113, -168530.34, -166669.98, -171565.61, -172189.03, -172280.94, -172122.70, -172083.61, -172869.55, 0.000, 0.000, 0.000,0.0,0.0,0.0,0.0,0.0, 21:32:51.088
114, -168483.02, -166735.17, -171549.45, -172113.34, -172328.92, -172198.02, -172039.69, -172858.80, 0.000, 0.000, 0.000,0.0,0.0,0.0,0.0,0.0, 21:32:51.089
115, -168442.86, -166799.42, -171548.53, -172133.38, -172395.11, -172385.47, -172042.42, -172863.02, 0.780, 0.012, 0.582,0.0,0.0,0.0,0.0,0.0, 21:32:51.089
116, -168702.36, -166947.25, -171558.95, -172161.88, -172320.56, -172561.83, -172102.64, -172826.36, 0.000, 0.000, 0.000,0.0,0.0,0.0,0.0,0.0, 21:32:51.089
117, -169058.69, -167118.59, -171555.53, -172150.58, -172275.48, -172522.45, -172122.06, -172763.36, 0.000, 0.000, 0.000,0.0,0.0,0.0,0.0,0.0, 21:32:51.089
118, -169083.70, -167211.06, -171542.81, -172076.89, -172307.63, -172511.92, -172034.47, -172748.58, 0.000, 0.000, 0.000,0.0,0.0,0.0,0.0,0.0, 21:32:51.089
119, -169014.66, -167283.06, -171545.44, -172038.69, -172395.28, -172526.16, -172060.64, -172763.58, 0.000, 0.000, 0.000,0.0,0.0,0.0,0.0,0.0, 21:32:51.090
120, -169238.80, -167434.67, -171550.28, -172078.45, -172348.33, -172480.42, -172052.17, -172734.98, 0.000, 0.000, 0.000,0.0,0.0,0.0,0.0,0.0, 21:32:51.090
121, -169618.05, -167626.48, -171551.02, -172104.72, -172272.94, -172399.05, -172068.55, -172672.25, 0.000, 0.000, 0.000,0.0,0.0,0.0,0.0,0.0, 21:32:51.090
122, -169719.98, -167751.42, -171536.83, -172051.19, -172285.39, -172381.77, -172020.66, -172646.55, 0.000, 0.000, 0.000,0.0,0.0,0.0,0.0,0.0, 21:32:51.090
123, -169627.42, -167835.36, -171540.11, -172045.31, -172383.98, -172420.92, -172055.50, -172659.22, 0.000, 0.000, 0.000,0.0,0.0,0.0,0.0,0.0, 21:32:51.090
124, -169809.08, -167993.56, -171548.34, -172095.81, -172364.27, -172402.58, -172050.52, -172634.94, 0.774, 0.012, 0.586,0.0,0.0,0.0,0.0,0.0, 21:32:51.090
125, -170192.92, -168205.03, -171545.14, -172120.86, -172271.22, -172342.92, -172085.78, -172568.53, 0.000, 0.000, 0.000,0.0,0.0,0.0,0.0,0.0, 21:32:51.090
126, -170367.27, -168359.30, -171536.36, -172052.06, -172276.59, -172324.92, -172030.84, -172526.61, 0.000, 0.000, 0.000,0.0,0.0,0.0,0.0,0.0, 21:32:51.091
127, -170264.66, -168452.48, -171535.70, -172030.42, -172358.13, -172379.42, -172035.88, -172535.52, 0.000, 0.000, 0.000,0.0,0.0,0.0,0.0,0.0, 21:32:51.091
128, -170391.03, -168604.23, -171545.66, -172063.61, -172363.92, -172375.02, -172044.81, -172517.55, 0.000, 0.000, 0.000,0.0,0.0,0.0,0.0,0.0, 21:32:51.091
129, -170748.66, -168821.47, -171543.42, -172126.48, -172272.84, -172321.08, -172087.64, -172452.42, 0.000, 0.000, 0.000,0.0,0.0,0.0,0.0,0.0, 21:32:51.091
130, -170933.94, -169002.09, -171535.55, -172086.00, -172267.95, -172279.31, -172045.33, -172400.09, 0.000, 0.000, 0.000,0.0,0.0,0.0,0.0,0.0, 21:32:51.092
131, -170835.42, -169105.52, -171539.66, -172027.14, -172342.38, -172320.23, -172030.23, -172407.36, 0.000, 0.000, 0.000,0.0,0.0,0.0,0.0,0.0, 21:32:51.092
132, -170892.09, -169248.72, -171551.39, -172047.58, -172380.47, -172316.20, -172049.73, -172403.20, 0.000, 0.000, 0.000,0.0,0.0,0.0,0.0,0.0, 21:32:51.092
133, -171087.94, -169472.86, -171542.66, -172118.33, -172279.66, -172234.73, -172062.88, -172352.84, 0.000, 0.000, 0.000,0.0,0.0,0.0,0.0,0.0, 21:32:51.092
134, -171184.89, -169682.77, -171544.00, -172148.34, -172260.73, -172094.88, -172052.30, -172293.77, 0.782, 0.012, 0.590,0.0,0.0,0.0,0.0,0.0, 21:32:51.093
135, -171040.30, -169788.69, -171537.83, -172078.14, -172309.03, -172232.64, -172002.86, -172281.72, 0.000, 0.000, 0.000,0.0,0.0,0.0,0.0,0.0, 21:32:51.093
136, -170994.44, -169896.81, -171531.78, -172100.27, -172349.13, -172464.11, -172025.97, -172266.45, 0.000, 0.000, 0.000,0.0,0.0,0.0,0.0,0.0, 21:32:51.093
137, -171129.23, -170096.08, -171543.36, -172165.80, -172280.80, -172582.42, -172063.08, -172039.45, 0.000, 0.000, 0.000,0.0,0.0,0.0,0.0,0.0, 21:32:51.093
138, -171258.56, -170292.92, -171551.98, -172235.47, -172248.92, -172498.91, -172087.69, -171862.83, 0.000, 0.000, 0.000,0.0,0.0,0.0,0.0,0.0, 21:32:51.094
139, -171093.75, -170391.95, -171529.00, -172114.03, -172285.72, -172484.66, -172015.02, -172060.53, 0.000, 0.000, 0.000,0.0,0.0,0.0,0.0,0.0, 21:32:51.094
140, -170966.88, -170479.91, -171517.20, -172117.88, -172339.05, -172474.45, -172040.72, -172301.03, 0.000, 0.000, 0.000,0.0,0.0,0.0,0.0,0.0, 21:32:51.094
141, -171079.52, -170638.98, -171548.42, -172232.97, -172275.11, -172401.55, -172049.69, -172491.06, 0.000, 0.000, 0.000,0.0,0.0,0.0,0.0,0.0, 21:32:51.094
142, -171234.78, -170825.38, -171543.94, -172184.27, -172226.27, -172299.78, -172081.50, -172784.05, 0.000, 0.000, 0.000,0.0,0.0,0.0,0.0,0.0, 21:32:51.095
143, -171133.13, -170945.80, -171525.30, -172086.56, -172265.53, -172287.36, -172014.75, -173163.36, 0.780, 0.016, 0.582,0.0,0.0,0.0,0.0,0.0, 21:32:51.095
144, -170985.23, -171035.70, -171523.34, -172066.00, -172353.83, -172310.64, -172047.00, -173220.73, 0.000, 0.000, 0.000,0.0,0.0,0.0,0.0,0.0, 21:32:51.095
145, -171084.06, -171200.56, -171524.64, -172114.75, -172317.59, -172268.05, -172030.75, -173197.02, 0.000, 0.000, 0.000,0.0,0.0,0.0,0.0,0.0, 21:32:51.095
146, -171276.36, -171383.14, -171533.09, -172181.05, -172244.08, -172116.30, -172055.36, -173135.31, 0.000, 0.000, 0.000,0.0,0.0,0.0,0.0,0.0, 21:32:51.095
147, -171226.78, -171405.95, -171514.70, -172075.66, -172258.77, -172115.38, -172006.22, -173101.30, 0.000, 0.000, 0.000,0.0,0.0,0.0,0.0,0.0, 21:32:51.096
148, -171037.64, -171400.25, -171510.88, -172045.31, -172347.50, -172345.00, -172020.77, -173108.13, 0.000, 0.000, 0.000,0.0,0.0,0.0,0.0,0.0, 21:32:51.096
149, -171082.50, -171438.56, -171514.47, -172064.14, -172337.86, -172559.97, -172019.72, -173088.14, 0.000, 0.000, 0.000,0.0,0.0,0.0,0.0,0.0, 21:32:51.096
150, -171276.88, -171570.52, -171522.30, -172074.83, -172244.73, -172546.94, -172039.27, -173036.61, 0.000, 0.000, 0.000,0.0,0.0,0.0,0.0,0.0, 21:32:51.096
151, -171304.86, -171661.80, -171512.02, -172046.20, -172236.14, -172526.98, -171987.22, -173009.09, 0.000, 0.000, 0.000,0.0,0.0,0.0,0.0,0.0, 21:32:51.096
152, -171109.44, -171684.64, -171514.67, -171992.98, -172337.11, -172581.81, -172016.41, -173029.91, 0.000, 0.000, 0.000,0.0,0.0,0.0,0.0,0.0, 21:32:51.096
153, -171108.91, -171718.59, -171523.14, -171996.16, -172363.39, -172583.78, -172031.41, -173028.02, 0.772, 0.012, 0.588,0.0,0.0,0.0,0.0,0.0, 21:32:51.096
154, -171296.61, -171737.59, -171503.80, -172002.50, -172261.02, -172549.77, -172003.53, -172990.84, 0.000, 0.000, 0.000,0.0,0.0,0.0,0.0,0.0, 21:32:51.097
155, -171394.22, -171761.33, -171504.95, -172039.53, -172228.77, -172532.27, -171990.50, -172966.98, 0.000, 0.000, 0.000,0.0,0.0,0.0,0.0,0.0, 21:32:51.097
156, -171162.83, -171709.27, -171522.28, -172010.84, -172326.56, -172597.22, -172024.20, -172994.97, 0.000, 0.000, 0.000,0.0,0.0,0.0,0.0,0.0, 21:32:51.097
157, -171085.31, -171692.73, -171546.95, -171995.19, -172391.22, -172616.70, -172069.53, -173009.78, 0.000, 0.000, 0.000,0.0,0.0,0.0,0.0,0.0, 21:32:51.097
158, -171253.27, -171757.14, -171532.56, -171990.03, -172289.13, -172587.61, -172007.58, -172980.84, 0.000, 0.000, 0.000,0.0,0.0,0.0,0.0,0.0, 21:32:51.097
159, -171414.53, -171815.50, -171521.48, -171983.91, -172229.50, -172557.11, -171967.66, -172953.67, 0.000, 0.000, 0.000,0.0,0.0,0.0,0.0,0.0, 21:32:51.097
160, -171215.66, -171776.23, -171532.06, -171993.56, -172310.02, -172608.64, -172009.75, -172975.39, 0.000, 0.000, 0.000,0.0,0.0,0.0,0.0,0.0, 21:32:51.098
161, -171094.53, -171743.89, -171561.28, -171998.95, -172395.67, -172633.94, -172068.50, -172997.05, 0.000, 0.000, 0.000,0.0,0.0,0.0,0.0,0.0, 21:32:51.098
162, -171231.98, -171791.50, -171553.39, -171993.69, -172313.55, -172604.08, -172021.75, -172975.05, 0.782, 0.010, 0.596,0.0,0.0,0.0,0.0,0.0, 21:32:51.098
163, -171430.08, -171852.25, -171538.09, -172006.33, -172238.52, -172559.19, -171990.95, -172942.27, 0.000, 0.000, 0.000,0.0,0.0,0.0,0.0,0.0, 21:32:51.098
164, -171281.44, -171819.69, -171545.00, -172000.92, -172296.61, -172594.63, -172012.00, -172958.63, 0.000, 0.000, 0.000,0.0,0.0,0.0,0.0,0.0, 21:32:51.098
165, -171108.28, -171766.64, -171574.05, -171998.70, -172404.20, -172629.22, -172077.11, -172987.94, 0.000, 0.000, 0.000,0.0,0.0,0.0,0.0,0.0, 21:32:51.098
166, -171209.06, -171789.05, -171572.83, -172006.09, -172348.28, -172601.42, -172042.98, -172974.64, 0.000, 0.000, 0.000,0.0,0.0,0.0,0.0,0.0, 21:32:51.099
167, -171433.20, -171842.13, -171552.34, -172027.83, -172249.16, -172547.28, -172000.88, -172938.77, 0.000, 0.000, 0.000,0.0,0.0,0.0,0.0,0.0, 21:32:51.099
168, -171346.48, -171810.98, -171551.22, -172000.42, -172287.75, -172561.41, -172003.75, -172945.08, 0.000, 0.000, 0.000,0.0,0.0,0.0,0.0,0.0, 21:32:51.099
169, -171111.61, -171736.61, -171578.16, -172005.05, -172411.78, -172604.19, -172068.58, -172979.97, 0.000, 0.000, 0.000,0.0,0.0,0.0,0.0,0.0, 21:32:51.099
170, -171166.09, -171731.89, -171585.00, -172023.36, -172390.84, -172581.13, -172052.48, -172975.11, 0.000, 0.000, 0.000,0.0,0.0,0.0,0.0,0.0, 21:32:51.099
171, -171400.81, -171776.53, -171563.63, -172036.44, -172259.55, -172525.16, -172011.89, -172940.17, 0.000, 0.000, 0.000,0.0,0.0,0.0,0.0,0.0, 21:32:51.100
172, -171392.91, -171763.88, -171562.28, -172020.34, -172264.23, -172523.13, -171995.86, -172939.06, 0.784, 0.012, 0.586,0.0,0.0,0.0,0.0,0.0, 21:32:51.100
173, -171146.50, -171733.23, -171585.55, -172010.95, -172403.17, -172572.52, -172055.41, -172973.94, 0.000, 0.000, 0.000,0.0,0.0,0.0,0.0,0.0, 21:32:51.100
174, -171150.98, -171727.59, -171599.52, -172011.11, -172419.50, -172558.86, -172058.69, -172975.19, 0.000, 0.000, 0.000,0.0,0.0,0.0,0.0,0.0, 21:32:51.100
175, -171371.98, -171753.61, -171577.28, -172023.52, -172285.50, -172508.95, -172026.70, -172939.48, 0.000, 0.000, 0.000,0.0,0.0,0.0,0.0,0.0, 21:32:51.100
176, -171431.80, -171764.61, -171569.80, -172023.20, -172243.91, -172490.34, -172014.45, -172926.03, 0.000, 0.000, 0.000,0.0,0.0,0.0,0.0,0.0, 21:32:51.100
177, -171180.34, -171742.69, -171588.19, -172022.39, -172370.20, -172543.69, -172055.16, -172956.70, 0.000, 0.000, 0.000,0.0,0.0,0.0,0.0,0.0, 21:32:51.101
178, -171130.42, -171719.06, -171611.55, -172027.83, -172412.33, -172543.03, -172076.48, -172964.55, 0.000, 0.000, 0.000,0.0,0.0,0.0,0.0,0.0, 21:32:51.101
179, -171328.70, -171753.86, -171594.97, -172043.09, -172302.63, -172501.39, -172035.06, -172929.94, 0.000, 0.000, 0.000,0.0,0.0,0.0,0.0,0.0, 21:32:51.101
180, -171451.44, -171779.81, -171585.97, -172047.34, -172271.58, -172472.31, -172031.83, -172905.20, 0.000, 0.000, 0.000,0.0,0.0,0.0,0.0,0.0, 21:32:51.101
181, -171216.64, -171741.23, -171601.63, -172022.55, -172370.23, -172525.67, -172055.61, -172931.13, 0.000, 0.000, 0.000,0.0,0.0,0.0,0.0,0.0, 21:32:51.101
182, -171117.73, -171727.34, -171631.50, -172020.58, -172441.98, -172540.98, -172097.58, -172946.91, 0.780, 0.012, 0.582,0.0,0.0,0.0,0.0,0.0, 21:32:51.101
183, -171287.22, -171765.59, -171620.95, -172038.58, -172339.41, -172506.59, -172044.20, -172918.16, 0.000, 0.000, 0.000,0.0,0.0,0.0,0.0,0.0, 21:32:51.101
184, -171463.17, -171810.34, -171609.22, -172048.55, -172261.80, -172467.75, -172027.48, -172886.63, 0.000, 0.000, 0.000,0.0,0.0,0.0,0.0,0.0, 21:32:51.102
185, -171271.80, -171764.88, -171622.44, -172024.52, -172346.47, -172515.77, -172047.55, -172908.44, 0.000, 0.000, 0.000,0.0,0.0,0.0,0.0,0.0, 21:32:51.102
186, -171117.06, -171724.88, -171656.52, -172028.50, -172442.47, -172546.83, -172106.06, -172934.38, 0.000, 0.000, 0.000,0.0,0.0,0.0,0.0,0.0, 21:32:51.102
187, -171255.97, -171765.63, -171654.17, -172041.19, -172363.92, -172520.56, -172060.53, -172915.34, 0.000, 0.000, 0.000,0.0,0.0,0.0,0.0,0.0, 21:32:51.102
188, -171474.28, -171825.77, -171642.75, -172061.02, -172270.63, -172474.80, -172027.09, -172883.83, 0.000, 0.000, 0.000,0.0,0.0,0.0,0.0,0.0, 21:32:51.102
189, -171343.91, -171793.77, -171651.09, -172040.83, -172327.52, -172503.34, -172041.80, -172899.16, 0.000, 0.000, 0.000,0.0,0.0,0.0,0.0,0.0, 21:32:51.102
190, -171139.36, -171738.92, -171684.80, -172039.56, -172437.94, -172538.56, -172109.16, -172933.72, 0.000, 0.000, 0.000,0.0,0.0,0.0,0.0,0.0, 21:32:51.102
191, -171231.55, -171760.64, -171689.78, -172040.05, -172386.97, -172509.28, -172079.84, -172925.36, 0.782, 0.014, 0.588,0.0,0.0,0.0,0.0,0.0, 21:32:51.103
192, -171470.75, -171818.05, -171671.56, -172069.13, -172285.61, -172447.97, -172033.44, -172890.77, 0.000, 0.000, 0.000,0.0,0.0,0.0,0.0,0.0, 21:32:51.103
193, -171411.77, -171796.33, -171675.03, -172052.59, -172315.98, -172451.28, -172044.41, -172896.30, 0.000, 0.000, 0.000,0.0,0.0,0.0,0.0,0.0, 21:32:51.103
194, -171178.97, -171743.33, -171706.30, -172044.64, -172433.33, -172489.84, -172109.70, -172933.61, 0.000, 0.000, 0.000,0.0,0.0,0.0,0.0,0.0, 21:32:51.103
195, -171228.95, -171754.20, -171720.31, -172043.20, -172415.61, -172464.84, -172100.30, -172932.06, 0.000, 0.000, 0.000,0.0,0.0,0.0,0.0,0.0, 21:32:51.103
196, -171473.02, -171802.81, -171704.44, -172079.48, -172295.58, -172408.31, -172043.31, -172898.97, 0.000, 0.000, 0.000,0.0,0.0,0.0,0.0,0.0, 21:32:51.103
197, -171489.78, -171802.23, -171704.73, -172086.81, -172298.44, -172397.56, -172043.70, -172894.73, 0.000, 0.000, 0.000,0.0,0.0,0.0,0.0,0.0, 21:32:51.104
198, -171237.88, -171768.25, -171731.39, -172059.56, -172428.09, -172443.61, -172101.09, -172929.19, 0.000, 0.000, 0.000,0.0,0.0,0.0,0.0,0.0, 21:32:51.104
199, -171229.05, -171750.31, -171751.89, -172061.31, -172454.08, -172431.08, -172109.70, -172933.34, 0.000, 0.000, 0.000,0.0,0.0,0.0,0.0,0.0, 21:32:51.104
200, -171459.42, -171793.78, -171733.05, -172082.34, -172327.05, -172378.95, -172061.20, -172898.47, 0.000, 0.000, 0.000,0.0,0.0,0.0,0.0,0.0, 21:32:51.105
201, -171547.94, -171811.14, -171729.36, -172086.25, -172291.17, -172352.73, -172055.44, -172883.78, 0.786, 0.014, 0.590,0.0,0.0,0.0,0.0,0.0, 21:32:51.105
202, -171301.84, -171782.78, -171753.06, -172057.20, -172421.23, -172400.92, -172092.20, -172915.64, 0.000, 0.000, 0.000,0.0,0.0,0.0,0.0,0.0, 21:32:51.105
203, -171238.83, -171760.36, -171782.14, -172053.86, -172480.38, -172398.55, -172119.80, -172929.77, 0.000, 0.000, 0.000,0.0,0.0,0.0,0.0,0.0, 21:32:51.106
204, -171447.48, -171802.13, -171770.94, -172069.48, -172366.81, -172352.00, -172062.30, -172901.44, 0.000, 0.000, 0.000,0.0,0.0,0.0,0.0,0.0, 21:32:51.106
205, -171601.27, -171834.39, -171767.50, -172075.09, -172290.22, -172315.20, -172049.47, -172880.95, 0.000, 0.000, 0.000,0.0,0.0,0.0,0.0,0.0, 21:32:51.106
206, -171383.66, -171783.64, -171786.19, -172068.39, -172404.30, -172362.47, -172088.31, -172910.72, 0.000, 0.000, 0.000,0.0,0.0,0.0,0.0,0.0, 21:32:51.106
207, -171268.00, -171766.58, -171819.48, -172062.77, -172490.91, -172375.34, -172134.83, -172932.95, 0.000, 0.000, 0.000,0.0,0.0,0.0,0.0,0.0, 21:32:51.106
208, -171440.02, -171803.14, -171811.91, -172063.52, -172394.53, -172336.28, -172077.61, -172909.02, 0.000, 0.000, 0.000,0.0,0.0,0.0,0.0,0.0, 21:32:51.107
209, -171642.14, -171856.09, -171805.41, -172077.36, -172288.33, -172290.69, -172046.16, -172882.83, 0.000, 0.000, 0.000,0.0,0.0,0.0,0.0,0.0, 21:32:51.107
210, -171473.44, -171817.34, -171822.25, -172069.73, -172371.78, -172330.42, -172081.52, -172906.98, 0.784, 0.016, 0.584,0.0,0.0,0.0,0.0,0.0, 21:32:51.107
211, -171310.00, -171774.98, -171860.59, -172076.06, -172479.06, -172357.61, -172149.42, -172936.47, 0.000, 0.000, 0.000,0.0,0.0,0.0,0.0,0.0, 21:32:51.107
212, -171446.39, -171816.09, -171865.50, -172074.81, -172410.06, -172322.53, -172109.25, -172921.67, 0.000, 0.000, 0.000,0.0,0.0,0.0,0.0,0.0, 21:32:51.108
213, -171677.34, -171878.03, -171854.11, -172076.78, -172312.44, -172191.94, -172047.83, -172885.22, 0.000, 0.000, 0.000,0.0,0.0,0.0,0.0,0.0, 21:32:51.108
214, -171558.13, -171842.66, -171852.08, -172080.64, -172347.17, -172256.02, -172057.22, -172882.17, 0.000, 0.000, 0.000,0.0,0.0,0.0,0.0,0.0, 21:32:51.108
215, -171337.25, -171779.72, -171873.36, -172079.19, -172445.41, -172531.81, -172114.17, -172899.19, 0.000, 0.000, 0.000,0.0,0.0,0.0,0.0,0.0, 21:32:51.108
216, -171419.91, -171803.30, -171879.95, -172090.81, -172403.06, -172677.80, -172097.94, -172882.59, 0.000, 0.000, 0.000,0.0,0.0,0.0,0.0,0.0, 21:32:51.109
217, -171664.98, -171871.31, -171865.03, -172131.00, -172319.78, -172635.53, -172103.11, -172840.92, 0.000, 0.000, 0.000,0.0,0.0,0.0,0.0,0.0, 21:32:51.109
218, -171628.88, -171868.02, -171871.19, -172085.19, -172340.70, -172646.80, -172069.92, -172838.02, 0.000, 0.000, 0.000,0.0,0.0,0.0,0.0,0.0, 21:32:51.109
219, -171394.53, -171816.16, -171908.72, -172087.45, -172466.30, -172704.44, -172126.02, -172871.45, 0.000, 0.000, 0.000,0.0,0.0,0.0,0.0,0.0, 21:32:51.109
220, -171435.55, -171835.47, -171933.61, -172089.42, -172464.95, -172700.72, -172120.25, -172868.31, 0.782, 0.016, 0.588,0.0,0.0,0.0,0.0,0.0, 21:32:51.109
221, -171683.67, -171910.02, -171922.73, -172081.58, -172336.25, -172660.00, -172095.00, -172829.16, 0.000, 0.000, 0.000,0.0,0.0,0.0,0.0,0.0, 21:32:51.109
222, -171722.88, -171925.39, -171928.16, -172079.59, -172324.77, -172661.45, -172072.16, -172818.67, 0.000, 0.000, 0.000,0.0,0.0,0.0,0.0,0.0, 21:32:51.110
223, -171476.47, -171867.97, -171961.70, -172091.69, -172456.28, -172725.88, -172118.58, -172851.69, 0.000, 0.000, 0.000,0.0,0.0,0.0,0.0,0.0, 21:32:51.110
224, -171459.08, -171864.70, -171991.02, -172092.20, -172486.84, -172731.50, -172131.45, -172856.09, 0.000, 0.000, 0.000,0.0,0.0,0.0,0.0,0.0, 21:32:51.567
225, -171688.77, -171929.20, -171977.67, -172094.20, -172364.36, -172696.20, -172112.67, -172820.27, 0.000, 0.000, 0.000,0.0,0.0,0.0,0.0,0.0, 21:32:51.567
226, -171794.61, -171956.59, -171975.91, -172099.89, -172326.22, -172680.78, -172088.28, -172802.88, 0.000, 0.000, 0.000,0.0,0.0,0.0,0.0,0.0, 21:32:51.567
227, -171556.58, -171894.94, -172001.72, -172091.89, -172446.50, -172741.03, -172120.70, -172836.78, 0.000, 0.000, 0.000,0.0,0.0,0.0,0.0,0.0, 21:32:51.567
228, -171485.80, -171869.95, -172037.50, -172095.44, -172511.67, -172753.83, -172156.17, -172856.67, 0.000, 0.000, 0.000,0.0,0.0,0.0,0.0,0.0, 21:32:51.567
229, -171688.77, -171920.92, -172028.39, -172094.05, -172400.09, -172716.94, -172098.80, -172832.67, 0.000, 0.000, 0.000,0.0,0.0,0.0,0.0,0.0, 21:32:51.567
230, -171854.20, -171957.86, -172022.28, -172106.23, -172320.28, -172679.11, -172092.42, -172812.97, 0.790, 0.020, 0.584,0.0,0.0,0.0,0.0,0.0, 21:32:51.567
231, -171645.67, -171897.73, -172039.81, -172095.75, -172426.02, -172718.98, -172130.94, -172844.94, 0.000, 0.000, 0.000,0.0,0.0,0.0,0.0,0.0, 21:32:51.568
232, -171513.33, -171848.75, -172070.73, -172096.06, -172516.81, -172726.72, -172194.41, -172872.94, 0.000, 0.000, 0.000,0.0,0.0,0.0,0.0,0.0, 21:32:51.568
233, -171674.11, -171882.73, -172059.39, -172107.11, -172426.47, -172682.80, -172142.72, -172857.03, 0.000, 0.000, 0.000,0.0,0.0,0.0,0.0,0.0, 21:32:51.568
234, -171884.63, -171926.84, -172045.34, -172125.89, -172326.95, -172626.92, -172077.02, -172834.83, 0.000, 0.000, 0.000,0.0,0.0,0.0,0.0,0.0, 21:32:51.568
235, -171727.75, -171875.28, -172054.09, -172103.38, -172402.55, -172650.23, -172130.91, -172861.03, 0.000, 0.000, 0.000,0.0,0.0,0.0,0.0,0.0, 21:32:51.568
236, -171550.03, -171812.16, -172085.56, -172100.36, -172518.17, -172668.97, -172217.41, -172897.75, 0.000, 0.000, 0.000,0.0,0.0,0.0,0.0,0.0, 21:32:51.568
237, -171668.08, -171828.27, -172081.38, -172119.31, -172458.98, -172631.61, -172188.09, -172888.14, 0.000, 0.000, 0.000,0.0,0.0,0.0,0.0,0.0, 21:32:51.568
238, -171901.27, -171872.95, -172062.69, -172157.22, -172338.30, -172572.19, -172114.50, -172860.47, 0.000, 0.000, 0.000,0.0,0.0,0.0,0.0,0.0, 21:32:51.569
239, -171808.75, -171852.14, -172065.98, -172111.36, -172385.77, -172584.50, -172144.72, -172874.36, 0.786, 0.012, 0.584,0.0,0.0,0.0,0.0,0.0, 21:32:51.569
240, -171585.97, -171836.55, -172091.28, -172107.08, -172515.50, -172612.22, -172226.05, -172898.77, 0.000, 0.000, 0.000,0.0,0.0,0.0,0.0,0.0, 21:32:51.569
241, -171652.72, -171825.75, -172095.66, -172110.45, -172498.27, -172581.19, -172201.83, -172880.19, 0.000, 0.000, 0.000,0.0,0.0,0.0,0.0,0.0, 21:32:51.569
242, -171893.20, -171862.63, -172077.61, -172143.58, -172370.88, -172535.95, -172106.61, -172845.56, 0.000, 0.000, 0.000,0.0,0.0,0.0,0.0,0.0, 21:32:51.569
243, -171871.86, -171859.39, -172081.52, -172110.64, -172377.47, -172548.22, -172095.42, -172846.80, 0.000, 0.000, 0.000,0.0,0.0,0.0,0.0,0.0, 21:32:51.569
244, -171624.28, -171841.97, -172112.58, -172113.66, -172508.44, -172609.73, -172113.20, -172888.41, 0.000, 0.000, 0.000,0.0,0.0,0.0,0.0,0.0, 21:32:51.570
245, -171641.55, -171827.27, -172132.19, -172114.06, -172502.95, -172606.52, -172126.63, -172890.05, 0.000, 0.000, 0.000,0.0,0.0,0.0,0.0,0.0, 21:32:51.570
246, -171875.16, -171871.28, -172109.34, -172129.44, -172372.36, -172562.23, -172172.70, -172851.42, 0.000, 0.000, 0.000,0.0,0.0,0.0,0.0,0.0, 21:32:51.570
247, -171919.52, -171881.78, -172100.84, -172141.48, -172358.00, -172551.50, -172125.72, -172833.11, 0.000, 0.000, 0.000,0.0,0.0,0.0,0.0,0.0, 21:32:51.570
248, -171665.03, -171824.94, -172121.13, -172130.20, -172483.17, -172609.02, -172156.08, -172861.72, 0.000, 0.000, 0.000,0.0,0.0,0.0,0.0,0.0, 21:32:51.570
249, -171631.03, -171836.78, -172145.91, -172128.44, -172520.39, -172613.44, -172172.06, -172867.06, 0.772, 0.010, 0.590,0.0,0.0,0.0,0.0,0.0, 21:32:51.571
250, -171851.03, -171904.95, -172129.69, -172121.14, -172402.84, -172578.89, -172144.80, -172829.52, 0.000, 0.000, 0.000,0.0,0.0,0.0,0.0,0.0, 21:32:51.571
251, -171966.22, -171948.61, -172123.80, -172115.73, -172361.38, -172562.03, -172121.64, -172806.67, 0.000, 0.000, 0.000,0.0,0.0,0.0,0.0,0.0, 21:32:51.571
252, -171728.64, -171907.47, -172146.92, -172129.06, -172466.59, -172629.42, -172142.41, -172836.06, 0.000, 0.000, 0.000,0.0,0.0,0.0,0.0,0.0, 21:32:51.572
253, -171635.89, -171897.92, -172179.61, -172136.05, -172528.55, -172653.70, -172177.06, -172853.16, 0.000, 0.000, 0.000,0.0,0.0,0.0,0.0,0.0, 21:32:51.572
254, -171820.14, -171962.11, -172168.86, -172132.81, -172423.08, -172629.77, -172141.55, -172824.16, 0.000, 0.000, 0.000,0.0,0.0,0.0,0.0,0.0, 21:32:51.572
255, -171986.59, -172015.48, -172158.97, -172125.55, -172363.59, -172602.00, -172127.41, -172795.34, 0.000, 0.000, 0.000,0.0,0.0,0.0,0.0,0.0, 21:32:51.572
0, -171777.22, -171972.58, -172172.06, -172135.89, -172439.88, -172659.31, -172137.75, -172819.08, 0.000, 0.000, 0.000,0.0,0.0,0.0,0.0,0.0, 21:32:51.572
1, -171625.94, -171942.42, -172206.30, -172144.53, -172526.58, -172690.44, -172192.11, -172844.22, 0.000, 0.000, 0.000,0.0,0.0,0.0,0.0,0.0, 21:32:51.572
2, -171770.16, -171994.45, -172200.34, -172141.02, -172444.39, -172662.64, -172146.69, -172824.02, 0.780, 0.022, 0.598,0.0,0.0,0.0,0.0,0.0, 21:32:51.573
3, -171978.83, -172062.14, -172186.25, -172131.38, -172370.20, -172615.63, -172126.17, -172793.38, 0.000, 0.000, 0.000,0.0,0.0,0.0,0.0,0.0, 21:32:51.573
4, -171829.41, -172036.45, -172194.17, -172136.97, -172436.95, -172649.16, -172142.92, -172811.64, 0.000, 0.000, 0.000,0.0,0.0,0.0,0.0,0.0, 21:32:51.573
5, -171633.52, -171991.45, -172224.75, -172144.75, -172549.30, -172683.45, -172207.72, -172844.64, 0.000, 0.000, 0.000,0.0,0.0,0.0,0.0,0.0, 21:32:51.573
6, -171734.50, -172020.67, -172222.75, -172140.33, -172496.09, -172660.00, -172171.70, -172832.88, 0.000, 0.000, 0.000,0.0,0.0,0.0,0.0,0.0, 21:32:51.573
7, -171964.75, -172079.56, -172202.30, -172129.66, -172369.94, -172611.94, -172123.05, -172800.91, 0.000, 0.000, 0.000,0.0,0.0,0.0,0.0,0.0, 21:32:51.573
8, -171879.88, -172050.48, -172201.98, -172129.75, -172411.42, -172628.34, -172144.22, -172810.77, 0.000, 0.000, 0.000,0.0,0.0,0.0,0.0,0.0, 21:32:51.573
9, -171643.58, -171975.02, -172229.17, -172137.02, -172545.83, -172671.33, -172211.28, -172848.25, 0.000, 0.000, 0.000,0.0,0.0,0.0,0.0,0.0, 21:32:51.574
10, -171693.09, -171970.45, -172234.92, -172140.77, -172529.22, -172653.70, -172197.44, -172846.02, 0.000, 0.000, 0.000,0.0,0.0,0.0,0.0,0.0, 21:32:51.574
11, -171930.64, -172014.89, -172213.13, -172173.11, -172396.92, -172605.59, -172125.30, -172814.81, 0.000, 0.000, 0.000,0.0,0.0,0.0,0.0,0.0, 21:32:51.574
12, -171924.66, -171994.59, -172212.56, -172150.17, -172399.88, -172610.45, -172129.75, -172817.95, 0.780, 0.020, 0.586,0.0,0.0,0.0,0.0,0.0, 21:32:51.574
13, -171670.48, -171909.88, -172236.88, -172146.95, -172540.91, -172667.08, -172205.80, -172856.45, 0.000, 0.000, 0.000,0.0,0.0,0.0,0.0,0.0, 21:32:51.574
14, -171667.72, -171888.78, -172251.72, -172144.50, -172556.47, -172664.52, -172214.02, -172861.92, 0.000, 0.000, 0.000,0.0,0.0,0.0,0.0,0.0, 21:32:51.574
15, -171894.50, -171934.55, -172228.59, -172142.25, -172423.83, -172625.44, -172134.02, -172829.58, 0.000, 0.000, 0.000,0.0,0.0,0.0,0.0,0.0, 21:32:51.574
16, -171958.33, -171938.75, -172221.13, -172157.91, -172388.09, -172618.27, -172120.39, -172820.03, 0.000, 0.000, 0.000,0.0,0.0,0.0,0.0,0.0, 21:32:51.575
17, -171699.75, -171868.59, -172238.89, -172149.53, -172523.39, -172682.39, -172181.41, -172854.17, 0.000, 0.000, 0.000,0.0,0.0,0.0,0.0,0.0, 21:32:51.575
18, -171641.14, -171849.61, -172260.13, -172151.94, -172574.48, -172693.89, -172206.38, -172864.14, 0.000, 0.000, 0.000,0.0,0.0,0.0,0.0,0.0, 21:32:51.575
19, -171842.69, -171900.08, -172241.13, -172167.03, -172456.47, -172663.52, -172147.86, -172832.20, 0.000, 0.000, 0.000,0.0,0.0,0.0,0.0,0.0, 21:32:51.575
20, -171969.94, -171935.67, -172233.81, -172165.25, -172389.30, -172647.28, -172142.61, -172811.55, 0.000, 0.000, 0.000,0.0,0.0,0.0,0.0,0.0, 21:32:51.575
21, -171730.22, -171879.56, -172250.78, -172167.34, -172506.20, -172715.03, -172181.34, -172839.00, 0.776, 0.014, 0.582,0.0,0.0,0.0,0.0,0.0, 21:32:51.575
22, -171615.81, -171855.11, -172281.23, -172157.31, -172582.69, -172746.69, -172222.31, -172856.22, 0.000, 0.000, 0.000,0.0,0.0,0.0,0.0,0.0, 21:32:51.575
23, -171785.25, -171912.33, -172270.13, -172166.81, -172476.14, -172730.34, -172170.05, -172826.56, 0.000, 0.000, 0.000,0.0,0.0,0.0,0.0,0.0, 21:32:51.575
24, -171960.91, -171969.98, -172259.09, -172186.03, -172380.38, -172710.09, -172145.59, -172794.53, 0.000, 0.000, 0.000,0.0,0.0,0.0,0.0,0.0, 21:32:51.576
25, -171763.42, -171935.88, -172270.80, -172157.84, -172468.22, -172776.28, -172162.83, -172814.73, 0.000, 0.000, 0.000,0.0,0.0,0.0,0.0,0.0, 21:32:51.576
26, -171598.20, -171906.67, -172303.80, -172157.31, -172563.91, -172822.39, -172219.97, -172839.23, 0.000, 0.000, 0.000,0.0,0.0,0.0,0.0,0.0, 21:32:51.576
27, -171728.92, -171959.45, -172299.06, -172160.22, -172485.83, -172810.06, -172177.31, -172818.34, 0.000, 0.000, 0.000,0.0,0.0,0.0,0.0,0.0, 21:32:51.576
28, -171941.14, -172032.00, -172284.45, -172196.61, -172393.67, -172776.28, -172161.75, -172784.70, 0.000, 0.000, 0.000,0.0,0.0,0.0,0.0,0.0, 21:32:51.576
29, -171802.34, -172013.52, -172290.02, -172170.08, -172450.63, -172815.55, -172169.02, -172799.28, 0.000, 0.000, 0.000,0.0,0.0,0.0,0.0,0.0, 21:32:51.576
30, -171592.13, -171974.61, -172321.27, -172173.67, -172562.97, -172859.73, -172231.45, -172833.22, 0.000, 0.000, 0.000,0.0,0.0,0.0,0.0,0.0, 21:32:51.576
31, -171678.06, -172013.16, -172322.09, -172173.73, -172511.30, -172840.88, -172201.97, -172822.98, 0.784, 0.022, 0.588,0.0,0.0,0.0,0.0,0.0, 21:32:51.577
32, -171908.48, -172085.72, -172299.75, -172165.78, -172415.19, -172788.98, -172159.08, -172788.28, 0.000, 0.000, 0.000,0.0,0.0,0.0,0.0,0.0, 21:32:51.577
33, -171838.13, -172076.39, -172298.17, -172169.47, -172443.64, -172798.67, -172166.08, -172795.70, 0.000, 0.000, 0.000,0.0,0.0,0.0,0.0,0.0, 21:32:51.577
34, -171594.09, -172017.92, -172323.83, -172183.58, -172558.86, -172843.78, -172239.77, -172833.34, 0.000, 0.000, 0.000,0.0,0.0,0.0,0.0,0.0, 21:32:51.577
35, -171630.95, -172029.80, -172332.70, -172186.30, -172539.28, -172828.78, -172232.92, -172834.02, 0.000, 0.000, 0.000,0.0,0.0,0.0,0.0,0.0, 21:32:51.577
36, -171867.56, -172096.83, -172313.38, -172181.14, -172419.98, -172781.45, -172153.38, -172803.56, 0.000, 0.000, 0.000,0.0,0.0,0.0,0.0,0.0, 21:32:51.577
37, -171877.06, -172100.88, -172311.63, -172182.28, -172421.34, -172780.66, -172150.47, -172803.05, 0.000, 0.000, 0.000,0.0,0.0,0.0,0.0,0.0, 21:32:51.577
38, -171618.61, -172033.91, -172335.47, -172193.70, -172551.17, -172837.19, -172228.44, -172840.89, 0.000, 0.000, 0.000,0.0,0.0,0.0,0.0,0.0, 21:32:51.577
39, -171602.67, -172025.14, -172353.05, -172192.89, -172573.50, -172834.66, -172239.31, -172846.39, 0.000, 0.000, 0.000,0.0,0.0,0.0,0.0,0.0, 21:32:51.578
40, -171823.83, -172080.84, -172330.14, -172181.34, -172444.91, -172792.55, -172176.84, -172810.86, 0.000, 0.000, 0.000,0.0,0.0,0.0,0.0,0.0, 21:32:51.578
41, -171903.94, -172096.84, -172322.38, -172173.53, -172409.77, -172779.25, -172174.28, -172796.59, 0.788, 0.020, 0.600,0.0,0.0,0.0,0.0,0.0, 21:32:51.578
42, -171650.48, -172028.72, -172339.47, -172180.94, -172543.70, -172844.17, -172221.23, -172830.67, 0.000, 0.000, 0.000,0.0,0.0,0.0,0.0,0.0, 21:32:51.578
43, -171579.19, -172001.47, -172361.92, -172179.80, -172604.97, -172859.22, -172244.02, -172845.09, 0.000, 0.000, 0.000,0.0,0.0,0.0,0.0,0.0, 21:32:51.578
44, -171776.64, -172049.06, -172341.13, -172192.11, -172494.39, -172829.09, -172188.31, -172815.88, 0.000, 0.000, 0.000,0.0,0.0,0.0,0.0,0.0, 21:32:51.578
45, -171915.33, -172077.09, -172328.39, -172210.34, -172421.59, -172803.70, -172186.66, -172794.09, 0.000, 0.000, 0.000,0.0,0.0,0.0,0.0,0.0, 21:32:51.578
46, -171684.22, -172010.92, -172340.89, -172180.98, -172537.94, -172859.44, -172217.19, -172824.06, 0.000, 0.000, 0.000,0.0,0.0,0.0,0.0,0.0, 21:32:51.579
47, -171558.22, -171967.25, -172367.95, -172181.00, -172625.72, -172880.77, -172266.13, -172847.69, 0.000, 0.000, 0.000,0.0,0.0,0.0,0.0,0.0, 21:32:51.579
48, -171719.48, -172003.19, -172351.75, -172197.52, -172528.33, -172849.81, -172202.84, -172825.09, 0.000, 0.000, 0.000,0.0,0.0,0.0,0.0,0.0, 21:32:51.579
49, -171907.86, -172046.31, -172337.44, -172206.59, -172422.52, -172813.38, -172148.81, -172800.55, 0.000, 0.000, 0.000,0.0,0.0,0.0,0.0,0.0, 21:32:51.579
50, -171724.67, -171995.91, -172346.94, -172193.30, -172506.22, -172862.17, -172198.33, -172826.61, 0.782, 0.014, 0.594,0.0,0.0,0.0,0.0,0.0, 21:32:51.579
51, -171549.67, -171943.84, -172377.77, -172194.23, -172612.86, -172899.19, -172270.86, -172858.48, 0.000, 0.000, 0.000,0.0,0.0,0.0,0.0,0.0, 21:32:51.579
52, -171672.48, -171974.00, -172373.05, -172190.88, -172541.16, -172880.05, -172231.47, -172844.48, 0.000, 0.000, 0.000,0.0,0.0,0.0,0.0,0.0, 21:32:51.579
53, -171893.38, -172030.02, -172357.30, -172199.75, -172420.69, -172839.16, -172156.22, -172814.39, 0.000, 0.000, 0.000,0.0,0.0,0.0,0.0,0.0, 21:32:51.579
54, -171775.27, -171997.97, -172362.55, -172214.02, -172472.61, -172872.55, -172187.69, -172829.61, 0.000, 0.000, 0.000,0.0,0.0,0.0,0.0,0.0, 21:32:51.580
55, -171556.83, -171937.03, -172391.69, -172209.48, -172594.83, -172917.83, -172266.77, -172863.45, 0.000, 0.000, 0.000,0.0,0.0,0.0,0.0,0.0, 21:32:51.580
56, -171633.27, -171952.52, -172394.02, -172205.98, -172553.67, -172900.38, -172241.28, -172851.89, 0.000, 0.000, 0.000,0.0,0.0,0.0,0.0,0.0, 21:32:51.580
57, -171868.72, -172011.47, -172373.05, -172196.84, -172439.17, -172856.78, -172184.00, -172814.34, 0.000, 0.000, 0.000,0.0,0.0,0.0,0.0,0.0, 21:32:51.580
58, -171820.30, -171996.42, -172374.34, -172199.05, -172462.28, -172875.58, -172178.23, -172816.17, 0.000, 0.000, 0.000,0.0,0.0,0.0,0.0,0.0, 21:32:51.580
59, -171574.95, -171930.28, -172402.89, -172210.39, -172590.38, -172934.81, -172246.78, -172849.78, 0.000, 0.000, 0.000,0.0,0.0,0.0,0.0,0.0, 21:32:51.580
60, -171604.27, -171934.39, -172417.23, -172210.95, -172586.55, -172933.42, -172241.78, -172848.52, 0.782, 0.020, 0.592,0.0,0.0,0.0,0.0,0.0, 21:32:51.580
61, -171839.38, -171994.67, -172396.39, -172223.53, -172464.42, -172894.14, -172217.86, -172811.41, 0.000, 0.000, 0.000,0.0,0.0,0.0,0.0,0.0, 21:32:51.580
62, -171863.45, -171996.25, -172391.64, -172214.58, -172459.59, -172894.00, -172194.06, -172802.73, 0.000, 0.000, 0.000,0.0,0.0,0.0,0.0,0.0, 21:32:51.581
63, -171604.75, -171927.05, -172415.25, -172216.25, -172586.28, -172955.33, -172245.17, -172838.66, 0.000, 0.000, 0.000,0.0,0.0,0.0,0.0,0.0, 21:32:51.581
64, -171575.42, -171914.95, -172433.48, -172217.61, -172613.78, -172956.05, -172259.41, -172847.08, 0.000, 0.000, 0.000,0.0,0.0,0.0,0.0,0.0, 21:32:51.581
65, -171791.67, -171973.98, -172411.98, -172210.16, -172485.64, -172915.59, -172207.05, -172816.39, 0.000, 0.000, 0.000,0.0,0.0,0.0,0.0,0.0, 21:32:51.581
66, -171885.25, -171999.23, -172404.67, -172205.41, -172441.28, -172894.56, -172201.09, -172802.92, 0.000, 0.000, 0.000,0.0,0.0,0.0,0.0,0.0, 21:32:51.581
67, -171632.48, -171938.36, -172421.94, -172216.31, -172560.41, -172949.55, -172251.61, -172838.25, 0.000, 0.000, 0.000,0.0,0.0,0.0,0.0,0.0, 21:32:51.581
68, -171549.05, -171918.91, -172447.17, -172221.14, -172621.59, -172958.16, -172293.36, -172857.02, 0.000, 0.000, 0.000,0.0,0.0,0.0,0.0,0.0, 21:32:51.581
69, -171738.89, -171976.23, -172427.13, -172216.55, -172510.09, -172920.16, -172222.98, -172830.81, 0.780, 0.016, 0.594,0.0,0.0,0.0,0.0,0.0, 21:32:51.582
70, -171892.70, -172023.92, -172414.58, -172213.13, -172440.11, -172886.09, -172178.59, -172811.03, 0.000, 0.000, 0.000,0.0,0.0,0.0,0.0,0.0, 21:32:51.582
71, -171672.36, -171974.30, -172426.33, -172224.41, -172544.55, -172936.77, -172235.19, -172839.42, 0.000, 0.000, 0.000,0.0,0.0,0.0,0.0,0.0, 21:32:51.582
72, -171530.66, -171937.59, -172453.56, -172229.80, -172635.72, -172955.53, -172290.48, -172862.00, 0.000, 0.000, 0.000,0.0,0.0,0.0,0.0,0.0, 21:32:51.582
73, -171681.11, -171979.92, -172441.22, -172225.45, -172544.28, -172921.41, -172236.33, -172838.28, 0.000, 0.000, 0.000,0.0,0.0,0.0,0.0,0.0, 21:32:51.582
74, -171875.55, -172032.47, -172425.58, -172218.75, -172441.41, -172881.08, -172204.36, -172808.80, 0.000, 0.000, 0.000,0.0,0.0,0.0,0.0,0.0, 21:32:51.582
75, -171705.20, -171991.44, -172434.30, -172227.09, -172522.97, -172924.69, -172224.31, -172828.20, 0.000, 0.000, 0.000,0.0,0.0,0.0,0.0,0.0, 21:32:51.582
76, -171518.09, -171940.98, -172467.47, -172235.73, -172638.08, -172963.14, -172284.80, -172857.59, 0.000, 0.000, 0.000,0.0,0.0,0.0,0.0,0.0, 21:32:51.582
77, -171627.03, -171969.94, -172464.47, -172231.56, -172576.11, -172943.83, -172247.88, -172840.83, 0.000, 0.000, 0.000,0.0,0.0,0.0,0.0,0.0, 21:32:51.583
78, -171851.98, -172028.52, -172446.92, -172220.23, -172453.30, -172901.67, -172216.63, -172805.11, 0.000, 0.000, 0.000,0.0,0.0,0.0,0.0,0.0, 21:32:51.583
79, -171749.22, -172003.89, -172451.41, -172222.44, -172497.66, -172931.39, -172212.23, -172813.72, 0.774, 0.020, 0.582,0.0,0.0,0.0,0.0,0.0, 21:32:51.583
80, -171521.83, -171944.30, -172480.09, -172229.28, -172625.25, -172979.88, -172278.59, -172844.89, 0.000, 0.000, 0.000,0.0,0.0,0.0,0.0,0.0, 21:32:51.583
81, -171583.39, -171959.58, -172486.22, -172230.31, -172594.47, -172967.61, -172261.30, -172835.47, 0.000, 0.000, 0.000,0.0,0.0,0.0,0.0,0.0, 21:32:51.583
82, -171816.20, -172021.19, -172464.73, -172243.70, -172472.31, -172923.91, -172235.52, -172798.41, 0.000, 0.000, 0.000,0.0,0.0,0.0,0.0,0.0, 21:32:51.584
83, -171785.33, -172015.64, -172464.28, -172229.17, -172485.97, -172936.45, -172224.47, -172798.89, 0.000, 0.000, 0.000,0.0,0.0,0.0,0.0,0.0, 21:32:51.584
84, -171532.69, -171953.97, -172492.41, -172238.05, -172618.16, -172996.06, -172291.80, -172835.78, 0.000, 0.000, 0.000,0.0,0.0,0.0,0.0,0.0, 21:32:51.584
85, -171543.59, -171956.91, -172506.20, -172240.61, -172620.34, -172993.02, -172294.14, -172836.84, 0.000, 0.000, 0.000,0.0,0.0,0.0,0.0,0.0, 21:32:51.584
86, -171771.83, -172020.73, -172485.17, -172235.03, -172494.94, -172953.77, -172220.45, -172803.34, 0.000, 0.000, 0.000,0.0,0.0,0.0,0.0,0.0, 21:32:51.584
87, -171813.42, -172033.34, -172481.39, -172234.52, -172484.78, -172948.16, -172224.13, -172795.56, 0.000, 0.000, 0.000,0.0,0.0,0.0,0.0,0.0, 21:32:51.584
88, -171550.91, -171967.05, -172501.84, -172248.02, -172607.58, -173008.02, -172289.91, -172831.33, 0.000, 0.000, 0.000,0.0,0.0,0.0,0.0,0.0, 21:32:51.584
89, -171507.33, -171955.36, -172523.66, -172253.31, -172645.92, -173013.63, -172316.20, -172843.02, 0.780, 0.022, 0.584,0.0,0.0,0.0,0.0,47.202938, 21:32:52.046
90, -171718.66, -172015.06, -172504.03, -172249.94, -172521.02, -172977.66, -172238.09, -172812.66, 0.000, 0.000, 0.000,0.0,0.0,0.0,0.0,47.202938, 21:32:52.046
91, -171828.89, -172045.42, -172497.70, -172249.84, -172467.27, -172960.11, -172211.16, -172799.23, 0.000, 0.000, 0.000,0.0,0.0,0.0,0.0,47.202938, 21:32:52.047
92, -171584.59, -171985.36, -172516.06, -172264.58, -172589.55, -173021.47, -172281.88, -172834.75, 0.000, 0.000, 0.000,0.0,0.0,0.0,0.0,47.202938, 21:32:52.047
93, -171486.80, -171957.19, -172541.95, -172271.06, -172660.58, -173037.91, -172328.50, -172854.17, 0.000, 0.000, 0.000,0.0,0.0,0.0,0.0,47.202938, 21:32:52.047
94, -171666.42, -172006.39, -172524.66, -172268.06, -172553.20, -173007.75, -172258.55, -172827.19, 0.000, 0.000, 0.000,0.0,0.0,0.0,0.0,47.202938, 21:32:52.047
95, -171833.13, -172049.22, -172513.08, -172264.27, -172470.09, -172979.56, -172209.03, -172803.81, 0.000, 0.000, 0.000,0.0,0.0,0.0,0.0,47.202938, 21:32:52.047
96, -171622.92, -171994.64, -172524.14, -172274.33, -172572.98, -173034.70, -172260.11, -172829.34, 0.000, 0.000, 0.000,0.0,0.0,0.0,0.0,47.202938, 21:32:52.047
97, -171472.27, -171948.92, -172553.81, -172282.05, -172672.67, -173067.03, -172316.83, -172853.34, 0.000, 0.000, 0.000,0.0,0.0,0.0,0.0,47.202938, 21:32:52.047
98, -171614.14, -171983.88, -172544.64, -172279.34, -172592.00, -173046.13, -172268.91, -172831.14, 0.782, 0.022, 0.586,0.0,0.0,0.0,0.0,47.202938, 21:32:52.048
99, -171820.73, -172034.16, -172530.47, -172272.22, -172481.08, -173010.47, -172235.19, -172799.91, 0.000, 0.000, 0.000,0.0,0.0,0.0,0.0,47.202938, 21:32:52.048
100, -171667.97, -171996.69, -172539.08, -172281.23, -172556.48, -173056.00, -172252.27, -172819.77, 0.000, 0.000, 0.000,0.0,0.0,0.0,0.0,47.202938, 21:32:52.048
101, -171469.30, -171961.55, -172569.08, -172288.97, -172678.48, -173097.02, -172320.25, -172851.08, 0.000, 0.000, 0.000,0.0,0.0,0.0,0.0,47.202938, 21:32:52.048
102, -171565.69, -171979.77, -172566.84, -172285.78, -172625.95, -173077.78, -172286.81, -172837.78, 0.000, 0.000, 0.000,0.0,0.0,0.0,0.0,47.202938, 21:32:52.048
103, -171794.27, -172036.61, -172546.00, -172276.06, -172495.92, -173033.72, -172238.72, -172805.39, 0.000, 0.000, 0.000,0.0,0.0,0.0,0.0,47.202938, 21:32:52.048
104, -171707.75, -172015.83, -172547.17, -172278.13, -172531.75, -173057.28, -172248.81, -172815.77, 0.000, 0.000, 0.000,0.0,0.0,0.0,0.0,47.202938, 21:32:52.048
105, -171472.09, -171961.89, -172574.28, -172286.41, -172665.61, -173106.00, -172328.50, -172852.56, 0.000, 0.000, 0.000,0.0,0.0,0.0,0.0,47.202938, 21:32:52.049
106, -171521.30, -171977.78, -172578.95, -172282.48, -172644.36, -173092.95, -172319.14, -172849.55, 0.000, 0.000, 0.000,0.0,0.0,0.0,0.0,47.202938, 21:32:52.049
107, -171755.98, -172040.67, -172556.89, -172273.22, -172508.61, -173048.86, -172240.33, -172818.03, 0.000, 0.000, 0.000,0.0,0.0,0.0,0.0,47.202938, 21:32:52.049
108, -171745.08, -172041.66, -172556.83, -172274.88, -172511.81, -173056.59, -172252.78, -172822.77, 0.782, 0.018, 0.586,0.0,0.0,0.0,0.0,47.202938, 21:32:52.049
109, -171488.66, -171975.61, -172581.59, -172284.25, -172652.25, -173112.27, -172336.33, -172860.67, 0.000, 0.000, 0.000,0.0,0.0,0.0,0.0,47.202938, 21:32:52.049
110, -171484.23, -171970.52, -172595.22, -172282.03, -172666.97, -173106.36, -172347.59, -172864.72, 0.000, 0.000, 0.000,0.0,0.0,0.0,0.0,47.202938, 21:32:52.049
111, -171708.27, -172028.66, -172572.58, -172272.36, -172535.55, -173063.98, -172259.34, -172831.97, 0.000, 0.000, 0.000,0.0,0.0,0.0,0.0,47.202938, 21:32:52.049
112, -171768.55, -172042.41, -172567.28, -172268.89, -172501.91, -173054.22, -172231.98, -172823.22, 0.000, 0.000, 0.000,0.0,0.0,0.0,0.0,47.202938, 21:32:52.050
113, -171508.69, -171983.14, -172587.89, -172279.22, -172639.22, -173113.41, -172311.52, -172858.33, 0.000, 0.000, 0.000,0.0,0.0,0.0,0.0,47.202938, 21:32:52.050
114, -171450.75, -171968.64, -172607.77, -172280.41, -172691.63, -173119.53, -172340.77, -172868.98, 0.000, 0.000, 0.000,0.0,0.0,0.0,0.0,47.202938, 21:32:52.050
115, -171654.70, -172015.80, -172586.75, -172273.20, -172574.70, -173083.31, -172268.31, -172838.25, 0.000, 0.000, 0.000,0.0,0.0,0.0,0.0,47.202938, 21:32:52.050
116, -171782.19, -172047.78, -172580.41, -172270.39, -172512.52, -173062.88, -172242.61, -172822.67, 0.000, 0.000, 0.000,0.0,0.0,0.0,0.0,47.202938, 21:32:52.050
117, -171542.91, -171992.39, -172595.16, -172281.72, -172635.17, -173123.47, -172304.20, -172853.56, 0.780, 0.018, 0.580,0.0,0.0,0.0,0.0,47.202938, 21:32:52.050
118, -171430.47, -171981.00, -172620.97, -172286.17, -172716.70, -173143.41, -172351.61, -172872.31, 0.000, 0.000, 0.000,0.0,0.0,0.0,0.0,47.202938, 21:32:52.050
119, -171600.08, -172017.97, -172604.80, -172282.02, -172616.13, -173115.13, -172290.86, -172845.67, 0.000, 0.000, 0.000,0.0,0.0,0.0,0.0,47.202938, 21:32:52.050
120, -171773.31, -172060.58, -172592.03, -172277.14, -172519.81, -173083.20, -172251.08, -172818.67, 0.000, 0.000, 0.000,0.0,0.0,0.0,0.0,47.202938, 21:32:52.051
121, -171573.69, -172013.08, -172603.42, -172289.16, -172616.03, -173136.77, -172296.14, -172843.00, 0.000, 0.000, 0.000,0.0,0.0,0.0,0.0,47.202938, 21:32:52.051
122, -171408.25, -171976.02, -172632.83, -172298.53, -172723.56, -173170.05, -172364.22, -172868.14, 0.000, 0.000, 0.000,0.0,0.0,0.0,0.0,47.202938, 21:32:52.051
123, -171536.72, -172011.08, -172624.89, -172297.23, -172650.39, -173147.88, -172317.59, -172848.00, 0.000, 0.000, 0.000,0.0,0.0,0.0,0.0,47.202938, 21:32:52.051
124, -171747.56, -172068.33, -172609.89, -172294.19, -172537.06, -173111.50, -172244.42, -172818.05, 0.000, 0.000, 0.000,0.0,0.0,0.0,0.0,47.202938, 21:32:52.051
125, -171607.05, -172037.34, -172617.13, -172305.92, -172606.06, -173152.97, -172284.20, -172834.66, 0.000, 0.000, 0.000,0.0,0.0,0.0,0.0,47.202938, 21:32:52.051
126, -171394.95, -171982.91, -172647.48, -172318.33, -172734.75, -173197.52, -172365.63, -172864.72, 0.000, 0.000, 0.000,0.0,0.0,0.0,0.0,47.202938, 21:32:52.051
127, -171476.70, -172005.47, -172647.69, -172318.67, -172692.98, -173183.33, -172338.72, -172851.31, 0.776, 0.016, 0.586,0.0,0.0,0.0,0.0,47.202938, 21:32:52.051
128, -171703.33, -172069.02, -172626.25, -172314.42, -172563.33, -173144.55, -172263.34, -172815.61, 0.000, 0.000, 0.000,0.0,0.0,0.0,0.0,47.202938, 21:32:52.052
129, -171630.69, -172053.39, -172628.89, -172323.56, -172595.22, -173171.67, -172283.13, -172823.03, 0.000, 0.000, 0.000,0.0,0.0,0.0,0.0,47.202938, 21:32:52.052
130, -171391.98, -171992.28, -172656.52, -172339.59, -172735.66, -173228.94, -172364.95, -172858.13, 0.000, 0.000, 0.000,0.0,0.0,0.0,0.0,47.202938, 21:32:52.053
131, -171430.97, -172005.36, -172664.72, -172343.91, -172728.16, -173223.11, -172358.23, -172854.44, 0.000, 0.000, 0.000,0.0,0.0,0.0,0.0,47.202938, 21:32:52.053
132, -171659.11, -172065.22, -172644.00, -172343.30, -172597.06, -173186.45, -172273.67, -172820.39, 0.000, 0.000, 0.000,0.0,0.0,0.0,0.0,40.774757, 21:32:52.053
133, -171660.55, -172067.48, -172644.33, -172351.64, -172593.03, -173194.77, -172280.48, -172818.52, 0.000, 0.000, 0.000,0.0,0.0,0.0,0.0,40.774757, 21:32:52.053
134, -171420.69, -172008.72, -172667.08, -172367.66, -172734.95, -173254.72, -172363.77, -172853.59, 0.000, 0.000, 0.000,0.0,0.0,0.0,0.0,40.774757, 21:32:52.053
135, -171414.00, -172004.83, -172681.56, -172371.31, -172761.03, -173252.08, -172382.14, -172857.52, 0.000, 0.000, 0.000,0.0,0.0,0.0,0.0,40.774757, 21:32:52.054
136, -171622.14, -172056.61, -172656.53, -172367.61, -172632.55, -173209.34, -172301.19, -172823.84, 0.774, 0.014, 0.588,0.0,0.0,0.0,0.0,40.774757, 21:32:52.054
137, -171692.61, -172074.19, -172649.42, -172370.48, -172590.38, -173190.83, -172279.50, -172813.63, 0.000, 0.000, 0.000,0.0,0.0,0.0,0.0,40.774757, 21:32:52.054
138, -171452.53, -172018.02, -172666.22, -172384.72, -172720.91, -173240.13, -172367.66, -172847.48, 0.000, 0.000, 0.000,0.0,0.0,0.0,0.0,40.774757, 21:32:52.054
139, -171398.80, -172002.05, -172685.53, -172388.53, -172776.77, -173237.61, -172413.13, -172859.31, 0.000, 0.000, 0.000,0.0,0.0,0.0,0.0,40.774757, 21:32:52.054
140, -171583.08, -172044.30, -172664.14, -172386.50, -172660.45, -173194.52, -172344.28, -172830.19, 0.000, 0.000, 0.000,0.0,0.0,0.0,0.0,40.774757, 21:32:52.054
141, -171713.72, -172075.70, -172652.67, -172385.97, -172585.95, -173161.34, -172300.34, -172810.94, 0.000, 0.000, 0.000,0.0,0.0,0.0,0.0,40.774757, 21:32:52.054
142, -171495.41, -172030.83, -172663.78, -172398.80, -172700.95, -173208.27, -172374.05, -172839.55, 0.000, 0.000, 0.000,0.0,0.0,0.0,0.0,40.774757, 21:32:52.055
143, -171404.88, -172017.14, -172684.23, -172401.70, -172786.33, -173215.33, -172431.63, -172854.84, 0.000, 0.000, 0.000,0.0,0.0,0.0,0.0,40.774757, 21:32:52.055
144, -171548.41, -172031.36, -172664.56, -172395.28, -172689.97, -173172.44, -172368.09, -172824.94, 0.000, 0.000, 0.000,0.0,0.0,0.0,0.0,40.774757, 21:32:52.055
145, -171725.14, -172068.28, -172649.31, -172389.88, -172589.92, -173127.11, -172302.08, -172795.83, 0.000, 0.000, 0.000,0.0,0.0,0.0,0.0,40.774757, 21:32:52.055
146, -171546.89, -172048.14, -172656.63, -172399.42, -172681.95, -173163.73, -172353.48, -172815.05, 0.774, 0.018, 0.582,0.0,0.0,0.0,0.0,40.774757, 21:32:52.055
147, -171417.16, -172047.61, -172681.03, -172404.03, -172790.88, -173181.94, -172402.48, -172837.23, 0.000, 0.000, 0.000,0.0,0.0,0.0,0.0,40.774757, 21:32:52.055
148, -171530.86, -172036.03, -172670.70, -172398.69, -172719.92, -173143.30, -172365.14, -172820.28, 0.000, 0.000, 0.000,0.0,0.0,0.0,0.0,40.774757, 21:32:52.055
149, -171729.78, -172072.58, -172648.25, -172387.08, -172594.16, -173088.13, -172365.56, -172782.44, 0.000, 0.000, 0.000,0.0,0.0,0.0,0.0,40.774757, 21:32:52.055
150, -171603.55, -172051.58, -172649.27, -172394.31, -172651.95, -173117.23, -172328.34, -172790.31, 0.000, 0.000, 0.000,0.0,0.0,0.0,0.0,40.774757, 21:32:52.056
151, -171414.42, -172034.75, -172671.95, -172404.45, -172784.13, -173156.88, -172393.17, -172817.53, 0.000, 0.000, 0.000,0.0,0.0,0.0,0.0,40.774757, 21:32:52.056
152, -171484.34, -172036.47, -172666.48, -172403.72, -172749.05, -173134.02, -172368.06, -172801.11, 0.000, 0.000, 0.000,0.0,0.0,0.0,0.0,40.774757, 21:32:52.056
153, -171702.25, -172090.66, -172643.58, -172401.91, -172618.77, -173086.67, -172294.55, -172765.02, 0.000, 0.000, 0.000,0.0,0.0,0.0,0.0,40.774757, 21:32:52.056
154, -171649.92, -172082.66, -172644.00, -172412.72, -172638.25, -173099.59, -172311.11, -172768.58, 0.000, 0.000, 0.000,0.0,0.0,0.0,0.0,40.774757, 21:32:52.056
155, -171439.53, -172037.66, -172667.64, -172429.55, -172771.88, -173146.52, -172396.47, -172801.16, 0.000, 0.000, 0.000,0.0,0.0,0.0,0.0,40.774757, 21:32:52.056
156, -171467.52, -172046.38, -172675.95, -172435.30, -172764.27, -173131.63, -172402.19, -172799.34, 0.780, 0.016, 0.588,0.0,0.0,0.0,0.0,40.774757, 21:32:52.056
157, -171683.00, -172109.08, -172652.11, -172434.56, -172621.75, -173083.56, -172323.09, -172764.20, 0.000, 0.000, 0.000,0.0,0.0,0.0,0.0,40.774757, 21:32:52.056
158, -171696.30, -172120.81, -172648.67, -172442.08, -172596.83, -173080.14, -172318.69, -172761.00, 0.000, 0.000, 0.000,0.0,0.0,0.0,0.0,40.774757, 21:32:52.057
159, -171460.38, -172057.91, -172666.69, -172457.03, -172724.11, -173135.13, -172410.28, -172795.94, 0.000, 0.000, 0.000,0.0,0.0,0.0,0.0,40.774757, 21:32:52.057
160, -171436.84, -172050.41, -172677.86, -172460.91, -172744.72, -173126.41, -172434.06, -172800.14, 0.000, 0.000, 0.000,0.0,0.0,0.0,0.0,40.774757, 21:32:52.057
161, -171633.94, -172113.13, -172652.38, -172459.03, -172614.05, -173075.70, -172359.41, -172765.98, 0.000, 0.000, 0.000,0.0,0.0,0.0,0.0,40.774757, 21:32:52.057
162, -171716.42, -172142.06, -172643.06, -172462.03, -172571.69, -173046.06, -172332.80, -172750.59, 0.000, 0.000, 0.000,0.0,0.0,0.0,0.0,40.774757, 21:32:52.057
163, -171496.64, -172079.56, -172657.45, -172477.14, -172690.56, -173089.69, -172414.48, -172780.55, 0.000, 0.000, 0.000,0.0,0.0,0.0,0.0,40.774757, 21:32:52.057
164, -171437.56, -172051.19, -172678.03, -172482.75, -172748.36, -173082.34, -172458.91, -172792.20, 0.000, 0.000, 0.000,0.0,0.0,0.0,0.0,40.774757, 21:32:52.057
165, -171605.44, -172098.23, -172656.31, -172479.53, -172637.53, -173031.28, -172394.89, -172764.14, 0.782, 0.012, 0.586,0.0,0.0,0.0,0.0,40.774757, 21:32:52.057
166, -171741.13, -172129.30, -172639.55, -172474.77, -172575.06, -172985.16, -172355.72, -172744.38, 0.000, 0.000, 0.000,0.0,0.0,0.0,0.0,40.774757, 21:32:52.057
167, -171531.61, -172074.94, -172648.56, -172485.39, -172669.03, -173019.69, -172357.11, -172768.25, 0.000, 0.000, 0.000,0.0,0.0,0.0,0.0,40.774757, 21:32:52.057
168, -171439.81, -172053.02, -172671.59, -172486.80, -172743.19, -173012.73, -172394.42, -172780.41, 0.000, 0.000, 0.000,0.0,0.0,0.0,0.0,40.774757, 21:32:52.058
169, -171570.78, -172064.13, -172655.22, -172480.14, -172652.28, -172952.50, -172363.27, -172751.19, 0.000, 0.000, 0.000,0.0,0.0,0.0,0.0,40.774757, 21:32:52.058
170, -171747.11, -172095.89, -172635.06, -172470.91, -172579.02, -172885.91, -172358.70, -172714.98, 0.000, 0.000, 0.000,0.0,0.0,0.0,0.0,40.774757, 21:32:52.058
171, -171580.34, -172081.14, -172640.36, -172478.13, -172647.69, -172905.44, -172356.52, -172729.33, 0.000, 0.000, 0.000,0.0,0.0,0.0,0.0,40.774757, 21:32:52.058
172, -171447.58, -172081.09, -172666.53, -172484.81, -172752.17, -172916.52, -172413.95, -172750.33, 0.000, 0.000, 0.000,0.0,0.0,0.0,0.0,40.774757, 21:32:52.058
173, -171550.58, -172075.25, -172659.00, -172481.56, -172688.03, -172874.28, -172377.00, -172729.41, 0.000, 0.000, 0.000,0.0,0.0,0.0,0.0,40.774757, 21:32:52.058
174, -171756.16, -172114.14, -172637.61, -172473.83, -172595.97, -172816.95, -172359.23, -172691.34, 0.000, 0.000, 0.000,0.0,0.0,0.0,0.0,40.774757, 21:32:52.059
175, -171645.25, -172088.33, -172637.81, -172478.55, -172639.97, -172833.22, -172363.89, -172696.48, 0.784, 0.014, 0.582,0.0,0.0,0.0,0.0,40.774757, 21:32:52.059
176, -171454.28, -172069.25, -172664.05, -172488.88, -172753.03, -172868.19, -172425.67, -172724.64, 0.000, 0.000, 0.000,0.0,0.0,0.0,0.0,40.774757, 21:32:52.059
177, -171516.70, -172064.38, -172666.39, -172490.70, -172716.84, -172844.98, -172406.16, -172713.52, 0.000, 0.000, 0.000,0.0,0.0,0.0,0.0,40.774757, 21:32:52.059
178, -171736.73, -172115.09, -172647.34, -172489.88, -172599.11, -172796.88, -172337.11, -172679.25, 0.000, 0.000, 0.000,0.0,0.0,0.0,0.0,40.774757, 21:32:52.060
179, -171696.86, -172104.94, -172648.91, -172499.11, -172621.11, -172805.31, -172353.31, -172680.25, 0.000, 0.000, 0.000,0.0,0.0,0.0,0.0,40.774757, 21:32:52.060
180, -171469.64, -172073.30, -172675.84, -172517.89, -172744.67, -172855.52, -172428.86, -172715.14, 0.000, 0.000, 0.000,0.0,0.0,0.0,0.0,40.774757, 21:32:52.060
181, -171488.64, -172071.59, -172688.92, -172523.34, -172742.64, -172841.50, -172433.91, -172716.61, 0.000, 0.000, 0.000,0.0,0.0,0.0,0.0,40.774757, 21:32:52.060
182, -171706.20, -172117.72, -172668.84, -172519.86, -172624.23, -172792.30, -172349.02, -172684.45, 0.000, 0.000, 0.000,0.0,0.0,0.0,0.0,40.774757, 21:32:52.060
183, -171738.89, -172125.19, -172664.22, -172521.05, -172615.47, -172779.97, -172341.48, -172676.61, 0.000, 0.000, 0.000,0.0,0.0,0.0,0.0,40.774757, 21:32:52.060
184, -171500.53, -172079.02, -172683.58, -172532.59, -172725.92, -172829.06, -172416.23, -172707.50, 0.788, 0.016, 0.586,0.0,0.0,0.0,0.0,40.774757, 21:32:52.060
185, -171475.64, -172070.77, -172703.97, -172533.47, -172748.83, -172821.00, -172434.09, -172712.08, 0.000, 0.000, 0.000,0.0,0.0,0.0,0.0,40.774757, 21:32:52.060
186, -171673.73, -172116.27, -172686.64, -172526.61, -172640.69, -172772.36, -172365.16, -172677.22, 0.000, 0.000, 0.000,0.0,0.0,0.0,0.0,40.774757, 21:32:52.061
187, -171772.13, -172140.33, -172679.64, -172521.06, -172617.86, -172742.67, -172359.92, -172655.80, 0.000, 0.000, 0.000,0.0,0.0,0.0,0.0,40.774757, 21:32:52.061
188, -171540.30, -172087.58, -172698.16, -172531.44, -172719.50, -172792.25, -172408.09, -172683.64, 0.000, 0.000, 0.000,0.0,0.0,0.0,0.0,40.774757, 21:32:52.061
189, -171463.95, -172063.52, -172726.27, -172533.47, -172781.53, -172797.03, -172438.67, -172695.70, 0.000, 0.000, 0.000,0.0,0.0,0.0,0.0,40.774757, 21:32:52.061
190, -171636.38, -172104.47, -172712.39, -172525.52, -172674.89, -172756.94, -172384.17, -172664.27, 0.000, 0.000, 0.000,0.0,0.0,0.0,0.0,40.774757, 21:32:52.061
191, -171792.86, -172142.64, -172702.45, -172514.69, -172608.44, -172717.72, -172364.63, -172635.22, 0.000, 0.000, 0.000,0.0,0.0,0.0,0.0,40.774757, 21:32:52.061
192, -171589.89, -172098.69, -172714.41, -172518.33, -172699.11, -172762.64, -172383.86, -172655.59, 0.000, 0.000, 0.000,0.0,0.0,0.0,0.0,40.774757, 21:32:52.061
193, -171468.20, -172079.23, -172744.83, -172518.78, -172789.03, -172782.23, -172430.83, -172675.88, 0.000, 0.000, 0.000,0.0,0.0,0.0,0.0,40.774757, 21:32:52.061
194, -171607.25, -172103.23, -172736.98, -172509.02, -172705.58, -172750.06, -172396.56, -172655.80, 0.788, 0.018, 0.590,0.0,0.0,0.0,0.0,40.774757, 21:32:52.062
195, -171808.88, -172151.63, -172721.94, -172493.08, -172616.45, -172706.25, -172388.27, -172635.56, 0.000, 0.000, 0.000,0.0,0.0,0.0,0.0,40.774757, 21:32:52.062
196, -171656.00, -172111.75, -172729.72, -172493.45, -172689.19, -172736.73, -172392.16, -172659.67, 0.000, 0.000, 0.000,0.0,0.0,0.0,0.0,40.774757, 21:32:52.062
197, -171480.88, -172083.53, -172759.95, -172495.11, -172800.81, -172757.25, -172457.73, -172692.91, 0.000, 0.000, 0.000,0.0,0.0,0.0,0.0,40.774757, 21:32:52.062
198, -171590.00, -172106.66, -172756.22, -172483.53, -172742.75, -172713.98, -172422.61, -172681.84, 0.000, 0.000, 0.000,0.0,0.0,0.0,0.0,40.774757, 21:32:52.062
199, -171814.25, -172148.23, -172737.11, -172469.25, -172617.84, -172646.25, -172352.50, -172653.50, 0.000, 0.000, 0.000,0.0,0.0,0.0,0.0,40.774757, 21:32:52.062
200, -171726.72, -172130.69, -172737.88, -172468.67, -172653.72, -172642.98, -172377.42, -172667.56, 0.000, 0.000, 0.000,0.0,0.0,0.0,0.0,40.774757, 21:32:52.062
201, -171503.16, -172100.92, -172761.20, -172473.28, -172776.78, -172660.20, -172455.27, -172704.19, 0.000, 0.000, 0.000,0.0,0.0,0.0,0.0,40.774757, 21:32:52.062
202, -171561.34, -172092.64, -172761.77, -172467.00, -172750.33, -172574.34, -172443.17, -172702.41, 0.000, 0.000, 0.000,0.0,0.0,0.0,0.0,40.774757, 21:32:52.062
203, -171781.27, -172122.00, -172725.42, -172446.27, -172646.70, -172448.58, -172380.72, -172661.75, 0.000, 0.000, 0.000,0.0,0.0,0.0,0.0,40.774757, 21:32:52.063
204, -171749.09, -172136.86, -172698.41, -172426.77, -172655.31, -172563.67, -172395.38, -172650.23, 0.790, 0.014, 0.586,0.0,0.0,0.0,0.0,40.774757, 21:32:52.063
205, -171524.28, -172156.13, -172694.78, -172415.14, -172752.11, -172803.30, -172367.81, -172673.39, 0.000, 0.000, 0.000,0.0,0.0,0.0,0.0,40.774757, 21:32:52.063
206, -171533.81, -172103.11, -172694.75, -172403.61, -172749.98, -172974.69, -172421.17, -172666.77, 0.000, 0.000, 0.000,0.0,0.0,0.0,0.0,40.774757, 21:32:52.063
207, -171737.92, -172116.61, -172660.22, -172429.38, -172658.97, -172924.91, -172503.72, -172518.31, 0.000, 0.000, 0.000,0.0,0.0,0.0,0.0,40.774757, 21:32:52.063
208, -171769.64, -172132.31, -172627.61, -172464.73, -172650.52, -172877.23, -172420.20, -172280.41, 0.000, 0.000, 0.000,0.0,0.0,0.0,0.0,40.774757, 21:32:52.063
209, -171542.06, -172154.84, -172615.61, -172423.16, -172736.58, -172912.47, -172417.58, -172457.69, 0.000, 0.000, 0.000,22.731575,69.32108,21.66835,12.4711685,4.315297, 21:32:52.528
210, -171496.61, -172110.28, -172607.97, -172456.63, -172753.30, -172915.89, -172432.13, -172661.88, 0.000, 0.000, 0.000,22.731575,69.32108,21.66835,12.4711685,4.315297, 21:32:52.528
211, -171667.00, -172115.56, -172562.28, -172489.66, -172662.22, -172860.83, -172436.70, -172826.61, 0.000, 0.000, 0.000,22.731575,69.32108,21.66835,12.4711685,4.315297, 21:32:52.528
212, -171762.06, -172126.91, -172528.55, -172448.39, -172644.88, -172815.28, -172403.11, -173151.38, 0.000, 0.000, 0.000,22.731575,69.32108,21.66835,12.4711685,4.315297, 21:32:52.528
213, -171556.66, -172121.91, -172534.89, -172406.75, -172733.34, -172867.41, -172432.91, -173591.27, 0.782, 0.012, 0.586,22.731575,69.32108,21.66835,12.4711685,4.315297, 21:32:52.529
214, -171492.33, -172111.75, -172562.02, -172408.08, -172804.80, -172894.73, -172472.53, -173645.91, 0.000, 0.000, 0.000,22.731575,69.32108,21.66835,12.4711685,4.315297, 21:32:52.529
215, -171652.05, -172151.98, -172551.55, -172408.13, -172702.73, -172884.08, -172409.11, -173611.53, 0.000, 0.000, 0.000,22.731575,69.32108,21.66835,12.4711685,4.315297, 21:32:52.529
216, -171819.00, -172210.66, -172542.78, -172406.02, -172623.23, -172872.63, -172388.89, -173577.36, 0.000, 0.000, 0.000,22.731575,69.32108,21.66835,12.4711685,4.315297, 21:32:52.529
217, -171625.41, -172177.72, -172557.34, -172420.13, -172712.23, -172944.41, -172409.13, -173595.13, 0.000, 0.000, 0.000,22.731575,69.32108,21.66835,12.4711685,4.315297, 21:32:52.529
218, -171495.09, -172150.97, -172590.64, -172431.72, -172804.59, -172991.28, -172454.92, -173615.52, 0.000, 0.000, 0.000,22.731575,69.32108,21.66835,12.4711685,4.315297, 21:32:52.530
219, -171628.67, -172204.78, -172587.56, -172432.19, -172722.97, -172977.11, -172419.03, -173591.06, 0.000, 0.000, 0.000,22.731575,69.32108,21.66835,12.4711685,4.315297, 21:32:52.530
220, -171833.91, -172276.59, -172575.88, -172427.81, -172636.02, -172941.55, -172408.44, -173554.83, 0.000, 0.000, 0.000,22.731575,69.32108,21.66835,12.4711685,4.315297, 21:32:52.530
221, -171692.55, -172257.63, -172584.52, -172436.75, -172695.31, -172980.33, -172406.73, -173566.36, 0.000, 0.000, 0.000,22.731575,69.32108,21.66835,12.4711685,4.315297, 21:32:52.530
222, -171502.69, -172218.58, -172617.84, -172447.41, -172803.23, -173022.28, -172472.30, -173596.63, 0.000, 0.000, 0.000,22.731575,69.32108,21.66835,12.4711685,4.315297, 21:32:52.530
223, -171600.22, -172256.55, -172621.22, -172446.66, -172749.61, -173001.80, -172442.89, -173584.72, 0.792, 0.016, 0.592,22.731575,69.32108,21.66835,12.4711685,4.315297, 21:32:52.530
224, -171827.05, -172330.02, -172602.06, -172438.58, -172647.48, -172951.69, -172381.66, -173550.89, 0.000, 0.000, 0.000,22.731575,69.32108,21.66835,12.4711685,4.315297, 21:32:52.530
225, -171754.08, -172320.09, -172604.25, -172442.34, -172675.44, -172964.55, -172396.63, -173560.16, 0.000, 0.000, 0.000,22.731575,69.32108,21.66835,12.4711685,4.315297, 21:32:52.530
226, -171524.64, -172260.73, -172633.17, -172453.38, -172795.09, -173004.80, -172479.73, -173599.64, 0.000, 0.000, 0.000,22.731575,69.32108,21.66835,12.4711685,4.315297, 21:32:52.530
227, -171575.16, -172268.95, -172642.36, -172453.63, -172775.64, -172980.13, -172479.78, -173601.02, 0.000, 0.000, 0.000,22.731575,69.32108,21.66835,12.4711685,4.315297, 21:32:52.531
228, -171810.86, -172326.89, -172622.88, -172446.58, -172661.88, -172924.44, -172401.23, -173572.84, 0.000, 0.000, 0.000,22.731575,69.32108,21.66835,12.4711685,4.315297, 21:32:52.531
229, -171816.48, -172319.73, -172621.59, -172446.70, -172671.16, -172916.39, -172399.31, -173575.97, 0.000, 0.000, 0.000,22.731575,69.32108,21.66835,12.4711685,4.315297, 21:32:52.531
230, -171566.11, -172242.84, -172645.56, -172457.50, -172800.38, -172962.23, -172488.94, -173615.84, 0.000, 0.000, 0.000,22.731575,69.32108,21.66835,12.4711685,4.315297, 21:32:52.531
231, -171563.30, -172222.84, -172662.89, -172457.88, -172822.56, -172946.80, -172507.70, -173624.41, 0.000, 0.000, 0.000,22.731575,69.32108,21.66835,12.4711685,4.315297, 21:32:52.531
232, -171786.92, -172266.36, -172640.53, -172448.84, -172693.64, -172890.31, -172425.75, -173592.84, 0.786, 0.020, 0.588,22.731575,69.32108,21.66835,12.4711685,4.315297, 21:32:52.531
233, -171861.78, -172269.38, -172634.41, -172447.19, -172658.03, -172864.23, -172401.50, -173584.48, 0.000, 0.000, 0.000,22.731575,69.32108,21.66835,12.4711685,4.315297, 21:32:52.531
