%OpenBCI Raw EEG Data
%
%Sample Rate = 250.0 Hz
%First Column = SampleIndex
%5 Columns before Timestamp are Frequency Power factors DELTA THETA ALPHA BETA GAMMA
%Last Column = Timestamp 
%Other Columns = EEG data in microvolts followed by Accel Data (in G) interleaved with Aux Data
0.000000, 0.000000, 0.000000, 0.000000, 0.000000, 0.000000, 0.000000, 0.000000, 0.146, 0.114, 0.978,0.0,0.0,0.0,0.0,0.0, 16:06:12.576
85280.734375, 94966.453125, 143419.609375, 165395.500000, 139528.640625, 93257.304688, 129520.554688, 150747.984375, 0.000, 0.000, 0.000,0.0,0.0,0.0,0.0,0.0, 16:06:13.060
85344.414063, 95030.718750, 143242.765625, 164901.687500, 139569.734375, 92955.875000, 129370.687500, 150817.812500, 0.000, 0.000, 0.000,0.0,0.0,0.0,0.0,0.0, 16:06:13.061
85255.648438, 94958.656250, 143420.656250, 165262.015625, 139573.875000, 93346.265625, 129615.906250, 150781.281250, 0.000, 0.000, 0.000,0.0,0.0,0.0,0.0,0.0, 16:06:13.061
85189.960938, 94891.601563, 143617.546875, 165787.828125, 139537.265625, 93681.703125, 129788.460938, 150710.281250, 0.000, 0.000, 0.000,0.0,0.0,0.0,0.0,0.0, 16:06:13.062
85270.117188, 94958.789063, 143468.593750, 165502.171875, 139534.937500, 93350.625000, 129581.125000, 150735.390625, 0.000, 0.000, 0.000,0.0,0.0,0.0,0.0,0.0, 16:06:13.063
85356.484375, 95037.539063, 143252.859375, 164925.843750, 139568.875000, 92953.593750, 129365.390625, 150804.546875, 0.000, 0.000, 0.000,0.0,0.0,0.0,0.0,0.0, 16:06:13.064
85287.304688, 94983.351563, 143388.687500, 165155.062500, 139578.968750, 93253.890625, 129559.289063, 150782.046875, 0.150, 0.122, 0.974,0.0,0.0,0.0,0.0,0.0, 16:06:13.064
85201.093750, 94903.851563, 143623.656250, 165750.937500, 139544.859375, 93669.921875, 129786.625000, 150706.812500, 0.000, 0.000, 0.000,0.0,0.0,0.0,0.0,0.0, 16:06:13.065
85253.710938, 94947.054688, 143526.765625, 165621.140625, 139525.859375, 93442.093750, 129631.437500, 150712.796875, 0.000, 0.000, 0.000,0.0,0.0,0.0,0.0,0.0, 16:06:13.065
85354.757813, 95041.398438, 143264.218750, 164983.718750, 139554.250000, 92972.546875, 129368.070313, 150789.375000, 0.000, 0.000, 0.000,0.0,0.0,0.0,0.0,0.0, 16:06:13.065
85309.812500, 95003.429688, 143344.500000, 165061.484375, 139574.281250, 93165.015625, 129507.367188, 150790.937500, 0.000, 0.000, 0.000,0.0,0.0,0.0,0.0,0.0, 16:06:13.066
85210.320313, 94912.789063, 143596.453125, 165682.875000, 139547.609375, 93636.796875, 129774.875000, 150722.171875, 0.000, 0.000, 0.000,0.0,0.0,0.0,0.0,0.0, 16:06:13.066
85226.640625, 94926.023438, 143563.968750, 165708.453125, 139520.406250, 93531.875000, 129684.796875, 150713.343750, 0.000, 0.000, 0.000,0.0,0.0,0.0,0.0,0.0, 16:06:13.067
85329.476563, 95016.968750, 143291.031250, 165072.812500, 139547.296875, 93030.953125, 129395.648438, 150786.250000, 0.000, 0.000, 0.000,0.0,0.0,0.0,0.0,0.0, 16:06:13.067
85329.257813, 95013.328125, 143289.625000, 164969.250000, 139586.640625, 93090.320313, 129463.218750, 150813.296875, 0.000, 0.000, 0.000,0.0,0.0,0.0,0.0,0.0, 16:06:13.068
85229.234375, 94918.312500, 143553.734375, 165580.796875, 139563.796875, 93586.460938, 129747.867188, 150745.250000, 0.000, 0.000, 0.000,0.0,0.0,0.0,0.0,0.0, 16:06:13.069
85221.031250, 94908.210938, 143600.031250, 165771.953125, 139528.375000, 93604.523438, 129732.562500, 150711.890625, 0.148, 0.130, 0.976,0.0,0.0,0.0,0.0,0.0, 16:06:13.069
85318.195313, 94999.203125, 143350.875000, 165199.437500, 139541.578125, 93113.203125, 129439.375000, 150773.484375, 0.000, 0.000, 0.000,0.0,0.0,0.0,0.0,0.0, 16:06:13.070
85329.304688, 95017.664063, 143279.484375, 164939.812500, 139582.703125, 93037.054688, 129423.437500, 150819.593750, 0.000, 0.000, 0.000,0.0,0.0,0.0,0.0,0.0, 16:06:13.070
85228.898438, 94927.429688, 143517.578125, 165482.406250, 139568.000000, 93514.601563, 129706.054688, 150756.234375, 0.000, 0.000, 0.000,0.0,0.0,0.0,0.0,0.0, 16:06:13.070
85206.117188, 94900.453125, 143617.640625, 165806.000000, 139526.718750, 93650.031250, 129759.156250, 150705.843750, 0.000, 0.000, 0.000,0.0,0.0,0.0,0.0,0.0, 16:06:13.071
85299.375000, 94983.218750, 143396.765625, 165318.062500, 139531.562500, 93195.726563, 129484.570313, 150753.906250, 0.000, 0.000, 0.000,0.0,0.0,0.0,0.0,0.0, 16:06:13.071
85342.351563, 95026.562500, 143267.062500, 164921.218750, 139567.656250, 92982.601563, 129385.015625, 150808.281250, 0.000, 0.000, 0.000,0.0,0.0,0.0,0.0,0.0, 16:06:13.071
85254.265625, 94955.015625, 143457.093750, 165349.843750, 139567.906250, 93413.304688, 129648.296875, 150767.265625, 0.000, 0.000, 0.000,0.0,0.0,0.0,0.0,0.0, 16:06:13.072
85196.554688, 94902.953125, 143626.203125, 165808.921875, 139529.953125, 93672.046875, 129781.398438, 150703.375000, 0.000, 0.000, 0.000,0.0,0.0,0.0,0.0,0.0, 16:06:13.072
85280.437500, 94974.656250, 143438.671875, 165429.281250, 139525.484375, 93279.617188, 129539.554688, 150740.859375, 0.148, 0.134, 0.974,0.0,0.0,0.0,0.0,0.0, 16:06:13.072
85349.710938, 95040.554688, 143242.062500, 164900.031250, 139568.062500, 92951.671875, 129369.273438, 150815.171875, 0.000, 0.000, 0.000,0.0,0.0,0.0,0.0,0.0, 16:06:13.072
85266.648438, 94968.468750, 143419.156250, 165241.812500, 139572.937500, 93326.664063, 129603.609375, 150778.890625, 0.000, 0.000, 0.000,0.0,0.0,0.0,0.0,0.0, 16:06:13.073
85197.492188, 94902.757813, 143627.765625, 165792.468750, 139533.625000, 93683.507813, 129793.757813, 150708.000000, 0.000, 0.000, 0.000,0.0,0.0,0.0,0.0,0.0, 16:06:13.073
85271.656250, 94965.695313, 143481.093750, 165538.218750, 139525.968750, 93374.992188, 129597.218750, 150733.750000, 0.000, 0.000, 0.000,0.0,0.0,0.0,0.0,0.0, 16:06:13.073
85352.882813, 95046.476563, 143243.234375, 164933.890625, 139571.265625, 92958.132813, 129373.835938, 150814.250000, 0.000, 0.000, 0.000,0.0,0.0,0.0,0.0,0.0, 16:06:13.074
85280.531250, 94985.570313, 143360.546875, 165123.468750, 139586.859375, 93235.335938, 129560.406250, 150800.984375, 0.000, 0.000, 0.000,0.0,0.0,0.0,0.0,0.0, 16:06:13.074
85188.710938, 94896.789063, 143606.625000, 165733.859375, 139543.281250, 93664.468750, 129788.867188, 150719.171875, 0.000, 0.000, 0.000,0.0,0.0,0.0,0.0,0.0, 16:06:13.074
85231.023438, 94935.031250, 143523.390625, 165634.953125, 139520.859375, 93461.718750, 129643.781250, 150719.312500, 0.000, 0.000, 0.000,0.0,0.0,0.0,0.0,0.0, 16:06:13.075
85339.492188, 95032.750000, 143258.828125, 164995.234375, 139557.734375, 92985.179688, 129376.406250, 150798.812500, 0.000, 0.000, 0.000,0.0,0.0,0.0,0.0,0.0, 16:06:13.075
85305.453125, 95009.710938, 143317.171875, 165025.421875, 139589.328125, 93145.796875, 129500.992188, 150804.718750, 0.144, 0.130, 0.978,0.0,0.0,0.0,0.0,0.0, 16:06:13.075
85198.343750, 94915.804688, 143584.203125, 165652.656250, 139555.187500, 93621.484375, 129770.890625, 150720.625000, 0.000, 0.000, 0.000,0.0,0.0,0.0,0.0,0.0, 16:06:13.075
85214.703125, 94922.359375, 143582.812500, 165730.125000, 139517.765625, 93538.070313, 129694.468750, 150693.640625, 0.000, 0.000, 0.000,0.0,0.0,0.0,0.0,0.0, 16:06:13.076
85326.101563, 95021.445313, 143302.125000, 165094.296875, 139543.593750, 93034.554688, 129401.281250, 150774.046875, 0.000, 0.000, 0.000,0.0,0.0,0.0,0.0,0.0, 16:06:13.076
85321.343750, 95021.015625, 143289.468750, 164956.984375, 139580.625000, 93067.007813, 129451.867188, 150807.609375, 0.000, 0.000, 0.000,0.0,0.0,0.0,0.0,0.0, 16:06:13.077
85215.929688, 94927.093750, 143540.265625, 165544.953125, 139560.312500, 93557.562500, 129736.250000, 150740.406250, 0.000, 0.000, 0.000,0.0,0.0,0.0,0.0,0.0, 16:06:13.077
85203.703125, 94910.734375, 143596.859375, 165766.609375, 139524.031250, 93602.640625, 129737.210938, 150704.953125, 0.000, 0.000, 0.000,0.0,0.0,0.0,0.0,0.0, 16:06:13.077
85305.632813, 95000.679688, 143337.859375, 165194.812500, 139535.718750, 93113.476563, 129443.796875, 150768.687500, 0.000, 0.000, 0.000,0.0,0.0,0.0,0.0,0.0, 16:06:13.078
85333.281250, 95027.054688, 143251.671875, 164900.750000, 139574.718750, 93006.921875, 129409.710938, 150819.421875, 0.000, 0.000, 0.000,0.0,0.0,0.0,0.0,0.0, 16:06:13.078
85237.750000, 94938.492188, 143492.859375, 165435.937500, 139566.609375, 93487.484375, 129697.710938, 150763.046875, 0.000, 0.000, 0.000,0.0,0.0,0.0,0.0,0.0, 16:06:13.078
85191.476563, 94897.906250, 143621.906250, 165811.031250, 139519.734375, 93660.531250, 129765.773438, 150700.109375, 0.144, 0.132, 0.976,0.0,0.0,0.0,0.0,0.0, 16:06:13.078
85281.421875, 94984.671875, 143393.875000, 165331.843750, 139522.640625, 93210.835938, 129490.625000, 150749.796875, 0.000, 0.000, 0.000,0.0,0.0,0.0,0.0,0.0, 16:06:13.079
85336.789063, 95038.476563, 143246.828125, 164898.203125, 139563.328125, 92974.398438, 129379.312500, 150814.718750, 0.000, 0.000, 0.000,0.0,0.0,0.0,0.0,0.0, 16:06:13.085
85252.765625, 94958.992188, 143459.093750, 165338.781250, 139562.031250, 93404.468750, 129641.140625, 150765.484375, 0.000, 0.000, 0.000,0.0,0.0,0.0,0.0,0.0, 16:06:13.086
85191.125000, 94897.632813, 143629.937500, 165815.265625, 139523.671875, 93679.976563, 129780.437500, 150699.125000, 0.000, 0.000, 0.000,0.0,0.0,0.0,0.0,0.0, 16:06:13.086
85269.625000, 94972.312500, 143443.187500, 165450.375000, 139524.453125, 93300.132813, 129546.187500, 150738.390625, 0.000, 0.000, 0.000,0.0,0.0,0.0,0.0,0.0, 16:06:13.086
85335.875000, 95038.070313, 143252.890625, 164918.234375, 139565.375000, 92955.585938, 129369.812500, 150806.093750, 0.000, 0.000, 0.000,0.0,0.0,0.0,0.0,0.0, 16:06:13.087
85274.000000, 94974.304688, 143419.687500, 165233.859375, 139574.390625, 93309.414063, 129599.101563, 150776.593750, 0.000, 0.000, 0.000,0.0,0.0,0.0,0.0,0.0, 16:06:13.087
85201.312500, 94904.585938, 143618.937500, 165780.015625, 139530.734375, 93677.031250, 129789.359375, 150706.609375, 0.000, 0.000, 0.000,0.0,0.0,0.0,0.0,0.0, 16:06:13.088
85249.640625, 94948.687500, 143500.109375, 165573.203125, 139509.296875, 93398.257813, 129604.039063, 150718.875000, 0.148, 0.126, 0.980,0.0,0.0,0.0,0.0,0.0, 16:06:13.088
85341.953125, 95035.859375, 143249.156250, 164955.437500, 139548.187500, 92964.390625, 129363.757813, 150801.453125, 0.000, 0.000, 0.000,0.0,0.0,0.0,0.0,0.0, 16:06:13.088
85286.523438, 94993.031250, 143345.078125, 165102.812500, 139572.609375, 93216.585938, 129536.601563, 150795.859375, 0.000, 0.000, 0.000,0.0,0.0,0.0,0.0,0.0, 16:06:13.089
85199.414063, 94909.570313, 143600.140625, 165720.546875, 139539.515625, 93665.632813, 129782.359375, 150722.187500, 0.000, 0.000, 0.000,0.0,0.0,0.0,0.0,0.0, 16:06:13.089
85238.640625, 94936.664063, 143538.468750, 165663.703125, 139511.578125, 93490.125000, 129652.984375, 150715.734375, 0.000, 0.000, 0.000,0.0,0.0,0.0,0.0,0.0, 16:06:13.089
85346.984375, 95033.625000, 143272.578125, 165027.234375, 139545.890625, 93003.664063, 129378.242188, 150796.234375, 0.000, 0.000, 0.000,0.0,0.0,0.0,0.0,0.0, 16:06:13.090
85311.242188, 95008.679688, 143313.453125, 165019.765625, 139584.421875, 93137.304688, 129491.164063, 150812.625000, 0.000, 0.000, 0.000,0.0,0.0,0.0,0.0,0.0, 16:06:13.091
85197.851563, 94905.187500, 143586.484375, 165652.593750, 139550.250000, 93618.687500, 129762.351563, 150728.968750, 0.000, 0.000, 0.000,0.0,0.0,0.0,0.0,0.0, 16:06:13.092
85217.992188, 94915.718750, 143586.125000, 165745.171875, 139519.625000, 93558.632813, 129699.476563, 150706.921875, 0.000, 0.000, 0.000,0.0,0.0,0.0,0.0,0.0, 16:06:13.092
85334.640625, 95020.656250, 143310.171875, 165116.390625, 139549.265625, 93055.898438, 129408.484375, 150783.390625, 0.000, 0.000, 0.000,0.0,0.0,0.0,0.0,0.0, 16:06:13.092
85330.773438, 95021.640625, 143287.890625, 164953.234375, 139586.234375, 93059.851563, 129441.429688, 150814.390625, 0.150, 0.132, 0.976,0.0,0.0,0.0,0.0,0.0, 16:06:13.093
85227.554688, 94928.796875, 143539.515625, 165537.796875, 139557.515625, 93547.570313, 129716.085938, 150742.078125, 0.000, 0.000, 0.000,0.0,0.0,0.0,0.0,0.0, 16:06:13.093
85219.976563, 94920.617188, 143615.703125, 165791.328125, 139525.703125, 93620.632813, 129732.695313, 150702.968750, 0.000, 0.000, 0.000,0.0,0.0,0.0,0.0,0.0, 16:06:13.094
85330.109375, 95023.164063, 143360.375000, 165225.906250, 139543.640625, 93136.070313, 129447.218750, 150769.312500, 0.000, 0.000, 0.000,0.0,0.0,0.0,0.0,0.0, 16:06:13.094
85353.687500, 95049.093750, 143278.187500, 164909.062500, 139584.718750, 93009.765625, 129405.328125, 150817.875000, 0.000, 0.000, 0.000,5.937697E-6,7.8652865E-6,9.667927E-6,3.041479E-5,3.862016E-5, 16:06:13.094
85250.804688, 94957.875000, 143515.156250, 165426.468750, 139570.343750, 93478.296875, 129681.890625, 150759.031250, 0.000, 0.000, 0.000,5.937697E-6,7.8652865E-6,9.667927E-6,3.041479E-5,3.862016E-5, 16:06:13.095
85208.578125, 94915.406250, 143636.796875, 165804.437500, 139527.921875, 93668.359375, 129764.117188, 150706.671875, 0.000, 0.000, 0.000,5.937697E-6,7.8652865E-6,9.667927E-6,3.041479E-5,3.862016E-5, 16:06:13.095
85288.734375, 94989.929688, 143431.968750, 165364.921875, 139525.578125, 93237.726563, 129502.937500, 150747.000000, 0.000, 0.000, 0.000,5.937697E-6,7.8652865E-6,9.667927E-6,3.041479E-5,3.862016E-5, 16:06:13.096
85354.179688, 95044.734375, 143267.812500, 164907.203125, 139563.218750, 92972.617188, 129374.437500, 150814.015625, 0.000, 0.000, 0.000,5.937697E-6,7.8652865E-6,9.667927E-6,3.041479E-5,3.862016E-5, 16:06:13.096
85273.156250, 94970.929688, 143460.734375, 165313.203125, 139574.765625, 93387.171875, 129635.015625, 150775.187500, 0.152, 0.134, 0.980,5.937697E-6,7.8652865E-6,9.667927E-6,3.041479E-5,3.862016E-5, 16:06:13.096
85211.820313, 94909.101563, 143646.625000, 165817.125000, 139529.796875, 93685.453125, 129784.351563, 150702.031250, 0.000, 0.000, 0.000,5.937697E-6,7.8652865E-6,9.667927E-6,3.041479E-5,3.862016E-5, 16:06:13.096
85286.679688, 94972.828125, 143478.875000, 165493.734375, 139523.031250, 93323.984375, 129556.226563, 150730.765625, 0.000, 0.000, 0.000,5.937697E-6,7.8652865E-6,9.667927E-6,3.041479E-5,3.862016E-5, 16:06:13.097
85370.671875, 95051.664063, 143256.109375, 164921.265625, 139569.671875, 92953.210938, 129361.742188, 150813.203125, 0.000, 0.000, 0.000,5.937697E-6,7.8652865E-6,9.667927E-6,3.041479E-5,3.862016E-5, 16:06:13.097
85292.757813, 94984.921875, 143412.937500, 165204.125000, 139577.859375, 93288.351563, 129576.945313, 150784.484375, 0.000, 0.000, 0.000,5.937697E-6,7.8652865E-6,9.667927E-6,3.041479E-5,3.862016E-5, 16:06:13.098
85208.804688, 94905.460938, 143635.187500, 165783.015625, 139533.421875, 93676.695313, 129783.429688, 150708.218750, 0.000, 0.000, 0.000,5.937697E-6,7.8652865E-6,9.667927E-6,3.041479E-5,3.862016E-5, 16:06:13.098
85264.015625, 94955.304688, 143510.718750, 165589.140625, 139520.968750, 93411.156250, 129609.398438, 150722.500000, 0.000, 0.000, 0.000,5.937697E-6,7.8652865E-6,9.667927E-6,3.041479E-5,3.862016E-5, 16:06:13.099
85352.617188, 95045.070313, 143259.765625, 164963.625000, 139566.343750, 92964.992188, 129372.140625, 150808.203125, 0.000, 0.000, 0.000,5.937697E-6,7.8652865E-6,9.667927E-6,3.041479E-5,3.862016E-5, 16:06:13.099
85313.007813, 95012.859375, 143340.093750, 165074.156250, 139588.812500, 93195.390625, 129532.085938, 150809.375000, 0.000, 0.000, 0.000,5.937697E-6,7.8652865E-6,9.667927E-6,3.041479E-5,3.862016E-5, 16:06:13.099
85213.140625, 94916.906250, 143605.687500, 165709.546875, 139547.359375, 93658.632813, 129782.132813, 150723.781250, 0.000, 0.000, 0.000,5.937697E-6,7.8652865E-6,9.667927E-6,3.041479E-5,3.862016E-5, 16:06:13.100
85238.218750, 94933.085938, 143564.046875, 165698.484375, 139518.796875, 93508.765625, 129666.820313, 150711.890625, 0.150, 0.134, 0.982,5.937697E-6,7.8652865E-6,9.667927E-6,3.041479E-5,3.862016E-5, 16:06:13.101
85343.898438, 95029.867188, 143280.265625, 165046.031250, 139546.968750, 93009.429688, 129383.156250, 150793.453125, 0.000, 0.000, 0.000,5.937697E-6,7.8652865E-6,9.667927E-6,3.041479E-5,3.862016E-5, 16:06:13.101
85313.343750, 95006.687500, 143303.531250, 165001.890625, 139575.531250, 93113.406250, 129473.796875, 150807.578125, 0.000, 0.000, 0.000,5.937697E-6,7.8652865E-6,9.667927E-6,3.041479E-5,3.862016E-5, 16:06:13.102
85207.437500, 94911.921875, 143562.093750, 165617.593750, 139548.593750, 93598.265625, 129749.054688, 150734.734375, 0.000, 0.000, 0.000,5.937697E-6,7.8652865E-6,9.667927E-6,3.041479E-5,3.862016E-5, 16:06:13.102
85214.078125, 94912.367188, 143595.203125, 165767.281250, 139520.671875, 93574.500000, 129713.117188, 150704.109375, 0.000, 0.000, 0.000,5.937697E-6,7.8652865E-6,9.667927E-6,3.041479E-5,3.862016E-5, 16:06:13.102
85325.570313, 95014.554688, 143323.140625, 165155.640625, 139534.656250, 93069.953125, 129413.109375, 150774.609375, 0.000, 0.000, 0.000,5.937697E-6,7.8652865E-6,9.667927E-6,3.041479E-5,3.862016E-5, 16:06:13.103
85340.882813, 95036.929688, 143279.734375, 164951.484375, 139581.781250, 93041.125000, 129432.601563, 150815.734375, 0.000, 0.000, 0.000,5.937697E-6,7.8652865E-6,9.667927E-6,3.041479E-5,3.862016E-5, 16:06:13.103
85248.898438, 94954.789063, 143522.296875, 165513.640625, 139565.625000, 93527.828125, 129717.765625, 150760.828125, 0.000, 0.000, 0.000,5.937697E-6,7.8652865E-6,9.667927E-6,3.041479E-5,3.862016E-5, 16:06:13.104
85227.507813, 94930.046875, 143611.343750, 165797.812500, 139529.906250, 93630.757813, 129750.531250, 150718.500000, 0.000, 0.000, 0.000,5.937697E-6,7.8652865E-6,9.667927E-6,3.041479E-5,3.862016E-5, 16:06:13.105
85323.781250, 95013.820313, 143383.468750, 165277.000000, 139547.359375, 93163.539063, 129476.382813, 150782.500000, 0.140, 0.132, 0.982,5.937697E-6,7.8652865E-6,9.667927E-6,3.041479E-5,3.862016E-5, 16:06:13.105
85363.476563, 95054.453125, 143263.296875, 164909.421875, 139595.468750, 92997.242188, 129414.468750, 150844.281250, 0.000, 0.000, 0.000,5.937697E-6,7.8652865E-6,9.667927E-6,3.041479E-5,3.862016E-5, 16:06:13.105
85267.656250, 94967.820313, 143489.640625, 165406.859375, 139579.859375, 93453.179688, 129686.757813, 150781.437500, 0.000, 0.000, 0.000,5.937697E-6,7.8652865E-6,9.667927E-6,3.041479E-5,3.862016E-5, 16:06:13.106
85215.445313, 94917.304688, 143640.781250, 165836.687500, 139531.000000, 93667.218750, 129783.546875, 150711.921875, 0.000, 0.000, 0.000,5.937697E-6,7.8652865E-6,9.667927E-6,3.041479E-5,3.862016E-5, 16:06:13.106
85306.367188, 95003.601563, 143427.828125, 165402.953125, 139537.593750, 93245.195313, 129525.695313, 150758.984375, 0.000, 0.000, 0.000,5.937697E-6,7.8652865E-6,9.667927E-6,3.041479E-5,3.862016E-5, 16:06:13.107
85366.046875, 95064.695313, 143256.687500, 164911.593750, 139590.890625, 92960.765625, 129393.867188, 150830.171875, 0.000, 0.000, 0.000,5.937697E-6,7.8652865E-6,9.667927E-6,3.041479E-5,3.862016E-5, 16:06:13.107
85271.812500, 94985.859375, 143468.468750, 165317.875000, 139582.921875, 93367.304688, 129643.351563, 150778.312500, 0.000, 0.000, 0.000,5.937697E-6,7.8652865E-6,9.667927E-6,3.041479E-5,3.862016E-5, 16:06:13.108
85206.273438, 94923.812500, 143653.671875, 165833.906250, 139531.593750, 93681.679688, 129792.484375, 150704.000000, 0.000, 0.000, 0.000,5.937697E-6,7.8652865E-6,9.667927E-6,3.041479E-5,3.862016E-5, 16:06:13.108
85284.578125, 94990.867188, 143476.156250, 165514.812500, 139527.453125, 93333.750000, 129577.125000, 150735.562500, 0.000, 0.000, 0.000,5.937697E-6,7.8652865E-6,9.667927E-6,3.041479E-5,3.862016E-5, 16:06:13.109
85359.406250, 95067.460938, 143246.953125, 164924.828125, 139568.687500, 92942.078125, 129372.250000, 150810.703125, 0.000, 0.000, 0.000,5.937697E-6,7.8652865E-6,9.667927E-6,3.041479E-5,3.862016E-5, 16:06:13.109
85281.984375, 95003.093750, 143390.250000, 165173.265625, 139571.796875, 93258.132813, 129572.117188, 150784.437500, 0.144, 0.120, 0.988,5.937697E-6,7.8652865E-6,9.667927E-6,3.041479E-5,3.862016E-5, 16:06:13.110
85192.460938, 94913.882813, 143621.890625, 165768.593750, 139528.328125, 93662.437500, 129783.882813, 150704.328125, 0.000, 0.000, 0.000,5.937697E-6,7.8652865E-6,9.667927E-6,3.041479E-5,3.862016E-5, 16:06:13.110
85242.867188, 94958.679688, 143519.046875, 165618.234375, 139512.453125, 93425.234375, 129624.890625, 150717.609375, 0.000, 0.000, 0.000,5.937697E-6,7.8652865E-6,9.667927E-6,3.041479E-5,3.862016E-5, 16:06:13.110
85335.804688, 95050.367188, 143255.390625, 164979.468750, 139549.140625, 92965.570313, 129369.054688, 150798.625000, 0.000, 0.000, 0.000,5.937697E-6,7.8652865E-6,9.667927E-6,3.041479E-5,3.862016E-5, 16:06:13.111
85286.851563, 95012.679688, 143315.671875, 165047.062500, 139575.390625, 93166.289063, 129510.000000, 150802.468750, 0.000, 0.000, 0.000,5.937697E-6,7.8652865E-6,9.667927E-6,3.041479E-5,3.862016E-5, 16:06:13.111
85181.351563, 94911.851563, 143595.093750, 165698.703125, 139535.406250, 93634.070313, 129768.367188, 150708.421875, 0.000, 0.000, 0.000,5.937697E-6,7.8652865E-6,9.667927E-6,3.041479E-5,3.862016E-5, 16:06:13.112
85214.414063, 94931.609375, 143555.750000, 165707.921875, 139510.125000, 93505.859375, 129668.992188, 150702.812500, 0.000, 0.000, 0.000,5.937697E-6,7.8652865E-6,9.667927E-6,3.041479E-5,3.862016E-5, 16:06:13.112
85316.429688, 95024.484375, 143289.578125, 165073.390625, 139542.703125, 93012.757813, 129393.593750, 150778.765625, 0.000, 0.000, 0.000,5.937697E-6,7.8652865E-6,9.667927E-6,3.041479E-5,3.862016E-5, 16:06:13.113
85294.453125, 95012.031250, 143301.656250, 164998.031250, 139574.171875, 93093.132813, 129472.093750, 150804.281250, 0.000, 0.000, 0.000,5.937697E-6,7.8652865E-6,9.667927E-6,3.041479E-5,3.862016E-5, 16:06:13.113
85195.210938, 94919.070313, 143545.515625, 165594.609375, 139548.625000, 93576.710938, 129748.046875, 150739.406250, 0.000, 0.000, 0.000,5.937697E-6,7.8652865E-6,9.667927E-6,3.041479E-5,3.862016E-5, 16:06:13.114
85191.007813, 94911.023438, 143583.625000, 165765.093750, 139522.828125, 93579.601563, 129731.015625, 150709.015625, 0.144, 0.120, 0.986,5.937697E-6,7.8652865E-6,9.667927E-6,3.041479E-5,3.862016E-5, 16:06:13.114
85286.523438, 95011.406250, 143322.906250, 165170.468750, 139539.000000, 93084.867188, 129441.273438, 150776.906250, 0.000, 0.000, 0.000,5.937697E-6,7.8652865E-6,9.667927E-6,3.041479E-5,3.862016E-5, 16:06:13.115
85303.617188, 95033.492188, 143249.234375, 164913.625000, 139577.296875, 93018.992188, 129434.367188, 150820.109375, 0.000, 0.000, 0.000,5.937697E-6,7.8652865E-6,9.667927E-6,3.041479E-5,3.862016E-5, 16:06:13.115
85201.132813, 94933.265625, 143496.765625, 165477.781250, 139554.703125, 93499.085938, 129712.132813, 150745.171875, 0.000, 0.000, 0.000,5.937697E-6,7.8652865E-6,9.667927E-6,3.041479E-5,3.862016E-5, 16:06:13.115
85168.054688, 94900.382813, 143593.453125, 165793.765625, 139506.218750, 93619.875000, 129748.992188, 150690.734375, 0.000, 0.000, 0.000,5.937697E-6,7.8652865E-6,9.667927E-6,3.041479E-5,3.862016E-5, 16:06:13.116
85270.093750, 94990.242188, 143370.343750, 165291.281250, 139516.390625, 93158.046875, 129473.812500, 150743.000000, 0.000, 0.000, 0.000,5.937697E-6,7.8652865E-6,9.667927E-6,3.041479E-5,3.862016E-5, 16:06:13.117
85313.875000, 95031.140625, 143235.703125, 164890.062500, 139563.859375, 92962.710938, 129392.765625, 150810.078125, 0.000, 0.000, 0.000,5.937697E-6,7.8652865E-6,9.667927E-6,3.041479E-5,3.862016E-5, 16:06:13.117
85222.546875, 94944.507813, 143454.093750, 165363.203125, 139562.203125, 93408.632813, 129663.695313, 150759.093750, 0.000, 0.000, 0.000,5.937697E-6,7.8652865E-6,9.667927E-6,3.041479E-5,3.862016E-5, 16:06:13.117
85174.601563, 94898.421875, 143611.781250, 165808.187500, 139526.671875, 93649.179688, 129778.671875, 150697.265625, 0.000, 0.000, 0.000,0.0,0.0,0.0,0.0,0.0, 16:06:13.540
85254.671875, 94968.179688, 143416.718750, 165402.093750, 139525.328125, 93245.125000, 129529.609375, 150733.203125, 0.138, 0.118, 0.988,0.0,0.0,0.0,0.0,0.0, 16:06:13.541
85329.773438, 95032.390625, 143225.656250, 164882.421875, 139570.359375, 92933.945313, 129377.390625, 150809.093750, 0.000, 0.000, 0.000,0.0,0.0,0.0,0.0,0.0, 16:06:13.541
85249.796875, 94967.398438, 143397.125000, 165230.546875, 139577.046875, 93316.492188, 129614.835938, 150777.515625, 0.000, 0.000, 0.000,0.0,0.0,0.0,0.0,0.0, 16:06:13.541
85170.335938, 94894.843750, 143609.062500, 165784.484375, 139535.875000, 93660.601563, 129786.789063, 150698.046875, 0.000, 0.000, 0.000,0.0,0.0,0.0,0.0,0.0, 16:06:13.541
85243.046875, 94955.835938, 143460.734375, 165516.390625, 139530.796875, 93341.906250, 129588.304688, 150721.828125, 0.000, 0.000, 0.000,0.0,0.0,0.0,0.0,0.0, 16:06:13.542
85323.468750, 95032.554688, 143245.421875, 164934.328125, 139568.781250, 92941.703125, 129378.687500, 150796.187500, 0.000, 0.000, 0.000,0.0,0.0,0.0,0.0,0.0, 16:06:13.542
85264.367188, 94987.218750, 143359.015625, 165132.265625, 139576.156250, 93227.203125, 129557.367188, 150783.156250, 0.000, 0.000, 0.000,0.0,0.0,0.0,0.0,0.0, 16:06:13.543
85164.281250, 94896.429688, 143609.109375, 165749.875000, 139535.203125, 93646.031250, 129784.039063, 150696.734375, 0.000, 0.000, 0.000,0.0,0.0,0.0,0.0,0.0, 16:06:13.543
85202.835938, 94933.531250, 143525.031250, 165637.171875, 139511.296875, 93426.421875, 129631.640625, 150694.500000, 0.000, 0.000, 0.000,0.0,0.0,0.0,0.0,0.0, 16:06:13.544
85314.460938, 95036.867188, 143258.000000, 164991.156250, 139554.546875, 92957.750000, 129376.968750, 150782.984375, 0.000, 0.000, 0.000,0.0,0.0,0.0,0.0,0.0, 16:06:13.545
85295.796875, 95004.476563, 143309.500000, 165030.953125, 139584.109375, 93134.039063, 129508.218750, 150793.937500, 0.142, 0.112, 0.978,0.0,0.0,0.0,0.0,0.0, 16:06:13.545
85188.242188, 94903.960938, 143578.640625, 165671.265625, 139551.031250, 93609.679688, 129766.781250, 150709.312500, 0.000, 0.000, 0.000,0.0,0.0,0.0,0.0,0.0, 16:06:13.546
85204.734375, 94918.757813, 143553.609375, 165710.437500, 139522.046875, 93508.765625, 129681.976563, 150692.109375, 0.000, 0.000, 0.000,0.0,0.0,0.0,0.0,0.0, 16:06:13.546
85314.210938, 95022.875000, 143274.703125, 165060.671875, 139555.484375, 93010.031250, 129400.187500, 150770.609375, 0.000, 0.000, 0.000,0.0,0.0,0.0,0.0,0.0, 16:06:13.546
85299.015625, 95018.468750, 143277.109375, 164952.781250, 139590.578125, 93060.992188, 129459.937500, 150792.484375, 0.000, 0.000, 0.000,0.0,0.0,0.0,0.0,0.0, 16:06:13.547
85188.304688, 94916.859375, 143541.671875, 165575.406250, 139559.796875, 93550.812500, 129733.429688, 150713.625000, 0.000, 0.000, 0.000,0.0,0.0,0.0,0.0,0.0, 16:06:13.547
85184.710938, 94905.328125, 143586.796875, 165778.171875, 139524.093750, 93573.382813, 129718.101563, 150680.406250, 0.000, 0.000, 0.000,0.0,0.0,0.0,0.0,0.0, 16:06:13.547
85287.640625, 95003.179688, 143323.781250, 165186.109375, 139541.171875, 93079.906250, 129434.234375, 150750.312500, 0.000, 0.000, 0.000,0.0,0.0,0.0,0.0,0.0, 16:06:13.547
85310.390625, 95029.625000, 143246.640625, 164902.250000, 139589.296875, 92991.414063, 129425.000000, 150801.828125, 0.000, 0.000, 0.000,0.0,0.0,0.0,0.0,0.0, 16:06:13.547
85201.335938, 94927.093750, 143502.187500, 165472.578125, 139559.750000, 93470.679688, 129691.234375, 150726.015625, 0.154, 0.108, 0.974,0.0,0.0,0.0,0.0,0.0, 16:06:13.548
85163.968750, 94884.226563, 143600.812500, 165813.218750, 139516.250000, 93609.640625, 129739.804688, 150671.218750, 0.000, 0.000, 0.000,0.0,0.0,0.0,0.0,0.0, 16:06:13.548
85268.367188, 94979.015625, 143360.843750, 165298.921875, 139537.062500, 93154.734375, 129478.843750, 150732.812500, 0.000, 0.000, 0.000,0.0,0.0,0.0,0.0,0.0, 16:06:13.548
85318.039063, 95028.234375, 143231.140625, 164883.343750, 139581.593750, 92941.726563, 129392.906250, 150796.984375, 0.000, 0.000, 0.000,0.0,0.0,0.0,0.0,0.0, 16:06:13.549
85226.882813, 94944.773438, 143453.093750, 165349.656250, 139570.609375, 93375.835938, 129646.195313, 150742.484375, 0.000, 0.000, 0.000,0.0,0.0,0.0,0.0,0.0, 16:06:13.550
85174.828125, 94894.078125, 143612.328125, 165809.062500, 139534.875000, 93632.054688, 129770.226563, 150679.671875, 0.000, 0.000, 0.000,0.0,0.0,0.0,0.0,0.0, 16:06:13.550
85255.515625, 94967.617188, 143420.390625, 165417.796875, 139535.140625, 93246.554688, 129538.343750, 150722.968750, 0.000, 0.000, 0.000,0.0,0.0,0.0,0.0,0.0, 16:06:13.550
85331.960938, 95041.648438, 143228.093750, 164874.953125, 139582.031250, 92914.093750, 129376.273438, 150796.437500, 0.000, 0.000, 0.000,0.0,0.0,0.0,0.0,0.0, 16:06:13.550
85256.234375, 94974.125000, 143403.875000, 165208.984375, 139585.765625, 93274.343750, 129601.937500, 150758.734375, 0.000, 0.000, 0.000,0.0,0.0,0.0,0.0,0.0, 16:06:13.551
85178.851563, 94896.117188, 143621.328125, 165780.796875, 139539.093750, 93631.945313, 129783.320313, 150683.390625, 0.000, 0.000, 0.000,0.0,0.0,0.0,0.0,0.0, 16:06:13.551
85241.304688, 94948.773438, 143490.343750, 165548.328125, 139525.390625, 93335.671875, 129596.054688, 150702.765625, 0.174, 0.110, 0.976,0.0,0.0,0.0,0.0,0.0, 16:06:13.552
85329.593750, 95035.726563, 143248.687500, 164928.953125, 139568.796875, 92913.515625, 129376.609375, 150783.640625, 0.000, 0.000, 0.000,0.0,0.0,0.0,0.0,0.0, 16:06:13.552
85267.187500, 94979.195313, 143362.609375, 165113.046875, 139586.656250, 93181.648438, 129550.882813, 150769.015625, 0.000, 0.000, 0.000,0.0,0.0,0.0,0.0,0.0, 16:06:13.552
85177.554688, 94893.414063, 143595.671875, 165724.406250, 139548.218750, 93613.726563, 129779.140625, 150695.187500, 0.000, 0.000, 0.000,0.0,0.0,0.0,0.0,0.0, 16:06:13.552
85219.015625, 94925.890625, 143524.531250, 165641.156250, 139519.218750, 93424.054688, 129641.078125, 150693.250000, 0.000, 0.000, 0.000,0.0,0.0,0.0,0.0,0.0, 16:06:13.553
85305.250000, 95016.632813, 143278.125000, 165007.234375, 139556.312500, 92956.031250, 129390.710938, 150774.765625, 0.000, 0.000, 0.000,0.0,0.0,0.0,0.0,0.0, 16:06:13.553
85273.601563, 94986.281250, 143344.218750, 165043.281250, 139583.109375, 93110.929688, 129510.851563, 150780.328125, 0.000, 0.000, 0.000,0.0,0.0,0.0,0.0,0.0, 16:06:13.553
85184.773438, 94896.945313, 143592.765625, 165672.281250, 139546.671875, 93577.789063, 129762.421875, 150701.578125, 0.000, 0.000, 0.000,0.0,0.0,0.0,0.0,0.0, 16:06:13.553
85208.468750, 94916.992188, 143573.984375, 165736.968750, 139526.562500, 93500.273438, 129695.257813, 150689.390625, 0.000, 0.000, 0.000,0.0,0.0,0.0,0.0,0.0, 16:06:13.553
85306.929688, 95011.515625, 143312.984375, 165105.828125, 139551.796875, 93002.945313, 129415.921875, 150755.046875, 0.178, 0.120, 0.968,0.0,0.0,0.0,0.0,0.0, 16:06:13.554
85302.234375, 95014.156250, 143298.187500, 164956.421875, 139582.812500, 93026.593750, 129457.367188, 150787.765625, 0.000, 0.000, 0.000,0.0,0.0,0.0,0.0,0.0, 16:06:13.554
85192.953125, 94916.968750, 143560.484375, 165568.437500, 139553.765625, 93516.945313, 129725.515625, 150719.265625, 0.000, 0.000, 0.000,0.0,0.0,0.0,0.0,0.0, 16:06:13.554
85176.328125, 94898.062500, 143610.562500, 165794.968750, 139517.843750, 93565.898438, 129722.906250, 150684.250000, 0.000, 0.000, 0.000,0.0,0.0,0.0,0.0,0.0, 16:06:13.555
85293.562500, 95000.273438, 143344.125000, 165203.218750, 139545.437500, 93080.281250, 129448.914063, 150753.250000, 0.000, 0.000, 0.000,0.0,0.0,0.0,0.0,0.0, 16:06:13.555
85317.031250, 95020.976563, 143269.796875, 164902.515625, 139590.390625, 92970.445313, 129422.117188, 150794.140625, 0.000, 0.000, 0.000,0.0,0.0,0.0,0.0,0.0, 16:06:13.555
85209.515625, 94923.476563, 143500.906250, 165438.578125, 139565.359375, 93430.265625, 129683.140625, 150729.453125, 0.000, 0.000, 0.000,0.0,0.0,0.0,0.0,0.0, 16:06:13.556
85168.882813, 94888.648438, 143610.531250, 165807.453125, 139521.234375, 93597.460938, 129742.507813, 150672.750000, 0.000, 0.000, 0.000,0.0,0.0,0.0,0.0,0.0, 16:06:13.556
85258.289063, 94972.132813, 143387.421875, 165326.812500, 139531.750000, 93158.695313, 129489.039063, 150722.250000, 0.000, 0.000, 0.000,0.0,0.0,0.0,0.0,0.0, 16:06:13.556
85310.820313, 95021.710938, 143234.828125, 164870.343750, 139575.171875, 92918.859375, 129382.351563, 150787.500000, 0.000, 0.000, 0.000,0.0,0.0,0.0,0.0,0.0, 16:06:13.556
85216.406250, 94933.710938, 143453.765625, 165320.484375, 139568.843750, 93347.140625, 129632.757813, 150738.578125, 0.176, 0.122, 0.968,0.0,0.0,0.0,0.0,0.0, 16:06:13.557
85153.257813, 94865.562500, 143627.546875, 165819.265625, 139525.968750, 93628.031250, 129762.734375, 150667.203125, 0.000, 0.000, 0.000,0.0,0.0,0.0,0.0,0.0, 16:06:13.557
85235.023438, 94941.359375, 143452.843750, 165468.953125, 139525.109375, 93262.156250, 129541.523438, 150700.187500, 0.000, 0.000, 0.000,0.0,0.0,0.0,0.0,0.0, 16:06:13.557
85321.390625, 95025.914063, 143241.843750, 164900.812500, 139572.765625, 92907.257813, 129370.257813, 150777.234375, 0.000, 0.000, 0.000,0.0,0.0,0.0,0.0,0.0, 16:06:13.558
85249.593750, 94965.117188, 143380.156250, 165184.218750, 139581.093750, 93246.937500, 129580.453125, 150751.765625, 0.000, 0.000, 0.000,0.0,0.0,0.0,0.0,0.0, 16:06:13.558
85157.257813, 94878.257813, 143606.593750, 165778.015625, 139535.406250, 93627.093750, 129770.625000, 150668.359375, 0.000, 0.000, 0.000,0.0,0.0,0.0,0.0,0.0, 16:06:13.559
85218.125000, 94929.171875, 143493.171875, 165584.781250, 139526.109375, 93355.031250, 129599.187500, 150683.359375, 0.000, 0.000, 0.000,0.0,0.0,0.0,0.0,0.0, 16:06:13.559
85320.492188, 95024.437500, 143244.187500, 164948.406250, 139573.000000, 92919.304688, 129378.195313, 150769.906250, 0.000, 0.000, 0.000,0.0,0.0,0.0,0.0,0.0, 16:06:13.560
85272.726563, 94983.867188, 143339.546875, 165086.453125, 139589.968750, 93160.484375, 129544.492188, 150765.390625, 0.000, 0.000, 0.000,0.0,0.0,0.0,0.0,0.0, 16:06:13.560
85180.953125, 94897.140625, 143579.234375, 165704.312500, 139547.140625, 93597.007813, 129775.742188, 150687.000000, 0.000, 0.000, 0.000,0.0,0.0,0.0,0.0,0.0, 16:06:13.561
85210.296875, 94920.945313, 143526.765625, 165661.375000, 139521.750000, 93435.382813, 129654.664063, 150675.921875, 0.162, 0.116, 0.972,0.0,0.0,0.0,0.0,0.0, 16:06:13.563
85309.835938, 95011.093750, 143277.734375, 165024.125000, 139557.562500, 92957.882813, 129398.671875, 150749.906250, 0.000, 0.000, 0.000,0.0,0.0,0.0,0.0,0.0, 16:06:13.563
85280.281250, 94985.054688, 143316.343750, 165008.687500, 139589.031250, 93079.164063, 129504.078125, 150762.171875, 0.000, 0.000, 0.000,0.0,0.0,0.0,0.0,0.0, 16:06:13.567
85180.929688, 94890.882813, 143568.796875, 165642.156250, 139546.859375, 93554.226563, 129750.929688, 150683.187500, 0.000, 0.000, 0.000,0.0,0.0,0.0,0.0,0.0, 16:06:13.567
85200.914063, 94908.226563, 143565.093750, 165749.843750, 139517.500000, 93513.187500, 129690.609375, 150665.296875, 0.000, 0.000, 0.000,0.0,0.0,0.0,0.0,0.0, 16:06:13.568
85301.875000, 95004.390625, 143303.312500, 165126.687500, 139549.984375, 93022.703125, 129422.671875, 150740.859375, 0.000, 0.000, 0.000,0.0,0.0,0.0,0.0,0.0, 16:06:13.568
85306.523438, 95011.945313, 143260.968750, 164928.062500, 139586.859375, 93011.664063, 129446.031250, 150778.406250, 0.000, 0.000, 0.000,0.0,0.0,0.0,0.0,0.0, 16:06:13.569
85197.109375, 94911.585938, 143516.046875, 165531.406250, 139559.609375, 93499.890625, 129715.125000, 150702.187500, 0.000, 0.000, 0.000,0.0,0.0,0.0,0.0,0.0, 16:06:13.569
85175.054688, 94889.078125, 143583.093750, 165797.546875, 139524.078125, 93576.710938, 129731.664063, 150660.078125, 0.000, 0.000, 0.000,0.0,0.0,0.0,0.0,0.0, 16:06:13.569
85289.937500, 94988.671875, 143345.359375, 165239.984375, 139546.156250, 93105.156250, 129466.015625, 150721.812500, 0.168, 0.112, 0.974,0.0,0.0,0.0,0.0,0.0, 16:06:13.570
85319.890625, 95018.359375, 143247.203125, 164889.953125, 139590.234375, 92963.203125, 129418.476563, 150778.109375, 0.000, 0.000, 0.000,0.0,0.0,0.0,0.0,0.0, 16:06:13.570
85215.015625, 94919.007813, 143478.609375, 165410.812500, 139573.343750, 93420.835938, 129677.460938, 150712.984375, 0.000, 0.000, 0.000,0.0,0.0,0.0,0.0,0.0, 16:06:13.571
85176.437500, 94872.687500, 143608.078125, 165815.343750, 139535.125000, 93617.015625, 129760.054688, 150654.187500, 0.000, 0.000, 0.000,0.0,0.0,0.0,0.0,0.0, 16:06:13.571
85264.570313, 94954.054688, 143399.984375, 165359.656250, 139543.250000, 93194.164063, 129517.757813, 150703.187500, 0.000, 0.000, 0.000,0.0,0.0,0.0,0.0,0.0, 16:06:13.571
85331.539063, 95019.898438, 143232.546875, 164867.015625, 139587.328125, 92923.843750, 129397.171875, 150777.796875, 0.000, 0.000, 0.000,0.0,0.0,0.0,0.0,0.0, 16:06:13.572
85244.656250, 94945.156250, 143423.000000, 165274.968750, 139579.953125, 93328.007813, 129632.398438, 150732.156250, 0.000, 0.000, 0.000,0.0,0.0,0.0,0.0,0.0, 16:06:13.572
85177.960938, 94879.148438, 143608.703125, 165800.140625, 139533.281250, 93633.554688, 129777.265625, 150655.359375, 0.000, 0.000, 0.000,0.0,0.0,0.0,0.0,0.0, 16:06:13.572
85256.078125, 94947.906250, 143441.171875, 165471.765625, 139535.203125, 93285.984375, 129571.226563, 150685.625000, 0.000, 0.000, 0.000,0.0,0.0,0.0,0.0,0.0, 16:06:13.572
85339.828125, 95028.484375, 143238.015625, 164893.890625, 139577.312500, 92918.812500, 129395.812500, 150761.296875, 0.000, 0.000, 0.000,0.0,0.0,0.0,0.0,0.0, 16:06:13.573
85261.109375, 94959.437500, 143391.046875, 165174.578125, 139577.046875, 93240.320313, 129593.195313, 150730.750000, 0.174, 0.114, 0.974,0.0,0.0,0.0,0.0,0.0, 16:06:13.573
85170.539063, 94877.164063, 143622.843750, 165785.546875, 139532.484375, 93629.578125, 129787.320313, 150648.062500, 0.000, 0.000, 0.000,0.0,0.0,0.0,0.0,0.0, 16:06:13.573
85233.617188, 94928.882813, 143503.625000, 165600.109375, 139519.921875, 93374.070313, 129622.140625, 150662.953125, 0.000, 0.000, 0.000,0.0,0.0,0.0,0.0,0.0, 16:06:13.573
85336.054688, 95019.992188, 143252.484375, 164952.765625, 139562.640625, 92927.328125, 129387.648438, 150745.187500, 0.000, 0.000, 0.000,0.0,0.0,0.0,0.0,0.0, 16:06:13.574
85288.937500, 94982.546875, 143331.140625, 165052.343750, 139586.546875, 93144.164063, 129535.328125, 150745.234375, 0.000, 0.000, 0.000,0.0,0.0,0.0,0.0,0.0, 16:06:13.574
85176.171875, 94883.914063, 143591.125000, 165698.500000, 139527.109375, 93596.070313, 129761.390625, 150652.343750, 0.000, 0.000, 0.000,0.0,0.0,0.0,0.0,0.0, 16:06:13.574
85208.218750, 94910.039063, 143533.203125, 165673.265625, 139502.781250, 93449.804688, 129654.507813, 150648.156250, 0.000, 0.000, 0.000,0.0,0.0,0.0,0.0,0.0, 16:06:13.574
85322.640625, 95007.179688, 143273.937500, 165022.203125, 139545.781250, 92964.968750, 129399.429688, 150728.765625, 0.000, 0.000, 0.000,0.0,0.0,0.0,0.0,0.0, 16:06:13.574
85310.460938, 95000.789063, 143296.671875, 164966.156250, 139582.593750, 93061.375000, 129488.031250, 150751.953125, 0.000, 0.000, 0.000,0.0,0.0,0.0,0.0,0.0, 16:06:13.575
85196.507813, 94905.976563, 143552.640625, 165598.843750, 139551.015625, 93542.851563, 129746.796875, 150675.046875, 0.180, 0.112, 0.968,0.0,0.0,0.0,0.0,0.0, 16:06:13.575
85194.453125, 94897.500000, 143579.312500, 165756.546875, 139514.312500, 93526.335938, 129705.804688, 150643.234375, 0.000, 0.000, 0.000,0.0,0.0,0.0,0.0,0.0, 16:06:13.575
85312.742188, 94994.437500, 143319.921875, 165135.734375, 139540.609375, 93033.078125, 129435.531250, 150716.484375, 0.000, 0.000, 0.000,0.0,0.0,0.0,0.0,0.0, 16:06:13.575
85315.960938, 94997.210938, 143294.609375, 164934.203125, 139572.406250, 93001.109375, 129451.710938, 150748.703125, 0.000, 0.000, 0.000,0.0,0.0,0.0,0.0,0.0, 16:06:13.575
85211.929688, 94901.281250, 143531.140625, 165511.718750, 139548.500000, 93473.156250, 129710.453125, 150682.359375, 0.000, 0.000, 0.000,0.0,0.0,0.0,0.0,0.0, 16:06:13.575
85193.804688, 94881.273438, 143600.312500, 165798.546875, 139515.687500, 93572.023438, 129737.250000, 150642.906250, 0.000, 0.000, 0.000,0.0,0.0,0.0,0.0,0.0, 16:06:13.576
85289.445313, 94973.046875, 143371.218750, 165266.843750, 139532.406250, 93109.179688, 129481.101563, 150697.218750, 0.000, 0.000, 0.000,0.0,0.0,0.0,0.0,0.0, 16:06:13.576
85332.187500, 95021.218750, 143255.953125, 164889.437500, 139573.656250, 92939.648438, 129419.031250, 150761.890625, 0.000, 0.000, 0.000,0.0,0.0,0.0,0.0,0.0, 16:06:13.576
85236.789063, 94933.914063, 143473.765625, 165391.062500, 139556.828125, 93390.570313, 129672.789063, 150705.890625, 0.000, 0.000, 0.000,0.0,0.0,0.0,0.0,0.0, 16:06:13.576
85188.281250, 94889.250000, 143604.796875, 165816.562500, 139515.046875, 93605.726563, 129761.726563, 150639.906250, 0.000, 0.000, 0.000,0.0,0.0,0.0,0.0,0.0, 16:06:13.577
85274.851563, 94965.804688, 143396.468750, 165379.406250, 139525.234375, 93197.335938, 129527.054688, 150683.093750, 0.170, 0.108, 0.970,0.0,0.0,0.0,0.0,0.0, 16:06:13.577
85338.445313, 95021.085938, 143231.406250, 164879.140625, 139571.937500, 92914.453125, 129399.562500, 150752.312500, 0.000, 0.000, 0.000,0.0,0.0,0.0,0.0,0.0, 16:06:13.577
85252.234375, 94942.140625, 143416.796875, 165265.656250, 139561.921875, 93302.031250, 129625.046875, 150710.078125, 0.000, 0.000, 0.000,0.0,0.0,0.0,0.0,0.0, 16:06:13.578
85182.179688, 94879.398438, 143618.421875, 165814.000000, 139516.656250, 93625.953125, 129781.531250, 150636.000000, 0.000, 0.000, 0.000,0.0,0.0,0.0,0.0,0.0, 16:06:13.579
85257.328125, 94947.101563, 143461.046875, 165513.640625, 139518.828125, 93297.609375, 129585.398438, 150667.781250, 0.000, 0.000, 0.000,0.0,0.0,0.0,0.0,0.0, 16:06:13.579
85347.898438, 95024.906250, 143237.343750, 164907.500000, 139567.468750, 92908.195313, 129392.210938, 150746.500000, 0.000, 0.000, 0.000,0.0,0.0,0.0,0.0,0.0, 16:06:13.579
85281.265625, 94970.570313, 143370.703125, 165145.703125, 139569.625000, 93210.187500, 129571.156250, 150723.843750, 0.000, 0.000, 0.000,0.0,0.0,0.0,0.0,0.0, 16:06:13.579
85193.312500, 94886.304688, 143589.359375, 165744.234375, 139527.359375, 93611.335938, 129770.132813, 150649.328125, 0.000, 0.000, 0.000,0.0,0.0,0.0,0.0,0.0, 16:06:13.580
85238.148438, 94921.773438, 143494.781250, 165599.687500, 139519.921875, 93381.648438, 129624.507813, 150654.703125, 0.000, 0.000, 0.000,0.0,0.0,0.0,0.0,0.0, 16:06:13.580
85335.468750, 95015.117188, 143259.296875, 164964.453125, 139555.812500, 92931.757813, 129388.117188, 150731.937500, 0.162, 0.102, 0.968,0.0,0.0,0.0,0.0,0.0, 16:06:13.580
85291.148438, 94983.937500, 143341.515625, 165053.406250, 139571.156250, 93122.304688, 129518.632813, 150730.562500, 0.000, 0.000, 0.000,0.0,0.0,0.0,0.0,0.0, 16:06:13.581
85201.046875, 94902.171875, 143584.203125, 165687.703125, 139535.750000, 93572.085938, 129754.710938, 150656.859375, 0.000, 0.000, 0.000,0.0,0.0,0.0,0.0,0.0, 16:06:13.581
85229.210938, 94920.234375, 143542.265625, 165698.109375, 139512.703125, 93453.023438, 129667.960938, 150649.203125, 0.000, 0.000, 0.000,0.0,0.0,0.0,0.0,0.0, 16:06:13.581
85334.914063, 95017.867188, 143290.562500, 165058.328125, 139550.031250, 92970.890625, 129414.070313, 150724.375000, 0.000, 0.000, 0.000,0.0,0.0,0.0,0.0,0.0, 16:06:13.582
85311.843750, 95009.773438, 143308.187500, 164976.250000, 139581.234375, 93042.734375, 129484.859375, 150742.546875, 0.000, 0.000, 0.000,0.0,0.0,0.0,0.0,0.0, 16:06:13.582
85195.882813, 94908.812500, 143565.250000, 165606.906250, 139545.125000, 93522.781250, 129739.804688, 150661.953125, 0.000, 0.000, 0.000,0.0,0.0,0.0,0.0,0.0, 16:06:13.583
85201.585938, 94900.515625, 143586.937500, 165778.593750, 139515.140625, 93525.710938, 129712.218750, 150631.703125, 0.000, 0.000, 0.000,0.0,0.0,0.0,0.0,0.0, 16:06:13.583
85317.273438, 95000.968750, 143315.406250, 165158.359375, 139547.093750, 93037.320313, 129446.593750, 150710.140625, 0.000, 0.000, 0.000,0.0,0.0,0.0,0.0,0.0, 16:06:13.585
85324.359375, 95016.500000, 143268.156250, 164907.296875, 139584.203125, 92982.335938, 129451.265625, 150757.343750, 0.000, 0.000, 0.000,0.0,0.0,0.0,0.0,0.0, 16:06:13.588
85218.101563, 94923.250000, 143516.093750, 165482.750000, 139552.234375, 93456.195313, 129704.398438, 150680.250000, 0.170, 0.100, 0.970,0.0,0.0,0.0,0.0,0.0, 16:06:13.589
85198.390625, 94897.031250, 143604.046875, 165809.218750, 139513.015625, 93579.304688, 129741.031250, 150628.531250, 0.000, 0.000, 0.000,0.0,0.0,0.0,0.0,0.0, 16:06:13.589
85305.273438, 94990.375000, 143368.265625, 165284.015625, 139539.000000, 93127.265625, 129490.468750, 150692.125000, 0.000, 0.000, 0.000,0.0,0.0,0.0,0.0,0.0, 16:06:13.590
85354.960938, 95038.515625, 143237.328125, 164867.375000, 139591.468750, 92934.078125, 129417.203125, 150758.953125, 0.000, 0.000, 0.000,0.0,0.0,0.0,0.0,0.0, 16:06:13.590
85247.937500, 94940.437500, 143470.343750, 165368.750000, 139565.671875, 93380.421875, 129663.695313, 150693.468750, 0.000, 0.000, 0.000,0.0,0.0,0.0,0.0,0.0, 16:06:14.020
85188.890625, 94878.390625, 143632.015625, 165846.140625, 139518.156250, 93623.632813, 129770.781250, 150625.265625, 0.000, 0.000, 0.000,0.0,0.0,0.0,0.0,0.0, 16:06:14.021
85282.921875, 94961.742188, 143430.218750, 165431.468750, 139533.234375, 93226.460938, 129544.421875, 150677.703125, 0.000, 0.000, 0.000,0.0,0.0,0.0,0.0,0.0, 16:06:14.021
85352.414063, 95031.476563, 143250.312500, 164901.171875, 139582.218750, 92918.453125, 129400.414063, 150752.156250, 0.000, 0.000, 0.000,0.0,0.0,0.0,0.0,0.0, 16:06:14.021
85269.625000, 94958.703125, 143440.109375, 165274.718750, 139574.078125, 93295.085938, 129620.937500, 150706.468750, 0.000, 0.000, 0.000,0.0,0.0,0.0,0.0,0.0, 16:06:14.022
85196.601563, 94888.359375, 143638.718750, 165829.015625, 139522.921875, 93630.742188, 129777.375000, 150630.953125, 0.000, 0.000, 0.000,0.0,0.0,0.0,0.0,0.0, 16:06:14.022
85258.179688, 94947.570313, 143485.312500, 165548.187500, 139522.953125, 93314.125000, 129588.968750, 150660.156250, 0.174, 0.102, 0.974,0.0,0.0,0.0,0.0,0.0, 16:06:14.023
85352.617188, 95036.195313, 143251.671875, 164925.015625, 139570.171875, 92905.421875, 129390.984375, 150746.390625, 0.000, 0.000, 0.000,0.0,0.0,0.0,0.0,0.0, 16:06:14.023
85291.078125, 94978.460938, 143369.156250, 165128.718750, 139576.484375, 93189.156250, 129570.843750, 150731.750000, 0.000, 0.000, 0.000,0.0,0.0,0.0,0.0,0.0, 16:06:14.023
85192.601563, 94889.367188, 143608.171875, 165759.765625, 139532.765625, 93613.820313, 129784.257813, 150653.328125, 0.000, 0.000, 0.000,0.0,0.0,0.0,0.0,0.0, 16:06:14.024
85236.296875, 94925.398438, 143517.750000, 165644.890625, 139520.046875, 93404.046875, 129645.726563, 150658.312500, 0.000, 0.000, 0.000,0.0,0.0,0.0,0.0,0.0, 16:06:14.024
85331.539063, 95012.773438, 143269.171875, 164994.578125, 139563.437500, 92938.257813, 129408.484375, 150737.515625, 0.000, 0.000, 0.000,0.0,0.0,0.0,0.0,0.0, 16:06:14.024
85298.632813, 94989.234375, 143331.093750, 165040.140625, 139587.000000, 93108.289063, 129529.273438, 150743.421875, 0.000, 0.000, 0.000,0.0,0.0,0.0,0.0,0.0, 16:06:14.025
85197.718750, 94894.750000, 143587.203125, 165686.640625, 139541.578125, 93574.945313, 129766.375000, 150658.359375, 0.000, 0.000, 0.000,0.0,0.0,0.0,0.0,0.0, 16:06:14.025
85212.804688, 94901.078125, 143577.140625, 165755.531250, 139513.765625, 93485.718750, 129689.867188, 150635.078125, 0.000, 0.000, 0.000,0.0,0.0,0.0,0.0,0.0, 16:06:14.025
85332.070313, 95004.343750, 143303.171875, 165101.015625, 139554.234375, 92989.062500, 129426.789063, 150716.843750, 0.172, 0.100, 0.980,0.0,0.0,0.0,0.0,0.0, 16:06:14.025
85329.812500, 95007.296875, 143294.609375, 164968.296875, 139583.937500, 93029.093750, 129480.273438, 150745.609375, 0.000, 0.000, 0.000,0.0,0.0,0.0,0.0,0.0, 16:06:14.026
85217.523438, 94907.937500, 143556.640625, 165599.531250, 139544.218750, 93515.093750, 129736.492188, 150662.625000, 0.000, 0.000, 0.000,0.0,0.0,0.0,0.0,0.0, 16:06:14.026
85214.992188, 94904.226563, 143585.281250, 165799.015625, 139509.921875, 93542.468750, 129719.664063, 150633.718750, 0.000, 0.000, 0.000,0.0,0.0,0.0,0.0,0.0, 16:06:14.026
85320.312500, 94996.898438, 143339.765625, 165211.484375, 139542.406250, 93064.632813, 129460.429688, 150708.937500, 0.000, 0.000, 0.000,0.0,0.0,0.0,0.0,0.0, 16:06:14.027
85338.937500, 95020.414063, 143274.093750, 164927.906250, 139583.062500, 92974.960938, 129445.117188, 150757.437500, 0.000, 0.000, 0.000,0.0,0.0,0.0,0.0,0.0, 16:06:14.027
85231.492188, 94930.156250, 143508.234375, 165480.781250, 139558.000000, 93443.273438, 129700.242188, 150691.234375, 0.000, 0.000, 0.000,0.0,0.0,0.0,0.0,0.0, 16:06:14.027
85194.765625, 94896.812500, 143610.843750, 165839.750000, 139511.250000, 93594.882813, 129749.640625, 150639.843750, 0.000, 0.000, 0.000,0.0,0.0,0.0,0.0,0.0, 16:06:14.028
85297.070313, 94990.640625, 143377.093750, 165330.500000, 139530.625000, 93151.250000, 129498.250000, 150701.796875, 0.000, 0.000, 0.000,0.0,0.0,0.0,0.0,0.0, 16:06:14.028
85348.390625, 95040.109375, 143253.375000, 164908.750000, 139583.578125, 92938.375000, 129415.117188, 150763.890625, 0.000, 0.000, 0.000,0.0,0.0,0.0,0.0,0.0, 16:06:14.028
85253.328125, 94957.429688, 143459.796875, 165364.718750, 139573.828125, 93363.390625, 129658.351563, 150714.437500, 0.172, 0.108, 0.978,0.0,0.0,0.0,0.0,0.0, 16:06:14.029
85182.562500, 94893.726563, 143627.984375, 165853.453125, 139518.218750, 93626.179688, 129769.101563, 150639.953125, 0.000, 0.000, 0.000,0.0,0.0,0.0,0.0,0.0, 16:06:14.030
85270.695313, 94971.242188, 143440.125000, 165467.515625, 139528.718750, 93244.593750, 129549.632813, 150682.984375, 0.000, 0.000, 0.000,0.0,0.0,0.0,0.0,0.0, 16:06:14.030
85358.781250, 95048.601563, 143247.609375, 164909.875000, 139582.437500, 92913.023438, 129400.992188, 150761.500000, 0.000, 0.000, 0.000,0.0,0.0,0.0,0.0,0.0, 16:06:14.030
85270.312500, 94968.218750, 143427.546875, 165253.750000, 139579.468750, 93273.132813, 129613.898438, 150722.406250, 0.000, 0.000, 0.000,0.0,0.0,0.0,0.0,0.0, 16:06:14.031
85193.250000, 94898.554688, 143630.406250, 165823.390625, 139531.140625, 93626.265625, 129783.031250, 150647.437500, 0.000, 0.000, 0.000,0.0,0.0,0.0,0.0,0.0, 16:06:14.031
85259.992188, 94952.820313, 143481.078125, 165568.953125, 139523.406250, 93328.718750, 129601.757813, 150666.562500, 0.000, 0.000, 0.000,0.0,0.0,0.0,0.0,0.0, 16:06:14.031
85345.218750, 95029.265625, 143249.421875, 164943.375000, 139561.812500, 92908.351563, 129388.078125, 150742.421875, 0.000, 0.000, 0.000,0.0,0.0,0.0,0.0,0.0, 16:06:14.031
85281.062500, 94978.523438, 143375.687500, 165137.234375, 139569.765625, 93173.195313, 129554.531250, 150723.187500, 0.000, 0.000, 0.000,0.0,0.0,0.0,0.0,0.0, 16:06:14.032
85176.101563, 94885.679688, 143622.765625, 165783.437500, 139523.765625, 93604.382813, 129769.242188, 150636.578125, 0.172, 0.102, 0.974,0.0,0.0,0.0,0.0,0.0, 16:06:14.032
85218.750000, 94921.328125, 143543.640625, 165705.015625, 139511.828125, 93418.617188, 129644.937500, 150645.093750, 0.000, 0.000, 0.000,0.0,0.0,0.0,0.0,0.0, 16:06:14.032
85321.765625, 95018.984375, 143281.359375, 165041.609375, 139553.109375, 92945.054688, 129397.062500, 150731.015625, 0.000, 0.000, 0.000,0.0,0.0,0.0,0.0,0.0, 16:06:14.033
85289.312500, 94995.289063, 143329.859375, 165049.281250, 139572.296875, 93089.734375, 129500.054688, 150736.140625, 0.000, 0.000, 0.000,0.0,0.0,0.0,0.0,0.0, 16:06:14.033
85184.015625, 94899.242188, 143584.453125, 165693.812500, 139531.234375, 93564.421875, 129745.187500, 150654.812500, 0.000, 0.000, 0.000,0.0,0.0,0.0,0.0,0.0, 16:06:14.033
85198.343750, 94905.656250, 143578.234375, 165782.453125, 139508.546875, 93497.523438, 129685.867188, 150635.546875, 0.000, 0.000, 0.000,0.0,0.0,0.0,0.0,0.0, 16:06:14.034
85306.859375, 95004.632813, 143319.015625, 165144.421875, 139547.718750, 93006.250000, 129425.359375, 150714.359375, 0.000, 0.000, 0.000,0.0,0.0,0.0,0.0,0.0, 16:06:14.034
85308.914063, 95009.750000, 143297.859375, 164977.265625, 139587.125000, 93024.132813, 129469.812500, 150754.515625, 0.000, 0.000, 0.000,0.0,0.0,0.0,0.0,0.0, 16:06:14.034
85202.882813, 94916.390625, 143548.109375, 165587.937500, 139549.062500, 93508.007813, 129727.953125, 150681.109375, 0.000, 0.000, 0.000,0.0,0.0,0.0,0.0,0.0, 16:06:14.034
85199.078125, 94903.625000, 143594.906250, 165818.906250, 139519.937500, 93563.328125, 129732.875000, 150650.578125, 0.000, 0.000, 0.000,0.0,0.0,0.0,0.0,0.0, 16:06:14.035
85298.921875, 94987.625000, 143357.093750, 165248.437500, 139543.203125, 93087.414063, 129472.523438, 150712.281250, 0.170, 0.104, 0.978,0.0,0.0,0.0,0.0,0.0, 16:06:14.035
85323.000000, 95020.257813, 143271.921875, 164924.734375, 139588.812500, 92969.281250, 129443.734375, 150767.265625, 0.000, 0.000, 0.000,0.0,0.0,0.0,0.0,0.0, 16:06:14.035
85213.476563, 94928.437500, 143509.390625, 165468.078125, 139570.921875, 93436.054688, 129705.406250, 150702.718750, 0.000, 0.000, 0.000,0.0,0.0,0.0,0.0,0.0, 16:06:14.035
85165.734375, 94883.757813, 143627.828125, 165856.468750, 139527.421875, 93608.765625, 129772.367188, 150641.453125, 0.000, 0.000, 0.000,0.0,0.0,0.0,0.0,0.0, 16:06:14.036
85263.812500, 94967.929688, 143409.453125, 165375.546875, 139536.953125, 93171.273438, 129524.484375, 150692.234375, 0.000, 0.000, 0.000,0.0,0.0,0.0,0.0,0.0, 16:06:14.036
85325.968750, 95023.523438, 143256.687500, 164907.125000, 139576.062500, 92921.851563, 129412.976563, 150760.656250, 0.000, 0.000, 0.000,0.0,0.0,0.0,0.0,0.0, 16:06:14.036
85240.921875, 94946.164063, 143443.640625, 165325.000000, 139567.328125, 93336.234375, 129650.328125, 150719.125000, 0.000, 0.000, 0.000,0.0,0.0,0.0,0.0,0.0, 16:06:14.037
85174.585938, 94881.140625, 143623.968750, 165838.062500, 139522.515625, 93628.031250, 129788.171875, 150649.015625, 0.000, 0.000, 0.000,0.0,0.0,0.0,0.0,0.0, 16:06:14.037
85254.312500, 94948.125000, 143451.953125, 165490.125000, 139524.796875, 93263.187500, 129572.882813, 150683.625000, 0.000, 0.000, 0.000,0.0,0.0,0.0,0.0,0.0, 16:06:14.037
85341.304688, 95032.125000, 143243.312500, 164906.937500, 139574.437500, 92905.671875, 129400.750000, 150766.625000, 0.176, 0.100, 0.972,0.0,0.0,0.0,0.0,0.0, 16:06:14.038
85261.421875, 94961.851563, 143414.421875, 165219.843750, 139571.312500, 93250.828125, 129604.773438, 150729.968750, 0.000, 0.000, 0.000,0.0,0.0,0.0,0.0,0.0, 16:06:14.038
85177.507813, 94882.101563, 143624.453125, 165813.968750, 139521.281250, 93624.125000, 129783.656250, 150651.578125, 0.000, 0.000, 0.000,0.0,0.0,0.0,0.0,0.0, 16:06:14.038
85230.328125, 94931.523438, 143496.203125, 165605.984375, 139514.843750, 93356.593750, 129614.992188, 150671.500000, 0.000, 0.000, 0.000,0.0,0.0,0.0,0.0,0.0, 16:06:14.039
85325.945313, 95019.992188, 143253.703125, 164966.859375, 139557.968750, 92923.039063, 129392.031250, 150755.046875, 0.000, 0.000, 0.000,0.0,0.0,0.0,0.0,0.0, 16:06:14.039
85272.664063, 94974.640625, 143361.937500, 165120.421875, 139569.312500, 93163.210938, 129546.125000, 150739.640625, 0.000, 0.000, 0.000,0.0,0.0,0.0,0.0,0.0, 16:06:14.039
85172.437500, 94884.851563, 143603.843750, 165757.093750, 139524.281250, 93602.867188, 129767.429688, 150658.375000, 0.000, 0.000, 0.000,0.0,0.0,0.0,0.0,0.0, 16:06:14.039
85212.734375, 94920.210938, 143541.375000, 165706.468750, 139513.531250, 93442.625000, 129657.257813, 150661.484375, 0.000, 0.000, 0.000,0.0,0.0,0.0,0.0,0.0, 16:06:14.040
85314.484375, 95014.062500, 143287.625000, 165051.625000, 139550.906250, 92965.750000, 129402.382813, 150742.578125, 0.000, 0.000, 0.000,0.0,0.0,0.0,0.0,0.0, 16:06:14.040
85294.945313, 95000.898438, 143322.062500, 165025.343750, 139572.687500, 93084.195313, 129493.796875, 150756.000000, 0.000, 0.000, 0.000,0.0,0.0,0.0,0.0,0.0, 16:06:14.040
85198.718750, 94907.804688, 143567.578125, 165653.406250, 139541.171875, 93558.406250, 129748.203125, 150679.156250, 0.176, 0.100, 0.974,0.0,0.0,0.0,0.0,0.0, 16:06:14.040
85206.117188, 94908.703125, 143577.296875, 165774.125000, 139510.281250, 93512.742188, 129697.421875, 150649.562500, 0.000, 0.000, 0.000,0.0,0.0,0.0,0.0,0.0, 16:06:14.040
85315.242188, 95015.851563, 143313.843750, 165137.703125, 139539.718750, 93014.789063, 129430.429688, 150721.578125, 0.000, 0.000, 0.000,0.0,0.0,0.0,0.0,0.0, 16:06:14.040
85317.500000, 95023.679688, 143281.046875, 164942.390625, 139581.125000, 93002.320313, 129462.617188, 150756.390625, 0.000, 0.000, 0.000,0.0,0.0,0.0,0.0,0.0, 16:06:14.041
85208.734375, 94922.867188, 143544.734375, 165561.000000, 139545.218750, 93488.226563, 129722.703125, 150676.390625, 0.000, 0.000, 0.000,0.0,0.0,0.0,0.0,0.0, 16:06:14.041
85183.812500, 94899.578125, 143608.078125, 165831.187500, 139503.718750, 93563.640625, 129729.296875, 150630.718750, 0.000, 0.000, 0.000,0.0,0.0,0.0,0.0,0.0, 16:06:14.041
85285.648438, 94988.742188, 143365.296875, 165267.468750, 139529.375000, 93092.867188, 129469.726563, 150692.578125, 0.000, 0.000, 0.000,0.0,0.0,0.0,0.0,0.0, 16:06:14.041
85315.843750, 95021.484375, 143274.765625, 164922.156250, 139573.515625, 92945.164063, 129423.500000, 150743.937500, 0.000, 0.000, 0.000,0.0,0.0,0.0,0.0,0.0, 16:06:14.041
85227.000000, 94939.523438, 143484.781250, 165425.859375, 139558.187500, 93395.304688, 129674.914063, 150690.843750, 0.000, 0.000, 0.000,0.0,0.0,0.0,0.0,0.0, 16:06:14.042
85183.765625, 94894.171875, 143623.281250, 165849.328125, 139510.671875, 93597.835938, 129759.289063, 150628.562500, 0.000, 0.000, 0.000,0.0,0.0,0.0,0.0,0.0, 16:06:14.042
85276.687500, 94976.781250, 143414.171875, 165396.437500, 139522.734375, 93177.867188, 129522.898438, 150679.312500, 0.174, 0.098, 0.974,0.0,0.0,0.0,0.0,0.0, 16:06:14.042
85341.929688, 95039.679688, 143257.484375, 164912.906250, 139568.046875, 92912.375000, 129406.984375, 150750.156250, 0.000, 0.000, 0.000,0.0,0.0,0.0,0.0,0.0, 16:06:14.042
85256.007813, 94961.898438, 143442.062500, 165314.484375, 139559.890625, 93311.601563, 129637.476563, 150708.625000, 0.000, 0.000, 0.000,0.0,0.0,0.0,0.0,0.0, 16:06:14.043
85185.710938, 94895.984375, 143626.468750, 165840.750000, 139518.484375, 93618.687500, 129784.101563, 150638.656250, 0.000, 0.000, 0.000,0.0,0.0,0.0,0.0,0.0, 16:06:14.043
85248.429688, 94958.234375, 143457.296875, 165513.125000, 139516.250000, 93270.515625, 129573.640625, 150664.875000, 0.000, 0.000, 0.000,0.0,0.0,0.0,0.0,0.0, 16:06:14.043
85337.078125, 95033.515625, 143245.859375, 164925.734375, 139565.343750, 92898.476563, 129392.632813, 150745.875000, 0.000, 0.000, 0.000,0.0,0.0,0.0,0.0,0.0, 16:06:14.044
85267.945313, 94969.609375, 143386.562500, 165193.046875, 139567.281250, 93216.804688, 129584.882813, 150717.515625, 0.000, 0.000, 0.000,0.0,0.0,0.0,0.0,0.0, 16:06:14.044
85182.789063, 94881.382813, 143606.203125, 165796.234375, 139520.390625, 93605.210938, 129777.781250, 150638.406250, 0.000, 0.000, 0.000,0.0,0.0,0.0,0.0,0.0, 16:06:14.045
85233.945313, 94926.539063, 143500.187500, 165629.375000, 139509.281250, 93359.273438, 129621.921875, 150654.375000, 0.000, 0.000, 0.000,0.0,0.0,0.0,0.0,0.0, 16:06:14.046
85327.757813, 95019.765625, 143254.375000, 164981.937500, 139557.937500, 92913.539063, 129399.140625, 150742.171875, 0.168, 0.096, 0.976,0.0,0.0,0.0,0.0,0.0, 16:06:14.047
85278.203125, 94977.093750, 143346.781250, 165098.109375, 139574.500000, 93132.500000, 129546.281250, 150738.500000, 0.000, 0.000, 0.000,0.0,0.0,0.0,0.0,0.0, 16:06:14.048
85179.679688, 94888.046875, 143587.921875, 165732.281250, 139534.015625, 93582.750000, 129776.328125, 150660.781250, 0.000, 0.000, 0.000,0.0,0.0,0.0,0.0,0.0, 16:06:14.049
85219.398438, 94921.085938, 143540.375000, 165715.140625, 139522.015625, 93450.492188, 129681.531250, 150660.984375, 0.000, 0.000, 0.000,0.0,0.0,0.0,0.0,0.0, 16:06:14.049
85330.773438, 95022.648438, 143292.687500, 165065.750000, 139565.156250, 92968.523438, 129429.445313, 150743.781250, 0.000, 0.000, 0.000,0.0,0.0,0.0,0.0,0.0, 16:06:14.049
85310.437500, 95003.445313, 143317.453125, 165003.328125, 139594.859375, 93060.679688, 129508.820313, 150764.296875, 0.000, 0.000, 0.000,0.0,0.0,0.0,0.0,0.0, 16:06:14.050
85195.953125, 94899.960938, 143586.390625, 165654.734375, 139550.406250, 93543.078125, 129758.312500, 150675.812500, 0.000, 0.000, 0.000,0.0,0.0,0.0,0.0,0.0, 16:06:14.050
85187.570313, 94895.578125, 143614.015625, 165820.859375, 139512.453125, 93525.796875, 129717.539063, 150641.953125, 0.000, 0.000, 0.000,0.0,0.0,0.0,0.0,0.0, 16:06:14.050
85303.125000, 94995.515625, 143343.921875, 165189.796875, 139539.671875, 93025.429688, 129443.125000, 150712.953125, 0.000, 0.000, 0.000,0.0,0.0,0.0,0.0,0.0, 16:06:14.050
85317.812500, 95013.328125, 143296.515625, 164957.484375, 139580.671875, 92983.546875, 129455.625000, 150754.687500, 0.000, 0.000, 0.000,0.0,0.0,0.0,0.0,0.0, 16:06:14.051
85205.789063, 94914.757813, 143539.203125, 165536.546875, 139554.406250, 93463.953125, 129714.078125, 150684.890625, 0.172, 0.096, 0.976,0.0,0.0,0.0,0.0,0.0, 16:06:14.051
85177.265625, 94882.906250, 143626.812500, 165843.500000, 139512.593750, 93571.820313, 129744.406250, 150633.859375, 0.000, 0.000, 0.000,0.0,0.0,0.0,0.0,0.0, 16:06:14.051
85281.867188, 94976.335938, 143388.875000, 165299.656250, 139537.281250, 93104.312500, 129485.687500, 150695.640625, 0.000, 0.000, 0.000,0.0,0.0,0.0,0.0,0.0, 16:06:14.052
85322.257813, 95023.562500, 143255.640625, 164890.203125, 139584.687500, 92926.796875, 129419.679688, 150764.484375, 0.000, 0.000, 0.000,0.0,0.0,0.0,0.0,0.0, 16:06:14.052
85219.640625, 94929.445313, 143500.812500, 165416.031250, 139560.171875, 93388.109375, 129675.984375, 150695.546875, 0.000, 0.000, 0.000,0.0,0.0,0.0,0.0,0.0, 16:06:14.052
85167.406250, 94879.218750, 143636.343750, 165852.078125, 139512.187500, 93605.234375, 129767.812500, 150631.468750, 0.000, 0.000, 0.000,0.0,0.0,0.0,0.0,0.0, 16:06:14.052
85261.554688, 94957.335938, 143434.578125, 165420.140625, 139523.984375, 93198.703125, 129540.109375, 150679.453125, 0.000, 0.000, 0.000,0.0,0.0,0.0,0.0,0.0, 16:06:14.053
85330.195313, 95025.218750, 143269.515625, 164914.203125, 139571.859375, 92907.125000, 129408.054688, 150752.703125, 0.000, 0.000, 0.000,0.0,0.0,0.0,0.0,0.0, 16:06:14.053
85250.062500, 94963.820313, 143436.296875, 165278.406250, 139567.390625, 93288.289063, 129623.101563, 150718.453125, 0.000, 0.000, 0.000,0.0,0.0,0.0,0.0,0.0, 16:06:14.053
85176.101563, 94888.875000, 143615.468750, 165808.296875, 139529.859375, 93609.414063, 129778.898438, 150645.296875, 0.174, 0.096, 0.970,0.0,0.0,0.0,0.0,0.0, 16:06:14.054
85242.062500, 94942.046875, 143474.859375, 165527.562500, 139520.984375, 93285.492188, 129583.382813, 150664.250000, 0.000, 0.000, 0.000,0.0,0.0,0.0,0.0,0.0, 16:06:14.054
85324.226563, 95023.835938, 143252.687500, 164921.421875, 139557.171875, 92890.117188, 129379.023438, 150743.562500, 0.000, 0.000, 0.000,0.0,0.0,0.0,0.0,0.0, 16:06:14.054
85257.125000, 94965.226563, 143379.234375, 165152.703125, 139571.015625, 93193.562500, 129571.226563, 150726.796875, 0.000, 0.000, 0.000,0.0,0.0,0.0,0.0,0.0, 16:06:14.055
85171.296875, 94875.750000, 143625.640625, 165786.968750, 139526.531250, 93610.015625, 129780.976563, 150643.078125, 0.000, 0.000, 0.000,0.0,0.0,0.0,0.0,0.0, 16:06:14.055
85233.164063, 94925.976563, 143516.562500, 165639.468750, 139518.328125, 93377.851563, 129632.984375, 150654.437500, 0.000, 0.000, 0.000,0.0,0.0,0.0,0.0,0.0, 16:06:14.055
85333.882813, 95025.890625, 143263.093750, 164981.062500, 139562.390625, 92921.250000, 129398.132813, 150737.953125, 0.000, 0.000, 0.000,0.0,0.0,0.0,0.0,0.0, 16:06:14.056
85296.734375, 94997.796875, 143351.546875, 165065.765625, 139579.046875, 93119.062500, 129532.132813, 150739.671875, 0.000, 0.000, 0.000,0.0,0.0,0.0,0.0,0.0, 16:06:14.056
85204.781250, 94910.664063, 143602.125000, 165704.562500, 139548.703125, 93580.984375, 129779.320313, 150667.421875, 0.000, 0.000, 0.000,0.0,0.0,0.0,0.0,0.0, 16:06:14.056
85233.500000, 94929.351563, 143562.593750, 165719.812500, 139518.953125, 93464.710938, 129681.617188, 150653.406250, 0.000, 0.000, 0.000,0.0,0.0,0.0,0.0,0.0, 16:06:14.057
85333.679688, 95018.289063, 143312.765625, 165085.171875, 139548.437500, 92976.703125, 129417.757813, 150720.000000, 0.176, 0.100, 0.978,0.0,0.0,0.0,0.0,0.0, 16:06:14.057
85308.625000, 95001.304688, 143320.765625, 164995.875000, 139576.140625, 93040.968750, 129483.117188, 150742.546875, 0.000, 0.000, 0.000,0.0,0.0,0.0,0.0,0.0, 16:06:14.057
85198.117188, 94906.421875, 143581.078125, 165632.875000, 139542.453125, 93527.382813, 129742.304688, 150668.046875, 0.000, 0.000, 0.000,0.0,0.0,0.0,0.0,0.0, 16:06:14.057
85208.046875, 94913.375000, 143603.515625, 165803.218750, 139516.296875, 93534.046875, 129720.828125, 150647.359375, 0.000, 0.000, 0.000,0.0,0.0,0.0,0.0,0.0, 16:06:14.058
85311.953125, 95012.140625, 143344.062500, 165187.921875, 139544.218750, 93042.773438, 129456.539063, 150717.515625, 0.000, 0.000, 0.000,0.0,0.0,0.0,0.0,0.0, 16:06:14.058
85315.890625, 95025.242188, 143277.828125, 164918.500000, 139586.453125, 92972.929688, 129455.195313, 150760.546875, 0.000, 0.000, 0.000,0.0,0.0,0.0,0.0,0.0, 16:06:14.058
85211.460938, 94927.945313, 143528.296875, 165501.671875, 139556.515625, 93455.726563, 129714.453125, 150689.046875, 0.000, 0.000, 0.000,0.0,0.0,0.0,0.0,0.0, 16:06:14.058
85199.015625, 94896.296875, 143627.031250, 165843.828125, 139508.875000, 93586.953125, 129748.585938, 150634.796875, 0.000, 0.000, 0.000,0.0,0.0,0.0,0.0,0.0, 16:06:14.059
85310.390625, 94990.437500, 143378.750000, 165300.203125, 139534.156250, 93128.492188, 129491.500000, 150703.609375, 0.000, 0.000, 0.000,0.0,0.0,0.0,0.0,0.0, 16:06:14.059
85336.140625, 95026.000000, 143270.187500, 164904.343750, 139573.703125, 92938.039063, 129418.320313, 150757.343750, 0.000, 0.000, 0.000,0.0,0.0,0.0,0.0,0.0, 16:06:14.500
85238.687500, 94947.460938, 143489.609375, 165391.328125, 139559.421875, 93377.742188, 129667.585938, 150704.156250, 0.176, 0.110, 0.978,0.0,0.0,0.0,0.0,0.0, 16:06:14.501
85184.687500, 94891.039063, 143640.187500, 165853.156250, 139517.437500, 93623.226563, 129776.101563, 150640.296875, 0.000, 0.000, 0.000,0.0,0.0,0.0,0.0,0.0, 16:06:14.501
85270.156250, 94966.414063, 143446.406250, 165445.843750, 139527.187500, 93228.500000, 129550.726563, 150683.140625, 0.000, 0.000, 0.000,0.0,0.0,0.0,0.0,0.0, 16:06:14.501
85339.273438, 95034.898438, 143259.671875, 164902.921875, 139572.765625, 92907.054688, 129399.968750, 150756.953125, 0.000, 0.000, 0.000,0.0,0.0,0.0,0.0,0.0, 16:06:14.501
85261.867188, 94971.304688, 143428.703125, 165248.437500, 139572.421875, 93278.343750, 129619.078125, 150724.140625, 0.000, 0.000, 0.000,0.0,0.0,0.0,0.0,0.0, 16:06:14.502
85180.015625, 94897.500000, 143637.687500, 165820.906250, 139521.281250, 93630.046875, 129785.109375, 150646.078125, 0.000, 0.000, 0.000,0.0,0.0,0.0,0.0,0.0, 16:06:14.502
85243.960938, 94953.203125, 143489.000000, 165553.984375, 139520.453125, 93320.851563, 129594.046875, 150673.796875, 0.000, 0.000, 0.000,0.0,0.0,0.0,0.0,0.0, 16:06:14.502
85335.515625, 95033.734375, 143258.359375, 164930.593750, 139565.609375, 92912.445313, 129394.242188, 150754.781250, 0.000, 0.000, 0.000,0.0,0.0,0.0,0.0,0.0, 16:06:14.502
85270.023438, 94974.523438, 143390.093750, 165144.093750, 139566.437500, 93196.023438, 129569.367188, 150731.046875, 0.000, 0.000, 0.000,0.0,0.0,0.0,0.0,0.0, 16:06:14.502
85178.625000, 94889.140625, 143620.890625, 165766.593750, 139519.671875, 93615.828125, 129777.625000, 150652.453125, 0.166, 0.108, 0.984,0.0,0.0,0.0,0.0,0.0, 16:06:14.503
85229.812500, 94933.242188, 143517.781250, 165639.781250, 139512.078125, 93407.914063, 129642.101563, 150664.437500, 0.000, 0.000, 0.000,0.0,0.0,0.0,0.0,0.0, 16:06:14.503
85331.648438, 95027.296875, 143254.984375, 164971.671875, 139557.578125, 92938.843750, 129398.890625, 150748.265625, 0.000, 0.000, 0.000,0.0,0.0,0.0,0.0,0.0, 16:06:14.503
85292.265625, 94992.140625, 143325.656250, 165021.500000, 139575.109375, 93110.812500, 129528.156250, 150749.484375, 0.000, 0.000, 0.000,0.0,0.0,0.0,0.0,0.0, 16:06:14.503
85190.898438, 94899.445313, 143576.296875, 165665.250000, 139534.875000, 93576.226563, 129767.921875, 150667.031250, 0.000, 0.000, 0.000,0.0,0.0,0.0,0.0,0.0, 16:06:14.503
85214.031250, 94914.687500, 143554.437500, 165720.140625, 139510.515625, 93484.757813, 129690.898438, 150652.921875, 0.000, 0.000, 0.000,0.0,0.0,0.0,0.0,0.0, 16:06:14.504
85329.390625, 95016.929688, 143292.484375, 165069.578125, 139551.500000, 92991.453125, 129429.382813, 150736.656250, 0.000, 0.000, 0.000,0.0,0.0,0.0,0.0,0.0, 16:06:14.504
85317.320313, 95007.960938, 143297.000000, 164948.093750, 139584.421875, 93032.359375, 129484.632813, 150761.796875, 0.000, 0.000, 0.000,0.0,0.0,0.0,0.0,0.0, 16:06:14.504
85209.382813, 94906.710938, 143551.812500, 165567.390625, 139547.187500, 93513.703125, 129740.945313, 150682.375000, 0.000, 0.000, 0.000,0.0,0.0,0.0,0.0,0.0, 16:06:14.505
85205.093750, 94895.375000, 143608.296875, 165793.640625, 139507.093750, 93549.867188, 129729.476563, 150645.437500, 0.000, 0.000, 0.000,0.0,0.0,0.0,0.0,0.0, 16:06:14.505
85311.132813, 94992.539063, 143358.031250, 165201.671875, 139538.421875, 93063.585938, 129462.570313, 150717.968750, 0.168, 0.106, 0.986,0.0,0.0,0.0,0.0,0.0, 16:06:14.505
85329.390625, 95016.234375, 143290.921875, 164912.796875, 139582.281250, 92970.335938, 129445.250000, 150764.953125, 0.000, 0.000, 0.000,0.0,0.0,0.0,0.0,0.0, 16:06:14.505
85231.132813, 94925.437500, 143526.250000, 165468.703125, 139558.031250, 93442.718750, 129701.890625, 150699.812500, 0.000, 0.000, 0.000,0.0,0.0,0.0,0.0,0.0, 16:06:14.506
85187.414063, 94885.812500, 143639.484375, 165838.937500, 139513.015625, 93598.867188, 129761.414063, 150642.484375, 0.000, 0.000, 0.000,0.0,0.0,0.0,0.0,0.0, 16:06:14.506
85282.320313, 94974.882813, 143406.828125, 165332.562500, 139526.609375, 93146.843750, 129513.062500, 150700.984375, 0.000, 0.000, 0.000,0.0,0.0,0.0,0.0,0.0, 16:06:14.507
85341.929688, 95030.718750, 143271.609375, 164890.531250, 139574.593750, 92924.851563, 129428.843750, 150769.531250, 0.000, 0.000, 0.000,0.0,0.0,0.0,0.0,0.0, 16:06:14.507
85251.023438, 94951.953125, 143480.140625, 165346.156250, 139561.406250, 93353.000000, 129674.062500, 150715.796875, 0.000, 0.000, 0.000,0.0,0.0,0.0,0.0,0.0, 16:06:14.507
85185.960938, 94889.765625, 143646.828125, 165833.703125, 139512.593750, 93622.109375, 129794.765625, 150645.953125, 0.000, 0.000, 0.000,0.0,0.0,0.0,0.0,0.0, 16:06:14.507
85268.593750, 94956.289063, 143454.875000, 165447.140625, 139516.718750, 93241.726563, 129574.421875, 150686.359375, 0.000, 0.000, 0.000,0.0,0.0,0.0,0.0,0.0, 16:06:14.508
85349.304688, 95029.015625, 143259.359375, 164894.265625, 139563.656250, 92906.695313, 129420.242188, 150762.750000, 0.176, 0.102, 0.980,0.0,0.0,0.0,0.0,0.0, 16:06:14.508
85266.109375, 94959.726563, 143426.109375, 165227.531250, 139553.718750, 93264.507813, 129630.101563, 150726.078125, 0.000, 0.000, 0.000,0.0,0.0,0.0,0.0,0.0, 16:06:14.508
85190.359375, 94885.945313, 143631.703125, 165807.093750, 139510.312500, 93624.726563, 129808.960938, 150655.093750, 0.000, 0.000, 0.000,0.0,0.0,0.0,0.0,0.0, 16:06:14.509
85262.492188, 94944.554688, 143494.687500, 165567.234375, 139507.718750, 93334.960938, 129632.890625, 150682.296875, 0.000, 0.000, 0.000,0.0,0.0,0.0,0.0,0.0, 16:06:14.509
85353.281250, 95030.140625, 143255.359375, 164928.015625, 139555.062500, 92913.156250, 129422.453125, 150765.531250, 0.000, 0.000, 0.000,0.0,0.0,0.0,0.0,0.0, 16:06:14.509
85291.031250, 94977.859375, 143370.078125, 165104.625000, 139563.750000, 93176.414063, 129585.554688, 150744.984375, 0.000, 0.000, 0.000,0.0,0.0,0.0,0.0,0.0, 16:06:14.509
85196.796875, 94895.492188, 143598.734375, 165724.343750, 139521.234375, 93605.703125, 129798.164063, 150666.171875, 0.000, 0.000, 0.000,0.0,0.0,0.0,0.0,0.0, 16:06:14.509
85232.968750, 94924.304688, 143526.062500, 165644.562500, 139510.218750, 93428.054688, 129677.750000, 150666.640625, 0.000, 0.000, 0.000,0.0,0.0,0.0,0.0,0.0, 16:06:14.510
85335.875000, 95017.171875, 143274.546875, 164995.140625, 139552.265625, 92954.218750, 129427.523438, 150741.406250, 0.000, 0.000, 0.000,0.0,0.0,0.0,0.0,0.0, 16:06:14.510
85310.703125, 94993.234375, 143329.906250, 165014.140625, 139575.281250, 93098.882813, 129540.648438, 150747.328125, 0.000, 0.000, 0.000,0.0,0.0,0.0,0.0,0.0, 16:06:14.510
85206.273438, 94897.656250, 143589.453125, 165666.859375, 139531.828125, 93572.734375, 129787.835938, 150664.921875, 0.176, 0.104, 0.974,0.0,0.0,0.0,0.0,0.0, 16:06:14.510
85218.523438, 94900.046875, 143575.000000, 165749.156250, 139497.484375, 93503.531250, 129717.492188, 150642.968750, 0.000, 0.000, 0.000,0.0,0.0,0.0,0.0,0.0, 16:06:14.511
85327.359375, 95000.007813, 143305.859375, 165102.781250, 139535.031250, 93007.882813, 129454.304688, 150724.515625, 0.000, 0.000, 0.000,0.0,0.0,0.0,0.0,0.0, 16:06:14.511
85331.445313, 95005.687500, 143285.203125, 164932.468750, 139573.734375, 93022.835938, 129495.476563, 150760.656250, 0.000, 0.000, 0.000,0.0,0.0,0.0,0.0,0.0, 16:06:14.511
85231.578125, 94910.085938, 143544.843750, 165550.171875, 139545.984375, 93512.070313, 129761.617188, 150686.562500, 0.000, 0.000, 0.000,0.0,0.0,0.0,0.0,0.0, 16:06:14.511
85216.781250, 94898.843750, 143604.046875, 165797.140625, 139512.671875, 93567.617188, 129767.070313, 150650.578125, 0.000, 0.000, 0.000,0.0,0.0,0.0,0.0,0.0, 16:06:14.511
85318.750000, 94996.945313, 143353.593750, 165215.015625, 139537.671875, 93088.890625, 129507.273438, 150722.234375, 0.000, 0.000, 0.000,0.0,0.0,0.0,0.0,0.0, 16:06:14.512
85338.242188, 95015.875000, 143267.546875, 164889.484375, 139569.890625, 92965.195313, 129469.992188, 150769.312500, 0.000, 0.000, 0.000,0.0,0.0,0.0,0.0,0.0, 16:06:14.512
85242.976563, 94929.085938, 143491.906250, 165423.156250, 139545.671875, 93427.984375, 129724.289063, 150707.578125, 0.000, 0.000, 0.000,0.0,0.0,0.0,0.0,0.0, 16:06:14.512
85207.015625, 94890.906250, 143603.093750, 165806.640625, 139503.781250, 93605.437500, 129790.789063, 150648.562500, 0.174, 0.104, 0.976,0.0,0.0,0.0,0.0,0.0, 16:06:14.512
85301.164063, 94976.093750, 143394.906250, 165335.984375, 139522.093750, 93175.476563, 129549.273438, 150697.718750, 0.000, 0.000, 0.000,0.0,0.0,0.0,0.0,0.0, 16:06:14.513
85345.218750, 95029.218750, 143255.875000, 164881.343750, 139564.421875, 92929.656250, 129440.445313, 150763.109375, 0.000, 0.000, 0.000,0.0,0.0,0.0,0.0,0.0, 16:06:14.513
85256.054688, 94947.617188, 143460.843750, 165323.750000, 139541.312500, 93341.351563, 129665.390625, 150708.218750, 0.000, 0.000, 0.000,0.0,0.0,0.0,0.0,0.0, 16:06:14.513
85202.812500, 94886.210938, 143631.343750, 165828.125000, 139501.453125, 93624.320313, 129797.000000, 150639.015625, 0.000, 0.000, 0.000,0.0,0.0,0.0,0.0,0.0, 16:06:14.513
85279.906250, 94959.054688, 143457.156250, 165475.953125, 139506.218750, 93260.593750, 129584.812500, 150673.734375, 0.000, 0.000, 0.000,0.0,0.0,0.0,0.0,0.0, 16:06:14.514
85359.273438, 95037.578125, 143252.687500, 164898.453125, 139556.828125, 92905.132813, 129415.390625, 150755.312500, 0.000, 0.000, 0.000,0.0,0.0,0.0,0.0,0.0, 16:06:14.514
85287.750000, 94975.484375, 143410.468750, 165199.859375, 139565.312500, 93248.031250, 129625.765625, 150728.203125, 0.000, 0.000, 0.000,0.0,0.0,0.0,0.0,0.0, 16:06:14.514
85206.882813, 94893.812500, 143629.437500, 165794.140625, 139521.593750, 93631.234375, 129816.867188, 150653.078125, 0.000, 0.000, 0.000,0.0,0.0,0.0,0.0,0.0, 16:06:14.515
85265.328125, 94943.078125, 143505.843750, 165585.671875, 139509.890625, 93359.968750, 129645.390625, 150668.171875, 0.000, 0.000, 0.000,0.0,0.0,0.0,0.0,0.0, 16:06:14.515
85355.523438, 95029.171875, 143271.093750, 164954.765625, 139548.437500, 92926.125000, 129421.000000, 150747.171875, 0.174, 0.106, 0.976,0.0,0.0,0.0,0.0,0.0, 16:06:14.515
85306.414063, 94987.156250, 143361.718750, 165088.843750, 139568.218750, 93161.890625, 129579.117188, 150747.000000, 0.000, 0.000, 0.000,0.0,0.0,0.0,0.0,0.0, 16:06:14.516
85208.601563, 94894.687500, 143605.281250, 165724.640625, 139528.093750, 93604.429688, 129806.234375, 150667.312500, 0.000, 0.000, 0.000,0.0,0.0,0.0,0.0,0.0, 16:06:14.516
85244.585938, 94922.867188, 143547.718750, 165680.875000, 139512.968750, 93444.304688, 129697.109375, 150664.078125, 0.000, 0.000, 0.000,0.0,0.0,0.0,0.0,0.0, 16:06:14.516
85354.132813, 95025.710938, 143294.250000, 165027.640625, 139556.703125, 92965.351563, 129452.265625, 150746.859375, 0.000, 0.000, 0.000,0.0,0.0,0.0,0.0,0.0, 16:06:14.516
85331.578125, 95010.828125, 143317.500000, 164989.578125, 139587.671875, 93077.648438, 129547.640625, 150766.562500, 0.000, 0.000, 0.000,0.0,0.0,0.0,0.0,0.0, 16:06:14.517
85217.875000, 94908.226563, 143569.453125, 165627.625000, 139549.062500, 93556.617188, 129801.468750, 150684.968750, 0.000, 0.000, 0.000,0.0,0.0,0.0,0.0,0.0, 16:06:14.517
85221.835938, 94905.679688, 143590.218750, 165763.609375, 139514.781250, 93520.140625, 129754.867188, 150654.953125, 0.000, 0.000, 0.000,0.0,0.0,0.0,0.0,0.0, 16:06:14.517
85333.796875, 95003.226563, 143333.015625, 165136.968750, 139541.062500, 93024.539063, 129480.585938, 150729.765625, 0.000, 0.000, 0.000,0.0,0.0,0.0,0.0,0.0, 16:06:14.517
85332.367188, 95016.007813, 143304.265625, 164944.562500, 139578.437500, 93013.476563, 129505.960938, 150766.062500, 0.000, 0.000, 0.000,0.0,0.0,0.0,0.0,0.0, 16:06:14.517
85232.250000, 94927.226563, 143534.500000, 165522.906250, 139552.859375, 93493.679688, 129761.546875, 150703.546875, 0.178, 0.106, 0.966,0.0,0.0,0.0,0.0,0.0, 16:06:14.518
85215.929688, 94900.031250, 143601.140625, 165793.281250, 139513.734375, 93576.515625, 129775.921875, 150657.859375, 0.000, 0.000, 0.000,0.0,0.0,0.0,0.0,0.0, 16:06:14.518
85311.328125, 94982.617188, 143369.765625, 165244.140625, 139531.984375, 93109.828125, 129514.945313, 150715.390625, 0.000, 0.000, 0.000,0.0,0.0,0.0,0.0,0.0, 16:06:14.518
85335.539063, 95016.007813, 143267.796875, 164891.296875, 139573.078125, 92960.210938, 129464.140625, 150769.968750, 0.000, 0.000, 0.000,0.0,0.0,0.0,0.0,0.0, 16:06:14.518
85229.007813, 94924.812500, 143484.812500, 165398.968750, 139553.609375, 93414.953125, 129714.632813, 150710.859375, 0.000, 0.000, 0.000,0.0,0.0,0.0,0.0,0.0, 16:06:14.519
85170.421875, 94878.906250, 143625.531250, 165820.921875, 139510.468750, 93622.984375, 129801.312500, 150649.328125, 0.000, 0.000, 0.000,0.0,0.0,0.0,0.0,0.0, 16:06:14.519
85280.531250, 94966.968750, 143412.234375, 165361.421875, 139522.843750, 93197.960938, 129560.562500, 150700.984375, 0.000, 0.000, 0.000,0.0,0.0,0.0,0.0,0.0, 16:06:14.519
85340.835938, 95022.937500, 143257.468750, 164878.734375, 139570.796875, 92926.968750, 129441.562500, 150767.578125, 0.000, 0.000, 0.000,0.0,0.0,0.0,0.0,0.0, 16:06:14.519
85260.367188, 94954.250000, 143442.000000, 165278.187500, 139568.328125, 93325.570313, 129671.695313, 150729.031250, 0.000, 0.000, 0.000,0.0,0.0,0.0,0.0,0.0, 16:06:14.519
85192.507813, 94890.843750, 143629.328125, 165806.156250, 139520.281250, 93632.953125, 129814.390625, 150655.171875, 0.170, 0.106, 0.970,0.0,0.0,0.0,0.0,0.0, 16:06:14.520
85268.593750, 94963.062500, 143461.187500, 165475.562500, 139523.296875, 93288.757813, 129612.929688, 150691.671875, 0.000, 0.000, 0.000,0.0,0.0,0.0,0.0,0.0, 16:06:14.520
85349.242188, 95043.570313, 143249.203125, 164880.562500, 139573.921875, 92913.695313, 129431.148438, 150771.250000, 0.000, 0.000, 0.000,0.0,0.0,0.0,0.0,0.0, 16:06:14.520
85273.039063, 94977.226563, 143407.156250, 165160.140625, 139574.031250, 93236.742188, 129628.062500, 150739.046875, 0.000, 0.000, 0.000,0.0,0.0,0.0,0.0,0.0, 16:06:14.520
85183.320313, 94889.031250, 143637.156250, 165777.031250, 139523.093750, 93629.914063, 129822.546875, 150656.906250, 0.000, 0.000, 0.000,0.0,0.0,0.0,0.0,0.0, 16:06:14.521
85237.460938, 94933.195313, 143521.687500, 165600.203125, 139512.984375, 93378.789063, 129665.125000, 150673.265625, 0.000, 0.000, 0.000,0.0,0.0,0.0,0.0,0.0, 16:06:14.521
85334.015625, 95022.875000, 143281.359375, 164959.375000, 139555.500000, 92930.750000, 129435.171875, 150752.500000, 0.000, 0.000, 0.000,0.0,0.0,0.0,0.0,0.0, 16:06:14.521
85293.515625, 94985.992188, 143367.578125, 165067.406250, 139568.406250, 93144.093750, 129573.796875, 150746.343750, 0.000, 0.000, 0.000,0.0,0.0,0.0,0.0,0.0, 16:06:14.522
85196.710938, 94894.304688, 143612.453125, 165704.109375, 139527.078125, 93596.070313, 129805.203125, 150668.093750, 0.000, 0.000, 0.000,0.0,0.0,0.0,0.0,0.0, 16:06:14.522
85229.367188, 94918.335938, 143567.265625, 165694.734375, 139505.406250, 93461.335938, 129707.304688, 150658.218750, 0.000, 0.000, 0.000,0.0,0.0,0.0,0.0,0.0, 16:06:14.522
85343.117188, 95025.312500, 143289.625000, 165019.921875, 139545.562500, 92966.468750, 129442.234375, 150745.609375, 0.174, 0.102, 0.974,0.0,0.0,0.0,0.0,0.0, 16:06:14.523
85320.648438, 95012.031250, 143311.171875, 164958.375000, 139577.609375, 93062.375000, 129529.359375, 150764.437500, 0.000, 0.000, 0.000,0.0,0.0,0.0,0.0,0.0, 16:06:14.523
85209.226563, 94908.343750, 143573.656250, 165603.875000, 139539.406250, 93543.296875, 129786.429688, 150677.953125, 0.000, 0.000, 0.000,0.0,0.0,0.0,0.0,0.0, 16:06:14.523
85204.085938, 94897.101563, 143604.718750, 165774.593750, 139498.703125, 93527.984375, 129744.070313, 150642.125000, 0.000, 0.000, 0.000,0.0,0.0,0.0,0.0,0.0, 16:06:14.523
85317.187500, 94997.679688, 143331.140625, 165144.937500, 139526.843750, 93029.273438, 129467.867188, 150718.812500, 0.000, 0.000, 0.000,0.0,0.0,0.0,0.0,0.0, 16:06:14.524
85331.625000, 95016.992188, 143275.375000, 164903.203125, 139572.625000, 92988.195313, 129483.359375, 150764.953125, 0.000, 0.000, 0.000,0.0,0.0,0.0,0.0,0.0, 16:06:14.524
85225.343750, 94925.484375, 143522.375000, 165490.703125, 139546.140625, 93476.039063, 129747.445313, 150697.328125, 0.000, 0.000, 0.000,0.0,0.0,0.0,0.0,0.0, 16:06:14.524
85195.281250, 94896.695313, 143605.281250, 165796.734375, 139501.328125, 93584.289063, 129775.367188, 150652.250000, 0.000, 0.000, 0.000,0.0,0.0,0.0,0.0,0.0, 16:06:14.525
85297.250000, 94985.609375, 143369.656250, 165254.359375, 139522.765625, 93120.757813, 129517.109375, 150713.187500, 0.000, 0.000, 0.000,0.0,0.0,0.0,0.0,0.0, 16:06:14.525
85340.500000, 95021.265625, 143262.984375, 164875.453125, 139570.031250, 92948.539063, 129457.882813, 150770.531250, 0.182, 0.102, 0.976,0.0,0.0,0.0,0.0,0.0, 16:06:14.526
85232.492188, 94925.843750, 143493.921875, 165385.109375, 139548.468750, 93399.265625, 129708.734375, 150709.875000, 0.000, 0.000, 0.000,0.0,0.0,0.0,0.0,0.0, 16:06:14.526
85180.687500, 94881.679688, 143627.828125, 165819.671875, 139503.875000, 93622.648438, 129803.679688, 150650.484375, 0.000, 0.000, 0.000,0.0,0.0,0.0,0.0,0.0, 16:06:14.527
85277.648438, 94968.218750, 143416.406250, 165378.109375, 139519.937500, 93217.992188, 129572.453125, 150704.000000, 0.000, 0.000, 0.000,0.0,0.0,0.0,0.0,0.0, 16:06:14.527
85342.445313, 95032.234375, 143249.015625, 164869.343750, 139573.031250, 92927.929688, 129448.023438, 150777.515625, 0.000, 0.000, 0.000,0.0,0.0,0.0,0.0,0.0, 16:06:14.527
85259.656250, 94954.703125, 143425.734375, 165246.437500, 139570.796875, 93312.828125, 129679.812500, 150736.531250, 0.000, 0.000, 0.000,0.0,0.0,0.0,0.0,0.0, 16:06:14.527
85186.851563, 94882.859375, 143619.468750, 165794.187500, 139526.468750, 93641.984375, 129840.046875, 150663.968750, 0.000, 0.000, 0.000,0.0,0.0,0.0,0.0,0.0, 16:06:14.528
85260.570313, 94949.890625, 143463.578125, 165498.484375, 139526.156250, 93313.523438, 129644.289063, 150692.484375, 0.000, 0.000, 0.000,0.0,0.0,0.0,0.0,0.0, 16:06:14.528
85351.406250, 95035.750000, 143244.187500, 164891.187500, 139572.718750, 92917.851563, 129450.882813, 150770.984375, 0.000, 0.000, 0.000,0.0,0.0,0.0,0.0,0.0, 16:06:14.529
85288.867188, 94978.195313, 143367.093750, 165116.312500, 139576.875000, 93214.234375, 129631.039063, 150748.625000, 0.000, 0.000, 0.000,0.0,0.0,0.0,0.0,0.0, 16:06:14.529
85191.640625, 94887.757813, 143609.062500, 165745.843750, 139527.359375, 93627.742188, 129840.093750, 150660.234375, 0.178, 0.106, 0.974,0.0,0.0,0.0,0.0,0.0, 16:06:14.530
85235.890625, 94923.585938, 143526.109375, 165624.234375, 139511.515625, 93403.062500, 129698.250000, 150664.312500, 0.000, 0.000, 0.000,0.0,0.0,0.0,0.0,0.0, 16:06:14.530
85338.039063, 95024.054688, 143266.546875, 164965.859375, 139553.953125, 92938.328125, 129460.406250, 150753.812500, 0.000, 0.000, 0.000,0.0,0.0,0.0,0.0,0.0, 16:06:14.531
85303.039063, 94991.312500, 143344.062500, 165044.093750, 139570.453125, 93132.656250, 129593.085938, 150757.171875, 0.000, 0.000, 0.000,0.0,0.0,0.0,0.0,0.0, 16:06:14.531
85211.218750, 94902.460938, 143597.140625, 165693.562500, 139537.687500, 93600.765625, 129838.085938, 150680.750000, 0.000, 0.000, 0.000,0.0,0.0,0.0,0.0,0.0, 16:06:14.531
85236.007813, 94928.054688, 143554.078125, 165708.890625, 139517.031250, 93489.273438, 129748.968750, 150671.625000, 0.000, 0.000, 0.000,0.0,0.0,0.0,0.0,0.0, 16:06:14.532
85333.078125, 95018.359375, 143291.750000, 165057.328125, 139548.468750, 92994.070313, 129485.484375, 150744.031250, 0.000, 0.000, 0.000,0.0,0.0,0.0,0.0,0.0, 16:06:14.532
85330.375000, 95017.664063, 143300.468750, 164957.703125, 139581.593750, 93054.820313, 129556.296875, 150770.937500, 0.000, 0.000, 0.000,0.0,0.0,0.0,0.0,0.0, 16:06:14.532
85222.546875, 94916.882813, 143555.218750, 165585.937500, 139544.812500, 93537.062500, 129813.765625, 150690.296875, 0.000, 0.000, 0.000,0.0,0.0,0.0,0.0,0.0, 16:06:14.532
85211.820313, 94903.828125, 143584.265625, 165766.359375, 139510.843750, 93547.234375, 129792.687500, 150656.937500, 0.176, 0.108, 0.976,0.0,0.0,0.0,0.0,0.0, 16:06:14.533
85311.398438, 94997.726563, 143330.093750, 165159.312500, 139533.156250, 93056.500000, 129523.953125, 150727.109375, 0.000, 0.000, 0.000,0.0,0.0,0.0,0.0,0.0, 16:06:14.533
85328.406250, 95019.093750, 143269.796875, 164891.109375, 139574.562500, 92987.476563, 129522.609375, 150775.156250, 0.000, 0.000, 0.000,0.0,0.0,0.0,0.0,0.0, 16:06:14.533
85211.437500, 94917.750000, 143517.656250, 165468.593750, 139546.984375, 93468.820313, 129787.476563, 150705.015625, 0.000, 0.000, 0.000,0.0,0.0,0.0,0.0,0.0, 16:06:14.533
85181.242188, 94882.953125, 143612.515625, 165806.062500, 139504.671875, 93600.898438, 129832.539063, 150657.062500, 0.000, 0.000, 0.000,0.0,0.0,0.0,0.0,0.0, 16:06:14.533
85285.179688, 94973.968750, 143380.890625, 165286.468750, 139520.406250, 93144.859375, 129576.500000, 150714.328125, 0.000, 0.000, 0.000,0.011845965,0.06336069,0.059909467,0.08463593,0.04598926, 16:06:14.981
85334.976563, 95023.210938, 143249.375000, 164866.640625, 139568.203125, 92941.835938, 129500.148438, 150779.468750, 0.000, 0.000, 0.000,0.011845965,0.06336069,0.059909467,0.08463593,0.04598926, 16:06:14.981
85234.843750, 94936.593750, 143460.078125, 165342.218750, 139553.718750, 93378.343750, 129745.593750, 150723.781250, 0.000, 0.000, 0.000,0.011845965,0.06336069,0.059909467,0.08463593,0.04598926, 16:06:14.981
85172.015625, 94880.875000, 143619.359375, 165812.968750, 139507.359375, 93626.804688, 129855.562500, 150655.265625, 0.000, 0.000, 0.000,0.011845965,0.06336069,0.059909467,0.08463593,0.04598926, 16:06:14.982
85270.156250, 94959.304688, 143418.750000, 165399.437500, 139515.421875, 93227.710938, 129624.984375, 150699.250000, 0.000, 0.000, 0.000,0.011845965,0.06336069,0.059909467,0.08463593,0.04598926, 16:06:14.982
85343.695313, 95027.921875, 143241.000000, 164865.390625, 139559.812500, 92909.335938, 129476.382813, 150769.953125, 0.172, 0.110, 0.974,0.011845965,0.06336069,0.059909467,0.08463593,0.04598926, 16:06:14.982
85262.601563, 94962.210938, 143416.000000, 165217.140625, 139560.078125, 93281.226563, 129696.906250, 150734.750000, 0.000, 0.000, 0.000,0.011845965,0.06336069,0.059909467,0.08463593,0.04598926, 16:06:14.982
85187.101563, 94889.210938, 143622.203125, 165783.437500, 139512.968750, 93625.398438, 129864.460938, 150656.156250, 0.000, 0.000, 0.000,0.011845965,0.06336069,0.059909467,0.08463593,0.04598926, 16:06:14.983
85245.125000, 94941.179688, 143488.468750, 165530.109375, 139506.531250, 93314.710938, 129678.828125, 150674.468750, 0.000, 0.000, 0.000,0.011845965,0.06336069,0.059909467,0.08463593,0.04598926, 16:06:14.983
85337.953125, 95033.515625, 143253.484375, 164907.296875, 139557.828125, 92900.328125, 129473.570313, 150762.000000, 0.000, 0.000, 0.000,0.011845965,0.06336069,0.059909467,0.08463593,0.04598926, 16:06:14.983
85274.226563, 94979.890625, 143366.000000, 165103.812500, 139570.125000, 93176.304688, 129651.781250, 150745.718750, 0.000, 0.000, 0.000,0.011845965,0.06336069,0.059909467,0.08463593,0.04598926, 16:06:14.983
85170.851563, 94883.796875, 143614.062500, 165746.531250, 139520.406250, 93604.453125, 129867.679688, 150657.750000, 0.000, 0.000, 0.000,0.011845965,0.06336069,0.059909467,0.08463593,0.04598926, 16:06:14.984
85217.070313, 94923.046875, 143530.671875, 165645.156250, 139499.593750, 93396.070313, 129727.085938, 150660.406250, 0.000, 0.000, 0.000,0.011845965,0.06336069,0.059909467,0.08463593,0.04598926, 16:06:14.984
85325.656250, 95021.460938, 143272.703125, 164987.312500, 139541.781250, 92922.140625, 129481.906250, 150743.218750, 0.000, 0.000, 0.000,0.011845965,0.06336069,0.059909467,0.08463593,0.04598926, 16:06:14.985
85295.125000, 94991.890625, 143329.343750, 165025.921875, 139559.734375, 93085.984375, 129599.164063, 150749.125000, 0.000, 0.000, 0.000,0.011845965,0.06336069,0.059909467,0.08463593,0.04598926, 16:06:14.985
85186.539063, 94894.234375, 143574.453125, 165665.109375, 139513.234375, 93553.226563, 129839.867188, 150666.062500, 0.168, 0.106, 0.978,0.011845965,0.06336069,0.059909467,0.08463593,0.04598926, 16:06:14.986
85211.242188, 94913.414063, 143534.218750, 165697.078125, 139493.609375, 93460.531250, 129763.960938, 150657.218750, 0.000, 0.000, 0.000,0.011845965,0.06336069,0.059909467,0.08463593,0.04598926, 16:06:14.987
85320.945313, 95011.382813, 143285.500000, 165057.750000, 139533.750000, 92974.539063, 129506.273438, 150733.031250, 0.000, 0.000, 0.000,0.011845965,0.06336069,0.059909467,0.08463593,0.04598926, 16:06:14.987
85308.601563, 95008.546875, 143290.484375, 164933.875000, 139566.328125, 93014.140625, 129560.335938, 150759.890625, 0.000, 0.000, 0.000,0.011845965,0.06336069,0.059909467,0.08463593,0.04598926, 16:06:14.988
85197.718750, 94909.507813, 143551.062500, 165556.484375, 139534.046875, 93499.601563, 129819.617188, 150682.609375, 0.000, 0.000, 0.000,0.011845965,0.06336069,0.059909467,0.08463593,0.04598926, 16:06:14.988
85194.992188, 94897.929688, 143591.484375, 165766.968750, 139500.609375, 93531.140625, 129809.070313, 150648.765625, 0.000, 0.000, 0.000,0.011845965,0.06336069,0.059909467,0.08463593,0.04598926, 16:06:14.988
85296.492188, 94987.710938, 143340.078125, 165180.531250, 139523.078125, 93044.320313, 129541.320313, 150713.140625, 0.000, 0.000, 0.000,0.011845965,0.06336069,0.059909467,0.08463593,0.04598926, 16:06:14.989
85323.734375, 95017.148438, 143256.062500, 164875.718750, 139565.781250, 92945.750000, 129517.265625, 150767.109375, 0.000, 0.000, 0.000,0.011845965,0.06336069,0.059909467,0.08463593,0.04598926, 16:06:14.989
85223.039063, 94926.671875, 143488.968750, 165423.671875, 139544.468750, 93418.734375, 129775.226563, 150703.031250, 0.000, 0.000, 0.000,0.011845965,0.06336069,0.059909467,0.08463593,0.04598926, 16:06:14.989
85186.320313, 94889.859375, 143606.171875, 165795.562500, 139503.453125, 93578.281250, 129834.843750, 150646.296875, 0.174, 0.110, 0.972,0.011845965,0.06336069,0.059909467,0.08463593,0.04598926, 16:06:14.990
85285.226563, 94977.453125, 143385.812500, 165302.609375, 139519.203125, 93132.742188, 129586.289063, 150702.203125, 0.000, 0.000, 0.000,0.011845965,0.06336069,0.059909467,0.08463593,0.04598926, 16:06:14.990
85338.039063, 95029.867188, 143254.265625, 164871.093750, 139564.578125, 92907.031250, 129492.679688, 150764.953125, 0.000, 0.000, 0.000,0.011845965,0.06336069,0.059909467,0.08463593,0.04598926, 16:06:14.990
85243.265625, 94948.437500, 143466.828125, 165329.500000, 139548.843750, 93332.656250, 129731.601563, 150709.968750, 0.000, 0.000, 0.000,0.011845965,0.06336069,0.059909467,0.08463593,0.04598926, 16:06:14.990
85185.937500, 94891.312500, 143636.375000, 165820.296875, 139501.203125, 93602.929688, 129853.210938, 150643.718750, 0.000, 0.000, 0.000,0.011845965,0.06336069,0.059909467,0.08463593,0.04598926, 16:06:14.991
85273.085938, 94965.382813, 143440.171875, 165427.515625, 139511.500000, 93221.593750, 129632.554688, 150691.921875, 0.000, 0.000, 0.000,0.011845965,0.06336069,0.059909467,0.08463593,0.04598926, 16:06:14.991
85348.789063, 95038.851563, 143247.468750, 164869.859375, 139563.750000, 92884.101563, 129477.054688, 150770.828125, 0.000, 0.000, 0.000,0.011845965,0.06336069,0.059909467,0.08463593,0.04598926, 16:06:14.991
85268.054688, 94971.531250, 143412.390625, 165188.937500, 139567.578125, 93242.023438, 129692.375000, 150739.203125, 0.000, 0.000, 0.000,0.011845965,0.06336069,0.059909467,0.08463593,0.04598926, 16:06:14.992
85174.273438, 94882.500000, 143633.515625, 165779.500000, 139510.484375, 93605.437500, 129866.539063, 150653.031250, 0.000, 0.000, 0.000,0.011845965,0.06336069,0.059909467,0.08463593,0.04598926, 16:06:14.992
85233.031250, 94934.851563, 143500.906250, 165546.578125, 139501.343750, 93315.554688, 129688.750000, 150671.718750, 0.000, 0.000, 0.000,0.011845965,0.06336069,0.059909467,0.08463593,0.04598926, 16:06:14.992
85334.976563, 95029.421875, 143251.078125, 164897.781250, 139554.312500, 92890.250000, 129475.406250, 150760.078125, 0.178, 0.104, 0.974,0.011845965,0.06336069,0.059909467,0.08463593,0.04598926, 16:06:14.992
85278.984375, 94980.671875, 143364.281250, 165070.125000, 139567.125000, 93155.023438, 129640.382813, 150747.015625, 0.000, 0.000, 0.000,0.011845965,0.06336069,0.059909467,0.08463593,0.04598926, 16:06:14.992
85167.226563, 94883.265625, 143626.515625, 165728.250000, 139514.390625, 93594.414063, 129855.156250, 150653.796875, 0.000, 0.000, 0.000,0.011845965,0.06336069,0.059909467,0.08463593,0.04598926, 16:06:14.993
85224.648438, 94919.046875, 143551.953125, 165654.937500, 139504.750000, 93410.750000, 129733.007813, 150657.234375, 0.000, 0.000, 0.000,0.011845965,0.06336069,0.059909467,0.08463593,0.04598926, 16:06:14.993
85333.796875, 95016.281250, 143299.281250, 165005.203125, 139548.109375, 92934.726563, 129491.851563, 150739.171875, 0.000, 0.000, 0.000,0.011845965,0.06336069,0.059909467,0.08463593,0.04598926, 16:06:14.993
85299.125000, 94994.171875, 143338.312500, 165003.281250, 139567.656250, 93072.171875, 129595.210938, 150750.078125, 0.000, 0.000, 0.000,0.011845965,0.06336069,0.059909467,0.08463593,0.04598926, 16:06:14.994
85194.382813, 94899.539063, 143586.625000, 165634.625000, 139528.015625, 93544.882813, 129839.445313, 150676.656250, 0.000, 0.000, 0.000,0.011845965,0.06336069,0.059909467,0.08463593,0.04598926, 16:06:14.994
85203.460938, 94908.789063, 143579.484375, 165722.359375, 139499.843750, 93482.679688, 129773.578125, 150657.875000, 0.000, 0.000, 0.000,0.011845965,0.06336069,0.059909467,0.08463593,0.04598926, 16:06:14.995
85307.734375, 95004.812500, 143320.312500, 165088.906250, 139531.359375, 92989.843750, 129505.687500, 150734.015625, 0.000, 0.000, 0.000,0.011845965,0.06336069,0.059909467,0.08463593,0.04598926, 16:06:14.995
85308.156250, 95010.195313, 143290.296875, 164914.109375, 139572.140625, 92998.406250, 129544.601563, 150771.046875, 0.178, 0.106, 0.974,0.011845965,0.06336069,0.059909467,0.08463593,0.04598926, 16:06:14.995
85194.523438, 94908.187500, 143549.015625, 165530.484375, 139538.359375, 93487.734375, 129805.765625, 150691.171875, 0.000, 0.000, 0.000,0.011845965,0.06336069,0.059909467,0.08463593,0.04598926, 16:06:14.995
85186.562500, 94889.523438, 143606.437500, 165779.187500, 139500.109375, 93544.882813, 129807.210938, 150650.078125, 0.000, 0.000, 0.000,0.011845965,0.06336069,0.059909467,0.08463593,0.04598926, 16:06:14.995
85311.687500, 94991.062500, 143356.578125, 165199.750000, 139526.765625, 93065.242188, 129545.898438, 150722.250000, 0.000, 0.000, 0.000,0.011845965,0.06336069,0.059909467,0.08463593,0.04598926, 16:06:14.995
85336.476563, 95022.851563, 143278.156250, 164882.265625, 139571.156250, 92944.296875, 129516.820313, 150770.640625, 0.000, 0.000, 0.000,0.011845965,0.06336069,0.059909467,0.08463593,0.04598926, 16:06:14.996
85229.367188, 94933.937500, 143497.203125, 165402.484375, 139551.968750, 93403.937500, 129772.257813, 150709.687500, 0.000, 0.000, 0.000,0.011845965,0.06336069,0.059909467,0.08463593,0.04598926, 16:06:14.996
85182.632813, 94888.156250, 143625.875000, 165799.953125, 139510.671875, 93586.617188, 129843.718750, 150648.203125, 0.000, 0.000, 0.000,0.011845965,0.06336069,0.059909467,0.08463593,0.04598926, 16:06:14.996
85276.281250, 94977.453125, 143405.046875, 165324.046875, 139526.984375, 93152.679688, 129601.265625, 150701.250000, 0.000, 0.000, 0.000,0.011845965,0.06336069,0.059909467,0.08463593,0.04598926, 16:06:14.996
85326.796875, 95029.195313, 143261.687500, 164874.531250, 139571.578125, 92907.281250, 129498.179688, 150765.265625, 0.000, 0.000, 0.000,0.011845965,0.06336069,0.059909467,0.08463593,0.04598926, 16:06:14.996
85240.406250, 94951.484375, 143441.218750, 165290.453125, 139560.687500, 93314.820313, 129729.187500, 150721.031250, 0.000, 0.000, 0.000,0.011845965,0.06336069,0.059909467,0.08463593,0.04598926, 16:06:14.996
85166.156250, 94881.945313, 143621.828125, 165808.750000, 139508.296875, 93607.359375, 129864.148438, 150643.531250, 0.178, 0.110, 0.978,0.011845965,0.06336069,0.059909467,0.08463593,0.04598926, 16:06:14.996
85243.601563, 94956.015625, 143449.562500, 165465.671875, 139506.859375, 93245.570313, 129650.414063, 150679.562500, 0.000, 0.000, 0.000,0.011845965,0.06336069,0.059909467,0.08463593,0.04598926, 16:06:14.997
85331.421875, 95037.625000, 143244.609375, 164889.140625, 139555.843750, 92891.585938, 129479.648438, 150765.187500, 0.000, 0.000, 0.000,0.011845965,0.06336069,0.059909467,0.08463593,0.04598926, 16:06:14.997
85251.960938, 94968.757813, 143417.734375, 165207.968750, 139554.765625, 93236.945313, 129685.015625, 150729.546875, 0.000, 0.000, 0.000,0.011845965,0.06336069,0.059909467,0.08463593,0.04598926, 16:06:14.997
85169.398438, 94886.414063, 143629.406250, 165795.890625, 139511.687500, 93610.687500, 129868.148438, 150654.734375, 0.000, 0.000, 0.000,0.011845965,0.06336069,0.059909467,0.08463593,0.04598926, 16:06:14.997
85229.812500, 94938.789063, 143503.453125, 165585.312500, 139511.687500, 93339.007813, 129702.382813, 150676.718750, 0.000, 0.000, 0.000,0.011845965,0.06336069,0.059909467,0.08463593,0.04598926, 16:06:14.997
85325.789063, 95029.085938, 143268.906250, 164952.531250, 139558.500000, 92906.296875, 129482.132813, 150758.687500, 0.000, 0.000, 0.000,0.011845965,0.06336069,0.059909467,0.08463593,0.04598926, 16:06:14.997
85275.906250, 94986.171875, 143368.312500, 165092.796875, 139568.953125, 93140.835938, 129630.593750, 150748.343750, 0.000, 0.000, 0.000,0.011845965,0.06336069,0.059909467,0.08463593,0.04598926, 16:06:14.997
85171.054688, 94886.906250, 143599.468750, 165716.812500, 139521.218750, 93579.171875, 129849.617188, 150662.234375, 0.000, 0.000, 0.000,0.011845965,0.06336069,0.059909467,0.08463593,0.04598926, 16:06:14.998
85198.140625, 94916.429688, 143529.796875, 165663.453125, 139500.000000, 93418.507813, 129732.406250, 150659.140625, 0.174, 0.110, 0.974,0.011845965,0.06336069,0.059909467,0.08463593,0.04598926, 16:06:14.998
85311.328125, 95023.210938, 143258.250000, 164993.796875, 139541.781250, 92932.539063, 129477.796875, 150746.796875, 0.000, 0.000, 0.000,0.011845965,0.06336069,0.059909467,0.08463593,0.04598926, 16:06:14.998
85294.742188, 95010.578125, 143289.718750, 164958.937500, 139573.703125, 93047.132813, 129577.882813, 150763.250000, 0.000, 0.000, 0.000,0.011845965,0.06336069,0.059909467,0.08463593,0.04598926, 16:06:14.998
85185.710938, 94907.382813, 143559.343750, 165609.921875, 139531.093750, 93532.414063, 129832.156250, 150676.765625, 0.000, 0.000, 0.000,0.011845965,0.06336069,0.059909467,0.08463593,0.04598926, 16:06:14.998
85199.015625, 94913.484375, 143566.093750, 165729.343750, 139507.046875, 93493.476563, 129783.320313, 150659.062500, 0.000, 0.000, 0.000,0.011845965,0.06336069,0.059909467,0.08463593,0.04598926, 16:06:14.998
85307.640625, 95011.023438, 143314.484375, 165107.953125, 139538.781250, 92998.718750, 129517.468750, 150730.562500, 0.000, 0.000, 0.000,0.011845965,0.06336069,0.059909467,0.08463593,0.04598926, 16:06:14.999
85304.960938, 95013.398438, 143287.796875, 164919.750000, 139569.078125, 92980.906250, 129538.945313, 150759.765625, 0.000, 0.000, 0.000,0.011845965,0.06336069,0.059909467,0.08463593,0.04598926, 16:06:14.999
85198.562500, 94914.375000, 143548.593750, 165531.250000, 139538.734375, 93464.867188, 129799.976563, 150684.578125, 0.000, 0.000, 0.000,0.011845965,0.06336069,0.059909467,0.08463593,0.04598926, 16:06:14.999
85185.781250, 94892.921875, 143597.812500, 165788.828125, 139505.406250, 93538.695313, 129812.265625, 150648.312500, 0.000, 0.000, 0.000,0.011845965,0.06336069,0.059909467,0.08463593,0.04598926, 16:06:14.999
85290.476563, 94986.390625, 143347.281250, 165223.062500, 139527.359375, 93066.132813, 129547.953125, 150713.984375, 0.000, 0.000, 0.000,0.011845965,0.06336069,0.059909467,0.08463593,0.04598926, 16:06:14.999
85317.812500, 95016.726563, 143253.375000, 164873.593750, 139567.843750, 92920.312500, 129499.656250, 150768.703125, 0.174, 0.108, 0.972,0.011845965,0.06336069,0.059909467,0.08463593,0.04598926, 16:06:14.999
85213.226563, 94922.539063, 143489.500000, 165399.953125, 139542.562500, 93381.742188, 129755.718750, 150705.515625, 0.000, 0.000, 0.000,0.011845965,0.06336069,0.059909467,0.08463593,0.04598926, 16:06:14.999
85168.007813, 94879.328125, 143621.390625, 165815.406250, 139497.562500, 93583.375000, 129836.164063, 150644.875000, 0.000, 0.000, 0.000,0.011845965,0.06336069,0.059909467,0.08463593,0.04598926, 16:06:15.000
85263.320313, 94967.414063, 143401.796875, 165349.187500, 139515.656250, 93161.195313, 129595.234375, 150698.500000, 0.000, 0.000, 0.000,0.011845965,0.06336069,0.059909467,0.08463593,0.04598926, 16:06:15.000
85324.476563, 95026.132813, 143235.187500, 164850.921875, 139563.640625, 92888.234375, 129477.101563, 150769.500000, 0.000, 0.000, 0.000,0.011845965,0.06336069,0.059909467,0.08463593,0.04598926, 16:06:15.001
85236.898438, 94945.851563, 143430.937500, 165257.343750, 139553.828125, 93292.890625, 129710.273438, 150722.078125, 0.000, 0.000, 0.000,0.011845965,0.06336069,0.059909467,0.08463593,0.04598926, 16:06:15.002
85172.906250, 94882.257813, 143620.812500, 165788.562500, 139510.265625, 93605.953125, 129857.125000, 150650.500000, 0.000, 0.000, 0.000,0.011845965,0.06336069,0.059909467,0.08463593,0.04598926, 16:06:15.002
85247.335938, 94949.468750, 143466.718750, 165478.031250, 139511.218750, 93268.726563, 129654.617188, 150679.656250, 0.000, 0.000, 0.000,0.011845965,0.06336069,0.059909467,0.08463593,0.04598926, 16:06:15.003
85326.640625, 95024.664063, 143256.656250, 164896.453125, 139548.890625, 92892.039063, 129464.359375, 150756.656250, 0.000, 0.000, 0.000,0.011845965,0.06336069,0.059909467,0.08463593,0.04598926, 16:06:15.003
85244.718750, 94956.976563, 143395.125000, 165161.375000, 139547.796875, 93209.632813, 129654.375000, 150731.312500, 0.000, 0.000, 0.000,0.011845965,0.06336069,0.059909467,0.08463593,0.04598926, 16:06:15.003
85160.054688, 94874.125000, 143615.265625, 165763.343750, 139505.296875, 93607.898438, 129851.875000, 150655.562500, 0.168, 0.104, 0.974,0.011845965,0.06336069,0.059909467,0.08463593,0.04598926, 16:06:15.003
85227.242188, 94921.554688, 143502.468750, 165589.968750, 139495.531250, 93363.546875, 129694.296875, 150670.109375, 0.000, 0.000, 0.000,0.011845965,0.06336069,0.059909467,0.08463593,0.04598926, 16:06:15.004
85332.679688, 95015.539063, 143248.953125, 164933.984375, 139542.406250, 92913.468750, 129466.085938, 150755.312500, 0.000, 0.000, 0.000,0.011845965,0.06336069,0.059909467,0.08463593,0.04598926, 16:06:15.004
85283.164063, 94975.218750, 143335.359375, 165039.390625, 139559.281250, 93127.867188, 129612.125000, 150749.609375, 0.000, 0.000, 0.000,0.011845965,0.06336069,0.059909467,0.08463593,0.04598926, 16:06:15.004
85176.367188, 94877.789063, 143587.671875, 165687.234375, 139512.046875, 93582.171875, 129847.648438, 150662.171875, 0.000, 0.000, 0.000,0.011845965,0.06336069,0.059909467,0.08463593,0.04598926, 16:06:15.004
85210.078125, 94905.640625, 143533.984375, 165669.656250, 139497.765625, 93442.562500, 129747.046875, 150659.296875, 0.000, 0.000, 0.000,0.011845965,0.06336069,0.059909467,0.08463593,0.04598926, 16:06:15.005
85309.343750, 95001.664063, 143288.578125, 165027.593750, 139530.468750, 92956.187500, 129486.757813, 150732.656250, 0.000, 0.000, 0.000,0.011845965,0.06336069,0.059909467,0.08463593,0.04598926, 16:06:15.006
85301.164063, 94997.953125, 143302.531250, 164956.250000, 139566.515625, 93042.531250, 129568.093750, 150761.421875, 0.000, 0.000, 0.000,0.011845965,0.06336069,0.059909467,0.08463593,0.04598926, 16:06:15.006
85206.500000, 94907.156250, 143554.468750, 165583.421875, 139536.078125, 93526.648438, 129827.781250, 150688.734375, 0.000, 0.000, 0.000,0.011845965,0.06336069,0.059909467,0.08463593,0.04598926, 16:06:15.006
85201.179688, 94896.765625, 143578.796875, 165741.578125, 139497.500000, 93513.367188, 129790.007813, 150654.000000, 0.170, 0.100, 0.978,0.011845965,0.06336069,0.059909467,0.08463593,0.04598926, 16:06:15.006
85305.070313, 94989.609375, 143326.953125, 165131.796875, 139522.984375, 93021.523438, 129519.257813, 150724.921875, 0.000, 0.000, 0.000,0.009289634,0.05305161,0.05160594,0.072184466,0.039847802, 16:06:15.007
85321.812500, 95007.898438, 143279.640625, 164901.484375, 139565.875000, 92979.007813, 129531.843750, 150769.531250, 0.000, 0.000, 0.000,0.009289634,0.05305161,0.05160594,0.072184466,0.039847802, 16:06:15.007
85214.703125, 94913.843750, 143529.390625, 165490.406250, 139536.953125, 93461.132813, 129793.046875, 150696.484375, 0.000, 0.000, 0.000,0.009289634,0.05305161,0.05160594,0.072184466,0.039847802, 16:06:15.007
85197.898438, 94890.375000, 143612.125000, 165795.015625, 139498.375000, 93569.742188, 129824.468750, 150649.968750, 0.000, 0.000, 0.000,0.009289634,0.05305161,0.05160594,0.072184466,0.039847802, 16:06:15.008
85307.710938, 94987.687500, 143371.234375, 165250.734375, 139523.578125, 93107.171875, 129569.523438, 150715.843750, 0.000, 0.000, 0.000,0.009289634,0.05305161,0.05160594,0.072184466,0.039847802, 16:06:15.008
85349.195313, 95031.789063, 143249.218750, 164855.671875, 139573.875000, 92932.421875, 129509.492188, 150784.593750, 0.000, 0.000, 0.000,0.009289634,0.05305161,0.05160594,0.072184466,0.039847802, 16:06:15.008
85247.203125, 94939.429688, 143472.687500, 165356.343750, 139558.234375, 93382.835938, 129765.437500, 150726.609375, 0.000, 0.000, 0.000,0.009289634,0.05305161,0.05160594,0.072184466,0.039847802, 16:06:15.009
85193.562500, 94886.859375, 143628.343750, 165811.312500, 139507.203125, 93608.921875, 129860.257813, 150656.703125, 0.000, 0.000, 0.000,0.009289634,0.05305161,0.05160594,0.072184466,0.039847802, 16:06:15.009
85271.007813, 94962.257813, 143437.703125, 165398.093750, 139516.203125, 93204.289063, 129630.546875, 150701.171875, 0.000, 0.000, 0.000,0.009289634,0.05305161,0.05160594,0.072184466,0.039847802, 16:06:15.010
85345.570313, 95033.445313, 143258.859375, 164881.593750, 139563.078125, 92907.484375, 129490.671875, 150777.281250, 0.174, 0.104, 0.972,0.009289634,0.05305161,0.05160594,0.072184466,0.039847802, 16:06:15.010
85266.179688, 94963.039063, 143439.187500, 165257.500000, 139555.843750, 93297.203125, 129710.367188, 150736.406250, 0.000, 0.000, 0.000,0.009289634,0.05305161,0.05160594,0.072184466,0.039847802, 16:06:15.010
85188.976563, 94890.617188, 143632.031250, 165800.109375, 139507.781250, 93625.484375, 129861.687500, 150658.546875, 0.000, 0.000, 0.000,0.009289634,0.05305161,0.05160594,0.072184466,0.039847802, 16:06:15.011
85267.007813, 94953.585938, 143476.671875, 165505.593750, 139506.640625, 93298.773438, 129668.320313, 150686.843750, 0.000, 0.000, 0.000,0.009289634,0.05305161,0.05160594,0.072184466,0.039847802, 16:06:15.011
85355.187500, 95033.601563, 143264.015625, 164909.640625, 139551.187500, 92907.257813, 129477.078125, 150765.421875, 0.000, 0.000, 0.000,0.009289634,0.05305161,0.05160594,0.072184466,0.039847802, 16:06:15.011
85286.007813, 94970.125000, 143406.390625, 165153.140625, 139560.515625, 93207.796875, 129664.546875, 150742.109375, 0.000, 0.000, 0.000,0.009289634,0.05305161,0.05160594,0.072184466,0.039847802, 16:06:15.012
85193.601563, 94882.703125, 143641.875000, 165770.718750, 139514.515625, 93614.265625, 129867.031250, 150662.531250, 0.000, 0.000, 0.000,0.009289634,0.05305161,0.05160594,0.072184466,0.039847802, 16:06:15.012
85237.679688, 94925.242188, 143545.328125, 165633.625000, 139502.234375, 93389.070313, 129721.828125, 150675.156250, 0.000, 0.000, 0.000,0.009289634,0.05305161,0.05160594,0.072184466,0.039847802, 16:06:15.012
85336.968750, 95022.156250, 143286.906250, 164976.859375, 139547.015625, 92928.468750, 129481.507813, 150763.515625, 0.000, 0.000, 0.000,0.009289634,0.05305161,0.05160594,0.072184466,0.039847802, 16:06:15.012
85307.976563, 94997.390625, 143353.156250, 165041.250000, 139569.515625, 93116.914063, 129611.281250, 150767.187500, 0.176, 0.110, 0.976,0.009289634,0.05305161,0.05160594,0.072184466,0.039847802, 16:06:15.013
85210.367188, 94902.375000, 143610.875000, 165685.937500, 139521.375000, 93577.562500, 129845.078125, 150679.703125, 0.000, 0.000, 0.000,0.009289634,0.05305161,0.05160594,0.072184466,0.039847802, 16:06:15.013
85236.453125, 94913.148438, 143575.843750, 165709.406250, 139496.765625, 93462.789063, 129753.367188, 150664.515625, 0.000, 0.000, 0.000,0.009289634,0.05305161,0.05160594,0.072184466,0.039847802, 16:06:15.013
85349.218750, 95016.031250, 143312.812500, 165062.984375, 139533.593750, 92971.828125, 129493.421875, 150743.578125, 0.000, 0.000, 0.000,0.009289634,0.05305161,0.05160594,0.072184466,0.039847802, 16:06:15.014
85336.187500, 95011.875000, 143314.265625, 164960.984375, 139565.671875, 93031.843750, 129562.015625, 150771.765625, 0.000, 0.000, 0.000,0.009289634,0.05305161,0.05160594,0.072184466,0.039847802, 16:06:15.014
85228.671875, 94913.375000, 143566.453125, 165581.156250, 139534.890625, 93517.953125, 129824.445313, 150696.625000, 0.000, 0.000, 0.000,0.009289634,0.05305161,0.05160594,0.072184466,0.039847802, 16:06:15.014
85223.648438, 94905.187500, 143608.640625, 165775.125000, 139497.984375, 93531.406250, 129802.164063, 150662.984375, 0.000, 0.000, 0.000,0.009289634,0.05305161,0.05160594,0.072184466,0.039847802, 16:06:15.014
85333.500000, 95001.484375, 143341.781250, 165157.859375, 139525.968750, 93037.343750, 129528.937500, 150738.375000, 0.000, 0.000, 0.000,0.009289634,0.05305161,0.05160594,0.072184466,0.039847802, 16:06:15.014
85343.804688, 95015.273438, 143289.343750, 164901.750000, 139565.812500, 92969.218750, 129528.890625, 150777.578125, 0.000, 0.000, 0.000,0.009289634,0.05305161,0.05160594,0.072184466,0.039847802, 16:06:15.014
85237.210938, 94919.335938, 143538.453125, 165477.218750, 139544.265625, 93446.851563, 129794.203125, 150706.937500, 0.000, 0.000, 0.000,0.009289634,0.05305161,0.05160594,0.072184466,0.039847802, 16:06:15.015
85202.453125, 94889.679688, 143628.546875, 165807.312500, 139502.421875, 93575.640625, 129833.921875, 150655.921875, 0.172, 0.114, 0.974,0.009289634,0.05305161,0.05160594,0.072184466,0.039847802, 16:06:15.015
85308.000000, 94989.679688, 143391.906250, 165279.953125, 139523.406250, 93118.773438, 129578.023438, 150717.406250, 0.000, 0.000, 0.000,0.00326117,0.016270248,0.01738407,0.02670902,0.016239645, 16:06:15.460
85364.078125, 95042.585938, 143272.906250, 164872.781250, 139568.890625, 92921.140625, 129501.039063, 150777.984375, 0.000, 0.000, 0.000,0.00326117,0.016270248,0.01738407,0.02670902,0.016239645, 16:06:15.460
85273.062500, 94962.140625, 143491.421875, 165350.406250, 139557.218750, 93363.593750, 129753.414063, 150725.781250, 0.000, 0.000, 0.000,0.00326117,0.016270248,0.01738407,0.02670902,0.016239645, 16:06:15.460
85213.632813, 94899.203125, 143639.906250, 165804.609375, 139511.343750, 93607.804688, 129860.906250, 150661.906250, 0.000, 0.000, 0.000,0.00326117,0.016270248,0.01738407,0.02670902,0.016239645, 16:06:15.460
85294.968750, 94968.851563, 143439.093750, 165395.031250, 139506.906250, 93211.601563, 129625.046875, 150704.593750, 0.000, 0.000, 0.000,0.00326117,0.016270248,0.01738407,0.02670902,0.016239645, 16:06:15.461
85359.765625, 95033.218750, 143260.500000, 164867.578125, 139553.359375, 92898.453125, 129480.968750, 150775.343750, 0.000, 0.000, 0.000,0.00326117,0.016270248,0.01738407,0.02670902,0.016239645, 16:06:15.461
85277.203125, 94962.140625, 143433.687500, 165221.250000, 139555.390625, 93269.867188, 129701.203125, 150737.640625, 0.000, 0.000, 0.000,0.00326117,0.016270248,0.01738407,0.02670902,0.016239645, 16:06:15.461
85198.140625, 94888.117188, 143635.015625, 165783.531250, 139513.078125, 93614.312500, 129868.257813, 150663.093750, 0.000, 0.000, 0.000,0.00326117,0.016270248,0.01738407,0.02670902,0.016239645, 16:06:15.461
85265.351563, 94946.671875, 143489.187500, 165522.468750, 139511.515625, 93307.242188, 129684.015625, 150690.250000, 0.166, 0.110, 0.978,0.00326117,0.016270248,0.01738407,0.02670902,0.016239645, 16:06:15.461
85359.945313, 95034.562500, 143259.640625, 164904.281250, 139562.437500, 92899.789063, 129481.976563, 150776.062500, 0.000, 0.000, 0.000,0.00326117,0.016270248,0.01738407,0.02670902,0.016239645, 16:06:15.461
85300.757813, 94982.546875, 143382.093750, 165106.203125, 139575.375000, 93179.257813, 129656.679688, 150759.250000, 0.000, 0.000, 0.000,0.00326117,0.016270248,0.01738407,0.02670902,0.016239645, 16:06:15.461
85198.632813, 94892.875000, 143625.906250, 165733.953125, 139530.796875, 93603.226563, 129869.914063, 150677.171875, 0.000, 0.000, 0.000,0.00326117,0.016270248,0.01738407,0.02670902,0.016239645, 16:06:15.462
85245.125000, 94930.898438, 143547.453125, 165635.156250, 139512.359375, 93401.078125, 129733.765625, 150680.390625, 0.000, 0.000, 0.000,0.00326117,0.016270248,0.01738407,0.02670902,0.016239645, 16:06:15.462
85356.882813, 95029.335938, 143289.765625, 164976.296875, 139555.453125, 92934.906250, 129489.281250, 150769.906250, 0.000, 0.000, 0.000,0.00326117,0.016270248,0.01738407,0.02670902,0.016239645, 16:06:15.462
85321.906250, 94999.851563, 143343.000000, 165002.265625, 139576.156250, 93097.921875, 129604.929688, 150781.750000, 0.000, 0.000, 0.000,0.00326117,0.016270248,0.01738407,0.02670902,0.016239645, 16:06:15.462
85214.656250, 94903.070313, 143596.093750, 165640.921875, 139537.484375, 93568.578125, 129846.421875, 150702.187500, 0.000, 0.000, 0.000,0.00326117,0.016270248,0.01738407,0.02670902,0.016239645, 16:06:15.462
85222.664063, 94906.578125, 143583.218750, 165707.312500, 139506.546875, 93483.218750, 129767.921875, 150678.734375, 0.000, 0.000, 0.000,0.00326117,0.016270248,0.01738407,0.02670902,0.016239645, 16:06:15.462
85328.718750, 95006.664063, 143321.437500, 165070.468750, 139541.750000, 92991.773438, 129502.289063, 150757.906250, 0.000, 0.000, 0.000,0.00326117,0.016270248,0.01738407,0.02670902,0.016239645, 16:06:15.463
85331.984375, 95010.468750, 143307.671875, 164931.109375, 139578.078125, 93029.500000, 129552.851563, 150793.796875, 0.166, 0.112, 0.980,0.00326117,0.016270248,0.01738407,0.02670902,0.016239645, 16:06:15.463
85225.007813, 94913.976563, 143565.296875, 165546.515625, 139542.781250, 93516.765625, 129810.789063, 150713.062500, 0.000, 0.000, 0.000,0.00326117,0.016270248,0.01738407,0.02670902,0.016239645, 16:06:15.463
85215.242188, 94901.054688, 143613.234375, 165762.343750, 139504.562500, 93551.570313, 129799.882813, 150671.671875, 0.000, 0.000, 0.000,0.00326117,0.016270248,0.01738407,0.02670902,0.016239645, 16:06:15.463
85326.929688, 94998.796875, 143372.890625, 165184.750000, 139533.156250, 93070.601563, 129539.328125, 150738.546875, 0.000, 0.000, 0.000,0.00326117,0.016270248,0.01738407,0.02670902,0.016239645, 16:06:15.463
85352.750000, 95027.859375, 143298.015625, 164893.156250, 139577.390625, 92969.640625, 129522.500000, 150783.953125, 0.000, 0.000, 0.000,0.00326117,0.016270248,0.01738407,0.02670902,0.016239645, 16:06:15.463
85245.843750, 94930.359375, 143521.812500, 165434.062500, 139549.218750, 93429.820313, 129779.390625, 150711.437500, 0.000, 0.000, 0.000,0.00326117,0.016270248,0.01738407,0.02670902,0.016239645, 16:06:15.463
85202.882813, 94891.179688, 143632.906250, 165797.203125, 139501.718750, 93587.312500, 129836.945313, 150654.328125, 0.000, 0.000, 0.000,0.00326117,0.016270248,0.01738407,0.02670902,0.016239645, 16:06:15.464
85294.140625, 94977.117188, 143426.640625, 165321.406250, 139512.812500, 93147.875000, 129587.406250, 150703.796875, 0.000, 0.000, 0.000,0.00326117,0.016270248,0.01738407,0.02670902,0.016239645, 16:06:15.464
85348.523438, 95032.664063, 143283.140625, 164875.062500, 139562.546875, 92918.570313, 129492.007813, 150771.140625, 0.000, 0.000, 0.000,0.00326117,0.016270248,0.01738407,0.02670902,0.016239645, 16:06:15.464
85260.234375, 94954.992188, 143483.375000, 165317.765625, 139553.984375, 93344.992188, 129737.343750, 150723.546875, 0.000, 0.000, 0.000,0.00326117,0.016270248,0.01738407,0.02670902,0.016239645, 16:06:15.464
85205.093750, 94902.976563, 143646.750000, 165796.937500, 139509.500000, 93612.882813, 129861.906250, 150658.781250, 0.162, 0.118, 0.970,0.00326117,0.016270248,0.01738407,0.02670902,0.016239645, 16:06:15.464
85289.265625, 94976.851563, 143470.328125, 165423.437500, 139516.609375, 93239.000000, 129645.632813, 150700.656250, 0.000, 0.000, 0.000,0.00326117,0.016270248,0.01738407,0.02670902,0.016239645, 16:06:15.465
85363.320313, 95048.109375, 143279.390625, 164869.968750, 139565.656250, 92901.000000, 129485.437500, 150776.906250, 0.000, 0.000, 0.000,0.00326117,0.016270248,0.01738407,0.02670902,0.016239645, 16:06:15.466
85280.710938, 94969.187500, 143446.140625, 165194.828125, 139566.046875, 93253.734375, 129693.890625, 150741.187500, 0.000, 0.000, 0.000,0.00326117,0.016270248,0.01738407,0.02670902,0.016239645, 16:06:15.467
85205.945313, 94891.179688, 143651.921875, 165769.156250, 139526.531250, 93618.578125, 129875.609375, 150669.171875, 0.000, 0.000, 0.000,0.00326117,0.016270248,0.01738407,0.02670902,0.016239645, 16:06:15.467
85260.460938, 94937.218750, 143521.234375, 165538.312500, 139512.750000, 93332.476563, 129698.765625, 150687.359375, 0.000, 0.000, 0.000,0.00326117,0.016270248,0.01738407,0.02670902,0.016239645, 16:06:15.467
85348.773438, 95023.382813, 143298.328125, 164923.453125, 139552.984375, 92909.109375, 129482.000000, 150769.796875, 0.000, 0.000, 0.000,0.00326117,0.016270248,0.01738407,0.02670902,0.016239645, 16:06:15.467
85299.218750, 94982.257813, 143406.593750, 165090.562500, 139571.734375, 93165.242188, 129648.648438, 150763.312500, 0.000, 0.000, 0.000,0.00326117,0.016270248,0.01738407,0.02670902,0.016239645, 16:06:15.468
85199.750000, 94891.156250, 143659.437500, 165731.609375, 139524.390625, 93602.195313, 129871.382813, 150677.937500, 0.000, 0.000, 0.000,0.00326117,0.016270248,0.01738407,0.02670902,0.016239645, 16:06:15.468
85235.492188, 94919.226563, 143596.968750, 165672.484375, 139504.921875, 93425.101563, 129748.851563, 150673.937500, 0.168, 0.116, 0.970,0.00326117,0.016270248,0.01738407,0.02670902,0.016239645, 16:06:15.468
85337.304688, 95015.789063, 143341.156250, 165028.406250, 139539.656250, 92947.179688, 129494.109375, 150751.062500, 0.000, 0.000, 0.000,0.00326117,0.016270248,0.01738407,0.02670902,0.016239645, 16:06:15.468
85312.828125, 95002.109375, 143356.468750, 165004.296875, 139571.859375, 93077.492188, 129597.890625, 150774.562500, 0.000, 0.000, 0.000,0.00326117,0.016270248,0.01738407,0.02670902,0.016239645, 16:06:15.468
85210.078125, 94909.546875, 143611.343750, 165638.921875, 139539.140625, 93561.984375, 129856.632813, 150702.406250, 0.000, 0.000, 0.000,0.00326117,0.016270248,0.01738407,0.02670902,0.016239645, 16:06:15.468
85209.632813, 94907.000000, 143608.875000, 165732.390625, 139501.968750, 93504.320313, 129793.757813, 150679.593750, 0.000, 0.000, 0.000,0.00326117,0.016270248,0.01738407,0.02670902,0.016239645, 16:06:15.469
85329.796875, 95009.039063, 143336.281250, 165088.390625, 139535.625000, 93009.046875, 129523.570313, 150759.625000, 0.000, 0.000, 0.000,0.00326117,0.016270248,0.01738407,0.02670902,0.016239645, 16:06:15.469
85332.992188, 95013.328125, 143319.812500, 164928.546875, 139572.484375, 93021.632813, 129563.695313, 150788.390625, 0.000, 0.000, 0.000,0.00326117,0.016270248,0.01738407,0.02670902,0.016239645, 16:06:15.469
85226.460938, 94922.625000, 143566.906250, 165525.218750, 139548.015625, 93501.726563, 129823.421875, 150714.484375, 0.000, 0.000, 0.000,0.00326117,0.016270248,0.01738407,0.02670902,0.016239645, 16:06:15.469
85212.492188, 94906.640625, 143623.921875, 165767.218750, 139510.390625, 93559.546875, 129826.976563, 150674.687500, 0.000, 0.000, 0.000,0.00326117,0.016270248,0.01738407,0.02670902,0.016239645, 16:06:15.469
85308.070313, 94991.265625, 143387.421875, 165208.359375, 139527.093750, 93083.007813, 129558.218750, 150733.812500, 0.000, 0.000, 0.000,0.00326117,0.016270248,0.01738407,0.02670902,0.016239645, 16:06:15.469
85334.953125, 95019.921875, 143292.625000, 164874.984375, 139569.546875, 92955.132813, 129519.835938, 150786.734375, 0.170, 0.122, 0.978,0.00326117,0.016270248,0.01738407,0.02670902,0.016239645, 16:06:15.469
