%OpenBCI Raw EEG Data
%
%Sample Rate = 250.0 Hz
%First Column = SampleIndex
%5 Columns before Timestamp are Frequency Power factors DELTA THETA ALPHA BETA GAMMA
%Last Column = Timestamp 
%Other Columns = EEG data in microvolts followed by Accel Data (in G) interleaved with Aux Data
, 0.000000, 0.000000, 0.000000, 0.000000, 0.000000, 0.000000, 0.000000, 0.000000, 0.000, 0.000, 0.000,0.0,0.0,0.0,0.0,0.0, 21:52:18.286
, 73.321075, 90.098114, 154.326096, 146.029892, 105.261826, 71.072708, 90.785538, 90.216354, 0.310, 0.382, 0.862,0.0,0.0,0.0,0.0,0.0, 21:52:18.300
, 73.278961, 90.054993, 154.285675, 146.142792, 105.212425, 71.124481, 90.749733, 90.303551, 0.000, 0.000, 0.000,0.0,0.0,0.0,0.0,0.0, 21:52:18.778
, 73.318680, 90.092926, 154.332825, 145.979080, 105.248482, 71.003708, 90.678406, 90.167404, 0.000, 0.000, 0.000,0.0,0.0,0.0,0.0,0.0, 21:52:18.779
, 73.364037, 90.142815, 154.378616, 145.859360, 105.300224, 70.947586, 90.719360, 90.075516, 0.000, 0.000, 0.000,0.0,0.0,0.0,0.0,0.0, 21:52:18.779
, 73.321785, 90.104103, 154.335526, 145.991333, 105.268265, 71.048462, 90.773422, 90.188774, 0.000, 0.000, 0.000,0.0,0.0,0.0,0.0,0.0, 21:52:18.780
, 73.273911, 90.054932, 154.290024, 146.132278, 105.224388, 71.128525, 90.770248, 90.305939, 0.000, 0.000, 0.000,0.0,0.0,0.0,0.0,0.0, 21:52:18.781
, 73.316673, 90.097618, 154.332535, 146.007889, 105.249016, 71.028252, 90.712341, 90.201935, 0.308, 0.338, 0.874,0.0,0.0,0.0,0.0,0.0, 21:52:18.781
, 73.365845, 90.148720, 154.373428, 145.858444, 105.303581, 70.946335, 90.729568, 90.086220, 0.000, 0.000, 0.000,0.0,0.0,0.0,0.0,0.0, 21:52:18.781
, 73.329071, 90.115036, 154.338257, 145.955597, 105.287666, 71.027496, 90.770233, 90.175072, 0.000, 0.000, 0.000,0.0,0.0,0.0,0.0,0.0, 21:52:18.782
, 73.285217, 90.073418, 154.293442, 146.114822, 105.239967, 71.119385, 90.767883, 90.305893, 0.000, 0.000, 0.000,0.0,0.0,0.0,0.0,0.0, 21:52:18.782
, 73.316444, 90.097328, 154.317825, 146.044815, 105.237350, 71.046539, 90.709435, 90.239059, 0.000, 0.000, 0.000,0.0,0.0,0.0,0.0,0.0, 21:52:18.782
, 73.374603, 90.157143, 154.378159, 145.866608, 105.297211, 70.942894, 90.717880, 90.094200, 0.000, 0.000, 0.000,0.0,0.0,0.0,0.0,0.0, 21:52:18.783
, 73.344925, 90.130547, 154.348892, 145.923691, 105.290123, 70.997429, 90.784828, 90.147911, 0.000, 0.000, 0.000,0.0,0.0,0.0,0.0,0.0, 21:52:18.784
, 73.295212, 90.080345, 154.301620, 146.090378, 105.242897, 71.104538, 90.793053, 90.285446, 0.000, 0.000, 0.000,0.0,0.0,0.0,0.0,0.0, 21:52:18.784
, 73.303635, 90.088188, 154.315796, 146.077362, 105.242424, 71.072487, 90.728653, 90.263916, 0.000, 0.000, 0.000,0.0,0.0,0.0,0.0,0.0, 21:52:18.785
, 73.361839, 90.149544, 154.376404, 145.887665, 105.305527, 70.949371, 90.721725, 90.103989, 0.000, 0.000, 0.000,0.0,0.0,0.0,0.0,0.0, 21:52:18.785
, 73.349525, 90.137985, 154.359711, 145.912613, 105.299759, 70.979568, 90.774521, 90.130638, 0.316, 0.316, 0.882,0.0,0.0,0.0,0.0,0.0, 21:52:18.786
, 73.279747, 90.074440, 154.291611, 146.079346, 105.225906, 71.093094, 90.775887, 90.271744, 0.000, 0.000, 0.000,0.0,0.0,0.0,0.0,0.0, 21:52:18.787
, 73.271675, 90.074799, 154.285278, 146.102066, 105.210396, 71.090416, 90.723869, 90.287117, 0.000, 0.000, 0.000,0.0,0.0,0.0,0.0,0.0, 21:52:18.787
, 73.343826, 90.142235, 154.355423, 145.914993, 105.275528, 70.962830, 90.696693, 90.129066, 0.000, 0.000, 0.000,0.0,0.0,0.0,0.0,0.0, 21:52:18.788
, 73.357956, 90.153542, 154.367065, 145.875839, 105.301682, 70.959274, 90.744591, 90.099541, 0.000, 0.000, 0.000,0.0,0.0,0.0,0.0,0.0, 21:52:18.788
, 73.310966, 90.104996, 154.315567, 146.045349, 105.261047, 71.081581, 90.789070, 90.245720, 0.000, 0.000, 0.000,0.0,0.0,0.0,0.0,0.0, 21:52:18.789
, 73.289017, 90.084969, 154.290939, 146.119583, 105.227295, 71.110573, 90.752594, 90.305763, 0.000, 0.000, 0.000,0.0,0.0,0.0,0.0,0.0, 21:52:18.789
, 73.353569, 90.149185, 154.355728, 145.937393, 105.281204, 70.975189, 90.706329, 90.150078, 0.000, 0.000, 0.000,0.0,0.0,0.0,0.0,0.0, 21:52:18.790
, 73.369171, 90.164009, 154.366333, 145.869308, 105.300941, 70.939049, 90.745461, 90.095741, 0.000, 0.000, 0.000,0.0,0.0,0.0,0.0,0.0, 21:52:18.795
, 73.304199, 90.105377, 154.303894, 146.004288, 105.247452, 71.031204, 90.767059, 90.210159, 0.000, 0.000, 0.000,0.0,0.0,0.0,0.0,0.0, 21:52:18.795
, 73.276459, 90.076790, 154.280670, 146.119064, 105.223763, 71.092896, 90.762207, 90.302963, 0.318, 0.310, 0.884,0.0,0.0,0.0,0.0,0.0, 21:52:18.796
, 73.357262, 90.156784, 154.359131, 145.969452, 105.280960, 70.988266, 90.728653, 90.176704, 0.000, 0.000, 0.000,0.0,0.0,0.0,0.0,0.0, 21:52:18.796
, 73.383949, 90.182716, 154.385620, 145.873093, 105.316162, 70.940613, 90.756660, 90.107414, 0.000, 0.000, 0.000,0.0,0.0,0.0,0.0,0.0, 21:52:18.797
, 73.351692, 90.149719, 154.355896, 146.001297, 105.296425, 71.039116, 90.802032, 90.221382, 0.000, 0.000, 0.000,0.0,0.0,0.0,0.0,0.0, 21:52:18.797
, 73.311531, 90.107788, 154.311035, 146.150650, 105.246674, 71.123672, 90.790588, 90.340179, 0.000, 0.000, 0.000,0.0,0.0,0.0,0.0,0.0, 21:52:18.797
, 73.353996, 90.152229, 154.353806, 146.036728, 105.269157, 71.027832, 90.718842, 90.235863, 0.000, 0.000, 0.000,0.0,0.0,0.0,0.0,0.0, 21:52:18.798
, 73.397850, 90.195030, 154.393951, 145.880569, 105.324631, 70.936768, 90.723289, 90.106918, 0.000, 0.000, 0.000,0.0,0.0,0.0,0.0,0.0, 21:52:18.798
, 73.366806, 90.179207, 154.361481, 145.960846, 105.304787, 71.010551, 90.773720, 90.180946, 0.000, 0.000, 0.000,0.0,0.0,0.0,0.0,0.0, 21:52:18.798
, 73.304352, 90.121826, 154.300262, 146.129242, 105.243271, 71.114624, 90.782234, 90.319839, 0.000, 0.000, 0.000,0.0,0.0,0.0,0.0,0.0, 21:52:18.798
, 73.334038, 90.152809, 154.332687, 146.057037, 105.263168, 71.044930, 90.737885, 90.252945, 0.320, 0.308, 0.890,0.0,0.0,0.0,0.0,0.0, 21:52:18.799
, 73.396446, 90.217407, 154.391357, 145.874878, 105.311668, 70.934822, 90.736656, 90.106491, 0.000, 0.000, 0.000,0.0,0.0,0.0,0.0,0.0, 21:52:18.799
, 73.355782, 90.176346, 154.343445, 145.933624, 105.274788, 70.979546, 90.770744, 90.158638, 0.000, 0.000, 0.000,0.0,0.0,0.0,0.0,0.0, 21:52:18.799
, 73.303482, 90.124603, 154.291092, 146.101501, 105.229370, 71.085968, 90.778900, 90.295143, 0.000, 0.000, 0.000,0.0,0.0,0.0,0.0,0.0, 21:52:18.799
, 73.323868, 90.144608, 154.313873, 146.088943, 105.242355, 71.063164, 90.743408, 90.284081, 0.000, 0.000, 0.000,0.0,0.0,0.0,0.0,0.0, 21:52:18.800
, 73.374695, 90.199280, 154.362106, 145.896149, 105.295509, 70.933502, 90.713341, 90.124397, 0.000, 0.000, 0.000,0.0,0.0,0.0,0.0,0.0, 21:52:18.800
, 73.362602, 90.191902, 154.343124, 145.898407, 105.288086, 70.953354, 90.740700, 90.135353, 0.000, 0.000, 0.000,0.0,0.0,0.0,0.0,0.0, 21:52:18.800
, 73.314880, 90.139931, 154.293579, 146.073471, 105.250519, 71.069160, 90.775658, 90.282043, 0.000, 0.000, 0.000,0.0,0.0,0.0,0.0,0.0, 21:52:18.800
, 73.319237, 90.144333, 154.300095, 146.105698, 105.237282, 71.068398, 90.747276, 90.302765, 0.000, 0.000, 0.000,0.0,0.0,0.0,0.0,0.0, 21:52:18.800
, 73.388618, 90.212578, 154.369339, 145.910767, 105.291374, 70.938553, 90.719650, 90.141029, 0.000, 0.000, 0.000,0.0,0.0,0.0,0.0,0.0, 21:52:18.801
, 73.383705, 90.212173, 154.362122, 145.887817, 105.294685, 70.935402, 90.758942, 90.125404, 0.326, 0.300, 0.886,0.0,0.0,0.0,0.0,0.0, 21:52:18.801
, 73.344337, 90.175468, 154.320724, 146.037216, 105.248680, 71.043388, 90.786949, 90.249657, 0.000, 0.000, 0.000,0.0,0.0,0.0,0.0,0.0, 21:52:18.801
, 73.316803, 90.141586, 154.295334, 146.124573, 105.213745, 71.082146, 90.747612, 90.317787, 0.000, 0.000, 0.000,0.0,0.0,0.0,0.0,0.0, 21:52:18.802
, 73.379593, 90.207146, 154.356430, 145.953674, 105.268127, 70.962341, 90.702950, 90.173325, 0.000, 0.000, 0.000,0.0,0.0,0.0,0.0,0.0, 21:52:18.802
, 73.417946, 90.243507, 154.392731, 145.875854, 105.326019, 70.935966, 90.758804, 90.121223, 0.000, 0.000, 0.000,0.0,0.0,0.0,0.0,0.0, 21:52:18.802
, 73.375877, 90.203125, 154.349808, 146.005508, 105.296021, 71.032364, 90.810951, 90.233498, 0.000, 0.000, 0.000,0.0,0.0,0.0,0.0,0.0, 21:52:18.803
, 73.327484, 90.156136, 154.299500, 146.120270, 105.224609, 71.087822, 90.773468, 90.312714, 0.000, 0.000, 0.000,0.0,0.0,0.0,0.0,0.0, 21:52:18.803
, 73.388840, 90.216980, 154.361389, 145.977722, 105.262901, 70.980171, 90.712807, 90.181259, 0.000, 0.000, 0.000,0.0,0.0,0.0,0.0,0.0, 21:52:18.803
, 73.407280, 90.240784, 154.381073, 145.870972, 105.303337, 70.919739, 90.744209, 90.114517, 0.000, 0.000, 0.000,0.0,0.0,0.0,0.0,0.0, 21:52:18.804
, 73.369125, 90.205292, 154.342682, 145.984909, 105.273155, 71.010193, 90.786278, 90.217201, 0.328, 0.302, 0.882,0.0,0.0,0.0,0.0,0.0, 21:52:18.804
, 73.324539, 90.160027, 154.297104, 146.128677, 105.223717, 71.092514, 90.777290, 90.329788, 0.000, 0.000, 0.000,0.0,0.0,0.0,0.0,0.0, 21:52:18.810
, 73.358063, 90.193306, 154.332962, 146.020386, 105.250244, 71.003242, 90.710571, 90.229385, 0.000, 0.000, 0.000,0.0,0.0,0.0,0.0,0.0, 21:52:18.811
, 73.418503, 90.251801, 154.390961, 145.861710, 105.314194, 70.912384, 90.725349, 90.097443, 0.000, 0.000, 0.000,0.0,0.0,0.0,0.0,0.0, 21:52:18.811
, 73.380905, 90.219620, 154.350342, 145.936050, 105.279526, 70.975327, 90.768913, 90.160408, 0.000, 0.000, 0.000,0.0,0.0,0.0,0.0,0.0, 21:52:18.811
, 73.316490, 90.156761, 154.287354, 146.107117, 105.206955, 71.080666, 90.758385, 90.302811, 0.000, 0.000, 0.000,0.0,0.0,0.0,0.0,0.0, 21:52:18.812
, 73.350174, 90.186516, 154.322647, 146.056168, 105.229370, 71.036903, 90.711891, 90.261726, 0.000, 0.000, 0.000,0.0,0.0,0.0,0.0,0.0, 21:52:18.812
, 73.403931, 90.239220, 154.376694, 145.882813, 105.285767, 70.923851, 90.708160, 90.119972, 0.000, 0.000, 0.000,0.0,0.0,0.0,0.0,0.0, 21:52:18.812
, 73.398407, 90.234970, 154.367447, 145.920166, 105.290436, 70.966026, 90.763947, 90.153877, 0.000, 0.000, 0.000,0.0,0.0,0.0,0.0,0.0, 21:52:18.813
, 73.344475, 90.180992, 154.309601, 146.096542, 105.239296, 71.076820, 90.775391, 90.295631, 0.000, 0.000, 0.000,0.0,0.0,0.0,0.0,0.0, 21:52:18.813
, 73.353149, 90.184952, 154.317490, 146.101776, 105.235809, 71.056305, 90.731850, 90.294380, 0.322, 0.298, 0.886,0.0,0.0,0.0,0.0,0.0, 21:52:18.814
, 73.410522, 90.240425, 154.376297, 145.898697, 105.280670, 70.922287, 90.697182, 90.123482, 0.000, 0.000, 0.000,0.0,0.0,0.0,0.0,0.0, 21:52:18.814
, 73.389359, 90.220978, 154.359665, 145.890686, 105.284935, 70.940079, 90.755455, 90.128441, 0.000, 0.000, 0.000,0.0,0.0,0.0,0.0,0.0, 21:52:18.815
, 73.352234, 90.186958, 154.323303, 146.061646, 105.252815, 71.059479, 90.787354, 90.273598, 0.000, 0.000, 0.000,0.0,0.0,0.0,0.0,0.0, 21:52:18.815
, 73.368729, 90.201805, 154.339371, 146.107132, 105.251854, 71.073448, 90.761871, 90.307213, 0.000, 0.000, 0.000,0.0,0.0,0.0,0.0,0.0, 21:52:18.815
, 73.419533, 90.247665, 154.389191, 145.933456, 105.289497, 70.943047, 90.715469, 90.158615, 0.000, 0.000, 0.000,0.0,0.0,0.0,0.0,0.0, 21:52:18.816
, 73.414459, 90.247292, 154.387939, 145.888107, 105.302063, 70.929771, 90.746758, 90.125786, 0.000, 0.000, 0.000,0.0,0.0,0.0,0.0,0.0, 21:52:18.816
, 73.378403, 90.212708, 154.355148, 146.032120, 105.278297, 71.044373, 90.799553, 90.249390, 0.000, 0.000, 0.000,0.0,0.0,0.0,0.0,0.0, 21:52:18.816
, 73.324356, 90.158440, 154.304077, 146.139969, 105.222374, 71.091194, 90.765068, 90.333138, 0.000, 0.000, 0.000,0.0,0.0,0.0,0.0,0.0, 21:52:18.817
, 73.395302, 90.232025, 154.376541, 145.965515, 105.270676, 70.964684, 90.702171, 90.184746, 0.324, 0.306, 0.890,0.0,0.0,0.0,0.0,0.0, 21:52:18.817
, 73.418747, 90.259132, 154.396210, 145.871033, 105.303558, 70.921349, 90.739632, 90.109444, 0.000, 0.000, 0.000,0.0,0.0,0.0,0.0,0.0, 21:52:18.818
, 73.368057, 90.208015, 154.345566, 146.009171, 105.275391, 71.023422, 90.789474, 90.224625, 0.000, 0.000, 0.000,0.0,0.0,0.0,0.0,0.0, 21:52:18.818
, 73.340248, 90.182487, 154.312698, 146.138397, 105.240189, 71.096512, 90.771011, 90.331688, 0.000, 0.000, 0.000,0.0,0.0,0.0,0.0,0.0, 21:52:18.818
, 73.370445, 90.215752, 154.343124, 146.001190, 105.258430, 70.983597, 90.704292, 90.214897, 0.000, 0.000, 0.000,0.0,0.0,0.0,0.0,0.0, 21:52:18.819
, 73.416786, 90.262398, 154.384705, 145.860306, 105.303291, 70.906456, 90.727402, 90.099586, 0.000, 0.000, 0.000,0.0,0.0,0.0,0.0,0.0, 21:52:18.819
, 73.370247, 90.218010, 154.335037, 145.967407, 105.252930, 70.989677, 90.753311, 90.178665, 0.000, 0.000, 0.000,0.0,0.0,0.0,0.0,0.0, 21:52:18.819
, 73.326508, 90.170731, 154.288696, 146.119537, 105.207130, 71.074005, 90.748749, 90.304733, 0.000, 0.000, 0.000,0.0,0.0,0.0,0.0,0.0, 21:52:18.820
, 73.366646, 90.211456, 154.330429, 146.021042, 105.230934, 70.991219, 90.703285, 90.233162, 0.000, 0.000, 0.000,0.0,0.0,0.0,0.0,0.0, 21:52:18.820
, 73.406281, 90.252159, 154.373215, 145.861328, 105.285767, 70.890205, 90.719154, 90.109421, 0.000, 0.000, 0.000,0.0,0.0,0.0,0.0,0.0, 21:52:18.820
, 73.376236, 90.220558, 154.348938, 145.934113, 105.280602, 70.963409, 90.772797, 90.179382, 0.330, 0.310, 0.890,0.0,0.0,0.0,0.0,0.0, 21:52:18.821
, 73.340515, 90.181038, 154.308975, 146.099960, 105.231812, 71.069824, 90.768372, 90.312157, 0.000, 0.000, 0.000,0.0,0.0,0.0,0.0,0.0, 21:52:18.821
, 73.355560, 90.196083, 154.327194, 146.065674, 105.220474, 71.025909, 90.715134, 90.280502, 0.000, 0.000, 0.000,0.0,0.0,0.0,0.0,0.0, 21:52:18.821
, 73.432365, 90.270760, 154.400497, 145.873962, 105.289719, 70.905251, 90.701630, 90.117897, 0.000, 0.000, 0.000,0.0,0.0,0.0,0.0,0.0, 21:52:18.822
, 73.424896, 90.263222, 154.391159, 145.903534, 105.314575, 70.946266, 90.770187, 90.146858, 0.000, 0.000, 0.000,0.0,0.0,0.0,0.0,0.0, 21:52:18.822
, 73.362556, 90.203728, 154.329330, 146.087463, 105.254921, 71.061714, 90.795036, 90.294182, 0.000, 0.000, 0.000,0.0,0.0,0.0,0.0,0.0, 21:52:18.823
, 73.364281, 90.208305, 154.333328, 146.104767, 105.235046, 71.053017, 90.746895, 90.306160, 0.000, 0.000, 0.000,0.0,0.0,0.0,0.0,0.0, 21:52:18.823
, 73.424339, 90.271362, 154.394623, 145.906616, 105.301659, 70.925995, 90.721725, 90.143440, 0.000, 0.000, 0.000,0.0,0.0,0.0,0.0,0.0, 21:52:18.823
, 73.405899, 90.257034, 154.375671, 145.888336, 105.299889, 70.932922, 90.762833, 90.133339, 0.000, 0.000, 0.000,0.0,0.0,0.0,0.0,0.0, 21:52:18.824
, 73.355156, 90.206696, 154.320282, 146.051071, 105.244011, 71.045647, 90.773758, 90.268547, 0.000, 0.000, 0.000,0.0,0.0,0.0,0.0,0.0, 21:52:18.824
, 73.334396, 90.183517, 154.297775, 146.125793, 105.214531, 71.071480, 90.737816, 90.327103, 0.330, 0.304, 0.894,0.0,0.0,0.0,0.0,0.0, 21:52:18.824
, 73.404221, 90.250954, 154.371582, 145.924942, 105.278320, 70.936142, 90.702530, 90.161148, 0.000, 0.000, 0.000,0.0,0.0,0.0,0.0,0.0, 21:52:18.825
, 73.412315, 90.259071, 154.376541, 145.873810, 105.301682, 70.923782, 90.751793, 90.125519, 0.000, 0.000, 0.000,0.0,0.0,0.0,0.0,0.0, 21:52:18.825
, 73.357437, 90.207237, 154.315796, 146.022446, 105.238800, 71.030670, 90.764709, 90.249611, 0.000, 0.000, 0.000,0.0,0.0,0.0,0.0,0.0, 21:52:18.825
, 73.325546, 90.175766, 154.287628, 146.124786, 105.203491, 71.084404, 90.740280, 90.331573, 0.000, 0.000, 0.000,0.0,0.0,0.0,0.0,0.0, 21:52:18.826
, 73.371788, 90.221962, 154.338562, 145.964508, 105.238579, 70.965309, 90.687080, 90.197266, 0.000, 0.000, 0.000,0.0,0.0,0.0,0.0,0.0, 21:52:18.826
, 73.402878, 90.254349, 154.370056, 145.858353, 105.286125, 70.913185, 90.727448, 90.116684, 0.000, 0.000, 0.000,0.0,0.0,0.0,0.0,0.0, 21:52:18.826
, 73.364258, 90.214409, 154.332443, 145.984573, 105.265381, 71.010864, 90.782433, 90.224648, 0.000, 0.000, 0.000,0.0,0.0,0.0,0.0,0.0, 21:52:18.827
, 73.336716, 90.187813, 154.305237, 146.120255, 105.227356, 71.090080, 90.772354, 90.335045, 0.000, 0.000, 0.000,0.0,0.0,0.0,0.0,0.0, 21:52:18.827
, 73.376106, 90.226990, 154.347015, 146.000809, 105.244278, 70.991707, 90.711441, 90.228088, 0.326, 0.298, 0.892,0.0,0.0,0.0,0.0,0.0, 21:52:18.827
, 73.419441, 90.267761, 154.384918, 145.862869, 105.279953, 70.908897, 90.702011, 90.110924, 0.000, 0.000, 0.000,0.0,0.0,0.0,0.0,0.0, 21:52:18.828
, 73.395683, 90.243156, 154.356873, 145.954514, 105.261917, 70.985115, 90.747093, 90.187271, 0.000, 0.000, 0.000,0.0,0.0,0.0,0.0,0.0, 21:52:18.828
, 73.351135, 90.193466, 154.310440, 146.115829, 105.218445, 71.081764, 90.756256, 90.315933, 0.000, 0.000, 0.000,0.0,0.0,0.0,0.0,0.0, 21:52:18.828
, 73.380417, 90.225967, 154.345291, 146.040344, 105.243317, 71.015556, 90.703285, 90.250641, 0.000, 0.000, 0.000,0.0,0.0,0.0,0.0,0.0, 21:52:18.829
, 73.424118, 90.271141, 154.391266, 145.891174, 105.296852, 70.922913, 90.706169, 90.133049, 0.000, 0.000, 0.000,0.0,0.0,0.0,0.0,0.0, 21:52:18.829
, 73.416451, 90.262642, 154.382690, 145.942352, 105.295311, 70.978989, 90.764664, 90.182602, 0.000, 0.000, 0.000,0.0,0.0,0.0,0.0,0.0, 21:52:18.829
, 73.370224, 90.217133, 154.338364, 146.110687, 105.250832, 71.091461, 90.797607, 90.326324, 0.000, 0.000, 0.000,0.0,7.544456E-4,9.2735817E-4,0.0029174248,0.003705403, 21:52:18.829
, 73.365395, 90.214272, 154.336533, 146.091415, 105.238220, 71.054047, 90.736992, 90.306183, 0.000, 0.000, 0.000,5.695488E-4,7.544456E-4,9.2735817E-4,0.0029174248,0.003705403, 21:52:18.830
, 73.415352, 90.264366, 154.384872, 145.897919, 105.279884, 70.919334, 90.703171, 90.137161, 0.000, 0.000, 0.000,5.695488E-4,7.544456E-4,9.2735817E-4,0.0029174248,0.003705403, 21:52:18.830
, 73.412338, 90.267021, 154.380280, 145.899261, 105.285744, 70.948051, 90.751007, 90.137810, 0.324, 0.302, 0.884,5.695488E-4,7.544456E-4,9.2735817E-4,0.0029174248,0.003705403, 21:52:18.830
, 73.357460, 90.218094, 154.328659, 146.076828, 105.239990, 71.071190, 90.775101, 90.286224, 0.000, 0.000, 0.000,5.695488E-4,7.544456E-4,9.2735817E-4,0.0029174248,0.003705403, 21:52:18.830
, 73.349571, 90.214897, 154.323853, 146.098892, 105.223938, 71.066521, 90.729233, 90.302254, 0.000, 0.000, 0.000,5.695488E-4,7.544456E-4,9.2735817E-4,0.0029174248,0.003705403, 21:52:18.831
, 73.398788, 90.265663, 154.370483, 145.903107, 105.261894, 70.935539, 90.689095, 90.142525, 0.000, 0.000, 0.000,5.695488E-4,7.544456E-4,9.2735817E-4,0.0029174248,0.003705403, 21:52:18.831
, 73.414948, 90.284973, 154.385330, 145.860535, 105.292671, 70.939919, 90.739586, 90.118454, 0.000, 0.000, 0.000,5.695488E-4,7.544456E-4,9.2735817E-4,0.0029174248,0.003705403, 21:52:18.831
, 73.363342, 90.235237, 154.330719, 146.039185, 105.253555, 71.063164, 90.787064, 90.267113, 0.000, 0.000, 0.000,5.695488E-4,7.544456E-4,9.2735817E-4,0.0029174248,0.003705403, 21:52:18.831
, 73.343674, 90.213425, 154.309601, 146.120773, 105.215446, 71.086304, 90.746315, 90.325203, 0.000, 0.000, 0.000,5.695488E-4,7.544456E-4,9.2735817E-4,0.0029174248,0.003705403, 21:52:18.831
, 73.402794, 90.272079, 154.366302, 145.948822, 105.258408, 70.959900, 90.696510, 90.177666, 0.000, 0.000, 0.000,5.695488E-4,7.544456E-4,9.2735817E-4,0.0029174248,0.003705403, 21:52:18.832
, 73.428543, 90.294044, 154.386154, 145.878159, 105.300606, 70.937820, 90.746315, 90.127060, 0.000, 0.000, 0.000,5.695488E-4,7.544456E-4,9.2735817E-4,0.0029174248,0.003705403, 21:52:18.832
, 73.369377, 90.233299, 154.324860, 146.024124, 105.252502, 71.044304, 90.790100, 90.253548, 0.322, 0.304, 0.886,0.0,0.0,0.0,0.0,0.0, 21:52:19.257
, 73.331490, 90.193665, 154.283401, 146.136749, 105.191757, 71.098480, 90.749557, 90.341949, 0.000, 0.000, 0.000,0.0,0.0,0.0,0.0,0.0, 21:52:19.258
, 73.404961, 90.266510, 154.356537, 145.971344, 105.246071, 70.980782, 90.690857, 90.198875, 0.000, 0.000, 0.000,0.0,0.0,0.0,0.0,0.0, 21:52:19.259
, 73.433167, 90.292641, 154.380569, 145.864304, 105.283058, 70.928673, 90.708450, 90.113693, 0.000, 0.000, 0.000,0.0,0.0,0.0,0.0,0.0, 21:52:19.259
, 73.396446, 90.255577, 154.343796, 145.979813, 105.257889, 71.022377, 90.753891, 90.214340, 0.000, 0.000, 0.000,0.0,0.0,0.0,0.0,0.0, 21:52:19.259
, 73.359138, 90.219841, 154.313324, 146.134735, 105.233482, 71.113052, 90.774879, 90.345566, 0.000, 0.000, 0.000,0.0,0.0,0.0,0.0,0.0, 21:52:19.260
, 73.392265, 90.254150, 154.353363, 146.024902, 105.251274, 71.020790, 90.706703, 90.254799, 0.000, 0.000, 0.000,0.0,0.0,0.0,0.0,0.0, 21:52:19.260
, 73.437523, 90.300507, 154.400574, 145.863281, 105.296066, 70.928947, 90.709702, 90.125244, 0.000, 0.000, 0.000,0.0,0.0,0.0,0.0,0.0, 21:52:19.260
, 73.387436, 90.252472, 154.352249, 145.973083, 105.271706, 71.014778, 90.789742, 90.222794, 0.000, 0.000, 0.000,0.0,0.0,0.0,0.0,0.0, 21:52:19.261
, 73.336655, 90.206787, 154.307739, 146.132889, 105.229774, 71.111313, 90.791618, 90.355385, 0.000, 0.000, 0.000,0.0,0.0,0.0,0.0,0.0, 21:52:19.261
, 73.371140, 90.245407, 154.341965, 146.049225, 105.242470, 71.044411, 90.717323, 90.283272, 0.322, 0.302, 0.892,0.0,0.0,0.0,0.0,0.0, 21:52:19.262
, 73.428627, 90.308311, 154.397446, 145.870468, 105.291039, 70.934555, 90.704758, 90.132492, 0.000, 0.000, 0.000,0.0,0.0,0.0,0.0,0.0, 21:52:19.262
, 73.395729, 90.278557, 154.359818, 145.933655, 105.266853, 70.985207, 90.759636, 90.181282, 0.000, 0.000, 0.000,0.0,0.0,0.0,0.0,0.0, 21:52:19.262
, 73.356499, 90.233139, 154.319702, 146.100937, 105.233597, 71.096718, 90.782745, 90.321495, 0.000, 0.000, 0.000,0.0,0.0,0.0,0.0,0.0, 21:52:19.262
, 73.386604, 90.254265, 154.349136, 146.077896, 105.249420, 71.065178, 90.741348, 90.298431, 0.000, 0.000, 0.000,0.0,0.0,0.0,0.0,0.0, 21:52:19.263
, 73.437256, 90.303574, 154.398819, 145.896225, 105.298798, 70.944122, 90.718735, 90.144379, 0.000, 0.000, 0.000,0.0,0.0,0.0,0.0,0.0, 21:52:19.263
, 73.431335, 90.298050, 154.394516, 145.901047, 105.307312, 70.969940, 90.764999, 90.156517, 0.000, 0.000, 0.000,0.0,0.0,0.0,0.0,0.0, 21:52:19.263
, 73.373573, 90.239059, 154.334030, 146.071869, 105.258202, 71.084312, 90.794685, 90.302185, 0.000, 0.000, 0.000,0.0,0.0,0.0,0.0,0.0, 21:52:19.264
, 73.367813, 90.233856, 154.321045, 146.107025, 105.226646, 71.081627, 90.745667, 90.326164, 0.000, 0.000, 0.000,0.0,0.0,0.0,0.0,0.0, 21:52:19.264
, 73.425430, 90.294678, 154.379807, 145.913696, 105.279594, 70.951294, 90.710686, 90.162933, 0.320, 0.306, 0.892,0.0,0.0,0.0,0.0,0.0, 21:52:19.264
, 73.415039, 90.282936, 154.364197, 145.896576, 105.280846, 70.954094, 90.750626, 90.151131, 0.000, 0.000, 0.000,0.0,0.0,0.0,0.0,0.0, 21:52:19.265
, 73.381470, 90.252701, 154.329941, 146.036072, 105.243607, 71.063034, 90.779549, 90.266197, 0.000, 0.000, 0.000,0.0,0.0,0.0,0.0,0.0, 21:52:19.265
, 73.353615, 90.225090, 154.304367, 146.125687, 105.208603, 71.103043, 90.750916, 90.339783, 0.000, 0.000, 0.000,0.0,0.0,0.0,0.0,0.0, 21:52:19.265
, 73.413162, 90.281311, 154.368896, 145.946899, 105.263344, 70.973427, 90.695534, 90.192368, 0.000, 0.000, 0.000,0.0,0.0,0.0,0.0,0.0, 21:52:19.266
, 73.430443, 90.298943, 154.388046, 145.868927, 105.298439, 70.939606, 90.727005, 90.134277, 0.000, 0.000, 0.000,0.0,0.0,0.0,0.0,0.0, 21:52:19.266
, 73.374893, 90.244720, 154.332062, 146.020615, 105.250542, 71.048882, 90.768913, 90.262199, 0.000, 0.000, 0.000,0.0,0.0,0.0,0.0,0.0, 21:52:19.266
, 73.329185, 90.205132, 154.295135, 146.143051, 105.204315, 71.112740, 90.756058, 90.360634, 0.000, 0.000, 0.000,0.0,0.0,0.0,0.0,0.0, 21:52:19.267
, 73.397224, 90.278847, 154.367264, 145.981873, 105.259033, 70.995773, 90.708092, 90.225204, 0.000, 0.000, 0.000,0.0,0.0,0.0,0.0,0.0, 21:52:19.267
, 73.434532, 90.319260, 154.399948, 145.862030, 105.303734, 70.933838, 90.748909, 90.129158, 0.000, 0.000, 0.000,0.0,0.0,0.0,0.0,0.0, 21:52:19.267
, 73.392349, 90.277931, 154.357269, 145.973709, 105.268913, 71.024834, 90.778748, 90.226212, 0.322, 0.314, 0.888,0.0,0.0,0.0,0.0,0.0, 21:52:19.268
, 73.352364, 90.237831, 154.314880, 146.109299, 105.223648, 71.108360, 90.746201, 90.337479, 0.000, 0.000, 0.000,0.0,0.0,0.0,0.0,0.0, 21:52:19.268
, 73.367966, 90.258148, 154.336823, 146.011887, 105.229866, 71.016403, 90.678658, 90.248314, 0.000, 0.000, 0.000,0.0,0.0,0.0,0.0,0.0, 21:52:19.268
, 73.432091, 90.324982, 154.402405, 145.862091, 105.298706, 70.933861, 90.711113, 90.131554, 0.000, 0.000, 0.000,0.0,0.0,0.0,0.0,0.0, 21:52:19.268
, 73.403442, 90.296242, 154.369339, 145.956177, 105.275597, 71.010017, 90.766922, 90.215706, 0.000, 0.000, 0.000,0.0,0.0,0.0,0.0,0.0, 21:52:19.269
, 73.350418, 90.244293, 154.316254, 146.120880, 105.222977, 71.107086, 90.770187, 90.345795, 0.000, 0.000, 0.000,0.0,0.0,0.0,0.0,0.0, 21:52:19.269
, 73.358780, 90.253990, 154.329712, 146.075089, 105.220161, 71.044052, 90.710548, 90.297218, 0.000, 0.000, 0.000,0.0,0.0,0.0,0.0,0.0, 21:52:19.269
, 73.415215, 90.312935, 154.386017, 145.885880, 105.279373, 70.925438, 90.706619, 90.137962, 0.000, 0.000, 0.000,0.0,0.0,0.0,0.0,0.0, 21:52:19.270
, 73.393250, 90.291008, 154.359711, 145.932053, 105.267372, 70.975235, 90.751968, 90.181015, 0.000, 0.000, 0.000,0.0,0.0,0.0,0.0,0.0, 21:52:19.270
, 73.343964, 90.242752, 154.313171, 146.100479, 105.225128, 71.085899, 90.765312, 90.319397, 0.000, 0.000, 0.000,0.0,0.0,0.0,0.0,0.0, 21:52:19.270
, 73.357620, 90.257729, 154.330872, 146.084900, 105.225838, 71.061714, 90.720360, 90.305046, 0.320, 0.320, 0.884,0.0,0.0,0.0,0.0,0.0, 21:52:19.270
, 73.409767, 90.312088, 154.385162, 145.891998, 105.271927, 70.938667, 90.697540, 90.145294, 0.000, 0.000, 0.000,0.0,0.0,0.0,0.0,0.0, 21:52:19.271
, 73.405006, 90.310966, 154.378784, 145.892273, 105.278481, 70.963593, 90.748344, 90.158577, 0.000, 0.000, 0.000,0.0,0.0,0.0,0.0,0.0, 21:52:19.271
, 73.357483, 90.264854, 154.326965, 146.071289, 105.242203, 71.084938, 90.788445, 90.307709, 0.000, 0.000, 0.000,0.0,0.0,0.0,0.0,0.0, 21:52:19.271
, 73.346802, 90.256004, 154.319519, 146.122742, 105.224831, 71.098351, 90.747879, 90.347847, 0.000, 0.000, 0.000,0.0,0.0,0.0,0.0,0.0, 21:52:19.271
, 73.408043, 90.318565, 154.383118, 145.928635, 105.288757, 70.967056, 90.715263, 90.186913, 0.000, 0.000, 0.000,0.0,0.0,0.0,0.0,0.0, 21:52:19.271
, 73.409363, 90.324516, 154.385391, 145.890350, 105.307152, 70.957352, 90.755142, 90.159599, 0.000, 0.000, 0.000,0.0,0.0,0.0,0.0,0.0, 21:52:19.272
, 73.357170, 90.273308, 154.333176, 146.042313, 105.255211, 71.067841, 90.775505, 90.289063, 0.000, 0.000, 0.000,0.0,0.0,0.0,0.0,0.0, 21:52:19.272
, 73.333542, 90.250618, 154.309662, 146.135101, 105.215286, 71.109772, 90.742981, 90.356674, 0.000, 0.000, 0.000,0.0,0.0,0.0,0.0,0.0, 21:52:19.272
, 73.387169, 90.305382, 154.365753, 145.962158, 105.259811, 70.984444, 90.712135, 90.209335, 0.320, 0.320, 0.888,0.0,0.0,0.0,0.0,0.0, 21:52:19.272
, 73.414032, 90.331238, 154.387268, 145.870926, 105.298080, 70.947807, 90.757378, 90.144295, 0.000, 0.000, 0.000,0.0,0.0,0.0,0.0,0.0, 21:52:19.272
, 73.364456, 90.280617, 154.328781, 146.018326, 105.242805, 71.048752, 90.771255, 90.266045, 0.000, 0.000, 0.000,0.0,0.0,0.0,0.0,0.0, 21:52:19.273
, 73.344719, 90.257462, 154.303833, 146.135742, 105.208542, 71.112656, 90.733597, 90.360855, 0.000, 0.000, 0.000,0.0,0.0,0.0,0.0,0.0, 21:52:19.273
, 73.403061, 90.318253, 154.364243, 145.981277, 105.255142, 70.999016, 90.682945, 90.227867, 0.000, 0.000, 0.000,0.0,0.0,0.0,0.0,0.0, 21:52:19.273
, 73.440811, 90.357529, 154.397659, 145.863617, 105.308136, 70.936592, 90.721992, 90.139236, 0.000, 0.000, 0.000,0.0,0.0,0.0,0.0,0.0, 21:52:19.273
, 73.386314, 90.304886, 154.340515, 145.983200, 105.271011, 71.024834, 90.759117, 90.249947, 0.000, 0.000, 0.000,0.0,0.0,0.0,0.0,0.0, 21:52:19.273
, 73.334930, 90.255890, 154.286636, 146.131943, 105.215935, 71.105408, 90.736031, 90.363716, 0.000, 0.000, 0.000,0.0,0.0,0.0,0.0,0.0, 21:52:19.273
, 73.364548, 90.287209, 154.316681, 146.035919, 105.225105, 71.015442, 90.679596, 90.273575, 0.000, 0.000, 0.000,0.0,0.0,0.0,0.0,0.0, 21:52:19.274
, 73.412582, 90.337051, 154.365662, 145.863953, 105.274094, 70.912964, 90.695015, 90.133987, 0.000, 0.000, 0.000,0.0,0.0,0.0,0.0,0.0, 21:52:19.274
, 73.383324, 90.308868, 154.335922, 145.933212, 105.253937, 70.981445, 90.737617, 90.201828, 0.332, 0.320, 0.890,0.0,0.0,0.0,0.0,0.0, 21:52:19.274
, 73.341461, 90.266556, 154.293777, 146.100876, 105.215271, 71.090370, 90.750786, 90.343781, 0.000, 0.000, 0.000,0.0,0.0,0.0,0.0,0.0, 21:52:19.274
, 73.357101, 90.282089, 154.312210, 146.053040, 105.223740, 71.038734, 90.706703, 90.299881, 0.000, 0.000, 0.000,0.0,0.0,0.0,0.0,0.0, 21:52:19.275
, 73.412781, 90.341209, 154.368851, 145.868240, 105.277184, 70.920227, 90.688576, 90.148537, 0.000, 0.000, 0.000,0.0,0.0,0.0,0.0,0.0, 21:52:19.275
, 73.405922, 90.335335, 154.360275, 145.899124, 105.281052, 70.960129, 90.741508, 90.175247, 0.000, 0.000, 0.000,0.0,0.0,0.0,0.0,0.0, 21:52:19.275
, 73.351738, 90.280663, 154.303894, 146.072311, 105.233284, 71.073380, 90.768890, 90.315865, 0.000, 0.000, 0.000,0.0,0.0,0.0,0.0,0.0, 21:52:19.276
, 73.360344, 90.289246, 154.310944, 146.080521, 105.224831, 71.058090, 90.721527, 90.319374, 0.000, 0.000, 0.000,0.0,0.0,0.0,0.0,0.0, 21:52:19.276
, 73.413948, 90.343155, 154.361618, 145.891983, 105.278030, 70.927536, 90.693626, 90.156967, 0.000, 0.000, 0.000,0.0,0.0,0.0,0.0,0.0, 21:52:19.276
, 73.412376, 90.345413, 154.356155, 145.884872, 105.286903, 70.942558, 90.729530, 90.156006, 0.000, 0.000, 0.000,0.0,0.0,0.0,0.0,0.0, 21:52:19.276
, 73.360413, 90.296616, 154.306778, 146.044861, 105.248077, 71.056351, 90.766586, 90.292061, 0.326, 0.322, 0.884,0.0,0.0,0.0,0.0,0.0, 21:52:19.277
, 73.350266, 90.287880, 154.298584, 146.094833, 105.213768, 71.067749, 90.722870, 90.329323, 0.000, 0.000, 0.000,0.0,0.0,0.0,0.0,0.0, 21:52:19.277
, 73.417343, 90.355965, 154.366302, 145.915909, 105.274925, 70.944748, 90.690453, 90.180237, 0.000, 0.000, 0.000,0.0,0.0,0.0,0.0,0.0, 21:52:19.277
, 73.429924, 90.371765, 154.380234, 145.864151, 105.304764, 70.932610, 90.740677, 90.146393, 0.000, 0.000, 0.000,0.0,0.0,0.0,0.0,0.0, 21:52:19.278
, 73.390030, 90.334305, 154.337631, 146.006531, 105.266769, 71.039902, 90.781761, 90.268814, 0.000, 0.000, 0.000,0.0,0.0,0.0,0.0,0.0, 21:52:19.278
, 73.357796, 90.302315, 154.302780, 146.110413, 105.230621, 71.090706, 90.755814, 90.351227, 0.000, 0.000, 0.000,0.0,0.0,0.0,0.0,0.0, 21:52:19.278
, 73.408516, 90.354195, 154.356583, 145.948868, 105.276627, 70.972176, 90.712090, 90.217804, 0.000, 0.000, 0.000,0.0,0.0,0.0,0.0,0.0, 21:52:19.278
, 73.437187, 90.383682, 154.383453, 145.856735, 105.311333, 70.927711, 90.744881, 90.147820, 0.000, 0.000, 0.000,0.0,0.0,0.0,0.0,0.0, 21:52:19.279
, 73.406235, 90.353081, 154.348541, 145.982971, 105.278252, 71.026245, 90.781181, 90.255135, 0.000, 0.000, 0.000,0.0,0.0,0.0,0.0,0.0, 21:52:19.279
, 73.362198, 90.307167, 154.301041, 146.121689, 105.223022, 71.101006, 90.758514, 90.367470, 0.000, 0.000, 0.000,0.0,0.0,0.0,0.0,0.0, 21:52:19.279
, 73.409698, 90.354713, 154.350433, 145.983597, 105.256035, 70.992287, 90.687263, 90.248787, 0.320, 0.322, 0.884,0.0,0.0,0.0,0.0,0.0, 21:52:19.280
, 73.445168, 90.388130, 154.384811, 145.848282, 105.311760, 70.917076, 90.713882, 90.140511, 0.000, 0.000, 0.000,0.0,0.0,0.0,0.0,0.0, 21:52:19.280
, 73.405045, 90.346710, 154.343643, 145.955093, 105.286972, 71.001785, 90.765533, 90.233856, 0.000, 0.000, 0.000,0.0,0.0,0.0,0.0,0.0, 21:52:19.280
, 73.363808, 90.305046, 154.301590, 146.112656, 105.234985, 71.097206, 90.761444, 90.363297, 0.000, 0.000, 0.000,0.0,0.0,0.0,0.0,0.0, 21:52:19.280
, 73.402832, 90.346931, 154.346039, 146.023361, 105.256844, 71.021706, 90.712921, 90.289513, 0.000, 0.000, 0.000,0.0,0.0,0.0,0.0,0.0, 21:52:19.280
, 73.457642, 90.405830, 154.398865, 145.857025, 105.306953, 70.923111, 90.714973, 90.159912, 0.000, 0.000, 0.000,0.0,0.0,0.0,0.0,0.0, 21:52:19.281
, 73.423912, 90.377510, 154.361633, 145.924118, 105.283577, 70.983368, 90.758095, 90.215637, 0.000, 0.000, 0.000,0.0,0.0,0.0,0.0,0.0, 21:52:19.281
, 73.370758, 90.324577, 154.303513, 146.097519, 105.228455, 71.086098, 90.762520, 90.348076, 0.000, 0.000, 0.000,0.0,0.0,0.0,0.0,0.0, 21:52:19.281
, 73.402206, 90.352852, 154.332962, 146.061508, 105.239876, 71.034935, 90.713387, 90.305267, 0.000, 0.000, 0.000,0.0,0.0,0.0,0.0,0.0, 21:52:19.281
, 73.448631, 90.399925, 154.381546, 145.884933, 105.294235, 70.916809, 90.698593, 90.159088, 0.314, 0.326, 0.886,0.0,0.0,0.0,0.0,0.0, 21:52:19.281
, 73.434105, 90.388931, 154.365921, 145.907928, 105.293274, 70.949600, 90.735695, 90.179939, 0.000, 0.000, 0.000,0.0,0.0,0.0,0.0,0.0, 21:52:19.282
, 73.372437, 90.330910, 154.305649, 146.088074, 105.239632, 71.067055, 90.760284, 90.328873, 0.000, 0.000, 0.000,0.0,0.0,0.0,0.0,0.0, 21:52:19.282
, 73.370155, 90.330925, 154.305862, 146.097992, 105.227448, 71.053871, 90.717499, 90.334930, 0.000, 0.000, 0.000,0.0,0.0,0.0,0.0,0.0, 21:52:19.282
, 73.433121, 90.392776, 154.365372, 145.900833, 105.272377, 70.924294, 90.678032, 90.173241, 0.000, 0.000, 0.000,0.0,0.0,0.0,0.0,0.0, 21:52:19.282
, 73.436516, 90.395683, 154.366348, 145.884735, 105.290169, 70.939430, 90.726646, 90.168701, 0.000, 0.000, 0.000,0.0,0.0,0.0,0.0,0.0, 21:52:19.283
, 73.388283, 90.347466, 154.319016, 146.046341, 105.255882, 71.056419, 90.772644, 90.305984, 0.000, 0.000, 0.000,0.0,0.0,0.0,0.0,0.0, 21:52:19.283
, 73.363831, 90.324539, 154.296249, 146.118912, 105.215309, 71.083130, 90.743874, 90.364365, 0.000, 0.000, 0.000,0.0,0.0,0.0,0.0,0.0, 21:52:19.283
, 73.437683, 90.400597, 154.373459, 145.919113, 105.269608, 70.948456, 90.685852, 90.200729, 0.000, 0.000, 0.000,0.0,0.0,0.0,0.0,0.0, 21:52:19.285
, 73.454376, 90.414192, 154.389664, 145.859344, 105.299934, 70.928276, 90.726868, 90.154350, 0.000, 0.000, 0.000,0.0,0.0,0.0,0.0,0.0, 21:52:19.286
, 73.403419, 90.368080, 154.336823, 146.020340, 105.268242, 71.042175, 90.780983, 90.289665, 0.312, 0.322, 0.898,0.0,0.0,0.0,0.0,0.0, 21:52:19.286
, 73.373978, 90.342842, 154.299088, 146.121277, 105.229439, 71.089943, 90.760551, 90.376328, 0.000, 0.000, 0.000,0.0,0.0,0.0,0.0,0.0, 21:52:19.286
, 73.428185, 90.400375, 154.355820, 145.952881, 105.276978, 70.964928, 90.696022, 90.234703, 0.000, 0.000, 0.000,0.0,0.0,0.0,0.0,0.0, 21:52:19.287
, 73.450264, 90.425140, 154.379623, 145.856308, 105.308052, 70.918594, 90.714775, 90.157364, 0.000, 0.000, 0.000,0.0,0.0,0.0,0.0,0.0, 21:52:19.287
, 73.407845, 90.388756, 154.338425, 145.972961, 105.270454, 71.009300, 90.752350, 90.249298, 0.000, 0.000, 0.000,0.0,0.0,0.0,0.0,0.0, 21:52:19.288
, 73.362823, 90.344940, 154.293945, 146.109970, 105.219872, 71.088402, 90.742493, 90.358757, 0.000, 0.000, 0.000,0.0,0.0,0.0,0.0,0.0, 21:52:19.288
, 73.400108, 90.383591, 154.334457, 145.987335, 105.247971, 70.990837, 90.681473, 90.252808, 0.000, 0.000, 0.000,0.0,0.0,0.0,0.0,0.0, 21:52:19.288
, 73.443939, 90.425636, 154.374680, 145.853226, 105.301056, 70.910950, 90.701744, 90.143730, 0.000, 0.000, 0.000,0.0,0.0,0.0,0.0,0.0, 21:52:19.288
, 73.412247, 90.394455, 154.341721, 145.944748, 105.277290, 70.989052, 90.754379, 90.226700, 0.000, 0.000, 0.000,0.0,0.0,0.0,0.0,0.0, 21:52:19.288
, 73.364594, 90.348206, 154.294220, 146.105438, 105.220879, 71.087196, 90.756439, 90.358597, 0.000, 0.000, 0.000,0.0,0.0,0.0,0.0,0.0, 21:52:19.288
, 73.397293, 90.381065, 154.327164, 146.027603, 105.238136, 71.017281, 90.696915, 90.287094, 0.314, 0.318, 0.890,0.0,0.0,0.0,0.0,0.0, 21:52:19.289
, 73.436119, 90.419106, 154.366867, 145.868835, 105.289360, 70.917191, 90.699394, 90.158195, 0.000, 0.000, 0.000,0.0,0.0,0.0,0.0,0.0, 21:52:19.289
, 73.406342, 90.390404, 154.338211, 145.926315, 105.275017, 70.968483, 90.739388, 90.215149, 0.000, 0.000, 0.000,0.0,0.0,0.0,0.0,0.0, 21:52:19.289
, 73.356277, 90.342194, 154.288849, 146.089966, 105.228630, 71.078522, 90.753105, 90.353439, 0.000, 0.000, 0.000,0.0,0.0,0.0,0.0,0.0, 21:52:19.289
, 73.371452, 90.357056, 154.307968, 146.073273, 105.233414, 71.049980, 90.710548, 90.338150, 0.000, 0.000, 0.000,0.0,0.0,0.0,0.0,0.0, 21:52:19.290
, 73.437149, 90.425636, 154.376251, 145.878387, 105.283752, 70.926598, 90.681625, 90.181152, 0.000, 0.000, 0.000,0.0,0.0,0.0,0.0,0.0, 21:52:19.290
, 73.427643, 90.419556, 154.367798, 145.894119, 105.285698, 70.957245, 90.735741, 90.198181, 0.000, 0.000, 0.000,0.0,0.0,0.0,0.0,0.0, 21:52:19.290
, 73.374268, 90.366737, 154.311447, 146.068558, 105.243340, 71.065491, 90.773537, 90.336960, 0.000, 0.000, 0.000,0.0,0.0,0.0,0.0,0.0, 21:52:19.290
, 73.386787, 90.380302, 154.325241, 146.086304, 105.243988, 71.058922, 90.737152, 90.338219, 0.000, 0.000, 0.000,0.0,0.0,0.0,0.0,0.0, 21:52:19.290
, 73.444435, 90.435493, 154.383362, 145.906052, 105.294258, 70.932388, 90.700668, 90.185753, 0.314, 0.316, 0.898,0.0,0.0,0.0,0.0,0.0, 21:52:19.291
, 73.443428, 90.433968, 154.382538, 145.897095, 105.308807, 70.940346, 90.761803, 90.187294, 0.000, 0.000, 0.000,0.0,0.0,0.0,0.0,0.0, 21:52:19.291
, 73.384621, 90.376457, 154.323395, 146.060242, 105.251480, 71.049957, 90.778122, 90.325966, 0.000, 0.000, 0.000,0.0,0.0,0.0,0.0,0.0, 21:52:19.291
, 73.370178, 90.364388, 154.311966, 146.121277, 105.226128, 71.077339, 90.727272, 90.375053, 0.000, 0.000, 0.000,0.0,0.0,0.0,0.0,0.0, 21:52:19.291
, 73.423424, 90.421989, 154.368881, 145.941345, 105.278564, 70.950737, 90.690498, 90.225006, 0.000, 0.000, 0.000,0.0,0.0,0.0,0.0,0.0, 21:52:19.291
, 73.447586, 90.445641, 154.389099, 145.867676, 105.307533, 70.921455, 90.732544, 90.171562, 0.000, 0.000, 0.000,0.0,0.0,0.0,0.0,0.0, 21:52:19.736
, 73.402794, 90.401024, 154.345963, 146.010132, 105.266319, 71.029396, 90.770119, 90.292526, 0.000, 0.000, 0.000,0.0,0.0,0.0,0.0,0.0, 21:52:19.737
, 73.362045, 90.359695, 154.304611, 146.132370, 105.220970, 71.090752, 90.747833, 90.389107, 0.000, 0.000, 0.000,0.0,0.0,0.0,0.0,0.0, 21:52:19.737
, 73.416115, 90.414391, 154.357544, 145.974030, 105.255592, 70.978699, 90.683212, 90.260948, 0.000, 0.000, 0.000,0.0,0.0,0.0,0.0,0.0, 21:52:19.737
, 73.440025, 90.438194, 154.376434, 145.864960, 105.286148, 70.919289, 90.703064, 90.177193, 0.000, 0.000, 0.000,0.0,0.0,0.0,0.0,0.0, 21:52:19.737
, 73.397850, 90.395454, 154.331665, 145.980392, 105.257622, 71.005547, 90.746025, 90.274689, 0.324, 0.314, 0.892,0.0,0.0,0.0,0.0,0.0, 21:52:19.737
, 73.368187, 90.365372, 154.303696, 146.106735, 105.229614, 71.084442, 90.746292, 90.376076, 0.000, 0.000, 0.000,0.0,0.0,0.0,0.0,0.0, 21:52:19.737
, 73.403687, 90.404465, 154.342270, 145.998444, 105.246674, 70.996895, 90.686188, 90.280640, 0.000, 0.000, 0.000,0.0,0.0,0.0,0.0,0.0, 21:52:19.738
, 73.441925, 90.443336, 154.377106, 145.857819, 105.291710, 70.912941, 90.694656, 90.168144, 0.000, 0.000, 0.000,0.0,0.0,0.0,0.0,0.0, 21:52:19.738
, 73.411194, 90.414345, 154.348206, 145.948029, 105.277649, 70.985649, 90.750626, 90.252136, 0.000, 0.000, 0.000,0.0,0.0,0.0,0.0,0.0, 21:52:19.738
, 73.376457, 90.380547, 154.313065, 146.105774, 105.236923, 71.086700, 90.758873, 90.382423, 0.000, 0.000, 0.000,0.0,0.0,0.0,0.0,0.0, 21:52:19.738
, 73.409813, 90.411842, 154.348831, 146.035492, 105.254471, 71.027832, 90.704292, 90.323616, 0.000, 0.000, 0.000,0.0,0.0,0.0,0.0,0.0, 21:52:19.739
, 73.468796, 90.470963, 154.407593, 145.862076, 105.316368, 70.922462, 90.713791, 90.180481, 0.000, 0.000, 0.000,0.0,0.0,0.0,0.0,0.0, 21:52:19.739
, 73.451675, 90.453728, 154.389221, 145.910324, 105.308205, 70.974655, 90.767639, 90.222855, 0.000, 0.000, 0.000,0.0,0.0,0.0,0.0,0.0, 21:52:19.739
, 73.396690, 90.399147, 154.329758, 146.087219, 105.257515, 71.088089, 90.779503, 90.364456, 0.324, 0.306, 0.898,0.0,0.0,0.0,0.0,0.0, 21:52:19.739
, 73.394455, 90.397041, 154.328781, 146.086349, 105.241310, 71.060844, 90.720161, 90.354286, 0.000, 0.000, 0.000,0.0,0.0,0.0,0.0,0.0, 21:52:19.740
, 73.450867, 90.456993, 154.388657, 145.894455, 105.293076, 70.931244, 90.683815, 90.188370, 0.000, 0.000, 0.000,0.0,0.0,0.0,0.0,0.0, 21:52:19.740
, 73.443649, 90.455582, 154.383804, 145.896286, 105.301369, 70.954651, 90.737152, 90.198875, 0.000, 0.000, 0.000,0.0,0.0,0.0,0.0,0.0, 21:52:19.740
, 73.397804, 90.414276, 154.343826, 146.054230, 105.263435, 71.071213, 90.771820, 90.335602, 0.000, 0.000, 0.000,0.0,0.0,0.0,0.0,0.0, 21:52:19.741
, 73.395996, 90.415710, 154.348450, 146.088577, 105.254028, 71.079285, 90.741325, 90.359787, 0.000, 0.000, 0.000,0.0,0.0,0.0,0.0,0.0, 21:52:19.741
, 73.441948, 90.462517, 154.394760, 145.919266, 105.288513, 70.951363, 90.697296, 90.211769, 0.000, 0.000, 0.000,0.0,0.0,0.0,0.0,0.0, 21:52:19.741
, 73.445618, 90.465065, 154.396500, 145.892868, 105.305214, 70.945015, 90.735878, 90.191360, 0.000, 0.000, 0.000,0.0,0.0,0.0,0.0,0.0, 21:52:19.741
, 73.385826, 90.409271, 154.334625, 146.056686, 105.263634, 71.056282, 90.769135, 90.327667, 0.000, 0.000, 0.000,0.0,0.0,0.0,0.0,0.0, 21:52:19.741
, 73.363541, 90.393806, 154.312439, 146.130981, 105.226021, 71.088425, 90.732590, 90.386292, 0.000, 0.000, 0.000,0.0,0.0,0.0,0.0,0.0, 21:52:19.742
, 73.419128, 90.450195, 154.369125, 145.947479, 105.270607, 70.962807, 90.687637, 90.237030, 0.326, 0.308, 0.892,0.0,0.0,0.0,0.0,0.0, 21:52:19.742
, 73.439583, 90.469376, 154.385864, 145.870224, 105.306976, 70.928047, 90.733818, 90.184235, 0.000, 0.000, 0.000,0.0,0.0,0.0,0.0,0.0, 21:52:19.742
, 73.396889, 90.424400, 154.343277, 146.004181, 105.277313, 71.028831, 90.770409, 90.300041, 0.000, 0.000, 0.000,0.0,0.0,0.0,0.0,0.0, 21:52:19.742
, 73.366737, 90.386543, 154.319046, 146.127472, 105.248703, 71.099487, 90.764664, 90.402565, 0.000, 0.000, 0.000,0.0,0.0,0.0,0.0,0.0, 21:52:19.742
, 73.420311, 90.446152, 154.367661, 145.977264, 105.283661, 70.987862, 90.710152, 90.278465, 0.000, 0.000, 0.000,0.0,0.0,0.0,0.0,0.0, 21:52:19.742
, 73.452858, 90.482338, 154.387253, 145.846451, 105.309639, 70.913139, 90.711334, 90.171333, 0.000, 0.000, 0.000,0.0,0.0,0.0,0.0,0.0, 21:52:19.743
, 73.403549, 90.435555, 154.342072, 145.964417, 105.270676, 71.003441, 90.751633, 90.268990, 0.000, 0.000, 0.000,0.0,0.0,0.0,0.0,0.0, 21:52:19.743
, 73.358917, 90.393402, 154.302673, 146.112747, 105.232765, 71.088425, 90.757111, 90.389984, 0.000, 0.000, 0.000,0.0,0.0,0.0,0.0,0.0, 21:52:19.743
, 73.391769, 90.429771, 154.340347, 146.012207, 105.248146, 70.999489, 90.688911, 90.301025, 0.000, 0.000, 0.000,0.0,0.0,0.0,0.0,0.0, 21:52:19.743
, 73.432228, 90.473511, 154.387207, 145.859924, 105.309746, 70.910461, 90.698280, 90.180077, 0.328, 0.310, 0.896,0.0,0.0,0.0,0.0,0.0, 21:52:19.743
, 73.403130, 90.449883, 154.358307, 145.928986, 105.288338, 70.978119, 90.748390, 90.244942, 0.000, 0.000, 0.000,0.0,0.0,0.0,0.0,0.0, 21:52:19.744
, 73.356346, 90.403770, 154.310028, 146.087555, 105.233528, 71.077446, 90.748817, 90.373215, 0.000, 0.000, 0.000,0.0,0.0,0.0,0.0,0.0, 21:52:19.744
, 73.374451, 90.421654, 154.330627, 146.040756, 105.236702, 71.024345, 90.690392, 90.326103, 0.000, 0.000, 0.000,0.0,0.0,0.0,0.0,0.0, 21:52:19.744
, 73.423378, 90.472618, 154.379288, 145.870224, 105.278854, 70.915916, 90.682899, 90.188545, 0.000, 0.000, 0.000,0.0,0.0,0.0,0.0,0.0, 21:52:19.744
, 73.412758, 90.461731, 154.368408, 145.907532, 105.279640, 70.962807, 90.739052, 90.224464, 0.000, 0.000, 0.000,0.0,0.0,0.0,0.0,0.0, 21:52:19.745
, 73.359901, 90.408981, 154.316635, 146.070816, 105.240929, 71.071259, 90.757782, 90.357124, 0.000, 0.000, 0.000,0.0,0.0,0.0,0.0,0.0, 21:52:19.745
, 73.360435, 90.410767, 154.322266, 146.070953, 105.234314, 71.050873, 90.704781, 90.352898, 0.000, 0.000, 0.000,0.0,0.0,0.0,0.0,0.0, 21:52:19.745
, 73.419647, 90.471161, 154.383942, 145.882950, 105.295464, 70.927200, 90.684311, 90.195343, 0.000, 0.000, 0.000,0.0,0.0,0.0,0.0,0.0, 21:52:19.746
, 73.415733, 90.468971, 154.376266, 145.877777, 105.297096, 70.946983, 90.737015, 90.198830, 0.000, 0.000, 0.000,0.0,0.0,0.0,0.0,0.0, 21:52:19.746
, 73.351425, 90.407257, 154.312103, 146.049057, 105.240166, 71.065086, 90.767410, 90.346237, 0.326, 0.302, 0.886,0.0,0.0,0.0,0.0,0.0, 21:52:19.747
, 73.351692, 90.407860, 154.314423, 146.083755, 105.238136, 71.074028, 90.738602, 90.370041, 0.000, 0.000, 0.000,0.0,0.0,0.0,0.0,0.0, 21:52:19.747
, 73.415085, 90.472862, 154.374023, 145.893692, 105.289673, 70.948387, 90.699173, 90.211456, 0.000, 0.000, 0.000,0.0,0.0,0.0,0.0,0.0, 21:52:19.747
, 73.429993, 90.487930, 154.385757, 145.857483, 105.307602, 70.942444, 90.736168, 90.190674, 0.000, 0.000, 0.000,0.0,0.0,0.0,0.0,0.0, 21:52:19.748
, 73.384750, 90.442955, 154.339127, 146.013733, 105.269539, 71.046669, 90.772911, 90.315842, 0.000, 0.000, 0.000,0.0,0.0,0.0,0.0,0.0, 21:52:19.748
, 73.355431, 90.409340, 154.308990, 146.114334, 105.232857, 71.088913, 90.746269, 90.392616, 0.000, 0.000, 0.000,0.0,0.0,0.0,0.0,0.0, 21:52:19.748
, 73.411865, 90.466629, 154.370529, 145.945663, 105.280670, 70.964577, 90.696671, 90.250687, 0.000, 0.000, 0.000,0.0,0.0,0.0,0.0,0.0, 21:52:19.748
, 73.428185, 90.485313, 154.388992, 145.866119, 105.310326, 70.927315, 90.733261, 90.192993, 0.000, 0.000, 0.000,0.0,0.0,0.0,0.0,0.0, 21:52:19.749
, 73.380753, 90.440651, 154.342239, 146.002243, 105.275978, 71.028030, 90.777359, 90.307167, 0.000, 0.000, 0.000,0.0,0.0,0.0,0.0,0.0, 21:52:19.749
, 73.345703, 90.402786, 154.307404, 146.129349, 105.240479, 71.099556, 90.772423, 90.407707, 0.000, 0.000, 0.000,0.0,0.0,0.0,0.0,0.0, 21:52:19.749
, 73.391304, 90.449150, 154.357559, 145.986084, 105.272446, 70.994545, 90.708473, 90.287254, 0.324, 0.300, 0.884,0.0,0.0,0.0,0.0,0.0, 21:52:19.749
, 73.419289, 90.479012, 154.386154, 145.859818, 105.313034, 70.925797, 90.722443, 90.189865, 0.000, 0.000, 0.000,0.0,0.0,0.0,0.0,0.0, 21:52:19.750
, 73.388908, 90.453621, 154.356934, 145.956345, 105.302078, 71.009682, 90.784714, 90.275497, 0.000, 0.000, 0.000,0.0,0.0,0.0,0.0,0.0, 21:52:19.750
, 73.339424, 90.407303, 154.307022, 146.116562, 105.245842, 71.103668, 90.783951, 90.406944, 0.000, 0.000, 0.000,0.0,0.0,0.0,0.0,0.0, 21:52:19.750
, 73.381378, 90.450981, 154.346207, 146.016342, 105.252953, 71.018326, 90.705093, 90.314926, 0.000, 0.000, 0.000,0.0,0.0,0.0,0.0,0.0, 21:52:19.750
, 73.430305, 90.500580, 154.392136, 145.854691, 105.310036, 70.927246, 90.724968, 90.186134, 0.000, 0.000, 0.000,0.0,0.0,0.0,0.0,0.0, 21:52:19.751
, 73.406006, 90.475029, 154.368423, 145.925278, 105.299065, 70.992645, 90.771172, 90.248901, 0.000, 0.000, 0.000,0.0,0.0,0.0,0.0,0.0, 21:52:19.751
, 73.356834, 90.426483, 154.320099, 146.092834, 105.252663, 71.094170, 90.776016, 90.382202, 0.000, 0.000, 0.000,0.0,0.0,0.0,0.0,0.0, 21:52:19.751
, 73.378448, 90.446060, 154.343307, 146.052444, 105.260437, 71.045197, 90.730911, 90.343895, 0.000, 0.000, 0.000,0.0,0.0,0.0,0.0,0.0, 21:52:19.751
, 73.423134, 90.490273, 154.389008, 145.877609, 105.304810, 70.928696, 90.717232, 90.200508, 0.318, 0.306, 0.888,0.0,0.0,0.0,0.0,0.0, 21:52:19.751
, 73.400246, 90.470718, 154.366394, 145.913910, 105.296066, 70.967056, 90.757843, 90.237160, 0.000, 0.000, 0.000,0.0,0.0,0.0,0.0,0.0, 21:52:19.752
, 73.354782, 90.426910, 154.321259, 146.078613, 105.247368, 71.080246, 90.761581, 90.370110, 0.000, 0.000, 0.000,0.0,0.0,0.0,0.0,0.0, 21:52:19.752
, 73.353325, 90.426926, 154.320770, 146.087494, 105.233574, 71.067459, 90.716766, 90.373283, 0.000, 0.000, 0.000,0.0,0.0,0.0,0.0,0.0, 21:52:19.752
, 73.418411, 90.495529, 154.385574, 145.885651, 105.293831, 70.937927, 90.696335, 90.208549, 0.000, 0.000, 0.000,0.0,0.0,0.0,0.0,0.0, 21:52:19.752
, 73.415466, 90.494339, 154.379181, 145.879868, 105.312050, 70.957596, 90.764328, 90.209221, 0.000, 0.000, 0.000,0.0,0.0,0.0,0.0,0.0, 21:52:19.752
, 73.358582, 90.436653, 154.322922, 146.047501, 105.259636, 71.070366, 90.790077, 90.347221, 0.000, 0.000, 0.000,0.0,0.0,0.0,0.0,0.0, 21:52:19.753
, 73.354088, 90.429459, 154.316757, 146.096603, 105.219490, 71.085228, 90.722733, 90.382446, 0.000, 0.000, 0.000,0.0,0.0,0.0,0.0,0.0, 21:52:19.753
, 73.417137, 90.490814, 154.380966, 145.915985, 105.268913, 70.958649, 90.680038, 90.230461, 0.000, 0.000, 0.000,0.0,0.0,0.0,0.0,0.0, 21:52:19.753
, 73.439133, 90.513069, 154.403046, 145.855835, 105.306305, 70.942421, 90.734604, 90.190002, 0.000, 0.000, 0.000,0.0,0.0,0.0,0.0,0.0, 21:52:19.753
, 73.389290, 90.464478, 154.354034, 146.011047, 105.260437, 71.051682, 90.767502, 90.321449, 0.318, 0.304, 0.890,0.0,0.0,0.0,0.0,0.0, 21:52:19.753
, 73.356789, 90.428848, 154.320755, 146.117142, 105.229866, 71.100044, 90.744278, 90.400932, 0.000, 0.000, 0.000,0.0,0.0,0.0,0.0,0.0, 21:52:19.753
, 73.401627, 90.475342, 154.370682, 145.961777, 105.277000, 70.982407, 90.699707, 90.269730, 0.000, 0.000, 0.000,0.0,0.0,0.0,0.0,0.0, 21:52:19.754
, 73.422127, 90.498055, 154.388763, 145.870987, 105.307846, 70.936279, 90.736588, 90.202515, 0.000, 0.000, 0.000,0.0,0.0,0.0,0.0,0.0, 21:52:19.754
, 73.382050, 90.463585, 154.346542, 145.991867, 105.271080, 71.027000, 90.780510, 90.301758, 0.000, 0.000, 0.000,0.0,0.0,0.0,0.0,0.0, 21:52:19.754
, 73.342575, 90.429993, 154.305038, 146.117310, 105.226669, 71.098640, 90.757935, 90.397469, 0.000, 0.000, 0.000,0.0,0.0,0.0,0.0,0.0, 21:52:19.754
, 73.373802, 90.461327, 154.336060, 145.994278, 105.245216, 70.997650, 90.676598, 90.294563, 0.000, 0.000, 0.000,0.0,0.0,0.0,0.0,0.0, 21:52:19.755
, 73.426842, 90.514435, 154.386337, 145.844284, 105.303780, 70.916206, 90.696892, 90.173843, 0.000, 0.000, 0.000,0.0,0.0,0.0,0.0,0.0, 21:52:19.755
, 73.392708, 90.484016, 154.347931, 145.939941, 105.276352, 70.999466, 90.757935, 90.257568, 0.000, 0.000, 0.000,0.0,0.0,0.0,0.0,0.0, 21:52:19.755
, 73.341255, 90.432320, 154.296783, 146.106796, 105.214729, 71.098190, 90.760063, 90.397804, 0.330, 0.304, 0.890,0.0,0.0,0.0,0.0,0.0, 21:52:19.755
, 73.390495, 90.479279, 154.347244, 146.025238, 105.245667, 71.028099, 90.712112, 90.328964, 0.000, 0.000, 0.000,0.0,0.0,0.0,0.0,0.0, 21:52:19.755
, 73.436745, 90.524475, 154.394821, 145.862778, 105.302750, 70.927917, 90.716026, 90.196281, 0.000, 0.000, 0.000,0.0,0.0,0.0,0.0,0.0, 21:52:19.755
, 73.409943, 90.500580, 154.368591, 145.923965, 105.291039, 70.984085, 90.760727, 90.248650, 0.000, 0.000, 0.000,0.0,0.0,0.0,0.0,0.0, 21:52:19.756
, 73.357994, 90.448944, 154.318695, 146.086365, 105.245239, 71.088890, 90.772354, 90.382050, 0.000, 0.000, 0.000,0.0,0.0,0.0,0.0,0.0, 21:52:19.756
, 73.374161, 90.466064, 154.337051, 146.052612, 105.252708, 71.052505, 90.730446, 90.353462, 0.000, 0.000, 0.000,0.0,0.0,0.0,0.0,0.0, 21:52:19.756
, 73.425011, 90.518906, 154.385498, 145.869385, 105.292519, 70.930977, 90.703911, 90.203300, 0.000, 0.000, 0.000,0.0,0.0,0.0,0.0,0.0, 21:52:19.756
, 73.413902, 90.508179, 154.368210, 145.897568, 105.282951, 70.961067, 90.735313, 90.227707, 0.000, 0.000, 0.000,0.0,0.0,0.0,0.0,0.0, 21:52:19.757
, 73.361755, 90.453682, 154.315048, 146.067749, 105.239319, 71.076241, 90.766113, 90.361862, 0.000, 0.000, 0.000,0.0,0.0,0.0,0.0,0.0, 21:52:19.757
, 73.349663, 90.442665, 154.308640, 146.101501, 105.229012, 71.077675, 90.735695, 90.389153, 0.000, 0.000, 0.000,0.0,0.0,0.0,0.0,0.0, 21:52:19.757
, 73.417679, 90.512245, 154.376450, 145.902832, 105.290970, 70.948814, 90.695465, 90.228691, 0.324, 0.290, 0.892,0.0,0.0,0.0,0.0,0.0, 21:52:19.757
, 73.411530, 90.506119, 154.367996, 145.883621, 105.300072, 70.955322, 90.740547, 90.219887, 0.000, 0.000, 0.000,0.0,0.0,0.0,0.0,0.0, 21:52:19.757
, 73.365059, 90.461639, 154.324417, 146.033691, 105.259102, 71.062050, 90.779526, 90.344185, 0.000, 0.000, 0.000,0.0,0.0,0.0,0.0,0.0, 21:52:19.757
, 73.345390, 90.441727, 154.305862, 146.099533, 105.227806, 71.088692, 90.746155, 90.394295, 0.000, 0.000, 0.000,0.0,0.0,0.0,0.0,0.0, 21:52:19.758
, 73.411331, 90.510010, 154.374344, 145.910797, 105.282433, 70.959518, 90.706261, 90.236336, 0.000, 0.000, 0.000,0.0,0.0,0.0,0.0,0.0, 21:52:19.758
, 73.425926, 90.528519, 154.388016, 145.845154, 105.302841, 70.930397, 90.738960, 90.182716, 0.000, 0.000, 0.000,0.0,0.0,0.0,0.0,0.0, 21:52:19.758
, 73.372192, 90.479431, 154.330719, 145.997528, 105.254654, 71.032051, 90.763481, 90.304489, 0.000, 0.000, 0.000,0.0,0.0,0.0,0.0,0.0, 21:52:19.758
, 73.338348, 90.449707, 154.297928, 146.107803, 105.225441, 71.086235, 90.747070, 90.390114, 0.000, 0.000, 0.000,0.0,0.0,0.0,0.0,0.0, 21:52:19.758
, 73.399933, 90.511574, 154.361694, 145.947861, 105.283577, 70.972710, 90.711403, 90.259628, 0.000, 0.000, 0.000,0.0,0.0,0.0,0.0,0.0, 21:52:19.759
, 73.435333, 90.541237, 154.390762, 145.847626, 105.320480, 70.924339, 90.744209, 90.183006, 0.326, 0.296, 0.882,0.0,0.0,0.0,0.0,0.0, 21:52:19.759
, 73.383591, 90.490746, 154.340851, 145.982071, 105.276314, 71.020630, 90.781631, 90.294739, 0.000, 0.000, 0.000,0.0,0.0,0.0,0.0,0.0, 21:52:19.759
, 73.343987, 90.450844, 154.307144, 146.119858, 105.237213, 71.102905, 90.778542, 90.407753, 0.000, 0.000, 0.000,0.0,0.0,0.0,0.0,0.0, 21:52:19.759
, 73.383881, 90.487411, 154.350906, 146.003128, 105.275284, 71.011734, 90.734154, 90.314011, 0.000, 0.000, 0.000,0.0,0.0,0.0,0.0,0.0, 21:52:19.760
, 73.425072, 90.534416, 154.389557, 145.854401, 105.330353, 70.927109, 90.756416, 90.198250, 0.000, 0.000, 0.000,0.0,0.0,0.0,0.0,0.0, 21:52:19.760
, 73.392647, 90.506279, 154.348419, 145.939606, 105.297882, 70.997902, 90.787354, 90.271118, 0.000, 0.000, 0.000,0.0,0.0,0.0,0.0,0.0, 21:52:19.760
, 73.343132, 90.457794, 154.298798, 146.088333, 105.253151, 71.090324, 90.788025, 90.390137, 0.000, 0.000, 0.000,0.0,0.0,0.0,0.0,0.0, 21:52:19.760
, 73.360680, 90.480286, 154.328110, 146.011017, 105.271591, 71.023270, 90.758675, 90.324471, 0.000, 0.000, 0.000,0.0,0.0,0.0,0.0,0.0, 21:52:19.761
, 73.415237, 90.537819, 154.382248, 145.839874, 105.321770, 70.919823, 90.745239, 90.188301, 0.000, 0.000, 0.000,0.0,0.0,0.0,0.0,0.0, 21:52:19.761
, 73.392868, 90.520630, 154.352509, 145.897858, 105.306839, 70.972527, 90.775436, 90.235909, 0.000, 0.000, 0.000,0.0,0.0,0.0,0.0,0.0, 21:52:19.761
, 73.337189, 90.467361, 154.291275, 146.069611, 105.238914, 71.076645, 90.771950, 90.367805, 0.334, 0.308, 0.880,0.0,0.0,0.0,0.0,0.0, 21:52:19.761
, 73.344986, 90.476524, 154.301483, 146.050140, 105.237175, 71.039452, 90.727669, 90.344765, 0.000, 0.000, 0.000,0.0,0.0,0.0,0.0,0.0, 21:52:19.762
, 73.405296, 90.540680, 154.363510, 145.859314, 105.301949, 70.918213, 90.707733, 90.195320, 0.000, 0.000, 0.000,0.0,0.0,0.0,0.0,0.0, 21:52:19.762
, 73.402184, 90.534889, 154.357224, 145.877579, 105.314354, 70.950043, 90.763214, 90.218742, 0.000, 0.000, 0.000,0.0,0.0,0.0,0.0,0.0, 21:52:19.762
, 73.357643, 90.491905, 154.309326, 146.041214, 105.264641, 71.064667, 90.787354, 90.356857, 0.000, 0.000, 0.000,0.0,0.0,0.0,0.0,0.0, 21:52:19.762
, 73.358292, 90.493027, 154.314911, 146.067932, 105.247009, 71.068733, 90.745461, 90.378067, 0.000, 0.000, 0.000,0.0,0.0,0.0,0.0,0.0, 21:52:19.763
, 73.413231, 90.546600, 154.370911, 145.888474, 105.297966, 70.942581, 90.721458, 90.227371, 0.000, 0.000, 0.000,0.0,0.0,0.0,0.0,0.0, 21:52:19.763
, 73.411980, 90.550621, 154.368042, 145.857056, 105.313232, 70.943230, 90.767372, 90.212288, 0.000, 0.000, 0.000,0.0,0.0,0.0,0.0,0.0, 21:52:19.763
, 73.342621, 90.486717, 154.299301, 146.023026, 105.259163, 71.055389, 90.802124, 90.353165, 0.000, 0.000, 0.000,0.0,0.0,0.0,0.0,0.0, 21:52:19.764
, 73.323601, 90.464996, 154.278641, 146.089111, 105.226913, 71.077873, 90.762474, 90.404846, 0.000, 0.000, 0.000,0.0,0.0,0.0,0.0,0.0, 21:52:19.764
, 73.402100, 90.545486, 154.357742, 145.893906, 105.287262, 70.945488, 90.709274, 90.238373, 0.334, 0.320, 0.882,0.0,0.0,0.0,0.0,0.0, 21:52:20.218
, 73.428070, 90.570404, 154.379944, 145.834793, 105.322800, 70.926689, 90.761940, 90.195518, 0.000, 0.000, 0.000,0.0,0.0,0.0,0.0,0.0, 21:52:20.218
, 73.377708, 90.519333, 154.326340, 145.984131, 105.271866, 71.031471, 90.786682, 90.321342, 0.000, 0.000, 0.000,0.0,0.0,0.0,0.0,0.0, 21:52:20.218
, 73.347672, 90.486320, 154.294327, 146.098419, 105.242203, 71.086571, 90.771255, 90.412918, 0.000, 0.000, 0.000,0.0,0.0,0.0,0.0,0.0, 21:52:20.218
, 73.410683, 90.549416, 154.356201, 145.940933, 105.290817, 70.971123, 90.713882, 90.278290, 0.000, 0.000, 0.000,0.0,0.0,0.0,0.0,0.0, 21:52:20.218
, 73.445168, 90.585335, 154.390671, 145.828827, 105.339256, 70.913345, 90.747986, 90.189171, 0.000, 0.000, 0.000,0.0,0.0,0.0,0.0,0.0, 21:52:20.218
, 73.397339, 90.540115, 154.342010, 145.958023, 105.299179, 71.005920, 90.794395, 90.296730, 0.000, 0.000, 0.000,0.0,0.0,0.0,0.0,0.0, 21:52:20.219
, 73.354378, 90.497429, 154.296677, 146.108078, 105.250854, 71.092155, 90.777451, 90.416267, 0.000, 0.000, 0.000,0.0,0.0,0.0,0.0,0.0, 21:52:20.219
, 73.386787, 90.532539, 154.333206, 146.001328, 105.289207, 71.007156, 90.734352, 90.324890, 0.000, 0.000, 0.000,0.0,0.0,0.0,0.0,0.0, 21:52:20.219
, 73.436852, 90.579903, 154.381821, 145.846130, 105.336998, 70.919174, 90.734871, 90.203903, 0.336, 0.322, 0.882,0.0,0.0,0.0,0.0,0.0, 21:52:20.219
, 73.410767, 90.555161, 154.351791, 145.919464, 105.306015, 70.987549, 90.764107, 90.271805, 0.000, 0.000, 0.000,0.0,0.0,0.0,0.0,0.0, 21:52:20.219
, 73.361908, 90.508041, 154.300903, 146.075287, 105.258629, 71.089272, 90.770317, 90.400421, 0.000, 0.000, 0.000,0.0,0.0,0.0,0.0,0.0, 21:52:20.219
, 73.377731, 90.525475, 154.315582, 146.025635, 105.259323, 71.031357, 90.713478, 90.351379, 0.000, 0.000, 0.000,0.0,0.0,0.0,0.0,0.0, 21:52:20.219
, 73.437477, 90.586746, 154.375580, 145.851364, 105.329597, 70.921013, 90.715912, 90.209045, 0.000, 0.000, 0.000,0.0,0.0,0.0,0.0,0.0, 21:52:20.220
, 73.422684, 90.573982, 154.358017, 145.891129, 105.320541, 70.968147, 90.763527, 90.248787, 0.000, 0.000, 0.000,0.0,0.0,0.0,0.0,0.0, 21:52:20.220
, 73.374985, 90.527733, 154.308533, 146.055771, 105.270142, 71.077721, 90.783928, 90.383453, 0.000, 0.000, 0.000,0.0,0.0,0.0,0.0,0.0, 21:52:20.220
, 73.375160, 90.529343, 154.310669, 146.049805, 105.264221, 71.051971, 90.749825, 90.373329, 0.000, 0.000, 0.000,0.0,0.0,0.0,0.0,0.0, 21:52:20.220
, 73.442284, 90.595619, 154.375107, 145.852219, 105.311516, 70.920387, 90.712852, 90.209892, 0.000, 0.000, 0.000,0.0,0.0,0.0,0.0,0.0, 21:52:20.221
, 73.450493, 90.602371, 154.381104, 145.855972, 105.324257, 70.944702, 90.751678, 90.217918, 0.000, 0.000, 0.000,0.0,0.0,0.0,0.0,0.0, 21:52:20.221
, 73.401268, 90.547676, 154.333084, 146.035034, 105.287910, 71.065376, 90.795311, 90.365799, 0.334, 0.324, 0.888,0.0,0.0,0.0,0.0,0.0, 21:52:20.222
, 73.397560, 90.543495, 154.332703, 146.082321, 105.271614, 71.074005, 90.761131, 90.398766, 0.000, 0.000, 0.000,0.0,0.0,0.0,0.0,0.0, 21:52:20.222
, 73.444679, 90.600136, 154.385208, 145.911102, 105.317413, 70.942780, 90.729195, 90.251442, 0.000, 0.000, 0.000,0.0,0.0,0.0,0.0,0.0, 21:52:20.222
, 73.444946, 90.604492, 154.387222, 145.875809, 105.334648, 70.935562, 90.769447, 90.228134, 0.000, 0.000, 0.000,0.0,0.0,0.0,0.0,0.0, 21:52:20.222
, 73.397491, 90.556992, 154.335037, 146.022125, 105.292496, 71.044121, 90.798035, 90.347359, 0.000, 0.000, 0.000,0.0,0.0,0.0,0.0,0.0, 21:52:20.222
, 73.367027, 90.526886, 154.305511, 146.097305, 105.253822, 71.077744, 90.760239, 90.403908, 0.000, 0.000, 0.000,0.0,0.0,0.0,0.0,0.0, 21:52:20.223
, 73.409966, 90.571548, 154.350922, 145.927017, 105.295464, 70.957268, 90.718109, 90.262642, 0.000, 0.000, 0.000,0.0,0.0,0.0,0.0,0.0, 21:52:20.223
, 73.422256, 90.583992, 154.361923, 145.848419, 105.314331, 70.924316, 90.741707, 90.208954, 0.000, 0.000, 0.000,0.0,0.0,0.0,0.0,0.0, 21:52:20.223
, 73.389244, 90.551117, 154.328598, 145.973404, 105.295731, 71.021950, 90.795174, 90.317741, 0.000, 0.000, 0.000,0.0,0.0,0.0,0.0,0.0, 21:52:20.223
, 73.342461, 90.505806, 154.283051, 146.101944, 105.237755, 71.084068, 90.764549, 90.412292, 0.322, 0.312, 0.884,0.0,0.0,0.0,0.0,0.0, 21:52:20.223
, 73.391525, 90.557594, 154.339935, 145.960388, 105.274429, 70.973671, 90.699242, 90.287521, 0.000, 0.000, 0.000,0.0,0.0,0.0,0.0,0.0, 21:52:20.223
, 73.436852, 90.602882, 154.378983, 145.837341, 105.320007, 70.907486, 90.728607, 90.186897, 0.000, 0.000, 0.000,0.0,0.0,0.0,0.0,0.0, 21:52:20.224
, 73.408470, 90.571747, 154.346191, 145.943207, 105.302551, 70.992355, 90.793053, 90.281601, 0.000, 0.000, 0.000,0.0,0.0,0.0,0.0,0.0, 21:52:20.224
, 73.373756, 90.536789, 154.311676, 146.092834, 105.270500, 71.078522, 90.810440, 90.406387, 0.000, 0.000, 0.000,0.0,0.0,0.0,0.0,0.0, 21:52:20.224
, 73.415443, 90.579147, 154.356094, 146.005905, 105.300453, 71.002708, 90.764305, 90.330887, 0.000, 0.000, 0.000,0.0,0.0,0.0,0.0,0.0, 21:52:20.224
, 73.465424, 90.625572, 154.402786, 145.847534, 105.363327, 70.912025, 90.772888, 90.205963, 0.000, 0.000, 0.000,0.0,0.0,0.0,0.0,0.0, 21:52:20.225
, 73.436142, 90.596443, 154.369614, 145.928635, 105.347748, 70.984535, 90.832748, 90.280212, 0.000, 0.000, 0.000,0.0,0.0,0.0,0.0,0.0, 21:52:20.225
, 73.382027, 90.543983, 154.315796, 146.095886, 105.291801, 71.088646, 90.846359, 90.418365, 0.000, 0.000, 0.000,0.0,0.0,0.0,0.0,0.0, 21:52:20.225
, 73.392509, 90.558289, 154.333511, 146.041840, 105.283012, 71.029572, 90.782990, 90.368301, 0.000, 0.000, 0.000,0.0,0.0,0.0,0.0,0.0, 21:52:20.225
, 73.437057, 90.601433, 154.375916, 145.867859, 105.331566, 70.916183, 90.768265, 90.222412, 0.318, 0.322, 0.892,0.0,0.0,0.0,0.0,0.0, 21:52:20.225
, 73.421188, 90.586700, 154.357147, 145.907623, 105.315155, 70.960754, 90.797501, 90.264633, 0.000, 0.000, 0.000,0.0,0.0,0.0,0.0,0.0, 21:52:20.226
, 73.370583, 90.542130, 154.306351, 146.070908, 105.274834, 71.072266, 90.823715, 90.406433, 0.000, 0.000, 0.000,0.0,0.0,0.0,0.0,0.0, 21:52:20.226
, 73.376663, 90.549911, 154.313324, 146.061737, 105.272820, 71.047676, 90.790009, 90.394341, 0.000, 0.000, 0.000,0.0,0.0,0.0,0.0,0.0, 21:52:20.226
, 73.424629, 90.601433, 154.361725, 145.870926, 105.320183, 70.914505, 90.757378, 90.230789, 0.000, 0.000, 0.000,0.0,0.0,0.0,0.0,0.0, 21:52:20.226
, 73.422531, 90.606461, 154.359863, 145.865997, 105.333977, 70.930489, 90.808762, 90.230637, 0.000, 0.000, 0.000,0.0,0.0,0.0,0.0,0.0, 21:52:20.226
, 73.384460, 90.569962, 154.321381, 146.030960, 105.297546, 71.046829, 90.849129, 90.363426, 0.000, 0.000, 0.000,0.0,0.0,0.0,0.0,0.0, 21:52:20.226
, 73.363922, 90.547340, 154.300140, 146.091415, 105.268219, 71.065445, 90.817528, 90.409203, 0.000, 0.000, 0.000,0.0,0.0,0.0,0.0,0.0, 21:52:20.226
, 73.422211, 90.610481, 154.360672, 145.897095, 105.324188, 70.934288, 90.780670, 90.250420, 0.000, 0.000, 0.000,0.0,0.0,0.0,0.0,0.0, 21:52:20.227
, 73.433655, 90.618301, 154.365829, 145.864731, 105.341736, 70.930199, 90.829956, 90.228874, 0.310, 0.338, 0.896,0.0,0.0,0.0,0.0,0.0, 21:52:20.227
, 73.390678, 90.574654, 154.324951, 146.010895, 105.304588, 71.034645, 90.870384, 90.351204, 0.000, 0.000, 0.000,0.0,0.0,0.0,0.0,0.0, 21:52:20.228
, 73.364120, 90.548119, 154.297775, 146.097885, 105.271057, 71.074318, 90.846336, 90.420113, 0.000, 0.000, 0.000,0.0,0.0,0.0,0.0,0.0, 21:52:20.228
, 73.413361, 90.596222, 154.344910, 145.934158, 105.308388, 70.952232, 90.779305, 90.282623, 0.000, 0.000, 0.000,0.0,0.0,0.0,0.0,0.0, 21:52:20.228
, 73.453796, 90.635742, 154.381973, 145.859024, 105.366478, 70.918755, 90.824547, 90.228783, 0.000, 0.000, 0.000,0.0,0.0,0.0,0.0,0.0, 21:52:20.228
, 73.418594, 90.603821, 154.344849, 145.979370, 105.325264, 71.010307, 90.864220, 90.329185, 0.000, 0.000, 0.000,0.0,0.0,0.0,0.0,0.0, 21:52:20.228
, 73.370468, 90.556549, 154.298050, 146.110214, 105.260956, 71.079239, 90.851387, 90.432518, 0.000, 0.000, 0.000,0.0,0.0,0.0,0.0,0.0, 21:52:20.229
, 73.429253, 90.616112, 154.360718, 145.976044, 105.308807, 70.977760, 90.801811, 90.317184, 0.000, 0.000, 0.000,0.0,0.0,0.0,0.0,0.0, 21:52:20.229
, 73.469177, 90.656548, 154.399277, 145.846268, 105.359482, 70.907707, 90.815338, 90.212776, 0.000, 0.000, 0.000,0.0,0.0,0.0,0.0,0.0, 21:52:20.229
, 73.423645, 90.614906, 154.352127, 145.949783, 105.320099, 70.987816, 90.847679, 90.297493, 0.000, 0.000, 0.000,0.0,0.0,0.0,0.0,0.0, 21:52:20.229
, 73.380684, 90.571251, 154.309937, 146.113754, 105.280869, 71.082634, 90.854965, 90.428246, 0.318, 0.346, 0.884,0.0,0.0,0.0,0.0,0.0, 21:52:20.229
, 73.405968, 90.600647, 154.341339, 146.026917, 105.292496, 71.000580, 90.793388, 90.349121, 0.000, 0.000, 0.000,0.0,0.0,0.0,0.0,0.0, 21:52:20.229
, 73.481491, 90.674248, 154.412262, 145.862564, 105.363144, 70.905701, 90.802101, 90.217361, 0.000, 0.000, 0.000,0.0,0.0,0.0,0.0,0.0, 21:52:20.229
, 73.444901, 90.634468, 154.372726, 145.937958, 105.344955, 70.969398, 90.857178, 90.287384, 0.000, 0.000, 0.000,0.0,0.0,0.0,0.0,0.0, 21:52:20.230
, 73.394547, 90.582764, 154.322006, 146.100723, 105.297592, 71.074432, 90.876846, 90.418411, 0.000, 0.000, 0.000,0.0,0.0,0.0,0.0,0.0, 21:52:20.230
, 73.406631, 90.597694, 154.335999, 146.063431, 105.306526, 71.032967, 90.837509, 90.384796, 0.000, 0.000, 0.000,0.0,0.0,0.0,0.0,0.0, 21:52:20.230
, 73.446022, 90.638290, 154.378174, 145.880539, 105.350990, 70.911842, 90.819870, 90.233475, 0.000, 0.000, 0.000,0.0,0.0,0.0,0.0,0.0, 21:52:20.230
, 73.430954, 90.624023, 154.360474, 145.897568, 105.335121, 70.937775, 90.838760, 90.243759, 0.000, 0.000, 0.000,0.0,0.0,0.0,0.0,0.0, 21:52:20.230
, 73.388863, 90.585381, 154.324310, 146.061722, 105.311562, 71.052414, 90.882774, 90.377754, 0.000, 0.000, 0.000,0.0,0.0,0.0,0.0,0.0, 21:52:20.230
, 73.387123, 90.589043, 154.325363, 146.087494, 105.305099, 71.052864, 90.862343, 90.398544, 0.000, 0.000, 0.000,0.0,0.0,0.0,0.0,0.0, 21:52:20.230
, 73.465240, 90.666428, 154.405716, 145.894211, 105.369469, 70.929550, 90.828590, 90.240944, 0.308, 0.330, 0.884,0.0,0.0,0.0,0.0,0.0, 21:52:20.230
, 73.467033, 90.668732, 154.404877, 145.886963, 105.377495, 70.946381, 90.875641, 90.238998, 0.000, 0.000, 0.000,0.0,0.0,0.0,0.0,0.0, 21:52:20.231
, 73.395103, 90.599060, 154.333664, 146.061096, 105.313637, 71.059906, 90.890770, 90.381241, 0.000, 0.000, 0.000,0.0,0.0,0.0,0.0,0.0, 21:52:20.231
, 73.383430, 90.585449, 154.321915, 146.120499, 105.301102, 71.082855, 90.866745, 90.429832, 0.000, 0.000, 0.000,0.0,0.0,0.0,0.0,0.0, 21:52:20.231
, 73.449570, 90.650223, 154.387497, 145.931992, 105.362228, 70.954315, 90.831497, 90.270531, 0.000, 0.000, 0.000,0.0,0.0,0.0,0.0,0.0, 21:52:20.231
, 73.456505, 90.662849, 154.394913, 145.875504, 105.383690, 70.933731, 90.865692, 90.227890, 0.000, 0.000, 0.000,0.0,0.0,0.0,0.0,0.0, 21:52:20.231
, 73.397652, 90.607620, 154.338257, 146.020233, 105.328568, 71.035652, 90.896919, 90.348404, 0.000, 0.000, 0.000,0.0,0.0,0.0,0.0,0.0, 21:52:20.231
, 73.365395, 90.572884, 154.308945, 146.122375, 105.286369, 71.086121, 90.890327, 90.430122, 0.000, 0.000, 0.000,0.0,0.0,0.0,0.0,0.0, 21:52:20.232
, 73.421837, 90.631691, 154.367111, 145.967865, 105.325996, 70.971298, 90.842606, 90.302094, 0.000, 0.000, 0.000,0.0,0.0,0.0,0.0,0.0, 21:52:20.232
, 73.462044, 90.668640, 154.403610, 145.855652, 105.373940, 70.916809, 90.858116, 90.212395, 0.306, 0.314, 0.894,0.0,0.0,0.0,0.0,0.0, 21:52:20.232
, 73.420540, 90.625237, 154.358566, 145.976044, 105.352486, 71.005608, 90.921867, 90.307434, 0.000, 0.000, 0.000,0.0,0.0,0.0,0.0,0.0, 21:52:20.232
, 73.373375, 90.575790, 154.304230, 146.120544, 105.301346, 71.084152, 90.910889, 90.422791, 0.000, 0.000, 0.000,0.0,0.0,0.0,0.0,0.0, 21:52:20.232
, 73.421921, 90.620872, 154.354431, 145.997971, 105.326889, 70.987999, 90.836884, 90.321831, 0.000, 0.000, 0.000,0.0,0.0,0.0,0.0,0.0, 21:52:20.232
, 73.471123, 90.671455, 154.403915, 145.852798, 105.376488, 70.908806, 90.844551, 90.204353, 0.000, 0.000, 0.000,0.0,0.0,0.0,0.0,0.0, 21:52:20.232
, 73.427086, 90.629257, 154.362198, 145.944351, 105.356712, 70.980171, 90.900673, 90.273170, 0.000, 0.000, 0.000,0.0,0.0,0.0,0.0,0.0, 21:52:20.233
, 73.375229, 90.575386, 154.311920, 146.107758, 105.307381, 71.075615, 90.909393, 90.403770, 0.000, 0.000, 0.000,0.0,0.0,0.0,0.0,0.0, 21:52:20.233
, 73.411598, 90.609589, 154.349991, 146.026917, 105.327316, 71.008827, 90.851768, 90.336586, 0.000, 0.000, 0.000,0.0,0.0,0.0,0.0,0.0, 21:52:20.234
, 73.454712, 90.649483, 154.392471, 145.864197, 105.375664, 70.911888, 90.848640, 90.211708, 0.000, 0.000, 0.000,0.0,0.0,0.0,0.0,0.0, 21:52:20.234
, 73.414238, 90.611778, 154.350327, 145.924942, 105.345802, 70.959366, 90.885429, 90.260162, 0.000, 0.000, 0.000,0.0,0.0,0.0,0.0,0.0, 21:52:20.235
, 73.364929, 90.561958, 154.299255, 146.075760, 105.293747, 71.055832, 90.889900, 90.376793, 0.300, 0.306, 0.890,0.0,0.0,0.0,0.0,0.0, 21:52:20.235
, 73.394211, 90.591484, 154.329224, 146.052307, 105.308968, 71.026306, 90.851456, 90.356613, 0.000, 0.000, 0.000,0.0,0.0,0.0,0.0,0.0, 21:52:20.235
, 73.453575, 90.647720, 154.388840, 145.867004, 105.364532, 70.910080, 90.833931, 90.209984, 0.000, 0.000, 0.000,0.0,0.0,0.0,0.0,0.0, 21:52:20.235
, 73.451721, 90.644615, 154.385483, 145.886963, 105.372086, 70.949150, 90.896851, 90.237053, 0.000, 0.000, 0.000,0.0,0.0,0.0,0.0,0.0, 21:52:20.235
, 73.401649, 90.593788, 154.336334, 146.055084, 105.330513, 71.062813, 90.929886, 90.380974, 0.000, 0.000, 0.000,0.0,0.0,0.0,0.0,0.0, 21:52:20.236
, 73.393494, 90.585556, 154.329987, 146.075485, 105.313568, 71.057625, 90.869270, 90.393852, 0.000, 0.000, 0.000,0.0,0.0,0.0,0.0,0.0, 21:52:20.236
, 73.440834, 90.633614, 154.377487, 145.892822, 105.364105, 70.930084, 90.829018, 90.244896, 0.000, 0.000, 0.000,0.0,0.0,0.0,0.0,0.0, 21:52:20.236
, 73.437973, 90.628853, 154.372299, 145.861847, 105.382637, 70.922935, 90.880379, 90.223709, 0.000, 0.000, 0.000,0.0,0.0,0.0,0.0,0.0, 21:52:20.236
, 73.395798, 90.588219, 154.327103, 146.021973, 105.332275, 71.032860, 90.912743, 90.354553, 0.000, 0.000, 0.000,0.0,0.0,0.0,0.0,0.0, 21:52:20.237
, 73.374557, 90.565018, 154.303802, 146.101639, 105.299980, 71.059166, 90.880890, 90.416023, 0.276, 0.314, 0.896,0.0,0.0,0.0,0.0,0.0, 21:52:20.237
, 73.435425, 90.622734, 154.367447, 145.923645, 105.349289, 70.929817, 90.834602, 90.269035, 0.000, 0.000, 0.000,0.0,0.0,0.0,0.0,0.0, 21:52:20.237
, 73.453842, 90.643227, 154.384293, 145.868546, 105.372917, 70.910637, 90.880714, 90.228981, 0.000, 0.000, 0.000,0.0,0.0,0.0,0.0,0.0, 21:52:20.237
, 73.410141, 90.598839, 154.340942, 146.008224, 105.333641, 71.010956, 90.911003, 90.342484, 0.000, 0.000, 0.000,0.0,0.0,0.0,0.0,0.0, 21:52:20.238
, 73.395325, 90.581245, 154.323654, 146.118912, 105.303535, 71.071144, 90.881561, 90.422791, 0.000, 0.000, 0.000,0.0,0.0,0.0,0.0,0.0, 21:52:20.238
, 73.457642, 90.644882, 154.388840, 145.967529, 105.363594, 70.960754, 90.844391, 90.292305, 0.000, 0.000, 0.000,0.0,0.0,0.0,0.0,0.0, 21:52:20.238
, 73.457214, 90.644699, 154.392365, 145.870010, 105.391106, 70.908226, 90.872444, 90.219124, 0.000, 0.000, 0.000,0.0,0.0,0.0,0.0,0.0, 21:52:20.238
, 73.424271, 90.607132, 154.361282, 145.980896, 105.368980, 71.001633, 90.920212, 90.322723, 0.000, 0.000, 0.000,0.0,0.0,0.0,0.0,0.0, 21:52:20.238
, 73.384575, 90.569199, 154.321564, 146.122314, 105.323807, 71.081139, 90.907669, 90.438370, 0.000, 0.000, 0.000,0.0,0.0,0.0,0.0,0.0, 21:52:20.239
, 73.423714, 90.606171, 154.363327, 146.021744, 105.353378, 70.994659, 90.861511, 90.349525, 0.000, 0.000, 0.000,0.0,0.0,0.0,0.0,0.0, 21:52:20.239
, 73.473938, 90.655899, 154.412552, 145.873199, 105.409973, 70.910324, 90.888824, 90.214455, 0.276, 0.314, 0.894,0.0,0.0,0.0,0.0,0.0, 21:52:20.239
, 73.428627, 90.615463, 154.365479, 145.953461, 105.371643, 70.979233, 90.918709, 90.298141, 0.000, 0.000, 0.000,0.0,0.0,0.0,0.0,0.0, 21:52:20.239
, 73.374313, 90.562515, 154.311279, 146.104950, 105.314911, 71.075348, 90.895912, 90.425362, 0.000, 0.000, 0.000,0.0,0.0,0.0,0.0,0.0, 21:52:20.240
, 73.399956, 90.590073, 154.341232, 146.038422, 105.327271, 71.011665, 90.848907, 90.369911, 0.000, 0.000, 0.000,0.0,0.0,0.0,0.0,0.0, 21:52:20.240
, 73.464348, 90.654449, 154.402802, 145.859436, 105.379059, 70.898521, 90.843185, 90.219933, 0.000, 0.000, 0.000,0.0,0.0,0.0,0.0,0.0, 21:52:20.240
, 73.432228, 90.621948, 154.371872, 145.916626, 105.376091, 70.951408, 90.901703, 90.269554, 0.000, 0.000, 0.000,0.0,0.0,0.0,0.0,0.0, 21:52:20.240
, 73.365173, 90.553574, 154.305649, 146.087128, 105.314735, 71.053932, 90.924706, 90.409805, 0.000, 0.000, 0.000,0.0,0.0,0.0,0.0,0.0, 21:52:20.241
, 73.383255, 90.569351, 154.321198, 146.067062, 105.290840, 71.022713, 90.849289, 90.386185, 0.000, 0.000, 0.000,0.0,0.0,0.0,0.0,0.0, 21:52:20.241
, 73.445770, 90.631294, 154.384338, 145.880066, 105.351860, 70.900826, 90.825058, 90.232109, 0.000, 0.000, 0.000,0.0,0.0,0.0,0.0,0.0, 21:52:20.241
, 73.446129, 90.630127, 154.380432, 145.892288, 105.361382, 70.923248, 90.874390, 90.249168, 0.288, 0.328, 0.896,0.0,0.0,0.0,0.0,0.0, 21:52:20.242
, 73.412651, 90.595551, 154.347000, 146.072311, 105.342117, 71.039566, 90.924164, 90.383904, 0.000, 0.000, 0.000,0.0,0.0,0.0,0.0,0.0, 21:52:20.242
, 73.412376, 90.594925, 154.349548, 146.113953, 105.339233, 71.058250, 90.899689, 90.413719, 0.000, 0.000, 0.000,0.0,0.0,0.0,0.0,0.0, 21:52:20.242
, 73.458466, 90.647850, 154.395203, 145.918549, 105.369896, 70.927895, 90.844307, 90.266891, 0.000, 0.000, 0.000,0.0,0.0,0.0,0.0,0.0, 21:52:20.242
, 73.453331, 90.645889, 154.391968, 145.882141, 105.385590, 70.927757, 90.898369, 90.247826, 0.000, 0.000, 0.000,0.0,0.0,0.0,0.0,0.0, 21:52:20.242
, 73.406303, 90.597809, 154.344177, 146.041733, 105.349625, 71.041824, 90.942406, 90.379654, 0.000, 0.000, 0.000,0.0,0.0,0.0,0.0,0.0, 21:52:20.243
, 73.382271, 90.572212, 154.320572, 146.127029, 105.324257, 71.075615, 90.920654, 90.440163, 0.000, 0.000, 0.000,0.0,0.0,0.0,0.0,0.0, 21:52:20.243
, 73.452789, 90.640503, 154.392639, 145.948120, 105.388832, 70.953667, 90.890549, 90.294586, 0.000, 0.000, 0.000,2.486191,7.109638,4.7292423,14.623409,6.2884846, 21:52:20.698
, 73.482231, 90.669868, 154.417374, 145.874451, 105.415871, 70.929298, 90.935097, 90.247154, 0.000, 0.000, 0.000,2.486191,7.109638,4.7292423,14.623409,6.2884846, 21:52:20.698
, 73.430191, 90.621498, 154.365570, 146.010468, 105.358673, 71.027740, 90.957024, 90.361862, 0.000, 0.000, 0.000,2.486191,7.109638,4.7292423,14.623409,6.2884846, 21:52:20.698
, 73.384079, 90.576775, 154.319473, 146.133850, 105.314796, 71.084198, 90.941177, 90.452301, 0.280, 0.342, 0.902,2.486191,7.109638,4.7292423,14.623409,6.2884846, 21:52:20.699
, 73.446419, 90.635246, 154.382935, 145.990082, 105.362228, 70.974762, 90.890396, 90.326927, 0.000, 0.000, 0.000,2.486191,7.109638,4.7292423,14.623409,6.2884846, 21:52:20.699
, 73.483459, 90.671455, 154.418289, 145.883835, 105.418091, 70.917587, 90.929306, 90.243958, 0.000, 0.000, 0.000,2.486191,7.109638,4.7292423,14.623409,6.2884846, 21:52:20.699
, 73.446266, 90.633507, 154.376389, 145.987747, 105.382233, 70.999237, 90.951973, 90.330276, 0.000, 0.000, 0.000,2.486191,7.109638,4.7292423,14.623409,6.2884846, 21:52:20.699
, 73.396622, 90.582542, 154.325867, 146.127625, 105.331230, 71.085274, 90.940323, 90.442841, 0.000, 0.000, 0.000,2.486191,7.109638,4.7292423,14.623409,6.2884846, 21:52:20.699
, 73.438286, 90.624809, 154.371796, 146.013794, 105.357826, 71.000824, 90.901794, 90.347778, 0.000, 0.000, 0.000,2.486191,7.109638,4.7292423,14.623409,6.2884846, 21:52:20.699
, 73.481758, 90.667297, 154.414246, 145.870468, 105.422668, 70.922775, 90.946426, 90.238838, 0.000, 0.000, 0.000,2.486191,7.109638,4.7292423,14.623409,6.2884846, 21:52:20.699
, 73.442154, 90.630104, 154.373550, 145.954636, 105.401970, 70.990952, 90.993904, 90.312195, 0.000, 0.000, 0.000,2.486191,7.109638,4.7292423,14.623409,6.2884846, 21:52:20.700
, 73.400177, 90.587143, 154.328079, 146.112259, 105.338181, 71.087975, 90.977119, 90.437706, 0.000, 0.000, 0.000,2.486191,7.109638,4.7292423,14.623409,6.2884846, 21:52:20.700
, 73.435493, 90.622437, 154.365570, 146.052567, 105.349266, 71.033417, 90.928276, 90.380615, 0.000, 0.000, 0.000,2.486191,7.109638,4.7292423,14.623409,6.2884846, 21:52:20.700
, 73.490005, 90.677155, 154.416534, 145.877609, 105.407204, 70.927872, 90.927605, 90.240067, 0.286, 0.348, 0.900,2.486191,7.109638,4.7292423,14.623409,6.2884846, 21:52:20.700
, 73.446686, 90.634399, 154.370377, 145.931946, 105.391197, 70.970741, 90.979416, 90.290894, 0.000, 0.000, 0.000,2.486191,7.109638,4.7292423,14.623409,6.2884846, 21:52:20.700
, 73.390633, 90.578362, 154.315628, 146.100006, 105.335205, 71.073296, 90.989166, 90.425072, 0.000, 0.000, 0.000,2.486191,7.109638,4.7292423,14.623409,6.2884846, 21:52:20.700
, 73.418747, 90.603775, 154.344452, 146.091461, 105.351097, 71.053665, 90.954521, 90.413673, 0.000, 0.000, 0.000,2.486191,7.109638,4.7292423,14.623409,6.2884846, 21:52:20.701
, 73.473221, 90.655807, 154.402084, 145.916519, 105.427002, 70.939339, 90.963615, 90.272789, 0.000, 0.000, 0.000,2.486191,7.109638,4.7292423,14.623409,6.2884846, 21:52:20.701
, 73.457802, 90.643295, 154.384384, 145.915787, 105.411270, 70.955475, 90.997993, 90.278336, 0.000, 0.000, 0.000,2.486191,7.109638,4.7292423,14.623409,6.2884846, 21:52:20.701
, 73.389175, 90.577469, 154.313110, 146.079178, 105.344345, 71.056129, 90.997681, 90.408821, 0.000, 0.000, 0.000,2.486191,7.109638,4.7292423,14.623409,6.2884846, 21:52:20.701
, 73.388176, 90.574097, 154.316467, 146.113174, 105.339165, 71.058739, 90.972847, 90.430771, 0.000, 0.000, 0.000,2.486191,7.109638,4.7292423,14.623409,6.2884846, 21:52:20.701
, 73.472107, 90.655479, 154.398514, 145.914551, 105.413597, 70.934334, 90.955147, 90.268929, 0.000, 0.000, 0.000,2.486191,7.109638,4.7292423,14.623409,6.2884846, 21:52:20.701
, 73.480911, 90.657867, 154.398819, 145.887222, 105.436104, 70.934311, 91.018265, 90.255981, 0.288, 0.340, 0.898,2.486191,7.109638,4.7292423,14.623409,6.2884846, 21:52:20.701
, 73.423798, 90.598190, 154.339417, 146.038651, 105.386841, 71.036812, 91.041359, 90.381134, 0.000, 0.000, 0.000,2.486191,7.109638,4.7292423,14.623409,6.2884846, 21:52:20.701
, 73.399841, 90.571747, 154.316772, 146.110397, 105.367821, 71.069695, 91.008789, 90.434753, 0.000, 0.000, 0.000,2.486191,7.109638,4.7292423,14.623409,6.2884846, 21:52:20.702
, 73.449707, 90.621323, 154.366867, 145.950790, 105.404160, 70.952904, 90.952843, 90.302208, 0.000, 0.000, 0.000,2.486191,7.109638,4.7292423,14.623409,6.2884846, 21:52:20.702
, 73.481400, 90.656418, 154.399002, 145.870636, 105.447746, 70.923782, 90.989883, 90.241943, 0.000, 0.000, 0.000,2.486191,7.109638,4.7292423,14.623409,6.2884846, 21:52:20.702
, 73.427109, 90.605942, 154.341446, 146.008301, 105.413483, 71.024452, 91.050163, 90.353394, 0.000, 0.000, 0.000,2.486191,7.109638,4.7292423,14.623409,6.2884846, 21:52:20.702
, 73.393623, 90.572212, 154.305984, 146.121933, 105.361870, 71.080177, 91.017105, 90.436745, 0.000, 0.000, 0.000,2.486191,7.109638,4.7292423,14.623409,6.2884846, 21:52:20.702
, 73.455048, 90.631783, 154.370514, 145.980286, 105.404076, 70.978943, 90.953964, 90.315750, 0.000, 0.000, 0.000,2.486191,7.109638,4.7292423,14.623409,6.2884846, 21:52:20.702
, 73.500069, 90.675194, 154.407791, 145.864059, 105.455574, 70.918884, 90.984764, 90.221046, 0.000, 0.000, 0.000,2.486191,7.109638,4.7292423,14.623409,6.2884846, 21:52:20.702
, 73.442780, 90.618820, 154.349335, 145.974304, 105.415268, 70.996048, 91.031364, 90.310455, 0.000, 0.000, 0.000,2.486191,7.109638,4.7292423,14.623409,6.2884846, 21:52:20.702
, 73.384956, 90.562920, 154.289978, 146.125839, 105.363144, 71.072556, 91.020279, 90.426414, 0.300, 0.322, 0.896,2.486191,7.109638,4.7292423,14.623409,6.2884846, 21:52:20.703
, 73.455811, 90.629478, 154.358597, 146.028793, 105.410309, 70.999550, 90.973518, 90.344025, 0.000, 0.000, 0.000,2.486191,7.109638,4.7292423,14.623409,6.2884846, 21:52:20.703
, 73.503616, 90.677315, 154.402252, 145.866516, 105.464981, 70.912987, 90.999176, 90.219368, 0.000, 0.000, 0.000,2.486191,7.109638,4.7292423,14.623409,6.2884846, 21:52:20.703
, 73.478432, 90.654358, 154.373459, 145.932114, 105.447571, 70.975189, 91.053116, 90.276321, 0.000, 0.000, 0.000,2.486191,7.109638,4.7292423,14.623409,6.2884846, 21:52:20.703
, 73.429634, 90.603218, 154.321014, 146.104156, 105.408073, 71.081604, 91.070679, 90.407570, 0.000, 0.000, 0.000,2.486191,7.109638,4.7292423,14.623409,6.2884846, 21:52:20.703
, 73.430283, 90.601830, 154.324280, 146.072418, 105.403488, 71.036011, 91.024055, 90.373886, 0.000, 0.000, 0.000,2.486191,7.109638,4.7292423,14.623409,6.2884846, 21:52:20.703
, 73.497742, 90.672661, 154.393478, 145.876312, 105.467911, 70.917213, 91.023384, 90.217361, 0.000, 0.000, 0.000,2.486191,7.109638,4.7292423,14.623409,6.2884846, 21:52:20.703
, 73.499374, 90.674789, 154.393799, 145.897232, 105.485924, 70.957222, 91.086594, 90.238617, 0.000, 0.000, 0.000,2.486191,7.109638,4.7292423,14.623409,6.2884846, 21:52:20.704
, 73.428406, 90.605629, 154.322586, 146.077301, 105.423477, 71.067009, 91.098579, 90.375786, 0.000, 0.000, 0.000,2.486191,7.109638,4.7292423,14.623409,6.2884846, 21:52:20.704
, 73.418121, 90.597359, 154.317871, 146.095627, 105.413437, 71.049934, 91.052399, 90.378021, 0.294, 0.316, 0.888,2.486191,7.109638,4.7292423,14.623409,6.2884846, 21:52:20.704
, 73.494385, 90.672867, 154.395859, 145.897629, 105.488808, 70.928497, 91.042542, 90.211304, 0.000, 0.000, 0.000,2.486191,7.109638,4.7292423,14.623409,6.2884846, 21:52:20.704
, 73.488937, 90.664169, 154.386002, 145.903336, 105.506783, 70.952209, 91.122314, 90.217896, 0.000, 0.000, 0.000,2.486191,7.109638,4.7292423,14.623409,6.2884846, 21:52:20.704
, 73.437439, 90.612289, 154.333008, 146.066772, 105.449471, 71.060303, 91.151527, 90.349213, 0.000, 0.000, 0.000,2.486191,7.109638,4.7292423,14.623409,6.2884846, 21:52:20.704
, 73.426910, 90.600288, 154.320175, 146.114624, 105.426155, 71.073669, 91.115967, 90.381447, 0.000, 0.000, 0.000,2.486191,7.109638,4.7292423,14.623409,6.2884846, 21:52:20.704
, 73.486656, 90.661514, 154.379074, 145.919754, 105.470657, 70.939766, 91.061607, 90.218788, 0.000, 0.000, 0.000,2.486191,7.109638,4.7292423,14.623409,6.2884846, 21:52:20.704
, 73.510483, 90.689316, 154.401993, 145.863144, 105.510132, 70.932411, 91.119339, 90.178001, 0.000, 0.000, 0.000,2.486191,7.109638,4.7292423,14.623409,6.2884846, 21:52:20.705
, 73.461174, 90.640701, 154.348984, 146.022339, 105.460083, 71.041397, 91.161743, 90.303459, 0.000, 0.000, 0.000,2.486191,7.109638,4.7292423,14.623409,6.2884846, 21:52:20.705
, 73.439758, 90.620071, 154.323547, 146.124863, 105.422646, 71.087463, 91.138695, 90.377373, 0.000, 0.000, 0.000,2.486191,7.109638,4.7292423,14.623409,6.2884846, 21:52:20.705
, 73.505272, 90.684128, 154.389847, 145.967880, 105.486526, 70.975372, 91.110695, 90.246353, 0.000, 0.000, 0.000,2.486191,7.109638,4.7292423,14.623409,6.2884846, 21:52:20.705
, 73.524429, 90.694702, 154.408371, 145.886887, 105.528038, 70.939339, 91.164314, 90.191231, 0.300, 0.306, 0.898,2.486191,7.109638,4.7292423,14.623409,6.2884846, 21:52:20.705
, 73.470497, 90.635384, 154.352783, 146.011017, 105.480385, 71.028008, 91.193527, 90.295364, 0.000, 0.000, 0.000,2.486191,7.109638,4.7292423,14.623409,6.2884846, 21:52:20.705
, 73.427780, 90.591866, 154.314331, 146.129196, 105.434784, 71.089500, 91.161339, 90.383209, 0.000, 0.000, 0.000,2.486191,7.109638,4.7292423,14.623409,6.2884846, 21:52:20.705
, 73.474831, 90.640724, 154.364182, 146.000107, 105.475266, 70.992935, 91.104027, 90.271805, 0.000, 0.000, 0.000,2.486191,7.109638,4.7292423,14.623409,6.2884846, 21:52:20.706
, 73.518280, 90.685249, 154.406311, 145.863449, 105.530182, 70.923759, 91.125290, 90.170982, 0.000, 0.000, 0.000,2.486191,7.109638,4.7292423,14.623409,6.2884846, 21:52:20.706
, 73.482071, 90.651657, 154.366486, 145.961685, 105.495964, 71.002258, 91.165382, 90.251465, 0.000, 0.000, 0.000,2.486191,7.109638,4.7292423,14.623409,6.2884846, 21:52:20.706
, 73.426865, 90.596176, 154.310822, 146.109619, 105.438583, 71.084442, 91.156197, 90.359070, 0.000, 0.000, 0.000,2.486191,7.109638,4.7292423,14.623409,6.2884846, 21:52:20.706
, 73.471054, 90.640587, 154.359085, 146.027176, 105.471664, 71.014420, 91.109840, 90.286003, 0.000, 0.000, 0.000,2.486191,7.109638,4.7292423,14.623409,6.2884846, 21:52:20.706
, 73.527779, 90.695595, 154.411224, 145.880508, 105.531723, 70.928093, 91.125511, 90.171539, 0.000, 0.000, 0.000,2.486191,7.109638,4.7292423,14.623409,6.2884846, 21:52:20.706
, 73.506233, 90.672081, 154.387451, 145.952957, 105.511406, 70.988556, 91.160110, 90.238235, 0.286, 0.278, 0.890,2.486191,7.109638,4.7292423,14.623409,6.2884846, 21:52:20.706
, 73.462540, 90.626419, 154.342682, 146.120316, 105.472694, 71.090660, 91.175804, 90.372612, 0.000, 0.000, 0.000,2.486191,7.109638,4.7292423,14.623409,6.2884846, 21:52:20.706
, 73.483078, 90.647720, 154.363754, 146.074249, 105.478973, 71.044281, 91.127769, 90.331261, 0.000, 0.000, 0.000,2.486191,7.109638,4.7292423,14.623409,6.2884846, 21:52:20.707
, 73.547318, 90.711174, 154.428375, 145.891144, 105.552513, 70.936317, 91.138115, 90.189667, 0.000, 0.000, 0.000,2.486191,7.109638,4.7292423,14.623409,6.2884846, 21:52:20.707
, 73.527405, 90.688553, 154.404236, 145.922348, 105.538879, 70.974922, 91.179268, 90.220512, 0.000, 0.000, 0.000,2.486191,7.109638,4.7292423,14.623409,6.2884846, 21:52:20.707
, 73.455963, 90.616402, 154.327927, 146.099915, 105.462296, 71.076172, 91.173500, 90.355400, 0.000, 0.000, 0.000,2.486191,7.109638,4.7292423,14.623409,6.2884846, 21:52:20.707
, 73.441055, 90.600510, 154.317871, 146.122604, 105.436684, 71.062630, 91.118004, 90.372078, 0.000, 0.000, 0.000,2.486191,7.109638,4.7292423,14.623409,6.2884846, 21:52:20.707
, 73.531693, 90.689003, 154.409637, 145.914795, 105.522675, 70.938492, 91.082413, 90.208755, 0.000, 0.000, 0.000,2.486191,7.109638,4.7292423,14.623409,6.2884846, 21:52:20.707
, 73.539429, 90.694817, 154.413651, 145.902664, 105.542053, 70.955254, 91.137337, 90.209335, 0.000, 0.000, 0.000,2.486191,7.109638,4.7292423,14.623409,6.2884846, 21:52:20.707
, 73.484398, 90.631271, 154.354416, 146.062164, 105.493477, 71.062202, 91.162926, 90.340157, 0.000, 0.000, 0.000,2.486191,7.109638,4.7292423,14.623409,6.2884846, 21:52:20.707
, 73.458763, 90.607468, 154.324234, 146.137482, 105.457603, 71.084045, 91.134407, 90.394722, 0.260, 0.286, 0.894,2.486191,7.109638,4.7292423,14.623409,6.2884846, 21:52:20.708
, 73.520470, 90.675926, 154.387756, 145.955673, 105.509285, 70.952927, 91.102066, 90.244408, 0.000, 0.000, 0.000,2.486191,7.109638,4.7292423,14.623409,6.2884846, 21:52:20.708
, 73.540901, 90.695641, 154.407364, 145.885117, 105.543121, 70.931831, 91.148262, 90.197044, 0.000, 0.000, 0.000,2.486191,7.109638,4.7292423,14.623409,6.2884846, 21:52:20.708
, 73.486076, 90.644348, 154.353256, 146.029221, 105.498306, 71.039001, 91.174080, 90.319038, 0.000, 0.000, 0.000,2.486191,7.109638,4.7292423,14.623409,6.2884846, 21:52:20.708
, 73.460815, 90.617386, 154.325195, 146.135681, 105.452980, 71.089745, 91.144890, 90.398186, 0.000, 0.000, 0.000,2.486191,7.109638,4.7292423,14.623409,6.2884846, 21:52:20.708
, 73.511467, 90.667412, 154.375854, 145.988586, 105.491554, 70.974968, 91.092407, 90.271072, 0.000, 0.000, 0.000,2.486191,7.109638,4.7292423,14.623409,6.2884846, 21:52:20.708
, 73.543091, 90.701187, 154.406265, 145.880371, 105.537468, 70.924698, 91.119858, 90.188705, 0.000, 0.000, 0.000,2.486191,7.109638,4.7292423,14.623409,6.2884846, 21:52:20.708
, 73.496849, 90.657310, 154.360321, 146.002747, 105.510666, 71.018326, 91.173592, 90.288437, 0.000, 0.000, 0.000,2.486191,7.109638,4.7292423,14.623409,6.2884846, 21:52:20.709
, 73.466362, 90.623154, 154.325989, 146.141281, 105.472824, 71.090813, 91.172112, 90.395058, 0.000, 0.000, 0.000,2.486191,7.109638,4.7292423,14.623409,6.2884846, 21:52:20.709
, 73.509430, 90.665245, 154.371002, 146.021500, 105.497635, 71.000786, 91.100586, 90.295860, 0.000, 0.000, 0.000,2.486191,7.109638,4.7292423,14.623409,6.2884846, 21:52:20.709
, 73.542290, 90.696823, 154.401169, 145.884796, 105.540886, 70.926041, 91.105553, 90.191010, 0.260, 0.308, 0.898,2.486191,7.109638,4.7292423,14.623409,6.2884846, 21:52:20.709
, 73.507866, 90.663788, 154.365295, 145.970810, 105.522293, 70.999397, 91.162170, 90.265709, 0.000, 0.000, 0.000,2.486191,7.109638,4.7292423,14.623409,6.2884846, 21:52:20.709
, 73.456215, 90.618149, 154.318756, 146.126038, 105.474525, 71.096138, 91.177750, 90.393158, 0.000, 0.000, 0.000,2.486191,7.109638,4.7292423,14.623409,6.2884846, 21:52:20.709
, 73.481583, 90.642960, 154.345078, 146.050613, 105.468155, 71.027870, 91.108566, 90.329361, 0.000, 0.000, 0.000,2.486191,7.109638,4.7292423,14.623409,6.2884846, 21:52:20.710
, 73.544594, 90.703575, 154.406006, 145.888596, 105.535393, 70.929611, 91.110176, 90.198494, 0.000, 0.000, 0.000,2.486191,7.109638,4.7292423,14.623409,6.2884846, 21:52:20.710
, 73.524567, 90.682007, 154.385193, 145.947433, 105.539970, 70.984352, 91.179649, 90.250801, 0.000, 0.000, 0.000,2.486191,7.109638,4.7292423,14.623409,6.2884846, 21:52:20.710
, 73.473465, 90.630333, 154.330566, 146.112549, 105.482483, 71.086342, 91.184784, 90.379456, 0.000, 0.000, 0.000,2.486191,7.109638,4.7292423,14.623409,6.2884846, 21:52:20.710
, 73.488152, 90.649529, 154.346405, 146.089630, 105.476585, 71.050873, 91.136353, 90.355072, 0.000, 0.000, 0.000,2.486191,7.109638,4.7292423,14.623409,6.2884846, 21:52:20.710
, 73.544815, 90.710777, 154.401993, 145.915466, 105.532082, 70.938889, 91.131142, 90.216469, 0.000, 0.000, 0.000,2.486191,7.109638,4.7292423,14.623409,6.2884846, 21:52:20.710
, 73.529076, 90.697006, 154.386688, 145.929840, 105.537331, 70.963745, 91.201576, 90.234169, 0.270, 0.322, 0.904,2.486191,7.109638,4.7292423,14.623409,6.2884846, 21:52:20.711
, 73.469688, 90.639694, 154.327255, 146.096024, 105.484558, 71.066521, 91.219948, 90.361732, 0.000, 0.000, 0.000,2.486191,7.109638,4.7292423,14.623409,6.2884846, 21:52:20.711
, 73.484398, 90.655365, 154.341736, 146.112549, 105.485771, 71.061447, 91.177055, 90.365532, 0.000, 0.000, 0.000,2.486191,7.109638,4.7292423,14.623409,6.2884846, 21:52:20.711
, 73.551918, 90.722755, 154.408279, 145.925720, 105.544579, 70.943184, 91.154900, 90.212128, 0.000, 0.000, 0.000,2.486191,7.109638,4.7292423,14.623409,6.2884846, 21:52:20.711
, 73.540321, 90.709274, 154.394333, 145.907639, 105.549828, 70.952484, 91.214561, 90.209221, 0.000, 0.000, 0.000,2.486191,7.109638,4.7292423,14.623409,6.2884846, 21:52:20.711
, 73.490501, 90.658806, 154.345413, 146.061844, 105.512192, 71.060822, 91.249855, 90.338730, 0.000, 0.000, 0.000,2.486191,7.109638,4.7292423,14.623409,6.2884846, 21:52:20.711
, 73.468307, 90.635468, 154.325958, 146.135406, 105.481209, 71.093613, 91.214447, 90.395752, 0.000, 0.000, 0.000,2.486191,7.109638,4.7292423,14.623409,6.2884846, 21:52:20.711
, 73.528946, 90.690567, 154.386154, 145.964798, 105.533821, 70.973022, 91.172401, 90.256836, 0.000, 0.000, 0.000,2.486191,7.109638,4.7292423,14.623409,6.2884846, 21:52:20.712
, 73.550514, 90.710258, 154.404007, 145.901184, 105.565208, 70.946449, 91.206108, 90.213783, 0.000, 0.000, 0.000,2.486191,7.109638,4.7292423,14.623409,6.2884846, 21:52:20.712
, 73.507751, 90.667564, 154.361572, 146.036926, 105.532349, 71.041397, 91.229828, 90.327240, 0.000, 0.000, 0.000,2.486191,7.109638,4.7292423,14.623409,6.2884846, 21:52:20.712
, 73.475456, 90.637505, 154.327927, 146.152847, 105.509727, 71.097969, 91.232147, 90.415062, 0.278, 0.330, 0.896,2.486191,7.109638,4.7292423,14.623409,6.2884846, 21:52:20.712
, 73.526329, 90.691956, 154.380234, 145.999756, 105.519249, 70.986992, 91.155350, 90.284302, 0.000, 0.000, 0.000,2.486191,7.109638,4.7292423,14.623409,6.2884846, 21:52:20.713
, 73.550247, 90.714531, 154.401627, 145.883011, 105.551437, 70.927467, 91.169540, 90.193245, 0.000, 0.000, 0.000,2.1198752,5.908245,3.9096036,13.420154,5.483643, 21:52:20.713
, 73.508087, 90.675415, 154.357101, 145.996643, 105.531631, 71.016403, 91.216148, 90.286987, 0.000, 0.000, 0.000,2.1198752,5.908245,3.9096036,13.420154,5.483643, 21:52:20.713
, 73.477669, 90.642174, 154.326447, 146.138733, 105.493973, 71.096069, 91.215431, 90.398521, 0.000, 0.000, 0.000,2.1198752,5.908245,3.9096036,13.420154,5.483643, 21:52:20.713
, 73.523201, 90.686188, 154.374023, 146.027435, 105.516640, 71.004494, 91.156647, 90.301918, 0.000, 0.000, 0.000,2.1198752,5.908245,3.9096036,13.420154,5.483643, 21:52:20.713
, 73.565285, 90.730064, 154.417267, 145.883041, 105.575531, 70.922729, 91.197594, 90.185638, 0.000, 0.000, 0.000,2.1198752,5.908245,3.9096036,13.420154,5.483643, 21:52:20.713
, 73.522644, 90.689049, 154.379959, 145.969223, 105.557320, 70.995483, 91.269302, 90.259468, 0.000, 0.000, 0.000,2.1198752,5.908245,3.9096036,13.420154,5.483643, 21:52:20.714
, 73.469513, 90.639877, 154.326965, 146.130219, 105.501282, 71.090813, 91.286446, 90.382675, 0.000, 0.000, 0.000,2.1198752,5.908245,3.9096036,13.420154,5.483643, 21:52:20.714
, 73.499168, 90.668465, 154.357254, 146.075012, 105.519920, 71.033905, 91.245003, 90.329903, 0.286, 0.342, 0.896,2.1198752,5.908245,3.9096036,13.420154,5.483643, 21:52:20.714
, 73.548454, 90.718376, 154.406067, 145.903442, 105.579109, 70.928986, 91.243752, 90.192322, 0.000, 0.000, 0.000,2.1198752,5.908245,3.9096036,13.420154,5.483643, 21:52:20.714
, 73.533592, 90.705635, 154.389175, 145.947250, 105.561829, 70.974297, 91.277367, 90.233856, 0.000, 0.000, 0.000,2.1198752,5.908245,3.9096036,13.420154,5.483643, 21:52:20.714
, 73.485649, 90.657936, 154.343643, 146.118286, 105.523613, 71.086884, 91.292633, 90.375786, 0.000, 0.000, 0.000,2.1198752,5.908245,3.9096036,13.420154,5.483643, 21:52:20.715
, 73.486992, 90.655563, 154.347641, 146.109375, 105.526222, 71.060242, 91.257965, 90.367455, 0.000, 0.000, 0.000,2.1198752,5.908245,3.9096036,13.420154,5.483643, 21:52:20.715
, 73.552681, 90.723557, 154.412323, 145.915802, 105.579758, 70.938713, 91.225601, 90.213783, 0.000, 0.000, 0.000,2.1198752,5.908245,3.9096036,13.420154,5.483643, 21:52:20.715
, 73.532005, 90.705765, 154.387695, 145.932434, 105.574799, 70.965332, 91.268829, 90.234482, 0.000, 0.000, 0.000,2.1198752,5.908245,3.9096036,13.420154,5.483643, 21:52:20.715
, 73.479546, 90.652748, 154.334335, 146.082108, 105.533691, 71.064041, 91.298203, 90.354462, 0.000, 0.000, 0.000,2.1198752,5.908245,3.9096036,13.420154,5.483643, 21:52:20.715
, 73.479057, 90.655075, 154.329117, 146.113098, 105.505951, 71.065224, 91.241653, 90.371277, 0.000, 0.000, 0.000,2.1198752,5.908245,3.9096036,13.420154,5.483643, 21:52:20.716
, 73.543091, 90.717545, 154.389771, 145.931030, 105.556984, 70.940346, 91.178482, 90.217491, 0.000, 0.000, 0.000,2.1198752,5.908245,3.9096036,13.420154,5.483643, 21:52:20.716
, 73.555634, 90.729797, 154.400452, 145.894318, 105.591713, 70.937996, 91.230362, 90.192909, 0.280, 0.348, 0.886,2.1198752,5.908245,3.9096036,13.420154,5.483643, 21:52:20.716
, 73.493721, 90.667969, 154.340347, 146.046646, 105.549385, 71.042465, 91.276520, 90.314301, 0.000, 0.000, 0.000,2.1198752,5.908245,3.9096036,13.420154,5.483643, 21:52:20.716
, 73.467186, 90.639206, 154.315704, 146.130737, 105.517265, 71.080734, 91.265205, 90.378647, 0.000, 0.000, 0.000,0.9401029,2.4794967,1.9830128,6.9715567,2.936472, 21:52:21.177
, 73.519737, 90.695351, 154.372467, 145.965515, 105.558571, 70.961334, 91.223122, 90.242439, 0.000, 0.000, 0.000,0.9401029,2.4794967,1.9830128,6.9715567,2.936472, 21:52:21.177
, 73.543404, 90.725258, 154.401627, 145.874985, 105.611008, 70.930557, 91.274483, 90.175117, 0.000, 0.000, 0.000,0.9401029,2.4794967,1.9830128,6.9715567,2.936472, 21:52:21.178
, 73.491859, 90.676308, 154.348785, 146.016632, 105.568535, 71.031517, 91.303833, 90.287613, 0.000, 0.000, 0.000,0.9401029,2.4794967,1.9830128,6.9715567,2.936472, 21:52:21.178
, 73.464684, 90.646156, 154.321564, 146.130432, 105.535614, 71.091263, 91.270172, 90.373444, 0.000, 0.000, 0.000,0.9401029,2.4794967,1.9830128,6.9715567,2.936472, 21:52:21.178
, 73.513206, 90.694679, 154.370880, 145.996048, 105.568092, 70.984306, 91.211655, 90.255806, 0.000, 0.000, 0.000,0.9401029,2.4794967,1.9830128,6.9715567,2.936472, 21:52:21.178
, 73.548370, 90.730843, 154.402298, 145.880493, 105.599380, 70.924225, 91.233154, 90.160652, 0.000, 0.000, 0.000,0.9401029,2.4794967,1.9830128,6.9715567,2.936472, 21:52:21.179
, 73.516273, 90.698303, 154.365570, 145.976715, 105.562683, 71.002792, 91.271538, 90.235107, 0.000, 0.000, 0.000,0.9401029,2.4794967,1.9830128,6.9715567,2.936472, 21:52:21.179
, 73.464569, 90.649643, 154.314178, 146.128189, 105.514626, 71.088135, 91.267868, 90.349480, 0.286, 0.358, 0.884,0.9401029,2.4794967,1.9830128,6.9715567,2.936472, 21:52:21.179
, 73.498520, 90.685043, 154.348251, 146.039612, 105.534897, 71.008896, 91.214607, 90.268074, 0.000, 0.000, 0.000,0.9401029,2.4794967,1.9830128,6.9715567,2.936472, 21:52:21.179
, 73.554672, 90.741638, 154.402161, 145.883057, 105.604790, 70.917816, 91.234253, 90.136513, 0.000, 0.000, 0.000,0.9401029,2.4794967,1.9830128,6.9715567,2.936472, 21:52:21.180
, 73.525078, 90.711288, 154.369095, 145.945313, 105.577698, 70.973022, 91.264961, 90.187859, 0.000, 0.000, 0.000,0.9401029,2.4794967,1.9830128,6.9715567,2.936472, 21:52:21.180
, 73.468483, 90.652992, 154.310654, 146.101791, 105.511360, 71.066673, 91.237068, 90.308350, 0.000, 0.000, 0.000,0.9401029,2.4794967,1.9830128,6.9715567,2.936472, 21:52:21.180
, 73.495819, 90.677467, 154.336288, 146.056641, 105.528458, 71.016716, 91.203407, 90.260834, 0.000, 0.000, 0.000,0.9401029,2.4794967,1.9830128,6.9715567,2.936472, 21:52:21.180
, 73.574341, 90.760193, 154.412262, 145.877960, 105.601151, 70.906975, 91.212906, 90.108459, 0.000, 0.000, 0.000,0.9401029,2.4794967,1.9830128,6.9715567,2.936472, 21:52:21.180
, 73.558357, 90.743210, 154.397171, 145.930603, 105.610512, 70.959831, 91.295273, 90.152809, 0.000, 0.000, 0.000,0.9401029,2.4794967,1.9830128,6.9715567,2.936472, 21:52:21.181
, 73.508850, 90.691910, 154.349960, 146.098953, 105.564667, 71.069115, 91.314247, 90.285645, 0.000, 0.000, 0.000,0.9401029,2.4794967,1.9830128,6.9715567,2.936472, 21:52:21.181
, 73.505768, 90.687904, 154.351440, 146.102783, 105.558884, 71.053200, 91.274147, 90.283897, 0.288, 0.364, 0.882,0.9401029,2.4794967,1.9830128,6.9715567,2.936472, 21:52:21.181
, 73.555855, 90.741951, 154.406250, 145.916000, 105.616165, 70.930443, 91.259956, 90.127815, 0.000, 0.000, 0.000,0.9401029,2.4794967,1.9830128,6.9715567,2.936472, 21:52:21.181
, 73.541733, 90.730179, 154.388229, 145.911865, 105.609016, 70.946045, 91.295403, 90.123390, 0.000, 0.000, 0.000,0.9401029,2.4794967,1.9830128,6.9715567,2.936472, 21:52:21.181
, 73.485199, 90.670471, 154.327347, 146.075455, 105.549339, 71.051140, 91.289680, 90.255203, 0.000, 0.000, 0.000,0.9401029,2.4794967,1.9830128,6.9715567,2.936472, 21:52:21.182
, 73.483124, 90.667435, 154.325577, 146.122986, 105.538986, 71.062271, 91.263870, 90.289711, 0.000, 0.000, 0.000,0.9401029,2.4794967,1.9830128,6.9715567,2.936472, 21:52:21.182
, 73.543495, 90.728165, 154.390228, 145.946320, 105.603699, 70.937592, 91.250526, 90.142281, 0.000, 0.000, 0.000,0.9401029,2.4794967,1.9830128,6.9715567,2.936472, 21:52:21.182
, 73.548141, 90.730690, 154.395187, 145.898575, 105.614937, 70.926216, 91.276115, 90.108597, 0.000, 0.000, 0.000,0.9401029,2.4794967,1.9830128,6.9715567,2.936472, 21:52:21.182
, 73.501068, 90.684647, 154.345490, 146.036743, 105.569275, 71.027534, 91.283737, 90.218834, 0.000, 0.000, 0.000,0.9401029,2.4794967,1.9830128,6.9715567,2.936472, 21:52:21.182
, 73.478920, 90.664192, 154.324310, 146.120605, 105.547813, 71.070412, 91.246834, 90.275360, 0.000, 0.000, 0.000,0.9401029,2.4794967,1.9830128,6.9715567,2.936472, 21:52:21.183
, 73.540924, 90.725456, 154.391449, 145.952866, 105.605865, 70.953690, 91.200813, 90.131577, 0.000, 0.000, 0.000,0.9401029,2.4794967,1.9830128,6.9715567,2.936472, 21:52:21.183
, 73.567635, 90.751411, 154.416489, 145.873398, 105.635391, 70.919556, 91.242630, 90.075272, 0.290, 0.378, 0.882,0.9401029,2.4794967,1.9830128,6.9715567,2.936472, 21:52:21.183
, 73.511887, 90.696114, 154.361771, 146.015381, 105.600456, 71.017639, 91.277390, 90.193245, 0.000, 0.000, 0.000,0.9401029,2.4794967,1.9830128,6.9715567,2.936472, 21:52:21.183
, 73.468658, 90.651093, 154.318695, 146.149216, 105.555305, 71.083618, 91.247414, 90.290695, 0.000, 0.000, 0.000,0.9401029,2.4794967,1.9830128,6.9715567,2.936472, 21:52:21.184
, 73.525993, 90.711845, 154.379868, 146.010376, 105.591354, 70.978676, 91.175308, 90.163651, 0.000, 0.000, 0.000,0.9401029,2.4794967,1.9830128,6.9715567,2.936472, 21:52:21.184
, 73.573242, 90.758163, 154.425400, 145.880463, 105.639862, 70.911934, 91.197350, 90.053810, 0.000, 0.000, 0.000,0.9401029,2.4794967,1.9830128,6.9715567,2.936472, 21:52:21.184
, 73.525192, 90.711578, 154.375046, 145.989990, 105.598732, 70.990501, 91.224258, 90.140450, 0.000, 0.000, 0.000,0.9401029,2.4794967,1.9830128,6.9715567,2.936472, 21:52:21.184
, 73.478432, 90.667992, 154.331116, 146.144257, 105.558609, 71.080757, 91.231415, 90.262283, 0.000, 0.000, 0.000,0.9401029,2.4794967,1.9830128,6.9715567,2.936472, 21:52:21.184
, 73.517006, 90.707291, 154.372025, 146.054489, 105.586906, 71.003242, 91.182953, 90.181213, 0.000, 0.000, 0.000,0.9401029,2.4794967,1.9830128,6.9715567,2.936472, 21:52:21.185
, 73.577942, 90.766052, 154.428513, 145.889297, 105.643616, 70.904312, 91.175468, 90.037315, 0.000, 0.000, 0.000,0.9401029,2.4794967,1.9830128,6.9715567,2.936472, 21:52:21.185
, 73.554092, 90.741997, 154.400620, 145.963638, 105.630341, 70.968399, 91.231903, 90.095009, 0.292, 0.374, 0.874,0.9401029,2.4794967,1.9830128,6.9715567,2.936472, 21:52:21.185
, 73.496712, 90.682701, 154.344894, 146.129532, 105.592720, 71.070389, 91.250633, 90.230461, 0.000, 0.000, 0.000,0.9401029,2.4794967,1.9830128,6.9715567,2.936472, 21:52:21.185
, 73.507912, 90.695061, 154.357025, 146.094177, 105.576385, 71.026596, 91.179359, 90.199097, 0.000, 0.000, 0.000,0.9401029,2.4794967,1.9830128,6.9715567,2.936472, 21:52:21.186
, 73.570633, 90.757179, 154.414093, 145.916824, 105.621223, 70.911911, 91.129448, 90.049004, 0.000, 0.000, 0.000,0.9401029,2.4794967,1.9830128,6.9715567,2.936472, 21:52:21.186
, 73.561462, 90.750450, 154.404480, 145.936844, 105.629807, 70.944901, 91.188568, 90.067268, 0.000, 0.000, 0.000,0.9401029,2.4794967,1.9830128,6.9715567,2.936472, 21:52:21.186
, 73.506546, 90.697136, 154.351059, 146.102524, 105.579933, 71.050293, 91.212082, 90.200439, 0.000, 0.000, 0.000,0.9401029,2.4794967,1.9830128,6.9715567,2.936472, 21:52:21.186
, 73.519485, 90.709053, 154.364655, 146.105957, 105.585144, 71.036034, 91.182907, 90.197510, 0.000, 0.000, 0.000,0.9401029,2.4794967,1.9830128,6.9715567,2.936472, 21:52:21.187
, 73.567482, 90.757263, 154.410446, 145.933456, 105.635750, 70.917992, 91.158279, 90.052696, 0.000, 0.000, 0.000,0.9401029,2.4794967,1.9830128,6.9715567,2.936472, 21:52:21.187
, 73.556503, 90.744591, 154.393814, 145.933655, 105.629333, 70.934128, 91.185455, 90.061905, 0.000, 0.000, 0.000,0.9401029,2.4794967,1.9830128,6.9715567,2.936472, 21:52:21.187
, 73.515373, 90.705368, 154.353836, 146.074173, 105.587936, 71.035271, 91.197548, 90.183678, 0.000, 0.000, 0.000,0.9401029,2.4794967,1.9830128,6.9715567,2.936472, 21:52:21.187
, 73.499458, 90.686073, 154.337769, 146.132233, 105.566299, 71.054893, 91.167061, 90.226929, 0.286, 0.392, 0.876,0.9401029,2.4794967,1.9830128,6.9715567,2.936472, 21:52:21.187
, 73.558693, 90.742584, 154.399033, 145.966049, 105.618179, 70.935448, 91.130203, 90.089462, 0.000, 0.000, 0.000,0.9401029,2.4794967,1.9830128,6.9715567,2.936472, 21:52:21.188
, 73.568237, 90.754135, 154.413803, 145.910980, 105.648087, 70.921524, 91.177544, 90.051285, 0.000, 0.000, 0.000,0.9401029,2.4794967,1.9830128,6.9715567,2.936472, 21:52:21.188
, 73.528320, 90.716919, 154.375046, 146.047592, 105.622337, 71.022308, 91.237206, 90.161728, 0.000, 0.000, 0.000,0.9401029,2.4794967,1.9830128,6.9715567,2.936472, 21:52:21.188
, 73.494370, 90.682053, 154.332443, 146.160843, 105.557945, 71.072937, 91.187111, 90.246101, 0.000, 0.000, 0.000,0.9401029,2.4794967,1.9830128,6.9715567,2.936472, 21:52:21.188
, 73.555115, 90.744034, 154.393814, 145.993790, 105.609467, 70.952080, 91.129692, 90.105156, 0.000, 0.000, 0.000,0.9401029,2.4794967,1.9830128,6.9715567,2.936472, 21:52:21.188
, 73.582588, 90.773445, 154.420868, 145.896332, 105.656960, 70.904221, 91.176582, 90.027817, 0.000, 0.000, 0.000,0.9401029,2.4794967,1.9830128,6.9715567,2.936472, 21:52:21.188
, 73.536949, 90.728767, 154.378357, 146.019897, 105.619278, 70.993515, 91.225510, 90.136108, 0.000, 0.000, 0.000,0.9401029,2.4794967,1.9830128,6.9715567,2.936472, 21:52:21.189
, 73.494370, 90.686386, 154.338654, 146.152374, 105.580940, 71.067169, 91.222115, 90.248314, 0.000, 0.000, 0.000,0.9401029,2.4794967,1.9830128,6.9715567,2.936472, 21:52:21.189
, 73.541306, 90.731316, 154.384659, 146.033264, 105.607895, 70.970497, 91.151726, 90.147285, 0.278, 0.396, 0.886,0.9401029,2.4794967,1.9830128,6.9715567,2.936472, 21:52:21.189
, 73.588287, 90.776596, 154.425537, 145.896362, 105.658501, 70.898949, 91.160896, 90.043198, 0.000, 0.000, 0.000,0.9401029,2.4794967,1.9830128,6.9715567,2.936472, 21:52:21.189
, 73.547203, 90.736526, 154.383423, 145.998932, 105.633873, 70.981339, 91.215096, 90.138969, 0.000, 0.000, 0.000,0.9401029,2.4794967,1.9830128,6.9715567,2.936472, 21:52:21.189
, 73.500778, 90.689339, 154.335190, 146.143631, 105.580521, 71.070030, 91.206757, 90.259003, 0.000, 0.000, 0.000,0.9401029,2.4794967,1.9830128,6.9715567,2.936472, 21:52:21.189
, 73.524628, 90.717323, 154.363312, 146.064102, 105.591026, 70.999260, 91.146233, 90.188370, 0.000, 0.000, 0.000,0.9401029,2.4794967,1.9830128,6.9715567,2.936472, 21:52:21.190
, 73.579796, 90.773697, 154.418243, 145.896667, 105.649139, 70.898346, 91.149025, 90.054863, 0.000, 0.000, 0.000,0.9401029,2.4794967,1.9830128,6.9715567,2.936472, 21:52:21.190
, 73.559967, 90.755814, 154.398041, 145.951385, 105.643372, 70.952904, 91.194107, 90.107140, 0.000, 0.000, 0.000,0.9401029,2.4794967,1.9830128,6.9715567,2.936472, 21:52:21.190
, 73.503975, 90.701004, 154.342789, 146.121109, 105.591179, 71.058876, 91.211029, 90.247200, 0.000, 0.000, 0.000,0.9401029,2.4794967,1.9830128,6.9715567,2.936472, 21:52:21.190
, 73.511597, 90.708832, 154.357162, 146.095291, 105.586151, 71.021591, 91.158348, 90.226547, 0.000, 0.000, 0.000,0.9401029,2.4794967,1.9830128,6.9715567,2.936472, 21:52:21.190
, 73.560814, 90.759811, 154.404999, 145.913498, 105.630630, 70.902992, 91.127586, 90.087112, 0.000, 0.000, 0.000,0.9401029,2.4794967,1.9830128,6.9715567,2.936472, 21:52:21.191
, 73.553955, 90.754982, 154.395950, 145.927200, 105.638786, 70.935875, 91.170731, 90.112083, 0.274, 0.388, 0.882,0.9401029,2.4794967,1.9830128,6.9715567,2.936472, 21:52:21.191
, 73.491508, 90.688538, 154.332214, 146.100647, 105.583893, 71.048820, 91.194954, 90.257835, 0.000, 0.000, 0.000,0.9401029,2.4794967,1.9830128,6.9715567,2.936472, 21:52:21.191
, 73.494118, 90.691307, 154.338394, 146.120636, 105.578125, 71.044075, 91.156670, 90.272743, 0.000, 0.000, 0.000,0.9401029,2.4794967,1.9830128,6.9715567,2.936472, 21:52:21.191
, 73.562027, 90.762878, 154.411270, 145.927689, 105.651146, 70.918152, 91.145378, 90.113197, 0.000, 0.000, 0.000,0.9401029,2.4794967,1.9830128,6.9715567,2.936472, 21:52:21.191
, 73.573471, 90.774590, 154.421417, 145.898544, 105.668182, 70.925232, 91.204300, 90.097374, 0.000, 0.000, 0.000,0.9401029,2.4794967,1.9830128,6.9715567,2.936472, 21:52:21.191
, 73.506523, 90.708649, 154.352509, 146.069443, 105.595940, 71.038872, 91.210625, 90.235863, 0.000, 0.000, 0.000,0.9401029,2.4794967,1.9830128,6.9715567,2.936472, 21:52:21.191
, 73.492241, 90.694862, 154.343323, 146.142868, 105.576004, 71.063545, 91.174484, 90.289688, 0.000, 0.000, 0.000,0.9401029,2.4794967,1.9830128,6.9715567,2.936472, 21:52:21.192
, 73.556168, 90.758652, 154.413132, 145.972641, 105.640579, 70.941330, 91.148849, 90.145294, 0.000, 0.000, 0.000,0.9401029,2.4794967,1.9830128,6.9715567,2.936472, 21:52:21.192
, 73.564308, 90.766655, 154.427109, 145.907135, 105.679581, 70.921478, 91.207718, 90.103256, 0.000, 0.000, 0.000,0.9401029,2.4794967,1.9830128,6.9715567,2.936472, 21:52:21.192
, 73.521095, 90.724144, 154.374908, 146.048233, 105.630005, 71.018684, 91.237892, 90.217537, 0.000, 0.000, 0.000,0.9401029,2.4794967,1.9830128,6.9715567,2.936472, 21:52:21.192
, 73.501564, 90.707268, 154.344559, 146.151352, 105.587135, 71.064911, 91.206383, 90.292618, 0.284, 0.378, 0.888,0.9401029,2.4794967,1.9830128,6.9715567,2.936472, 21:52:21.192
, 73.548790, 90.753021, 154.388611, 146.002304, 105.616974, 70.951187, 91.152374, 90.163155, 0.000, 0.000, 0.000,0.9401029,2.4794967,1.9830128,6.9715567,2.936472, 21:52:21.192
, 73.575211, 90.778702, 154.408722, 145.910934, 105.643997, 70.905388, 91.178551, 90.094650, 0.000, 0.000, 0.000,0.9401029,2.4794967,1.9830128,6.9715567,2.936472, 21:52:21.192
, 73.548729, 90.754654, 154.381104, 146.031693, 105.633308, 71.000694, 91.229958, 90.199989, 0.000, 0.000, 0.000,0.9401029,2.4794967,1.9830128,6.9715567,2.936472, 21:52:21.192
, 73.511444, 90.714508, 154.339035, 146.172073, 105.594177, 71.079308, 91.220192, 90.309113, 0.000, 0.000, 0.000,0.9401029,2.4794967,1.9830128,6.9715567,2.936472, 21:52:21.193
, 73.545486, 90.748192, 154.375351, 146.060059, 105.606224, 70.987038, 91.152130, 90.212242, 0.000, 0.000, 0.000,0.9401029,2.4794967,1.9830128,6.9715567,2.936472, 21:52:21.193
, 73.584312, 90.787575, 154.415985, 145.921951, 105.656891, 70.909477, 91.169991, 90.109268, 0.000, 0.000, 0.000,0.9401029,2.4794967,1.9830128,6.9715567,2.936472, 21:52:21.193
, 73.553932, 90.760414, 154.389328, 146.012634, 105.643776, 70.983818, 91.227501, 90.195183, 0.000, 0.000, 0.000,0.9401029,2.4794967,1.9830128,6.9715567,2.936472, 21:52:21.193
, 73.513992, 90.719154, 154.350876, 146.157516, 105.595161, 71.069450, 91.212570, 90.308151, 0.000, 0.000, 0.000,0.9401029,2.4794967,1.9830128,6.9715567,2.936472, 21:52:21.193
, 73.527603, 90.733353, 154.367401, 146.100479, 105.606178, 71.009056, 91.157433, 90.253746, 0.284, 0.368, 0.878,0.9401029,2.4794967,1.9830128,6.9715567,2.936472, 21:52:21.193
, 73.579865, 90.784782, 154.416550, 145.931656, 105.659332, 70.905945, 91.150764, 90.117561, 0.000, 0.000, 0.000,0.9401029,2.4794967,1.9830128,6.9715567,2.936472, 21:52:21.193
, 73.558960, 90.761337, 154.390686, 145.977585, 105.640938, 70.955589, 91.184654, 90.165054, 0.000, 0.000, 0.000,0.9401029,2.4794967,1.9830128,6.9715567,2.936472, 21:52:21.193
, 73.521835, 90.720787, 154.351288, 146.130981, 105.606537, 71.057243, 91.202400, 90.291031, 0.000, 0.000, 0.000,0.9401029,2.4794967,1.9830128,6.9715567,2.936472, 21:52:21.193
, 73.536987, 90.738716, 154.366837, 146.114090, 105.612503, 71.026283, 91.164001, 90.271294, 0.000, 0.000, 0.000,0.9401029,2.4794967,1.9830128,6.9715567,2.936472, 21:52:21.193
, 73.601181, 90.803329, 154.430023, 145.932907, 105.674103, 70.908920, 91.149200, 90.120796, 0.000, 0.000, 0.000,0.9401029,2.4794967,1.9830128,6.9715567,2.936472, 21:52:21.194
, 73.576439, 90.779060, 154.404770, 145.959549, 105.662880, 70.944214, 91.196274, 90.151131, 0.000, 0.000, 0.000,0.9401029,2.4794967,1.9830128,6.9715567,2.936472, 21:52:21.194
, 73.504868, 90.712898, 154.336441, 146.129013, 105.593254, 71.056236, 91.213486, 90.292908, 0.000, 0.000, 0.000,0.9401029,2.4794967,1.9830128,6.9715567,2.936472, 21:52:21.194
, 73.507126, 90.711464, 154.338974, 146.151031, 105.576828, 71.052864, 91.173904, 90.310677, 0.000, 0.000, 0.000,0.9401029,2.4794967,1.9830128,6.9715567,2.936472, 21:52:21.194
, 73.592422, 90.794617, 154.417465, 145.945526, 105.649361, 70.922752, 91.142181, 90.138908, 0.000, 0.000, 0.000,0.9401029,2.4794967,1.9830128,6.9715567,2.936472, 21:52:21.194
, 73.587730, 90.790031, 154.408768, 145.919540, 105.659691, 70.926109, 91.181412, 90.123169, 0.290, 0.354, 0.878,0.9401029,2.4794967,1.9830128,6.9715567,2.936472, 21:52:21.194
, 73.526863, 90.729843, 154.348663, 146.079422, 105.608879, 71.034805, 91.206779, 90.256248, 0.000, 0.000, 0.000,0.9401029,2.4794967,1.9830128,6.9715567,2.936472, 21:52:21.194
, 73.508446, 90.716583, 154.332001, 146.158081, 105.584473, 71.070099, 91.185684, 90.319443, 0.000, 0.000, 0.000,0.9401029,2.4794967,1.9830128,6.9715567,2.936472, 21:52:21.194
, 73.560188, 90.768173, 154.385788, 145.992401, 105.627838, 70.949326, 91.138947, 90.183807, 0.000, 0.000, 0.000,0.9401029,2.4794967,1.9830128,6.9715567,2.936472, 21:52:21.194
, 73.582748, 90.790634, 154.408188, 145.908966, 105.664917, 70.916451, 91.165901, 90.126945, 0.000, 0.000, 0.000,0.9401029,2.4794967,1.9830128,6.9715567,2.936472, 21:52:21.195
, 73.537216, 90.745087, 154.358032, 146.043762, 105.622269, 71.014801, 91.193481, 90.244469, 0.000, 0.000, 0.000,0.9401029,2.4794967,1.9830128,6.9715567,2.936472, 21:52:21.195
, 73.499779, 90.705612, 154.320526, 146.163956, 105.574684, 71.075371, 91.166550, 90.340767, 0.000, 0.000, 0.000,0.9401029,2.4794967,1.9830128,6.9715567,2.936472, 21:52:21.195
, 73.544502, 90.752213, 154.369751, 146.026886, 105.601372, 70.965469, 91.103493, 90.224648, 0.000, 0.000, 0.000,0.9401029,2.4794967,1.9830128,6.9715567,2.936472, 21:52:21.195
, 73.589561, 90.795937, 154.409302, 145.904510, 105.650208, 70.902679, 91.129379, 90.130524, 0.000, 0.000, 0.000,0.9401029,2.4794967,1.9830128,6.9715567,2.936472, 21:52:21.195
, 73.555946, 90.758743, 154.365829, 146.012177, 105.619026, 70.987816, 91.164604, 90.220490, 0.294, 0.358, 0.876,0.9401029,2.4794967,1.9830128,6.9715567,2.936472, 21:52:21.195
, 73.513748, 90.712471, 154.323517, 146.157288, 105.570724, 71.069313, 91.159309, 90.334038, 0.000, 0.000, 0.000,0.9401029,2.4794967,1.9830128,6.9715567,2.936472, 21:52:21.195
, 73.559143, 90.765091, 154.375000, 146.046005, 105.610779, 70.982704, 91.121490, 90.241364, 0.000, 0.000, 0.000,0.9401029,2.4794967,1.9830128,6.9715567,2.936472, 21:52:21.195
, 73.601990, 90.813187, 154.419678, 145.898590, 105.666702, 70.899376, 91.140396, 90.128464, 0.000, 0.000, 0.000,0.9401029,2.4794967,1.9830128,6.9715567,2.936472, 21:52:21.195
, 73.542419, 90.752106, 154.357544, 145.996475, 105.614021, 70.971970, 91.149826, 90.215080, 0.000, 0.000, 0.000,0.9401029,2.4794967,1.9830128,6.9715567,2.936472, 21:52:21.195
, 73.508400, 90.714012, 154.321152, 146.142609, 105.574104, 71.061890, 91.147820, 90.334732, 0.000, 0.000, 0.000,0.9401029,2.4794967,1.9830128,6.9715567,2.936472, 21:52:21.196
, 73.547783, 90.751747, 154.359711, 146.079056, 105.592361, 71.004692, 91.103088, 90.280525, 0.000, 0.000, 0.000,0.9401029,2.4794967,1.9830128,6.9715567,2.936472, 21:52:21.196
, 73.612068, 90.819809, 154.426407, 145.895447, 105.662529, 70.896042, 91.107498, 90.135330, 0.000, 0.000, 0.000,0.9401029,2.4794967,1.9830128,6.9715567,2.936472, 21:52:21.196
, 73.591415, 90.801544, 154.403320, 145.945419, 105.654121, 70.947205, 91.164917, 90.184639, 0.000, 0.000, 0.000,0.9401029,2.4794967,1.9830128,6.9715567,2.936472, 21:52:21.196
, 73.534195, 90.743271, 154.344223, 146.117798, 105.596786, 71.050720, 91.171150, 90.322411, 0.000, 0.000, 0.000,0.9401029,2.4794967,1.9830128,6.9715567,2.936472, 21:52:21.196
, 73.552612, 90.762230, 154.365082, 146.100983, 105.604996, 71.024361, 91.129463, 90.303101, 0.296, 0.352, 0.880,0.9401029,2.4794967,1.9830128,6.9715567,2.936472, 21:52:21.196
, 73.611038, 90.822044, 154.422012, 145.920807, 105.663780, 70.907288, 91.112793, 90.154976, 0.000, 0.000, 0.000,0.9401029,2.4794967,1.9830128,6.9715567,2.936472, 21:52:21.196
, 73.604630, 90.816299, 154.411194, 145.930893, 105.655663, 70.932251, 91.148979, 90.169640, 0.000, 0.000, 0.000,0.9401029,2.4794967,1.9830128,6.9715567,2.936472, 21:52:21.196
, 73.539742, 90.755051, 154.349121, 146.104050, 105.602448, 71.043739, 91.171288, 90.308311, 0.000, 0.000, 0.000,0.9401029,2.4794967,1.9830128,6.9715567,2.936472, 21:52:21.196
, 73.531090, 90.747635, 154.343750, 146.140320, 105.587288, 71.048103, 91.133110, 90.334930, 0.000, 0.000, 0.000,0.9401029,2.4794967,1.9830128,6.9715567,2.936472, 21:52:21.196
, 73.595039, 90.812363, 154.404587, 145.951385, 105.636864, 70.919670, 91.101662, 90.181236, 0.000, 0.000, 0.000,0.9401029,2.4794967,1.9830128,6.9715567,2.936472, 21:52:21.197
, 73.597229, 90.810951, 154.402176, 145.920700, 105.635841, 70.912743, 91.124931, 90.164116, 0.000, 0.000, 0.000,0.9401029,2.4794967,1.9830128,6.9715567,2.936472, 21:52:21.197
, 73.554245, 90.768776, 154.362152, 146.060684, 105.612411, 71.012093, 91.160515, 90.280617, 0.000, 0.000, 0.000,1.2884252,2.9743638,1.5337462,4.8937926,2.620398, 21:52:21.658
, 73.527046, 90.739830, 154.334030, 146.146957, 105.580162, 71.048347, 91.141220, 90.349304, 0.000, 0.000, 0.000,1.2884252,2.9743638,1.5337462,4.8937926,2.620398, 21:52:21.658
, 73.586166, 90.799019, 154.392029, 145.979660, 105.619591, 70.927673, 91.083649, 90.213516, 0.292, 0.346, 0.880,1.2884252,2.9743638,1.5337462,4.8937926,2.620398, 21:52:21.658
, 73.616447, 90.832214, 154.423325, 145.892288, 105.661072, 70.895103, 91.124886, 90.149658, 0.000, 0.000, 0.000,1.2884252,2.9743638,1.5337462,4.8937926,2.620398, 21:52:21.658
, 73.570923, 90.790123, 154.380905, 146.018509, 105.619881, 70.993073, 91.154144, 90.257393, 0.000, 0.000, 0.000,1.2884252,2.9743638,1.5337462,4.8937926,2.620398, 21:52:21.658
, 73.521164, 90.744835, 154.331482, 146.143158, 105.569366, 71.059883, 91.130585, 90.358109, 0.000, 0.000, 0.000,1.2884252,2.9743638,1.5337462,4.8937926,2.620398, 21:52:21.659
, 73.545197, 90.770164, 154.358307, 146.024033, 105.585007, 70.954445, 91.068382, 90.256584, 0.000, 0.000, 0.000,1.2884252,2.9743638,1.5337462,4.8937926,2.620398, 21:52:21.659
, 73.590790, 90.818260, 154.405380, 145.891769, 105.638321, 70.885315, 91.089096, 90.157951, 0.000, 0.000, 0.000,1.2884252,2.9743638,1.5337462,4.8937926,2.620398, 21:52:21.659
, 73.556259, 90.783951, 154.368561, 145.995422, 105.615585, 70.969650, 91.144127, 90.252029, 0.000, 0.000, 0.000,1.2884252,2.9743638,1.5337462,4.8937926,2.620398, 21:52:21.659
, 73.518906, 90.744545, 154.331619, 146.137329, 105.569855, 71.053757, 91.135254, 90.365463, 0.000, 0.000, 0.000,1.2884252,2.9743638,1.5337462,4.8937926,2.620398, 21:52:21.659
, 73.564484, 90.788292, 154.379288, 146.032852, 105.601418, 70.971169, 91.092697, 90.274376, 0.000, 0.000, 0.000,1.2884252,2.9743638,1.5337462,4.8937926,2.620398, 21:52:21.659
, 73.591843, 90.817505, 154.403671, 145.896225, 105.633644, 70.882545, 91.106888, 90.166847, 0.000, 0.000, 0.000,1.2884252,2.9743638,1.5337462,4.8937926,2.620398, 21:52:21.659
, 73.568108, 90.794502, 154.380478, 145.967773, 105.619186, 70.947250, 91.151192, 90.232338, 0.298, 0.352, 0.874,1.2884252,2.9743638,1.5337462,4.8937926,2.620398, 21:52:21.659
, 73.527222, 90.756615, 154.339859, 146.122025, 105.577614, 71.045731, 91.146027, 90.359337, 0.000, 0.000, 0.000,1.2884252,2.9743638,1.5337462,4.8937926,2.620398, 21:52:21.659
, 73.549797, 90.781158, 154.365631, 146.079132, 105.590958, 70.995438, 91.096161, 90.318794, 0.000, 0.000, 0.000,1.2884252,2.9743638,1.5337462,4.8937926,2.620398, 21:52:21.660
, 73.613365, 90.844528, 154.426697, 145.897049, 105.660316, 70.885384, 91.102219, 90.172455, 0.000, 0.000, 0.000,1.2884252,2.9743638,1.5337462,4.8937926,2.620398, 21:52:21.660
, 73.585564, 90.816673, 154.395584, 145.938004, 105.644485, 70.929573, 91.148552, 90.209801, 0.000, 0.000, 0.000,1.2884252,2.9743638,1.5337462,4.8937926,2.620398, 21:52:21.660
, 73.522484, 90.754318, 154.333786, 146.101364, 105.573143, 71.035721, 91.150230, 90.340515, 0.000, 0.000, 0.000,1.2884252,2.9743638,1.5337462,4.8937926,2.620398, 21:52:21.660
, 73.528114, 90.757599, 154.342484, 146.111893, 105.565208, 71.022484, 91.113823, 90.348450, 0.000, 0.000, 0.000,1.2884252,2.9743638,1.5337462,4.8937926,2.620398, 21:52:21.660
, 73.608582, 90.837624, 154.424103, 145.922104, 105.637489, 70.900490, 91.086151, 90.192078, 0.000, 0.000, 0.000,1.2884252,2.9743638,1.5337462,4.8937926,2.620398, 21:52:21.660
, 73.609612, 90.841667, 154.423904, 145.916031, 105.644867, 70.914124, 91.120438, 90.190178, 0.000, 0.000, 0.000,1.2884252,2.9743638,1.5337462,4.8937926,2.620398, 21:52:21.660
, 73.549393, 90.779419, 154.361191, 146.083038, 105.597771, 71.020226, 91.136711, 90.322365, 0.000, 0.000, 0.000,1.2884252,2.9743638,1.5337462,4.8937926,2.620398, 21:52:21.660
, 73.529884, 90.757828, 154.341095, 146.140991, 105.574127, 71.036011, 91.106400, 90.364723, 0.296, 0.348, 0.880,1.2884252,2.9743638,1.5337462,4.8937926,2.620398, 21:52:21.660
, 73.596046, 90.824631, 154.409180, 145.953247, 105.625267, 70.907021, 91.065269, 90.211792, 0.000, 0.000, 0.000,1.2884252,2.9743638,1.5337462,4.8937926,2.620398, 21:52:21.660
, 73.609413, 90.840546, 154.418671, 145.897858, 105.647392, 70.891548, 91.111671, 90.172295, 0.000, 0.000, 0.000,1.2884252,2.9743638,1.5337462,4.8937926,2.620398, 21:52:21.661
, 73.550690, 90.787102, 154.362930, 146.052368, 105.605888, 71.004471, 91.148621, 90.303215, 0.000, 0.000, 0.000,1.2884252,2.9743638,1.5337462,4.8937926,2.620398, 21:52:21.661
, 73.532898, 90.767929, 154.342972, 146.140366, 105.571556, 71.049461, 91.124687, 90.371361, 0.000, 0.000, 0.000,1.2884252,2.9743638,1.5337462,4.8937926,2.620398, 21:52:21.661
, 73.585205, 90.820145, 154.392105, 145.981323, 105.599960, 70.931496, 91.058571, 90.239334, 0.000, 0.000, 0.000,1.2884252,2.9743638,1.5337462,4.8937926,2.620398, 21:52:21.661
, 73.612137, 90.848442, 154.420868, 145.883499, 105.647682, 70.885696, 91.099205, 90.169746, 0.000, 0.000, 0.000,1.2884252,2.9743638,1.5337462,4.8937926,2.620398, 21:52:21.661
, 73.571884, 90.808655, 154.379089, 146.011627, 105.615204, 70.981155, 91.134094, 90.274872, 0.000, 0.000, 0.000,1.2884252,2.9743638,1.5337462,4.8937926,2.620398, 21:52:21.661
, 73.530396, 90.766922, 154.336349, 146.150162, 105.572914, 71.049286, 91.118805, 90.379524, 0.000, 0.000, 0.000,1.2884252,2.9743638,1.5337462,4.8937926,2.620398, 21:52:21.661
, 73.581451, 90.819405, 154.391342, 146.020432, 105.608994, 70.950737, 91.064606, 90.271072, 0.296, 0.360, 0.880,1.2884252,2.9743638,1.5337462,4.8937926,2.620398, 21:52:21.661
, 73.621414, 90.857132, 154.427567, 145.896530, 105.653656, 70.883278, 91.093193, 90.177055, 0.000, 0.000, 0.000,1.2884252,2.9743638,1.5337462,4.8937926,2.620398, 21:52:21.661
, 73.584869, 90.822128, 154.389084, 145.996155, 105.633041, 70.963524, 91.142120, 90.264793, 0.000, 0.000, 0.000,1.2884252,2.9743638,1.5337462,4.8937926,2.620398, 21:52:21.662
