%OpenBCI Raw EEG Data
%
%Sample Rate = 250.0 Hz
%First Column = SampleIndex
%5 Columns before Timestamp are Frequency Power factors DELTA THETA ALPHA BETA GAMMA
%Last Column = Timestamp 
%Other Columns = EEG data in microvolts followed by Accel Data (in G) interleaved with Aux Data
0.000000, 0.000000, 0.000000, 0.000000, 0.000000, 0.000000, 0.000000, 0.000000, 0.000, 0.000, 0.000,0.0,0.0,0.0,0.0,0.0, 15:27:51.533
68725.328125, 54843.558594, 123293.312500, 88442.695313, 122511.289063, 95545.007813, 88631.500000, 115741.375000, 0.100, 0.196, 0.962,0.0,0.0,0.0,0.0,0.0, 15:27:51.549
68685.320313, 54802.964844, 123331.625000, 88480.765625, 122467.750000, 95452.945313, 88641.898438, 115686.367188, 0.000, 0.000, 0.000,0.0,0.0,0.0,0.0,0.0, 15:27:52.026
68825.000000, 54943.402344, 123267.945313, 88232.546875, 122622.359375, 95436.828125, 88564.914063, 115808.992188, 0.000, 0.000, 0.000,0.0,0.0,0.0,0.0,0.0, 15:27:52.027
68874.484375, 54994.230469, 123233.453125, 88169.468750, 122681.031250, 95533.250000, 88552.687500, 115877.164063, 0.000, 0.000, 0.000,0.0,0.0,0.0,0.0,0.0, 15:27:52.027
68754.414063, 54874.066406, 123270.023438, 88391.914063, 122552.062500, 95560.093750, 88621.359375, 115773.625000, 0.000, 0.000, 0.000,0.0,0.0,0.0,0.0,0.0, 15:27:52.030
68692.851563, 54813.785156, 123304.312500, 88489.460938, 122482.750000, 95479.695313, 88649.343750, 115697.875000, 0.000, 0.000, 0.000,0.0,0.0,0.0,0.0,0.0, 15:27:52.031
68809.906250, 54933.589844, 123267.164063, 88283.351563, 122599.421875, 95440.406250, 88581.992188, 115788.359375, 0.090, 0.208, 0.966,0.0,0.0,0.0,0.0,0.0, 15:27:52.032
68898.421875, 55015.710938, 123217.500000, 88156.796875, 122693.171875, 95524.960938, 88537.156250, 115883.375000, 0.000, 0.000, 0.000,0.0,0.0,0.0,0.0,0.0, 15:27:52.033
68782.843750, 54900.957031, 123259.070313, 88356.710938, 122574.078125, 95568.906250, 88599.429688, 115793.406250, 0.000, 0.000, 0.000,0.0,0.0,0.0,0.0,0.0, 15:27:52.034
68685.429688, 54808.039063, 123317.320313, 88514.085938, 122469.671875, 95494.828125, 88645.742188, 115691.593750, 0.000, 0.000, 0.000,0.0,0.0,0.0,0.0,0.0, 15:27:52.034
68784.945313, 54909.917969, 123272.210938, 88329.867188, 122573.695313, 95440.804688, 88585.617188, 115768.484375, 0.000, 0.000, 0.000,0.0,0.0,0.0,0.0,0.0, 15:27:52.035
68901.867188, 55027.332031, 123206.476563, 88149.554688, 122701.328125, 95514.562500, 88528.304688, 115888.671875, 0.000, 0.000, 0.000,0.0,0.0,0.0,0.0,0.0, 15:27:52.036
68812.523438, 54939.109375, 123231.492188, 88312.140625, 122609.414063, 95576.210938, 88579.757813, 115822.195313, 0.000, 0.000, 0.000,0.0,0.0,0.0,0.0,0.0, 15:27:52.038
68683.781250, 54808.308594, 123307.726563, 88518.335938, 122464.914063, 95505.070313, 88640.335938, 115688.203125, 0.000, 0.000, 0.000,0.0,0.0,0.0,0.0,0.0, 15:27:52.039
68761.164063, 54886.449219, 123276.367188, 88380.539063, 122547.750000, 95435.710938, 88597.015625, 115741.281250, 0.000, 0.000, 0.000,0.0,0.0,0.0,0.0,0.0, 15:27:52.040
68893.351563, 55015.933594, 123208.328125, 88158.515625, 122686.617188, 95479.765625, 88524.078125, 115868.218750, 0.000, 0.000, 0.000,0.0,0.0,0.0,0.0,0.0, 15:27:52.040
68846.273438, 54963.472656, 123213.828125, 88264.507813, 122633.531250, 95565.414063, 88559.421875, 115842.023438, 0.078, 0.210, 0.970,0.0,0.0,0.0,0.0,0.0, 15:27:52.041
68711.179688, 54834.125000, 123270.734375, 88490.375000, 122495.218750, 95531.664063, 88631.460938, 115717.750000, 0.000, 0.000, 0.000,0.0,0.0,0.0,0.0,0.0, 15:27:52.041
68741.000000, 54863.382813, 123272.414063, 88423.539063, 122527.164063, 95448.000000, 88612.820313, 115728.367188, 0.000, 0.000, 0.000,0.0,0.0,0.0,0.0,0.0, 15:27:52.042
68882.421875, 55004.914063, 123210.210938, 88184.671875, 122682.460938, 95471.312500, 88543.015625, 115864.445313, 0.000, 0.000, 0.000,0.0,0.0,0.0,0.0,0.0, 15:27:52.042
68864.468750, 54986.542969, 123208.265625, 88234.562500, 122664.851563, 95560.562500, 88560.085938, 115869.781250, 0.000, 0.000, 0.000,0.0,0.0,0.0,0.0,0.0, 15:27:52.042
68724.546875, 54850.261719, 123259.273438, 88475.468750, 122518.421875, 95548.273438, 88627.617188, 115742.984375, 0.000, 0.000, 0.000,0.0,0.0,0.0,0.0,0.0, 15:27:52.043
68712.414063, 54836.671875, 123281.132813, 88469.562500, 122499.671875, 95453.164063, 88617.710938, 115708.296875, 0.000, 0.000, 0.000,0.0,0.0,0.0,0.0,0.0, 15:27:52.043
68855.734375, 54979.074219, 123226.304688, 88223.562500, 122651.375000, 95452.648438, 88538.812500, 115835.273438, 0.000, 0.000, 0.000,0.0,0.0,0.0,0.0,0.0, 15:27:52.044
68885.820313, 55003.261719, 123198.031250, 88202.148438, 122682.664063, 95551.242188, 88534.765625, 115880.695313, 0.000, 0.000, 0.000,0.0,0.0,0.0,0.0,0.0, 15:27:52.045
68749.093750, 54862.667969, 123250.867188, 88438.539063, 122536.507813, 95559.585938, 88607.812500, 115760.437500, 0.074, 0.216, 0.980,0.0,0.0,0.0,0.0,0.0, 15:27:52.046
68718.226563, 54830.996094, 123268.210938, 88483.710938, 122492.296875, 95472.726563, 88619.187500, 115702.210938, 0.000, 0.000, 0.000,0.0,0.0,0.0,0.0,0.0, 15:27:52.046
68847.546875, 54963.562500, 123205.226563, 88249.531250, 122633.085938, 95450.125000, 88547.687500, 115817.820313, 0.000, 0.000, 0.000,0.0,0.0,0.0,0.0,0.0, 15:27:52.046
68912.820313, 55030.128906, 123156.453125, 88170.164063, 122712.593750, 95550.328125, 88530.046875, 115903.875000, 0.000, 0.000, 0.000,0.0,0.0,0.0,0.0,0.0, 15:27:52.047
68780.203125, 54899.773438, 123208.820313, 88401.304688, 122575.421875, 95581.578125, 88604.234375, 115792.312500, 0.000, 0.000, 0.000,0.0,0.0,0.0,0.0,0.0, 15:27:52.047
68700.859375, 54821.718750, 123261.531250, 88513.460938, 122482.796875, 95494.453125, 88633.468750, 115698.992188, 0.000, 0.000, 0.000,0.0,0.0,0.0,0.0,0.0, 15:27:52.048
68812.679688, 54930.863281, 123225.742188, 88304.539063, 122601.570313, 95445.945313, 88573.789063, 115789.609375, 0.000, 0.000, 0.000,0.0,0.0,0.0,0.0,0.0, 15:27:52.048
68906.265625, 55023.601563, 123177.351563, 88156.710938, 122704.906250, 95523.085938, 88528.796875, 115889.273438, 0.000, 0.000, 0.000,0.0,0.0,0.0,0.0,0.0, 15:27:52.049
68807.984375, 54926.929688, 123193.023438, 88336.234375, 122604.859375, 95583.476563, 88586.015625, 115816.500000, 0.000, 0.000, 0.000,0.0,0.0,0.0,0.0,0.0, 15:27:52.049
68703.851563, 54822.859375, 123241.390625, 88499.742188, 122493.210938, 95516.312500, 88635.414063, 115711.421875, 0.000, 0.000, 0.000,0.0,0.0,0.0,0.0,0.0, 15:27:52.050
68788.609375, 54905.761719, 123220.890625, 88338.828125, 122581.093750, 95453.367188, 88584.296875, 115771.101563, 0.074, 0.216, 0.966,0.0,0.0,0.0,0.0,0.0, 15:27:52.050
68902.828125, 55017.675781, 123176.414063, 88153.781250, 122704.367188, 95506.875000, 88524.281250, 115882.835938, 0.000, 0.000, 0.000,0.0,0.0,0.0,0.0,0.0, 15:27:52.051
68826.632813, 54944.093750, 123197.601563, 88302.109375, 122629.867188, 95574.914063, 88573.101563, 115832.007813, 0.000, 0.000, 0.000,0.0,0.0,0.0,0.0,0.0, 15:27:52.051
68694.039063, 54814.097656, 123267.500000, 88515.718750, 122492.156250, 95520.984375, 88640.468750, 115706.546875, 0.000, 0.000, 0.000,5.6087965E-6,7.4296154E-6,9.132405E-6,2.8729952E-5,3.648593E-5, 15:27:52.052
68755.328125, 54876.457031, 123252.656250, 88398.914063, 122553.312500, 95448.382813, 88599.406250, 115745.796875, 0.000, 0.000, 0.000,5.6087965E-6,7.4296154E-6,9.132405E-6,2.8729952E-5,3.648593E-5, 15:27:52.055
68907.007813, 55025.656250, 123170.757813, 88168.554688, 122714.984375, 95504.843750, 88527.726563, 115888.335938, 0.000, 0.000, 0.000,5.6087965E-6,7.4296154E-6,9.132405E-6,2.8729952E-5,3.648593E-5, 15:27:52.055
68862.750000, 54980.281250, 123177.531250, 88267.976563, 122669.562500, 95592.773438, 88563.554688, 115866.546875, 0.000, 0.000, 0.000,5.6087965E-6,7.4296154E-6,9.132405E-6,2.8729952E-5,3.648593E-5, 15:27:52.055
68719.835938, 54841.457031, 123239.445313, 88500.812500, 122519.898438, 95557.437500, 88633.179688, 115732.726563, 0.000, 0.000, 0.000,5.6087965E-6,7.4296154E-6,9.132405E-6,2.8729952E-5,3.648593E-5, 15:27:52.056
68738.453125, 54860.210938, 123252.367188, 88448.375000, 122535.250000, 95464.945313, 88618.273438, 115729.078125, 0.000, 0.000, 0.000,5.6087965E-6,7.4296154E-6,9.132405E-6,2.8729952E-5,3.648593E-5, 15:27:52.056
68899.539063, 55019.062500, 123182.781250, 88203.335938, 122702.828125, 95485.820313, 88541.601563, 115875.507813, 0.000, 0.000, 0.000,5.6087965E-6,7.4296154E-6,9.132405E-6,2.8729952E-5,3.648593E-5, 15:27:52.057
68885.750000, 55005.003906, 123184.976563, 88242.648438, 122690.351563, 95576.882813, 88558.796875, 115885.273438, 0.080, 0.216, 0.966,5.6087965E-6,7.4296154E-6,9.132405E-6,2.8729952E-5,3.648593E-5, 15:27:52.057
68735.101563, 54856.320313, 123245.570313, 88484.273438, 122535.140625, 95558.375000, 88628.398438, 115750.046875, 0.000, 0.000, 0.000,5.6087965E-6,7.4296154E-6,9.132405E-6,2.8729952E-5,3.648593E-5, 15:27:52.068
68713.414063, 54837.566406, 123267.007813, 88492.609375, 122512.210938, 95463.093750, 88631.859375, 115715.554688, 0.000, 0.000, 0.000,5.6087965E-6,7.4296154E-6,9.132405E-6,2.8729952E-5,3.648593E-5, 15:27:52.069
68851.953125, 54971.812500, 123214.476563, 88249.062500, 122657.585938, 95455.046875, 88558.679688, 115835.539063, 0.000, 0.000, 0.000,5.6087965E-6,7.4296154E-6,9.132405E-6,2.8729952E-5,3.648593E-5, 15:27:52.069
68891.070313, 55007.687500, 123182.046875, 88208.945313, 122699.539063, 95556.812500, 88548.109375, 115889.187500, 0.000, 0.000, 0.000,5.6087965E-6,7.4296154E-6,9.132405E-6,2.8729952E-5,3.648593E-5, 15:27:52.070
68753.804688, 54874.558594, 123227.664063, 88443.187500, 122555.546875, 95575.585938, 88619.882813, 115772.375000, 0.000, 0.000, 0.000,5.6087965E-6,7.4296154E-6,9.132405E-6,2.8729952E-5,3.648593E-5, 15:27:52.070
68698.578125, 54825.562500, 123268.992188, 88514.539063, 122495.984375, 95484.484375, 88644.000000, 115704.562500, 0.000, 0.000, 0.000,5.6087965E-6,7.4296154E-6,9.132405E-6,2.8729952E-5,3.648593E-5, 15:27:52.071
68836.796875, 54965.621094, 123206.406250, 88282.835938, 122641.562500, 95460.093750, 88572.070313, 115825.570313, 0.000, 0.000, 0.000,5.6087965E-6,7.4296154E-6,9.132405E-6,2.8729952E-5,3.648593E-5, 15:27:52.071
68908.148438, 55031.492188, 123166.492188, 88186.101563, 122719.093750, 95551.046875, 88547.546875, 115909.078125, 0.000, 0.000, 0.000,5.6087965E-6,7.4296154E-6,9.132405E-6,2.8729952E-5,3.648593E-5, 15:27:52.071
68782.257813, 54901.894531, 123216.109375, 88402.976563, 122585.101563, 95583.406250, 88613.640625, 115800.718750, 0.080, 0.218, 0.968,5.6087965E-6,7.4296154E-6,9.132405E-6,2.8729952E-5,3.648593E-5, 15:27:52.072
68691.359375, 54810.589844, 123276.460938, 88531.570313, 122489.656250, 95498.335938, 88651.398438, 115700.718750, 0.000, 0.000, 0.000,5.6087965E-6,7.4296154E-6,9.132405E-6,2.8729952E-5,3.648593E-5, 15:27:52.073
68803.046875, 54925.746094, 123225.921875, 88325.484375, 122612.812500, 95451.062500, 88586.734375, 115790.882813, 0.000, 0.000, 0.000,5.6087965E-6,7.4296154E-6,9.132405E-6,2.8729952E-5,3.648593E-5, 15:27:52.074
68905.929688, 55029.343750, 123165.906250, 88166.539063, 122732.328125, 95529.500000, 88537.851563, 115900.007813, 0.000, 0.000, 0.000,5.6087965E-6,7.4296154E-6,9.132405E-6,2.8729952E-5,3.648593E-5, 15:27:52.075
68810.132813, 54937.300781, 123187.429688, 88342.585938, 122634.828125, 95591.164063, 88593.703125, 115831.765625, 0.000, 0.000, 0.000,5.6087965E-6,7.4296154E-6,9.132405E-6,2.8729952E-5,3.648593E-5, 15:27:52.075
68694.148438, 54824.492188, 123244.203125, 88520.234375, 122507.046875, 95525.671875, 88646.609375, 115715.335938, 0.000, 0.000, 0.000,5.6087965E-6,7.4296154E-6,9.132405E-6,2.8729952E-5,3.648593E-5, 15:27:52.076
68771.601563, 54897.132813, 123229.835938, 88369.203125, 122583.757813, 95452.648438, 88599.898438, 115765.828125, 0.000, 0.000, 0.000,5.6087965E-6,7.4296154E-6,9.132405E-6,2.8729952E-5,3.648593E-5, 15:27:52.076
68906.359375, 55030.484375, 123157.234375, 88161.890625, 122724.710938, 95515.796875, 88533.914063, 115899.218750, 0.000, 0.000, 0.000,5.6087965E-6,7.4296154E-6,9.132405E-6,2.8729952E-5,3.648593E-5, 15:27:52.076
68833.804688, 54960.566406, 123164.570313, 88294.281250, 122653.023438, 95594.093750, 88577.906250, 115856.843750, 0.000, 0.000, 0.000,5.6087965E-6,7.4296154E-6,9.132405E-6,2.8729952E-5,3.648593E-5, 15:27:52.076
68696.609375, 54827.820313, 123227.421875, 88515.273438, 122505.414063, 95550.421875, 88642.992188, 115729.101563, 0.000, 0.000, 0.000,5.6087965E-6,7.4296154E-6,9.132405E-6,2.8729952E-5,3.648593E-5, 15:27:52.077
68739.343750, 54867.742188, 123226.617188, 88419.453125, 122545.335938, 95465.726563, 88609.460938, 115746.914063, 0.084, 0.216, 0.970,5.6087965E-6,7.4296154E-6,9.132405E-6,2.8729952E-5,3.648593E-5, 15:27:52.077
68888.546875, 55017.476563, 123151.554688, 88180.242188, 122705.773438, 95505.085938, 88532.328125, 115888.539063, 0.000, 0.000, 0.000,5.6087965E-6,7.4296154E-6,9.132405E-6,2.8729952E-5,3.648593E-5, 15:27:52.077
68859.531250, 54983.812500, 123149.031250, 88256.890625, 122673.429688, 95595.031250, 88563.781250, 115878.367188, 0.000, 0.000, 0.000,5.6087965E-6,7.4296154E-6,9.132405E-6,2.8729952E-5,3.648593E-5, 15:27:52.078
68718.335938, 54844.429688, 123216.359375, 88496.210938, 122519.921875, 95563.070313, 88632.937500, 115744.031250, 0.000, 0.000, 0.000,5.6087965E-6,7.4296154E-6,9.132405E-6,2.8729952E-5,3.648593E-5, 15:27:52.078
68734.312500, 54861.886719, 123221.968750, 88457.156250, 122537.867188, 95475.898438, 88616.078125, 115738.781250, 0.000, 0.000, 0.000,5.6087965E-6,7.4296154E-6,9.132405E-6,2.8729952E-5,3.648593E-5, 15:27:52.079
68883.242188, 55008.511719, 123155.156250, 88215.406250, 122698.648438, 95489.976563, 88541.109375, 115875.734375, 0.000, 0.000, 0.000,5.6087965E-6,7.4296154E-6,9.132405E-6,2.8729952E-5,3.648593E-5, 15:27:52.079
68877.593750, 55003.417969, 123156.585938, 88239.117188, 122699.718750, 95580.210938, 88557.023438, 115893.945313, 0.000, 0.000, 0.000,5.6087965E-6,7.4296154E-6,9.132405E-6,2.8729952E-5,3.648593E-5, 15:27:52.080
68742.812500, 54867.003906, 123220.554688, 88485.703125, 122555.437500, 95573.750000, 88636.328125, 115769.445313, 0.000, 0.000, 0.000,5.6087965E-6,7.4296154E-6,9.132405E-6,2.8729952E-5,3.648593E-5, 15:27:52.080
68724.367188, 54849.101563, 123240.453125, 88510.109375, 122537.710938, 95483.343750, 88640.867188, 115730.890625, 0.000, 0.000, 0.000,5.6087965E-6,7.4296154E-6,9.132405E-6,2.8729952E-5,3.648593E-5, 15:27:52.081
68864.695313, 54991.367188, 123185.937500, 88276.000000, 122689.773438, 95469.125000, 88567.375000, 115850.250000, 0.080, 0.214, 0.974,5.6087965E-6,7.4296154E-6,9.132405E-6,2.8729952E-5,3.648593E-5, 15:27:52.081
68905.484375, 55030.351563, 123158.468750, 88228.523438, 122736.484375, 95562.468750, 88559.195313, 115908.031250, 0.000, 0.000, 0.000,5.6087965E-6,7.4296154E-6,9.132405E-6,2.8729952E-5,3.648593E-5, 15:27:52.082
68774.953125, 54895.523438, 123204.218750, 88458.570313, 122591.710938, 95588.039063, 88626.046875, 115794.148438, 0.000, 0.000, 0.000,5.6087965E-6,7.4296154E-6,9.132405E-6,2.8729952E-5,3.648593E-5, 15:27:52.083
68710.710938, 54831.285156, 123250.062500, 88542.210938, 122520.773438, 95494.765625, 88646.210938, 115712.875000, 0.000, 0.000, 0.000,5.6087965E-6,7.4296154E-6,9.132405E-6,2.8729952E-5,3.648593E-5, 15:27:52.084
68832.085938, 54954.847656, 123201.671875, 88318.039063, 122650.234375, 95458.578125, 88574.773438, 115816.406250, 0.000, 0.000, 0.000,5.6087965E-6,7.4296154E-6,9.132405E-6,2.8729952E-5,3.648593E-5, 15:27:52.084
68909.976563, 55030.933594, 123161.640625, 88201.812500, 122730.562500, 95540.937500, 88538.742188, 115900.562500, 0.000, 0.000, 0.000,5.6087965E-6,7.4296154E-6,9.132405E-6,2.8729952E-5,3.648593E-5, 15:27:52.084
68801.460938, 54919.062500, 123192.664063, 88406.109375, 122612.593750, 95588.234375, 88605.195313, 115808.875000, 0.000, 0.000, 0.000,5.6087965E-6,7.4296154E-6,9.132405E-6,2.8729952E-5,3.648593E-5, 15:27:52.085
68698.953125, 54822.949219, 123254.648438, 88551.460938, 122497.703125, 95506.968750, 88647.398438, 115701.500000, 0.000, 0.000, 0.000,5.6087965E-6,7.4296154E-6,9.132405E-6,2.8729952E-5,3.648593E-5, 15:27:52.085
68802.601563, 54930.640625, 123208.687500, 88355.414063, 122610.960938, 95459.359375, 88585.007813, 115789.539063, 0.000, 0.000, 0.000,5.6087965E-6,7.4296154E-6,9.132405E-6,2.8729952E-5,3.648593E-5, 15:27:52.085
68911.164063, 55041.593750, 123145.234375, 88182.632813, 122732.507813, 95532.445313, 88530.789063, 115907.226563, 0.000, 0.000, 0.000,5.6087965E-6,7.4296154E-6,9.132405E-6,2.8729952E-5,3.648593E-5, 15:27:52.086
68816.187500, 54948.140625, 123177.640625, 88354.343750, 122632.664063, 95598.226563, 88588.031250, 115837.062500, 0.078, 0.218, 0.972,5.6087965E-6,7.4296154E-6,9.132405E-6,2.8729952E-5,3.648593E-5, 15:27:52.086
68696.187500, 54827.933594, 123252.921875, 88547.531250, 122492.046875, 95530.054688, 88638.429688, 115711.687500, 0.000, 0.000, 0.000,5.6087965E-6,7.4296154E-6,9.132405E-6,2.8729952E-5,3.648593E-5, 15:27:52.087
68778.234375, 54902.609375, 123222.835938, 88399.960938, 122577.164063, 95459.515625, 88590.375000, 115768.421875, 0.000, 0.000, 0.000,5.6087965E-6,7.4296154E-6,9.132405E-6,2.8729952E-5,3.648593E-5, 15:27:52.088
68918.671875, 55040.566406, 123155.875000, 88192.250000, 122724.976563, 95510.539063, 88527.703125, 115898.906250, 0.000, 0.000, 0.000,5.6087965E-6,7.4296154E-6,9.132405E-6,2.8729952E-5,3.648593E-5, 15:27:52.088
68865.585938, 54991.882813, 123150.593750, 88310.554688, 122679.468750, 95594.812500, 88571.289063, 115872.781250, 0.000, 0.000, 0.000,5.6087965E-6,7.4296154E-6,9.132405E-6,2.8729952E-5,3.648593E-5, 15:27:52.088
68722.070313, 54851.089844, 123219.437500, 88540.445313, 122526.203125, 95545.882813, 88641.296875, 115731.609375, 0.000, 0.000, 0.000,5.6087965E-6,7.4296154E-6,9.132405E-6,2.8729952E-5,3.648593E-5, 15:27:52.089
68757.695313, 54888.574219, 123219.148438, 88456.890625, 122567.421875, 95458.820313, 88612.953125, 115747.765625, 0.000, 0.000, 0.000,5.6087965E-6,7.4296154E-6,9.132405E-6,2.8729952E-5,3.648593E-5, 15:27:52.090
68897.554688, 55027.312500, 123155.179688, 88218.351563, 122723.390625, 95491.882813, 88539.148438, 115882.210938, 0.000, 0.000, 0.000,5.6087965E-6,7.4296154E-6,9.132405E-6,2.8729952E-5,3.648593E-5, 15:27:52.090
68875.492188, 55005.046875, 123153.281250, 88279.125000, 122706.398438, 95587.992188, 88562.796875, 115885.007813, 0.000, 0.000, 0.000,5.6087965E-6,7.4296154E-6,9.132405E-6,2.8729952E-5,3.648593E-5, 15:27:52.091
68722.757813, 54852.765625, 123223.351563, 88520.929688, 122547.320313, 95566.132813, 88637.000000, 115746.851563, 0.000, 0.000, 0.000,5.6087965E-6,7.4296154E-6,9.132405E-6,2.8729952E-5,3.648593E-5, 15:27:52.091
68712.609375, 54845.167969, 123252.835938, 88498.687500, 122532.726563, 95462.796875, 88622.296875, 115718.281250, 0.076, 0.212, 0.966,5.6087965E-6,7.4296154E-6,9.132405E-6,2.8729952E-5,3.648593E-5, 15:27:52.091
68866.773438, 55000.757813, 123170.937500, 88241.421875, 122701.039063, 95479.453125, 88537.132813, 115864.039063, 0.000, 0.000, 0.000,5.6087965E-6,7.4296154E-6,9.132405E-6,2.8729952E-5,3.648593E-5, 15:27:52.092
68886.890625, 55019.019531, 123136.406250, 88233.593750, 122724.125000, 95587.476563, 88539.640625, 115907.203125, 0.000, 0.000, 0.000,5.6087965E-6,7.4296154E-6,9.132405E-6,2.8729952E-5,3.648593E-5, 15:27:52.092
68752.195313, 54881.199219, 123191.789063, 88477.367188, 122571.375000, 95590.945313, 88616.039063, 115780.601563, 0.000, 0.000, 0.000,5.6087965E-6,7.4296154E-6,9.132405E-6,2.8729952E-5,3.648593E-5, 15:27:52.093
68703.382813, 54831.933594, 123243.085938, 88525.914063, 122518.179688, 95486.250000, 88630.406250, 115715.515625, 0.000, 0.000, 0.000,5.6087965E-6,7.4296154E-6,9.132405E-6,2.8729952E-5,3.648593E-5, 15:27:52.093
68835.367188, 54963.070313, 123196.484375, 88289.632813, 122663.062500, 95465.773438, 88555.750000, 115831.453125, 0.000, 0.000, 0.000,5.6087965E-6,7.4296154E-6,9.132405E-6,2.8729952E-5,3.648593E-5, 15:27:52.094
68893.664063, 55023.980469, 123149.632813, 88213.726563, 122735.304688, 95567.250000, 88534.695313, 115911.937500, 0.000, 0.000, 0.000,5.6087965E-6,7.4296154E-6,9.132405E-6,2.8729952E-5,3.648593E-5, 15:27:52.094
68768.421875, 54901.066406, 123185.171875, 88439.789063, 122602.328125, 95601.335938, 88602.890625, 115805.257813, 0.000, 0.000, 0.000,5.6087965E-6,7.4296154E-6,9.132405E-6,2.8729952E-5,3.648593E-5, 15:27:52.094
68689.789063, 54820.332031, 123248.992188, 88549.875000, 122508.093750, 95503.101563, 88632.578125, 115708.406250, 0.000, 0.000, 0.000,5.6087965E-6,7.4296154E-6,9.132405E-6,2.8729952E-5,3.648593E-5, 15:27:52.095
68816.031250, 54943.179688, 123200.242188, 88329.304688, 122639.679688, 95460.140625, 88560.382813, 115810.593750, 0.074, 0.212, 0.966,5.6087965E-6,7.4296154E-6,9.132405E-6,2.8729952E-5,3.648593E-5, 15:27:52.096
68905.265625, 55035.269531, 123149.812500, 88200.296875, 122742.320313, 95544.851563, 88524.546875, 115911.093750, 0.000, 0.000, 0.000,5.6087965E-6,7.4296154E-6,9.132405E-6,2.8729952E-5,3.648593E-5, 15:27:52.097
68801.218750, 54933.343750, 123176.679688, 88395.781250, 122623.679688, 95588.257813, 88584.523438, 115821.210938, 0.000, 0.000, 0.000,5.6087965E-6,7.4296154E-6,9.132405E-6,2.8729952E-5,3.648593E-5, 15:27:52.097
68701.859375, 54836.246094, 123227.218750, 88549.625000, 122519.406250, 95515.976563, 88635.546875, 115717.835938, 0.000, 0.000, 0.000,5.6087965E-6,7.4296154E-6,9.132405E-6,2.8729952E-5,3.648593E-5, 15:27:52.097
68787.445313, 54923.175781, 123206.250000, 88377.273438, 122613.750000, 95453.390625, 88582.640625, 115785.406250, 0.000, 0.000, 0.000,5.6087965E-6,7.4296154E-6,9.132405E-6,2.8729952E-5,3.648593E-5, 15:27:52.098
68891.625000, 55031.402344, 123161.437500, 88200.695313, 122727.789063, 95513.445313, 88522.445313, 115894.843750, 0.000, 0.000, 0.000,5.6087965E-6,7.4296154E-6,9.132405E-6,2.8729952E-5,3.648593E-5, 15:27:52.098
68809.640625, 54948.656250, 123181.640625, 88355.414063, 122648.578125, 95587.054688, 88576.875000, 115839.945313, 0.000, 0.000, 0.000,5.6087965E-6,7.4296154E-6,9.132405E-6,2.8729952E-5,3.648593E-5, 15:27:52.099
68693.859375, 54829.855469, 123243.203125, 88553.492188, 122516.632813, 95533.835938, 88641.804688, 115719.265625, 0.000, 0.000, 0.000,5.6087965E-6,7.4296154E-6,9.132405E-6,2.8729952E-5,3.648593E-5, 15:27:52.100
68751.882813, 54890.292969, 123232.070313, 88428.726563, 122571.507813, 95455.867188, 88596.789063, 115757.109375, 0.000, 0.000, 0.000,5.6087965E-6,7.4296154E-6,9.132405E-6,2.8729952E-5,3.648593E-5, 15:27:52.100
68881.460938, 55021.386719, 123170.289063, 88208.789063, 122714.070313, 95499.992188, 88526.671875, 115887.843750, 0.000, 0.000, 0.000,3.424966E-5,4.807613E-5,5.980853E-5,1.6634379E-4,1.8087182E-4, 15:27:52.101
68830.226563, 54973.128906, 123164.257813, 88307.359375, 122666.078125, 95587.679688, 88557.539063, 115867.171875, 0.078, 0.218, 0.962,3.424966E-5,4.807613E-5,5.980853E-5,1.6634379E-4,1.8087182E-4, 15:27:52.101
68688.406250, 54834.125000, 123225.367188, 88532.664063, 122514.507813, 95548.945313, 88629.242188, 115735.007813, 0.000, 0.000, 0.000,3.424966E-5,4.807613E-5,5.980853E-5,1.6634379E-4,1.8087182E-4, 15:27:52.102
68721.195313, 54868.187500, 123222.007813, 88462.476563, 122539.765625, 95467.289063, 88606.000000, 115744.726563, 0.000, 0.000, 0.000,3.424966E-5,4.807613E-5,5.980853E-5,1.6634379E-4,1.8087182E-4, 15:27:52.103
68864.156250, 55009.406250, 123156.703125, 88222.601563, 122691.250000, 95487.140625, 88531.523438, 115873.695313, 0.000, 0.000, 0.000,3.424966E-5,4.807613E-5,5.980853E-5,1.6634379E-4,1.8087182E-4, 15:27:52.103
68852.937500, 54997.605469, 123143.218750, 88265.273438, 122681.726563, 95584.015625, 88552.710938, 115884.601563, 0.000, 0.000, 0.000,3.424966E-5,4.807613E-5,5.980853E-5,1.6634379E-4,1.8087182E-4, 15:27:52.103
68704.835938, 54851.871094, 123207.460938, 88510.382813, 122522.203125, 95564.632813, 88628.484375, 115749.734375, 0.000, 0.000, 0.000,3.424966E-5,4.807613E-5,5.980853E-5,1.6634379E-4,1.8087182E-4, 15:27:52.104
68700.117188, 54846.777344, 123216.734375, 88498.890625, 122512.117188, 95469.351563, 88620.328125, 115720.875000, 0.000, 0.000, 0.000,3.424966E-5,4.807613E-5,5.980853E-5,1.6634379E-4,1.8087182E-4, 15:27:52.104
68842.859375, 54988.953125, 123161.281250, 88256.914063, 122661.203125, 95466.312500, 88544.687500, 115845.648438, 0.000, 0.000, 0.000,3.424966E-5,4.807613E-5,5.980853E-5,1.6634379E-4,1.8087182E-4, 15:27:52.105
68867.843750, 55013.003906, 123134.484375, 88234.382813, 122687.734375, 95561.843750, 88542.054688, 115889.898438, 0.000, 0.000, 0.000,3.424966E-5,4.807613E-5,5.980853E-5,1.6634379E-4,1.8087182E-4, 15:27:52.106
68721.125000, 54865.910156, 123189.531250, 88472.023438, 122535.164063, 95567.093750, 88616.414063, 115762.453125, 0.076, 0.218, 0.968,0.0,0.0,0.0,0.0,0.0, 15:27:52.507
68684.046875, 54827.531250, 123221.609375, 88525.289063, 122494.750000, 95481.281250, 88633.203125, 115709.968750, 0.000, 0.000, 0.000,0.0,0.0,0.0,0.0,0.0, 15:27:52.508
68820.054688, 54964.726563, 123153.570313, 88287.351563, 122642.765625, 95465.281250, 88557.812500, 115830.671875, 0.000, 0.000, 0.000,0.0,0.0,0.0,0.0,0.0, 15:27:52.508
68875.023438, 55021.253906, 123118.031250, 88205.679688, 122705.507813, 95554.445313, 88535.835938, 115900.023438, 0.000, 0.000, 0.000,0.0,0.0,0.0,0.0,0.0, 15:27:52.509
68750.898438, 54896.800781, 123168.281250, 88428.796875, 122566.476563, 95587.835938, 88604.187500, 115792.562500, 0.000, 0.000, 0.000,0.0,0.0,0.0,0.0,0.0, 15:27:52.509
68679.554688, 54826.859375, 123212.242188, 88542.093750, 122484.046875, 95509.851563, 88638.453125, 115710.375000, 0.000, 0.000, 0.000,0.0,0.0,0.0,0.0,0.0, 15:27:52.510
68787.804688, 54936.093750, 123181.195313, 88341.687500, 122593.437500, 95460.382813, 88576.585938, 115793.921875, 0.000, 0.000, 0.000,0.0,0.0,0.0,0.0,0.0, 15:27:52.510
68877.812500, 55024.316406, 123145.906250, 88205.078125, 122688.367188, 95534.281250, 88535.164063, 115889.632813, 0.000, 0.000, 0.000,0.0,0.0,0.0,0.0,0.0, 15:27:52.510
68766.953125, 54915.417969, 123190.828125, 88395.648438, 122571.578125, 95575.476563, 88593.171875, 115797.296875, 0.000, 0.000, 0.000,0.0,0.0,0.0,0.0,0.0, 15:27:52.511
68667.171875, 54817.742188, 123238.101563, 88557.515625, 122462.742188, 95506.742188, 88643.234375, 115695.304688, 0.000, 0.000, 0.000,0.0,0.0,0.0,0.0,0.0, 15:27:52.511
68757.742188, 54905.984375, 123208.757813, 88393.789063, 122554.835938, 95445.546875, 88596.320313, 115762.875000, 0.074, 0.214, 0.966,0.0,0.0,0.0,0.0,0.0, 15:27:52.511
68889.523438, 55034.082031, 123145.234375, 88200.468750, 122694.890625, 95513.492188, 88534.273438, 115896.562500, 0.000, 0.000, 0.000,0.0,0.0,0.0,0.0,0.0, 15:27:52.512
68819.070313, 54967.050781, 123155.960938, 88345.851563, 122621.265625, 95596.867188, 88581.726563, 115852.242188, 0.000, 0.000, 0.000,0.0,0.0,0.0,0.0,0.0, 15:27:52.512
68676.578125, 54826.167969, 123242.062500, 88568.601563, 122470.367188, 95539.890625, 88648.445313, 115714.484375, 0.000, 0.000, 0.000,0.0,0.0,0.0,0.0,0.0, 15:27:52.512
68733.781250, 54886.136719, 123233.296875, 88454.812500, 122535.546875, 95458.421875, 88612.484375, 115753.179688, 0.000, 0.000, 0.000,0.0,0.0,0.0,0.0,0.0, 15:27:52.513
68872.492188, 55021.253906, 123177.484375, 88235.835938, 122685.726563, 95498.320313, 88546.921875, 115886.351563, 0.000, 0.000, 0.000,0.0,0.0,0.0,0.0,0.0, 15:27:52.513
68827.859375, 54972.750000, 123200.484375, 88334.203125, 122638.515625, 95578.312500, 88582.218750, 115859.859375, 0.000, 0.000, 0.000,0.0,0.0,0.0,0.0,0.0, 15:27:52.514
68682.703125, 54826.792969, 123275.390625, 88569.406250, 122480.984375, 95542.726563, 88650.789063, 115725.976563, 0.000, 0.000, 0.000,0.0,0.0,0.0,0.0,0.0, 15:27:52.514
68700.679688, 54846.753906, 123286.851563, 88515.921875, 122499.914063, 95454.664063, 88631.257813, 115724.054688, 0.000, 0.000, 0.000,0.0,0.0,0.0,0.0,0.0, 15:27:52.515
68854.234375, 54999.707031, 123220.648438, 88267.906250, 122665.898438, 95476.390625, 88554.703125, 115866.054688, 0.080, 0.220, 0.962,0.0,0.0,0.0,0.0,0.0, 15:27:52.515
68849.585938, 54993.023438, 123211.078125, 88300.359375, 122667.398438, 95573.351563, 88572.875000, 115888.515625, 0.000, 0.000, 0.000,0.0,0.0,0.0,0.0,0.0, 15:27:52.516
68700.898438, 54846.640625, 123281.914063, 88547.664063, 122506.640625, 95556.859375, 88644.531250, 115751.679688, 0.000, 0.000, 0.000,0.0,0.0,0.0,0.0,0.0, 15:27:52.516
68682.703125, 54830.214844, 123306.609375, 88553.453125, 122479.484375, 95458.976563, 88638.117188, 115713.679688, 0.000, 0.000, 0.000,0.0,0.0,0.0,0.0,0.0, 15:27:52.516
68825.804688, 54972.304688, 123245.773438, 88306.421875, 122629.804688, 95450.976563, 88559.929688, 115837.062500, 0.000, 0.000, 0.000,0.0,0.0,0.0,0.0,0.0, 15:27:52.517
68864.648438, 55012.113281, 123207.125000, 88264.914063, 122679.421875, 95553.257813, 88555.328125, 115898.328125, 0.000, 0.000, 0.000,0.0,0.0,0.0,0.0,0.0, 15:27:52.517
68730.898438, 54874.132813, 123267.250000, 88506.710938, 122529.687500, 95567.765625, 88634.296875, 115775.195313, 0.000, 0.000, 0.000,0.0,0.0,0.0,0.0,0.0, 15:27:52.517
68671.914063, 54812.980469, 123309.765625, 88573.078125, 122463.148438, 95472.234375, 88653.851563, 115702.234375, 0.000, 0.000, 0.000,0.0,0.0,0.0,0.0,0.0, 15:27:52.518
68803.335938, 54946.285156, 123253.390625, 88344.281250, 122602.156250, 95447.218750, 88582.085938, 115815.250000, 0.000, 0.000, 0.000,0.0,0.0,0.0,0.0,0.0, 15:27:52.518
68874.062500, 55017.386719, 123212.335938, 88249.421875, 122682.101563, 95536.648438, 88559.218750, 115899.132813, 0.000, 0.000, 0.000,0.0,0.0,0.0,0.0,0.0, 15:27:52.518
68747.859375, 54894.250000, 123252.703125, 88465.609375, 122551.593750, 95571.296875, 88623.414063, 115796.250000, 0.082, 0.214, 0.966,0.0,0.0,0.0,0.0,0.0, 15:27:52.519
68652.085938, 54803.167969, 123310.726563, 88599.539063, 122448.953125, 95484.992188, 88658.304688, 115693.320313, 0.000, 0.000, 0.000,0.0,0.0,0.0,0.0,0.0, 15:27:52.519
68750.882813, 54902.675781, 123289.804688, 88409.234375, 122552.757813, 95432.828125, 88600.453125, 115769.960938, 0.000, 0.000, 0.000,0.0,0.0,0.0,0.0,0.0, 15:27:52.519
68855.664063, 55005.605469, 123237.054688, 88249.984375, 122666.859375, 95507.187500, 88548.984375, 115875.101563, 0.000, 0.000, 0.000,0.0,0.0,0.0,0.0,0.0, 15:27:52.520
68757.742188, 54907.503906, 123268.593750, 88427.070313, 122564.468750, 95563.609375, 88611.343750, 115798.929688, 0.000, 0.000, 0.000,0.0,0.0,0.0,0.0,0.0, 15:27:52.520
68651.007813, 54800.015625, 123328.632813, 88601.617188, 122442.492188, 95497.867188, 88665.632813, 115685.742188, 0.000, 0.000, 0.000,0.0,0.0,0.0,0.0,0.0, 15:27:52.522
68734.539063, 54884.953125, 123300.242188, 88446.742188, 122526.625000, 95438.640625, 88616.882813, 115746.804688, 0.000, 0.000, 0.000,0.0,0.0,0.0,0.0,0.0, 15:27:52.523
68865.679688, 55013.320313, 123237.968750, 88243.343750, 122662.992188, 95493.171875, 88552.648438, 115875.101563, 0.000, 0.000, 0.000,0.0,0.0,0.0,0.0,0.0, 15:27:52.523
68806.554688, 54952.855469, 123246.148438, 88373.765625, 122600.140625, 95572.437500, 88595.625000, 115837.062500, 0.000, 0.000, 0.000,0.0,0.0,0.0,0.0,0.0, 15:27:52.524
68671.578125, 54817.113281, 123317.429688, 88595.625000, 122453.000000, 95524.937500, 88664.335938, 115705.164063, 0.000, 0.000, 0.000,0.0,0.0,0.0,0.0,0.0, 15:27:52.524
68708.007813, 54854.890625, 123320.562500, 88501.304688, 122492.765625, 95438.726563, 88630.226563, 115720.500000, 0.080, 0.216, 0.968,0.0,0.0,0.0,0.0,0.0, 15:27:52.525
68850.476563, 54993.648438, 123261.242188, 88272.000000, 122648.062500, 95471.648438, 88556.515625, 115854.765625, 0.000, 0.000, 0.000,0.0,0.0,0.0,0.0,0.0, 15:27:52.525
68819.609375, 54964.992188, 123262.625000, 88348.304688, 122620.953125, 95563.453125, 88584.203125, 115849.062500, 0.000, 0.000, 0.000,0.0,0.0,0.0,0.0,0.0, 15:27:52.525
68672.539063, 54819.195313, 123326.195313, 88582.890625, 122472.625000, 95537.273438, 88654.656250, 115719.492188, 0.000, 0.000, 0.000,0.0,0.0,0.0,0.0,0.0, 15:27:52.526
68686.929688, 54833.722656, 123332.007813, 88544.171875, 122490.171875, 95454.351563, 88642.812500, 115718.398438, 0.000, 0.000, 0.000,0.0,0.0,0.0,0.0,0.0, 15:27:52.526
68830.492188, 54976.527344, 123275.250000, 88301.968750, 122645.000000, 95464.742188, 88568.273438, 115848.531250, 0.000, 0.000, 0.000,0.0,0.0,0.0,0.0,0.0, 15:27:52.527
68832.015625, 54980.910156, 123258.351563, 88308.718750, 122648.171875, 95554.242188, 88570.414063, 115867.507813, 0.000, 0.000, 0.000,0.0,0.0,0.0,0.0,0.0, 15:27:52.527
68680.203125, 54832.648438, 123326.351563, 88553.648438, 122486.484375, 95549.031250, 88640.171875, 115730.734375, 0.000, 0.000, 0.000,0.0,0.0,0.0,0.0,0.0, 15:27:52.527
68657.757813, 54810.433594, 123352.593750, 88575.359375, 122459.484375, 95456.226563, 88642.570313, 115689.164063, 0.000, 0.000, 0.000,0.0,0.0,0.0,0.0,0.0, 15:27:52.528
68808.632813, 54959.339844, 123278.203125, 88327.539063, 122617.460938, 95456.828125, 88567.687500, 115820.921875, 0.080, 0.218, 0.968,0.0,0.0,0.0,0.0,0.0, 15:27:52.528
68844.640625, 54994.519531, 123261.062500, 88279.484375, 122662.460938, 95548.046875, 88559.687500, 115875.554688, 0.000, 0.000, 0.000,0.0,0.0,0.0,0.0,0.0, 15:27:52.528
68708.320313, 54858.128906, 123321.703125, 88515.187500, 122518.109375, 95563.804688, 88633.578125, 115757.843750, 0.000, 0.000, 0.000,0.0,0.0,0.0,0.0,0.0, 15:27:52.529
68645.046875, 54798.964844, 123365.890625, 88602.890625, 122448.242188, 95478.085938, 88655.773438, 115684.375000, 0.000, 0.000, 0.000,0.0,0.0,0.0,0.0,0.0, 15:27:52.534
68773.453125, 54929.121094, 123309.359375, 88377.835938, 122593.304688, 95450.554688, 88588.476563, 115798.148438, 0.000, 0.000, 0.000,0.0,0.0,0.0,0.0,0.0, 15:27:52.534
68853.070313, 55005.003906, 123266.312500, 88265.132813, 122682.398438, 95537.968750, 88563.242188, 115889.859375, 0.000, 0.000, 0.000,0.0,0.0,0.0,0.0,0.0, 15:27:52.534
68728.843750, 54883.121094, 123314.773438, 88472.757813, 122550.632813, 95570.960938, 88629.515625, 115784.648438, 0.000, 0.000, 0.000,0.0,0.0,0.0,0.0,0.0, 15:27:52.535
68629.976563, 54783.363281, 123374.453125, 88613.734375, 122442.117188, 95484.750000, 88669.476563, 115678.250000, 0.000, 0.000, 0.000,0.0,0.0,0.0,0.0,0.0, 15:27:52.535
68730.781250, 54879.609375, 123346.664063, 88425.687500, 122541.890625, 95425.515625, 88609.820313, 115751.812500, 0.000, 0.000, 0.000,0.0,0.0,0.0,0.0,0.0, 15:27:52.536
68852.000000, 54999.125000, 123273.484375, 88245.820313, 122674.015625, 95502.226563, 88558.320313, 115879.578125, 0.000, 0.000, 0.000,0.0,0.0,0.0,0.0,0.0, 15:27:52.536
68760.203125, 54908.308594, 123297.226563, 88414.960938, 122575.328125, 95566.531250, 88614.289063, 115810.734375, 0.074, 0.216, 0.970,0.0,0.0,0.0,0.0,0.0, 15:27:52.536
68647.367188, 54796.484375, 123351.179688, 88605.125000, 122453.156250, 95505.515625, 88673.320313, 115695.125000, 0.000, 0.000, 0.000,0.0,0.0,0.0,0.0,0.0, 15:27:52.537
68713.531250, 54862.398438, 123333.992188, 88469.070313, 122525.085938, 95433.093750, 88629.359375, 115743.382813, 0.000, 0.000, 0.000,0.0,0.0,0.0,0.0,0.0, 15:27:52.537
68839.703125, 54985.781250, 123279.476563, 88258.296875, 122661.382813, 95480.632813, 88557.164063, 115865.765625, 0.000, 0.000, 0.000,0.0,0.0,0.0,0.0,0.0, 15:27:52.537
68776.781250, 54924.515625, 123292.265625, 88373.875000, 122594.687500, 95557.570313, 88590.156250, 115823.429688, 0.000, 0.000, 0.000,0.0,0.0,0.0,0.0,0.0, 15:27:52.538
68638.453125, 54788.125000, 123359.789063, 88596.765625, 122447.476563, 95514.390625, 88659.289063, 115690.992188, 0.000, 0.000, 0.000,0.0,0.0,0.0,0.0,0.0, 15:27:52.538
68681.390625, 54832.425781, 123351.742188, 88508.125000, 122488.937500, 95433.921875, 88624.125000, 115713.992188, 0.000, 0.000, 0.000,0.0,0.0,0.0,0.0,0.0, 15:27:52.543
68836.242188, 54984.484375, 123268.617188, 88263.507813, 122655.906250, 95473.750000, 88547.234375, 115858.789063, 0.000, 0.000, 0.000,0.0,0.0,0.0,0.0,0.0, 15:27:52.543
68811.898438, 54958.175781, 123264.031250, 88329.289063, 122632.570313, 95567.585938, 88574.687500, 115853.890625, 0.000, 0.000, 0.000,0.0,0.0,0.0,0.0,0.0, 15:27:52.544
68658.679688, 54806.074219, 123339.695313, 88578.796875, 122466.390625, 95541.343750, 88646.882813, 115714.085938, 0.072, 0.214, 0.966,0.0,0.0,0.0,0.0,0.0, 15:27:52.545
68668.937500, 54817.785156, 123338.351563, 88550.414063, 122477.632813, 95454.218750, 88630.992188, 115706.460938, 0.000, 0.000, 0.000,0.0,0.0,0.0,0.0,0.0, 15:27:52.545
68816.796875, 54964.257813, 123277.039063, 88310.820313, 122634.765625, 95461.437500, 88556.132813, 115834.875000, 0.000, 0.000, 0.000,0.0,0.0,0.0,0.0,0.0, 15:27:52.545
68827.437500, 54973.375000, 123263.140625, 88311.273438, 122650.921875, 95554.890625, 88559.734375, 115867.171875, 0.000, 0.000, 0.000,0.0,0.0,0.0,0.0,0.0, 15:27:52.546
68683.492188, 54831.375000, 123320.601563, 88548.578125, 122498.664063, 95553.906250, 88627.617188, 115739.117188, 0.000, 0.000, 0.000,0.0,0.0,0.0,0.0,0.0, 15:27:52.546
68647.078125, 54792.550781, 123360.953125, 88592.234375, 122455.164063, 95459.398438, 88639.843750, 115681.468750, 0.000, 0.000, 0.000,0.0,0.0,0.0,0.0,0.0, 15:27:52.547
68792.273438, 54936.046875, 123305.046875, 88352.773438, 122603.585938, 95444.070313, 88565.343750, 115806.687500, 0.000, 0.000, 0.000,0.0,0.0,0.0,0.0,0.0, 15:27:52.547
68855.375000, 54996.890625, 123265.375000, 88283.328125, 122664.492188, 95542.281250, 88544.625000, 115878.679688, 0.000, 0.000, 0.000,0.0,0.0,0.0,0.0,0.0, 15:27:52.547
68735.390625, 54877.152344, 123312.734375, 88511.656250, 122527.164063, 95567.695313, 88614.203125, 115766.320313, 0.000, 0.000, 0.000,0.0,0.0,0.0,0.0,0.0, 15:27:52.548
68663.148438, 54806.812500, 123368.101563, 88618.273438, 122442.406250, 95475.765625, 88641.804688, 115675.859375, 0.000, 0.000, 0.000,0.0,0.0,0.0,0.0,0.0, 15:27:52.548
68785.078125, 54929.566406, 123328.046875, 88405.484375, 122567.976563, 95431.195313, 88572.023438, 115770.273438, 0.074, 0.216, 0.960,0.0,0.0,0.0,0.0,0.0, 15:27:52.549
68890.062500, 55029.792969, 123266.937500, 88269.093750, 122675.578125, 95519.617188, 88531.164063, 115877.875000, 0.000, 0.000, 0.000,0.0,0.0,0.0,0.0,0.0, 15:27:52.549
68784.117188, 54929.296875, 123300.960938, 88465.500000, 122559.570313, 95568.234375, 88595.203125, 115789.210938, 0.000, 0.000, 0.000,0.0,0.0,0.0,0.0,0.0, 15:27:52.549
68691.914063, 54836.070313, 123353.976563, 88618.539063, 122450.921875, 95492.906250, 88642.500000, 115682.921875, 0.000, 0.000, 0.000,0.0,0.0,0.0,0.0,0.0, 15:27:52.550
68795.937500, 54937.457031, 123321.523438, 88442.632813, 122550.992188, 95436.382813, 88592.320313, 115754.070313, 0.000, 0.000, 0.000,0.0,0.0,0.0,0.0,0.0, 15:27:52.550
68916.234375, 55055.699219, 123274.937500, 88263.546875, 122671.757813, 95495.367188, 88539.210938, 115866.406250, 0.000, 0.000, 0.000,0.0,0.0,0.0,0.0,0.0, 15:27:52.550
68847.929688, 54992.308594, 123284.750000, 88413.125000, 122597.460938, 95569.039063, 88587.984375, 115818.265625, 0.000, 0.000, 0.000,0.0,0.0,0.0,0.0,0.0, 15:27:52.550
68733.039063, 54878.468750, 123341.593750, 88615.703125, 122464.890625, 95514.945313, 88652.046875, 115697.742188, 0.000, 0.000, 0.000,0.0,0.0,0.0,0.0,0.0, 15:27:52.550
68800.476563, 54946.332031, 123334.328125, 88495.914063, 122523.406250, 95436.937500, 88615.250000, 115734.828125, 0.000, 0.000, 0.000,0.0,0.0,0.0,0.0,0.0, 15:27:52.551
68953.742188, 55095.796875, 123257.351563, 88272.375000, 122681.437500, 95490.000000, 88544.375000, 115876.492188, 0.080, 0.214, 0.964,0.0,0.0,0.0,0.0,0.0, 15:27:52.551
68906.875000, 55047.898438, 123270.539063, 88381.562500, 122622.898438, 95569.460938, 88581.257813, 115841.601563, 0.000, 0.000, 0.000,0.0,0.0,0.0,0.0,0.0, 15:27:52.551
68768.695313, 54909.785156, 123344.742188, 88616.484375, 122465.960938, 95530.367188, 88650.343750, 115705.703125, 0.000, 0.000, 0.000,0.0,0.0,0.0,0.0,0.0, 15:27:52.552
68810.804688, 54950.265625, 123339.562500, 88545.226563, 122503.625000, 95452.539063, 88628.242188, 115716.632813, 0.000, 0.000, 0.000,0.0,0.0,0.0,0.0,0.0, 15:27:52.552
68965.273438, 55101.875000, 123269.820313, 88305.054688, 122664.023438, 95479.875000, 88555.085938, 115856.843750, 0.000, 0.000, 0.000,0.0,0.0,0.0,0.0,0.0, 15:27:52.553
68947.843750, 55080.664063, 123268.007813, 88354.187500, 122647.187500, 95566.890625, 88573.789063, 115861.421875, 0.000, 0.000, 0.000,0.0,0.0,0.0,0.0,0.0, 15:27:52.553
68801.125000, 54935.355469, 123325.968750, 88595.984375, 122495.335938, 95550.265625, 88642.992188, 115734.554688, 0.000, 0.000, 0.000,0.0,0.0,0.0,0.0,0.0, 15:27:52.553
68792.632813, 54930.171875, 123334.640625, 88583.914063, 122486.328125, 95463.312500, 88637.898438, 115712.117188, 0.000, 0.000, 0.000,0.0,0.0,0.0,0.0,0.0, 15:27:52.554
68939.125000, 55075.679688, 123265.531250, 88335.789063, 122642.296875, 95468.523438, 88561.453125, 115844.750000, 0.000, 0.000, 0.000,0.0,0.0,0.0,0.0,0.0, 15:27:52.554
68955.109375, 55093.226563, 123240.007813, 88312.054688, 122672.671875, 95560.187500, 88558.343750, 115882.437500, 0.000, 0.000, 0.000,0.0,0.0,0.0,0.0,0.0, 15:27:52.555
68808.617188, 54953.996094, 123283.078125, 88546.296875, 122526.242188, 95566.804688, 88630.656250, 115760.281250, 0.080, 0.208, 0.966,0.0,0.0,0.0,0.0,0.0, 15:27:52.555
68751.390625, 54895.054688, 123325.812500, 88607.140625, 122465.695313, 95468.703125, 88647.796875, 115690.750000, 0.000, 0.000, 0.000,0.0,0.0,0.0,0.0,0.0, 15:27:52.556
68884.695313, 55025.589844, 123272.148438, 88370.460938, 122613.929688, 95449.234375, 88575.937500, 115810.664063, 0.000, 0.000, 0.000,0.0,0.0,0.0,0.0,0.0, 15:27:52.556
68946.390625, 55090.050781, 123226.234375, 88278.164063, 122690.218750, 95544.671875, 88553.382813, 115892.851563, 0.000, 0.000, 0.000,0.0,0.0,0.0,0.0,0.0, 15:27:52.556
68813.460938, 54959.718750, 123268.617188, 88498.757813, 122558.078125, 95577.484375, 88621.804688, 115786.546875, 0.000, 0.000, 0.000,0.0,0.0,0.0,0.0,0.0, 15:27:52.557
68726.851563, 54874.582031, 123321.210938, 88620.570313, 122471.414063, 95496.125000, 88657.921875, 115698.460938, 0.000, 0.000, 0.000,0.0,0.0,0.0,0.0,0.0, 15:27:52.557
68833.359375, 54977.398438, 123285.109375, 88417.398438, 122587.937500, 95448.625000, 88595.539063, 115786.523438, 0.000, 0.000, 0.000,0.0,0.0,0.0,0.0,0.0, 15:27:52.558
68923.773438, 55072.214844, 123232.898438, 88273.093750, 122694.937500, 95531.617188, 88551.101563, 115890.664063, 0.000, 0.000, 0.000,0.0,0.0,0.0,0.0,0.0, 15:27:52.558
68819.273438, 54967.878906, 123254.578125, 88455.171875, 122591.132813, 95587.703125, 88607.476563, 115813.234375, 0.000, 0.000, 0.000,0.0,0.0,0.0,0.0,0.0, 15:27:52.560
68703.984375, 54849.972656, 123318.414063, 88627.703125, 122466.812500, 95514.093750, 88660.250000, 115696.109375, 0.000, 0.000, 0.000,0.0,0.0,0.0,0.0,0.0, 15:27:52.561
68792.679688, 54934.640625, 123291.906250, 88462.773438, 122559.593750, 95448.898438, 88611.945313, 115762.921875, 0.080, 0.218, 0.970,0.0,0.0,0.0,0.0,0.0, 15:27:52.562
68908.726563, 55048.632813, 123238.554688, 88273.453125, 122685.632813, 95504.109375, 88549.453125, 115884.648438, 0.000, 0.000, 0.000,0.0,0.0,0.0,0.0,0.0, 15:27:52.563
68832.929688, 54976.035156, 123250.148438, 88413.820313, 122608.945313, 95573.734375, 88590.398438, 115835.273438, 0.000, 0.000, 0.000,0.0,0.0,0.0,0.0,0.0, 15:27:52.564
68703.562500, 54849.523438, 123303.437500, 88623.125000, 122476.960938, 95528.960938, 88653.296875, 115711.734375, 0.000, 0.000, 0.000,0.0,0.0,0.0,0.0,0.0, 15:27:52.564
68749.625000, 54898.429688, 123295.210938, 88515.835938, 122529.554688, 95449.007813, 88616.703125, 115742.203125, 0.000, 0.000, 0.000,0.0,0.0,0.0,0.0,0.0, 15:27:52.564
68886.421875, 55037.660156, 123224.648438, 88285.539063, 122677.257813, 95489.867188, 88540.398438, 115879.195313, 0.000, 0.000, 0.000,0.0,0.0,0.0,0.0,0.0, 15:27:52.564
68843.664063, 54995.035156, 123224.070313, 88372.648438, 122638.320313, 95578.421875, 88572.296875, 115859.570313, 0.000, 0.000, 0.000,0.0,0.0,0.0,0.0,0.0, 15:27:52.565
68695.023438, 54847.289063, 123293.875000, 88607.835938, 122481.742188, 95543.289063, 88641.179688, 115722.664063, 0.000, 0.000, 0.000,0.0,0.0,0.0,0.0,0.0, 15:27:52.565
68709.843750, 54862.042969, 123299.078125, 88551.882813, 122499.046875, 95456.500000, 88622.359375, 115720.585938, 0.000, 0.000, 0.000,0.0,0.0,0.0,0.0,0.0, 15:27:52.566
68855.125000, 55006.726563, 123242.398438, 88309.460938, 122650.343750, 95471.000000, 88545.132813, 115851.101563, 0.080, 0.218, 0.974,0.0,0.0,0.0,0.0,0.0, 15:27:52.566
68863.132813, 55015.507813, 123211.796875, 88330.601563, 122665.203125, 95573.195313, 88552.398438, 115882.484375, 0.000, 0.000, 0.000,0.0,0.0,0.0,0.0,0.0, 15:27:52.567
68713.015625, 54862.488281, 123275.703125, 88581.632813, 122507.250000, 95561.328125, 88628.757813, 115744.078125, 0.000, 0.000, 0.000,0.0,0.0,0.0,0.0,0.0, 15:27:52.567
68682.570313, 54832.226563, 123316.250000, 88598.132813, 122472.960938, 95457.281250, 88630.226563, 115694.414063, 0.000, 0.000, 0.000,0.0,0.0,0.0,0.0,0.0, 15:27:52.567
68828.328125, 54977.109375, 123251.515625, 88345.625000, 122633.000000, 95446.773438, 88553.046875, 115824.679688, 0.000, 0.000, 0.000,0.0,0.0,0.0,0.0,0.0, 15:27:52.568
68872.296875, 55020.226563, 123206.609375, 88296.804688, 122693.234375, 95552.117188, 88547.015625, 115892.093750, 0.000, 0.000, 0.000,0.0,0.0,0.0,0.0,0.0, 15:27:52.568
68736.015625, 54884.304688, 123251.312500, 88529.890625, 122543.320313, 95571.742188, 88612.570313, 115773.117188, 0.000, 0.000, 0.000,0.0,0.0,0.0,0.0,0.0, 15:27:52.988
68677.382813, 54826.660156, 123300.062500, 88611.679688, 122472.757813, 95476.390625, 88632.039063, 115698.500000, 0.000, 0.000, 0.000,0.0,0.0,0.0,0.0,0.0, 15:27:52.988
68807.023438, 54959.941406, 123251.851563, 88385.210938, 122614.828125, 95443.398438, 88564.359375, 115813.125000, 0.000, 0.000, 0.000,0.0,0.0,0.0,0.0,0.0, 15:27:52.989
68895.609375, 55048.343750, 123187.453125, 88276.156250, 122711.656250, 95542.687500, 88533.851563, 115915.093750, 0.000, 0.000, 0.000,0.0,0.0,0.0,0.0,0.0, 15:27:52.989
68768.359375, 54923.351563, 123233.898438, 88500.656250, 122580.312500, 95581.953125, 88608.812500, 115810.171875, 0.076, 0.218, 0.972,0.0,0.0,0.0,0.0,0.0, 15:27:52.989
68671.914063, 54834.773438, 123287.437500, 88631.640625, 122481.320313, 95498.070313, 88647.640625, 115707.960938, 0.000, 0.000, 0.000,0.0,0.0,0.0,0.0,0.0, 15:27:52.989
68772.046875, 54935.644531, 123252.546875, 88437.179688, 122588.117188, 95448.453125, 88586.867188, 115785.992188, 0.000, 0.000, 0.000,0.0,0.0,0.0,0.0,0.0, 15:27:52.990
68880.273438, 55037.503906, 123205.648438, 88278.750000, 122702.445313, 95521.453125, 88539.437500, 115893.234375, 0.000, 0.000, 0.000,0.0,0.0,0.0,0.0,0.0, 15:27:52.991
68784.968750, 54940.453125, 123230.015625, 88453.875000, 122606.062500, 95582.335938, 88597.867188, 115825.304688, 0.000, 0.000, 0.000,0.0,0.0,0.0,0.0,0.0, 15:27:52.992
68653.757813, 54813.718750, 123309.335938, 88636.664063, 122470.789063, 95506.968750, 88655.039063, 115697.500000, 0.000, 0.000, 0.000,0.0,0.0,0.0,0.0,0.0, 15:27:52.992
68740.375000, 54898.320313, 123273.085938, 88474.843750, 122562.257813, 95439.953125, 88599.429688, 115763.656250, 0.000, 0.000, 0.000,0.0,0.0,0.0,0.0,0.0, 15:27:52.992
68878.507813, 55035.738281, 123187.296875, 88262.031250, 122712.992188, 95507.992188, 88537.515625, 115905.617188, 0.000, 0.000, 0.000,0.0,0.0,0.0,0.0,0.0, 15:27:52.992
68805.953125, 54964.433594, 123194.500000, 88391.398438, 122638.585938, 95587.812500, 88583.109375, 115862.093750, 0.000, 0.000, 0.000,0.0,0.0,0.0,0.0,0.0, 15:27:52.992
68674.460938, 54831.218750, 123253.906250, 88605.867188, 122489.992188, 95539.757813, 88646.031250, 115732.609375, 0.074, 0.216, 0.968,0.0,0.0,0.0,0.0,0.0, 15:27:52.993
68708.835938, 54867.675781, 123259.960938, 88517.937500, 122527.367188, 95452.515625, 88618.000000, 115746.156250, 0.000, 0.000, 0.000,0.0,0.0,0.0,0.0,0.0, 15:27:52.993
68848.664063, 55010.324219, 123198.718750, 88284.671875, 122677.992188, 95476.500000, 88539.656250, 115876.757813, 0.000, 0.000, 0.000,0.0,0.0,0.0,0.0,0.0, 15:27:52.993
68821.601563, 54982.851563, 123195.054688, 88358.390625, 122651.882813, 95572.679688, 88567.015625, 115867.664063, 0.000, 0.000, 0.000,0.0,0.0,0.0,0.0,0.0, 15:27:52.994
68685.164063, 54846.304688, 123249.328125, 88597.710938, 122509.546875, 95553.125000, 88637.695313, 115740.148438, 0.000, 0.000, 0.000,0.0,0.0,0.0,0.0,0.0, 15:27:52.994
68686.710938, 54850.531250, 123266.781250, 88571.000000, 122516.476563, 95465.640625, 88627.500000, 115728.703125, 0.000, 0.000, 0.000,0.0,0.0,0.0,0.0,0.0, 15:27:52.994
68828.171875, 54988.375000, 123210.882813, 88328.929688, 122669.656250, 95469.460938, 88549.250000, 115859.007813, 0.000, 0.000, 0.000,0.0,0.0,0.0,0.0,0.0, 15:27:52.994
68845.468750, 55001.023438, 123189.375000, 88334.828125, 122688.921875, 95574.648438, 88558.101563, 115895.781250, 0.000, 0.000, 0.000,0.0,0.0,0.0,0.0,0.0, 15:27:52.995
68701.148438, 54859.515625, 123250.820313, 88578.218750, 122534.804688, 95575.164063, 88630.093750, 115768.734375, 0.000, 0.000, 0.000,0.0,0.0,0.0,0.0,0.0, 15:27:52.995
68673.406250, 54829.652344, 123274.695313, 88601.148438, 122502.445313, 95483.679688, 88634.320313, 115726.085938, 0.000, 0.000, 0.000,0.0,0.0,0.0,0.0,0.0, 15:27:52.995
68815.562500, 54966.917969, 123220.359375, 88361.468750, 122653.828125, 95473.546875, 88561.585938, 115848.062500, 0.070, 0.216, 0.966,0.0,0.0,0.0,0.0,0.0, 15:27:52.995
68863.757813, 55016.359375, 123180.820313, 88305.570313, 122708.523438, 95573.062500, 88544.890625, 115911.937500, 0.000, 0.000, 0.000,0.0,0.0,0.0,0.0,0.0, 15:27:52.996
68719.093750, 54872.031250, 123247.828125, 88546.742188, 122548.687500, 95584.125000, 88615.007813, 115784.218750, 0.000, 0.000, 0.000,0.0,0.0,0.0,0.0,0.0, 15:27:52.996
68663.234375, 54816.019531, 123290.562500, 88630.406250, 122482.484375, 95493.625000, 88637.335938, 115710.617188, 0.000, 0.000, 0.000,0.0,0.0,0.0,0.0,0.0, 15:27:52.997
68790.242188, 54946.976563, 123239.671875, 88410.671875, 122618.890625, 95463.093750, 88571.804688, 115817.882813, 0.000, 0.000, 0.000,0.0,0.0,0.0,0.0,0.0, 15:27:52.997
68877.882813, 55033.949219, 123187.968750, 88294.640625, 122709.820313, 95549.617188, 88533.445313, 115910.757813, 0.000, 0.000, 0.000,0.0,0.0,0.0,0.0,0.0, 15:27:52.997
68763.554688, 54921.855469, 123217.453125, 88499.273438, 122591.554688, 95598.296875, 88597.710938, 115818.796875, 0.000, 0.000, 0.000,0.0,0.0,0.0,0.0,0.0, 15:27:52.998
68656.195313, 54819.910156, 123275.273438, 88644.578125, 122479.062500, 95512.890625, 88641.851563, 115704.742188, 0.000, 0.000, 0.000,0.0,0.0,0.0,0.0,0.0, 15:27:52.998
68761.382813, 54921.117188, 123238.976563, 88458.437500, 122586.101563, 95454.710938, 88586.531250, 115782.414063, 0.000, 0.000, 0.000,0.0,0.0,0.0,0.0,0.0, 15:27:52.998
68867.421875, 55022.281250, 123193.757813, 88289.859375, 122697.414063, 95518.343750, 88534.695313, 115888.289063, 0.066, 0.216, 0.972,0.0,0.0,0.0,0.0,0.0, 15:27:52.999
68779.468750, 54933.386719, 123211.570313, 88447.101563, 122606.757813, 95578.468750, 88579.468750, 115825.882813, 0.000, 0.000, 0.000,0.0,0.0,0.0,0.0,0.0, 15:27:52.999
68656.375000, 54814.386719, 123266.671875, 88635.546875, 122480.828125, 95520.335938, 88635.101563, 115710.640625, 0.000, 0.000, 0.000,0.0,0.0,0.0,0.0,0.0, 15:27:52.999
68724.593750, 54883.007813, 123249.367188, 88499.382813, 122551.125000, 95450.078125, 88593.859375, 115760.195313, 0.000, 0.000, 0.000,0.0,0.0,0.0,0.0,0.0, 15:27:53.000
68854.187500, 55008.738281, 123191.726563, 88287.421875, 122685.234375, 95494.828125, 88523.835938, 115883.640625, 0.000, 0.000, 0.000,0.0,0.0,0.0,0.0,0.0, 15:27:53.000
68796.070313, 54945.167969, 123203.367188, 88398.929688, 122624.234375, 95576.500000, 88562.882813, 115845.781250, 0.000, 0.000, 0.000,0.0,0.0,0.0,0.0,0.0, 15:27:53.001
68662.476563, 54811.996094, 123269.148438, 88617.351563, 122472.671875, 95532.382813, 88626.117188, 115716.007813, 0.000, 0.000, 0.000,0.0,0.0,0.0,0.0,0.0, 15:27:53.001
68698.015625, 54849.210938, 123265.640625, 88532.734375, 122508.765625, 95447.398438, 88599.898438, 115732.835938, 0.000, 0.000, 0.000,0.0,0.0,0.0,0.0,0.0, 15:27:53.002
68830.984375, 54981.625000, 123207.617188, 88293.789063, 122654.164063, 95468.117188, 88525.312500, 115859.640625, 0.000, 0.000, 0.000,0.0,0.0,0.0,0.0,0.0, 15:27:53.002
68820.882813, 54973.265625, 123187.703125, 88342.851563, 122641.890625, 95567.359375, 88541.421875, 115866.812500, 0.000, 0.000, 0.000,0.0,0.0,0.0,0.0,0.0, 15:27:53.002
68690.414063, 54842.015625, 123235.804688, 88579.890625, 122497.210938, 95556.500000, 88614.960938, 115743.453125, 0.062, 0.212, 0.968,0.0,0.0,0.0,0.0,0.0, 15:27:53.003
68693.523438, 54845.972656, 123246.445313, 88561.203125, 122492.296875, 95469.304688, 88606.851563, 115723.250000, 0.000, 0.000, 0.000,0.0,0.0,0.0,0.0,0.0, 15:27:53.003
68830.273438, 54985.355469, 123193.781250, 88323.273438, 122638.140625, 95467.445313, 88530.046875, 115846.453125, 0.000, 0.000, 0.000,0.0,0.0,0.0,0.0,0.0, 15:27:53.003
68852.179688, 55005.496094, 123162.781250, 88312.093750, 122664.468750, 95565.234375, 88530.875000, 115889.296875, 0.000, 0.000, 0.000,0.0,0.0,0.0,0.0,0.0, 15:27:53.003
68702.757813, 54856.968750, 123231.171875, 88560.695313, 122504.992188, 95566.265625, 88607.093750, 115758.320313, 0.000, 0.000, 0.000,0.0,0.0,0.0,0.0,0.0, 15:27:53.004
68666.187500, 54822.480469, 123270.312500, 88610.070313, 122461.156250, 95470.265625, 88618.156250, 115706.304688, 0.000, 0.000, 0.000,0.0,0.0,0.0,0.0,0.0, 15:27:53.004
68813.085938, 54960.187500, 123210.765625, 88376.250000, 122604.367188, 95449.921875, 88543.882813, 115827.453125, 0.000, 0.000, 0.000,0.0,0.0,0.0,0.0,0.0, 15:27:53.004
68867.820313, 55016.113281, 123177.421875, 88307.468750, 122663.507813, 95544.203125, 88525.468750, 115894.976563, 0.000, 0.000, 0.000,0.0,0.0,0.0,0.0,0.0, 15:27:53.005
68738.359375, 54889.109375, 123220.046875, 88530.476563, 122529.062500, 95575.429688, 88595.585938, 115786.929688, 0.000, 0.000, 0.000,0.0,0.0,0.0,0.0,0.0, 15:27:53.005
68660.242188, 54814.992188, 123267.671875, 88635.929688, 122442.117188, 95485.953125, 88623.031250, 115698.234375, 0.000, 0.000, 0.000,0.0,0.0,0.0,0.0,0.0, 15:27:53.005
68772.851563, 54929.230469, 123224.625000, 88420.906250, 122564.625000, 95443.781250, 88556.242188, 115792.492188, 0.066, 0.218, 0.974,0.0,0.0,0.0,0.0,0.0, 15:27:53.006
68856.421875, 55010.390625, 123184.820313, 88286.281250, 122658.570313, 95521.718750, 88515.210938, 115887.109375, 0.000, 0.000, 0.000,0.0,0.0,0.0,0.0,0.0, 15:27:53.006
68749.046875, 54900.554688, 123218.257813, 88474.304688, 122545.890625, 95570.960938, 88572.453125, 115801.164063, 0.000, 0.000, 0.000,0.0,0.0,0.0,0.0,0.0, 15:27:53.006
68655.031250, 54806.742188, 123268.343750, 88628.820313, 122441.468750, 95502.453125, 88620.390625, 115699.085938, 0.000, 0.000, 0.000,0.0,0.0,0.0,0.0,0.0, 15:27:53.007
68744.890625, 54897.156250, 123243.914063, 88461.070313, 122537.265625, 95440.023438, 88566.031250, 115764.421875, 0.000, 0.000, 0.000,0.0,0.0,0.0,0.0,0.0, 15:27:53.007
68860.625000, 55014.101563, 123184.882813, 88277.656250, 122668.960938, 95503.414063, 88508.750000, 115888.445313, 0.000, 0.000, 0.000,0.0,0.0,0.0,0.0,0.0, 15:27:53.007
68778.687500, 54934.683594, 123202.382813, 88430.671875, 122580.382813, 95575.679688, 88560.828125, 115832.031250, 0.000, 0.000, 0.000,0.0,0.0,0.0,0.0,0.0, 15:27:53.008
68652.328125, 54810.921875, 123270.421875, 88632.617188, 122444.820313, 95515.460938, 88625.648438, 115704.335938, 0.000, 0.000, 0.000,0.0,0.0,0.0,0.0,0.0, 15:27:53.008
68719.500000, 54880.101563, 123246.929688, 88506.687500, 122513.531250, 95446.843750, 88586.578125, 115749.960938, 0.000, 0.000, 0.000,0.0,0.0,0.0,0.0,0.0, 15:27:53.008
68858.054688, 55017.273438, 123187.234375, 88289.273438, 122657.742188, 95490.937500, 88516.367188, 115879.796875, 0.074, 0.218, 0.968,0.0,0.0,0.0,0.0,0.0, 15:27:53.008
68815.007813, 54975.722656, 123182.406250, 88386.976563, 122612.632813, 95577.617188, 88549.851563, 115861.984375, 0.000, 0.000, 0.000,0.0,0.0,0.0,0.0,0.0, 15:27:53.009
68680.585938, 54839.781250, 123237.812500, 88616.531250, 122464.687500, 95546.484375, 88618.539063, 115735.671875, 0.000, 0.000, 0.000,0.0,0.0,0.0,0.0,0.0, 15:27:53.009
68705.125000, 54862.242188, 123242.398438, 88554.296875, 122485.898438, 95460.765625, 88599.765625, 115735.335938, 0.000, 0.000, 0.000,0.0,0.0,0.0,0.0,0.0, 15:27:53.009
68844.960938, 55005.742188, 123181.445313, 88316.453125, 122642.523438, 95481.148438, 88530.382813, 115870.187500, 0.000, 0.000, 0.000,0.0,0.0,0.0,0.0,0.0, 15:27:53.009
68832.101563, 54991.769531, 123172.414063, 88358.164063, 122633.218750, 95571.898438, 88546.367188, 115880.757813, 0.000, 0.000, 0.000,0.0,0.0,0.0,0.0,0.0, 15:27:53.010
68688.476563, 54848.855469, 123234.414063, 88600.992188, 122478.125000, 95554.867188, 88614.539063, 115747.273438, 0.000, 0.000, 0.000,0.0,0.0,0.0,0.0,0.0, 15:27:53.010
68680.289063, 54837.613281, 123257.281250, 88597.929688, 122462.718750, 95463.601563, 88614.046875, 115716.921875, 0.000, 0.000, 0.000,0.0,0.0,0.0,0.0,0.0, 15:27:53.010
68821.109375, 54972.480469, 123205.359375, 88355.148438, 122608.921875, 95459.312500, 88539.328125, 115839.632813, 0.000, 0.000, 0.000,0.0,0.0,0.0,0.0,0.0, 15:27:53.010
68847.531250, 55002.164063, 123177.531250, 88328.750000, 122640.710938, 95554.820313, 88532.125000, 115883.304688, 0.000, 0.000, 0.000,0.0,0.0,0.0,0.0,0.0, 15:27:53.011
68707.937500, 54866.242188, 123231.687500, 88565.968750, 122498.195313, 95568.210938, 88606.695313, 115764.531250, 0.074, 0.216, 0.968,0.0,0.0,0.0,0.0,0.0, 15:27:53.011
68663.640625, 54827.082031, 123255.093750, 88621.000000, 122453.421875, 95486.289063, 88626.296875, 115713.125000, 0.000, 0.000, 0.000,0.0,0.0,0.0,0.0,0.0, 15:27:53.012
68794.171875, 54960.343750, 123196.750000, 88391.890625, 122589.210938, 95461.992188, 88550.500000, 115826.710938, 0.000, 0.000, 0.000,0.0,0.0,0.0,0.0,0.0, 15:27:53.012
68862.835938, 55024.023438, 123164.390625, 88311.742188, 122661.406250, 95551.179688, 88531.945313, 115904.007813, 0.000, 0.000, 0.000,0.0,0.0,0.0,0.0,0.0, 15:27:53.012
68740.484375, 54899.949219, 123207.570313, 88529.132813, 122527.921875, 95581.468750, 88597.257813, 115798.593750, 0.000, 0.000, 0.000,0.0,0.0,0.0,0.0,0.0, 15:27:53.013
68653.468750, 54814.835938, 123259.632813, 88648.179688, 122434.312500, 95496.640625, 88631.054688, 115705.546875, 0.000, 0.000, 0.000,0.0,0.0,0.0,0.0,0.0, 15:27:53.013
68770.906250, 54928.761719, 123221.500000, 88446.695313, 122552.328125, 95445.726563, 88568.695313, 115796.648438, 0.000, 0.000, 0.000,0.0,0.0,0.0,0.0,0.0, 15:27:53.013
68879.046875, 55035.000000, 123158.757813, 88297.007813, 122668.312500, 95530.500000, 88524.328125, 115910.625000, 0.000, 0.000, 0.000,0.0,0.0,0.0,0.0,0.0, 15:27:53.014
68776.179688, 54932.695313, 123185.843750, 88484.335938, 122560.398438, 95586.718750, 88583.000000, 115826.335938, 0.000, 0.000, 0.000,0.0,0.0,0.0,0.0,0.0, 15:27:53.014
68662.656250, 54822.902344, 123239.804688, 88652.671875, 122442.828125, 95515.726563, 88632.734375, 115712.140625, 0.070, 0.218, 0.976,0.0,0.0,0.0,0.0,0.0, 15:27:53.014
68746.632813, 54910.566406, 123207.726563, 88490.843750, 122532.679688, 95457.476563, 88581.882813, 115781.382813, 0.000, 0.000, 0.000,0.0,0.0,0.0,0.0,0.0, 15:27:53.015
68869.390625, 55030.441406, 123148.984375, 88302.328125, 122666.835938, 95522.609375, 88525.625000, 115906.843750, 0.000, 0.000, 0.000,0.0,0.0,0.0,0.0,0.0, 15:27:53.015
68789.343750, 54950.890625, 123178.718750, 88450.562500, 122581.117188, 95585.312500, 88569.054688, 115845.000000, 0.000, 0.000, 0.000,0.0,0.0,0.0,0.0,0.0, 15:27:53.015
68671.554688, 54836.628906, 123222.640625, 88652.734375, 122454.945313, 95540.492188, 88626.789063, 115730.445313, 0.000, 0.000, 0.000,0.0,0.0,0.0,0.0,0.0, 15:27:53.016
68728.546875, 54894.183594, 123210.007813, 88547.257813, 122511.093750, 95467.625000, 88596.320313, 115761.492188, 0.000, 0.000, 0.000,0.0,0.0,0.0,0.0,0.0, 15:27:53.016
68867.085938, 55028.359375, 123149.257813, 88325.265625, 122657.515625, 95505.960938, 88526.960938, 115891.976563, 0.000, 0.000, 0.000,0.0,0.0,0.0,0.0,0.0, 15:27:53.016
68823.585938, 54981.355469, 123159.492188, 88413.375000, 122613.148438, 95587.453125, 88556.156250, 115865.960938, 0.000, 0.000, 0.000,0.0,0.0,0.0,0.0,0.0, 15:27:53.016
68682.257813, 54840.988281, 123225.187500, 88641.179688, 122463.726563, 95552.359375, 88622.945313, 115730.984375, 0.000, 0.000, 0.000,0.0,0.0,0.0,0.0,0.0, 15:27:53.017
68704.187500, 54865.328125, 123222.859375, 88584.453125, 122486.148438, 95467.804688, 88600.992188, 115734.734375, 0.000, 0.000, 0.000,0.0,0.0,0.0,0.0,0.0, 15:27:53.017
68847.859375, 55008.625000, 123168.523438, 88349.312500, 122642.250000, 95484.281250, 88532.460938, 115866.726563, 0.080, 0.218, 0.974,0.0,0.0,0.0,0.0,0.0, 15:27:53.017
68843.664063, 55006.812500, 123157.750000, 88372.179688, 122645.937500, 95576.570313, 88545.695313, 115887.085938, 0.000, 0.000, 0.000,0.0,0.0,0.0,0.0,0.0, 15:27:53.018
68699.851563, 54867.449219, 123213.695313, 88612.328125, 122496.492188, 95573.398438, 88616.328125, 115761.710938, 0.000, 0.000, 0.000,0.0,0.0,0.0,0.0,0.0, 15:27:53.018
68678.390625, 54847.894531, 123237.437500, 88624.195313, 122474.437500, 95483.093750, 88619.414063, 115725.679688, 0.000, 0.000, 0.000,0.0,0.0,0.0,0.0,0.0, 15:27:53.018
68824.054688, 54991.347656, 123179.093750, 88385.726563, 122630.718750, 95475.273438, 88546.390625, 115852.593750, 0.000, 0.000, 0.000,0.0,0.0,0.0,0.0,0.0, 15:27:53.018
68871.890625, 55036.898438, 123134.304688, 88344.101563, 122690.773438, 95580.835938, 88542.093750, 115920.437500, 0.000, 0.000, 0.000,0.0,0.0,0.0,0.0,0.0, 15:27:53.019
68727.656250, 54889.667969, 123190.718750, 88582.265625, 122535.078125, 95593.203125, 88611.632813, 115793.523438, 0.000, 0.000, 0.000,0.0,0.0,0.0,0.0,0.0, 15:27:53.019
68669.765625, 54836.359375, 123221.718750, 88651.796875, 122470.609375, 95504.437500, 88624.484375, 115725.835938, 0.000, 0.000, 0.000,0.0,0.0,0.0,0.0,0.0, 15:27:53.019
68796.562500, 54966.335938, 123164.945313, 88426.203125, 122611.250000, 95478.710938, 88556.625000, 115837.039063, 0.000, 0.000, 0.000,0.0,0.0,0.0,0.0,0.0, 15:27:53.020
68875.156250, 55036.519531, 123119.484375, 88325.148438, 122692.007813, 95570.203125, 88526.023438, 115922.398438, 0.076, 0.218, 0.972,0.0,0.0,0.0,0.0,0.0, 15:27:53.020
68754.117188, 54913.808594, 123162.289063, 88536.125000, 122557.937500, 95602.296875, 88586.148438, 115816.093750, 0.000, 0.000, 0.000,0.0,0.0,0.0,0.0,0.0, 15:27:53.020
68669.335938, 54832.269531, 123197.828125, 88660.382813, 122466.523438, 95526.078125, 88619.343750, 115725.281250, 0.000, 0.000, 0.000,0.0,0.0,0.0,0.0,0.0, 15:27:53.021
68766.968750, 54934.617188, 123163.648438, 88474.390625, 122574.992188, 95477.171875, 88561.695313, 115805.296875, 0.000, 0.000, 0.000,0.0,0.0,0.0,0.0,0.0, 15:27:53.021
68872.156250, 55039.851563, 123108.242188, 88315.000000, 122692.187500, 95553.281250, 88511.632813, 115917.125000, 0.000, 0.000, 0.000,0.0,0.0,0.0,0.0,0.0, 15:27:53.021
68768.695313, 54935.980469, 123142.710938, 88489.257813, 122583.085938, 95606.367188, 88564.601563, 115838.984375, 0.000, 0.000, 0.000,0.0,0.0,0.0,0.0,0.0, 15:27:53.021
68658.187500, 54825.652344, 123197.960938, 88664.179688, 122461.273438, 95541.726563, 88615.945313, 115727.765625, 0.000, 0.000, 0.000,0.0,0.0,0.0,0.0,0.0, 15:27:53.022
68738.023438, 54905.828125, 123176.656250, 88518.289063, 122545.382813, 95477.906250, 88571.820313, 115786.257813, 0.000, 0.000, 0.000,0.0,0.0,0.0,0.0,0.0, 15:27:53.022
68861.523438, 55025.722656, 123127.437500, 88319.453125, 122677.320313, 95525.226563, 88507.828125, 115904.203125, 0.000, 0.000, 0.000,0.0,0.0,0.0,0.0,0.0, 15:27:53.022
68809.976563, 54970.960938, 123118.414063, 88434.539063, 122624.210938, 95607.976563, 88546.679688, 115873.695313, 0.000, 0.000, 0.000,0.0,0.0,0.0,0.0,0.0, 15:27:53.023
68676.382813, 54835.867188, 123177.757813, 88650.726563, 122481.406250, 95562.039063, 88617.664063, 115742.312500, 0.064, 0.218, 0.974,0.0,0.0,0.0,0.0,0.0, 15:27:53.024
68712.078125, 54870.378906, 123192.687500, 88564.757813, 122515.312500, 95470.312500, 88593.726563, 115751.296875, 0.000, 0.000, 0.000,0.0,0.0,0.0,0.0,0.0, 15:27:53.027
68864.093750, 55021.699219, 123123.820313, 88330.648438, 122676.453125, 95506.539063, 88517.531250, 115891.312500, 0.000, 0.000, 0.000,0.0,0.0,0.0,0.0,0.0, 15:27:53.027
68828.867188, 54989.355469, 123125.406250, 88401.570313, 122642.718750, 95590.851563, 88543.617188, 115877.828125, 0.000, 0.000, 0.000,0.0,0.0,0.0,0.0,0.0, 15:27:53.027
68686.281250, 54852.320313, 123187.921875, 88634.070313, 122491.289063, 95565.218750, 88614.000000, 115743.695313, 0.000, 0.000, 0.000,0.0,0.0,0.0,0.0,0.0, 15:27:53.028
68696.875000, 54863.742188, 123199.101563, 88601.710938, 122499.046875, 95482.109375, 88604.390625, 115733.726563, 0.000, 0.000, 0.000,0.0,0.0,0.0,0.0,0.0, 15:27:53.028
68832.242188, 54998.902344, 123163.828125, 88370.078125, 122640.757813, 95482.695313, 88533.601563, 115852.773438, 0.000, 0.000, 0.000,0.0,0.0,0.0,0.0,0.0, 15:27:53.028
68853.585938, 55023.554688, 123131.375000, 88364.687500, 122667.085938, 95585.820313, 88536.843750, 115897.765625, 0.000, 0.000, 0.000,0.0,0.0,0.0,0.0,0.0, 15:27:53.028
68711.312500, 54878.648438, 123180.281250, 88597.617188, 122514.960938, 95591.187500, 88608.593750, 115772.289063, 0.000, 0.000, 0.000,0.0,0.0,0.0,0.0,0.0, 15:27:53.029
68675.484375, 54842.773438, 123212.687500, 88626.359375, 122473.093750, 95498.359375, 88613.843750, 115719.671875, 0.000, 0.000, 0.000,0.0,0.0,0.0,0.0,0.0, 15:27:53.029
68816.343750, 54983.949219, 123155.718750, 88390.726563, 122627.945313, 95489.484375, 88543.460938, 115848.390625, 0.060, 0.222, 0.976,0.0,0.0,0.0,0.0,0.0, 15:27:53.029
68859.531250, 55024.046875, 123133.007813, 88337.421875, 122685.632813, 95587.992188, 88535.234375, 115916.429688, 0.000, 0.000, 0.000,0.0,0.0,0.0,0.0,0.0, 15:27:53.466
68723.187500, 54890.519531, 123185.000000, 88559.929688, 122542.007813, 95608.781250, 88602.375000, 115802.906250, 0.000, 0.000, 0.000,0.0,0.0,0.0,0.0,0.0, 15:27:53.466
68668.671875, 54841.031250, 123208.375000, 88639.195313, 122467.375000, 95521.000000, 88619.273438, 115725.640625, 0.000, 0.000, 0.000,0.0,0.0,0.0,0.0,0.0, 15:27:53.466
68787.648438, 54963.472656, 123153.500000, 88422.203125, 122592.609375, 95478.156250, 88549.765625, 115818.867188, 0.000, 0.000, 0.000,0.0,0.0,0.0,0.0,0.0, 15:27:53.467
68850.609375, 55031.355469, 123111.820313, 88307.132813, 122677.500000, 95560.007813, 88511.789063, 115907.804688, 0.000, 0.000, 0.000,0.0,0.0,0.0,0.0,0.0, 15:27:53.467
68728.703125, 54911.125000, 123151.937500, 88508.992188, 122551.640625, 95597.203125, 88567.351563, 115810.195313, 0.000, 0.000, 0.000,0.0,0.0,0.0,0.0,0.0, 15:27:53.467
68647.656250, 54831.753906, 123181.507813, 88645.203125, 122463.703125, 95527.148438, 88606.445313, 115721.101563, 0.000, 0.000, 0.000,0.0,0.0,0.0,0.0,0.0, 15:27:53.467
68739.859375, 54922.101563, 123153.164063, 88470.015625, 122564.421875, 95472.882813, 88558.437500, 115794.101563, 0.000, 0.000, 0.000,0.0,0.0,0.0,0.0,0.0, 15:27:53.467
68846.414063, 55022.863281, 123103.390625, 88301.500000, 122685.882813, 95541.476563, 88511.140625, 115909.679688, 0.068, 0.224, 0.966,0.0,0.0,0.0,0.0,0.0, 15:27:53.467
68762.500000, 54936.921875, 123125.179688, 88460.062500, 122596.367188, 95606.078125, 88560.828125, 115845.976563, 0.000, 0.000, 0.000,0.0,0.0,0.0,0.0,0.0, 15:27:53.468
68656.468750, 54828.960938, 123176.320313, 88647.281250, 122477.742188, 95558.148438, 88621.937500, 115740.257813, 0.000, 0.000, 0.000,0.0,0.0,0.0,0.0,0.0, 15:27:53.468
68721.015625, 54892.843750, 123162.843750, 88519.476563, 122546.898438, 95490.000000, 88586.937500, 115784.804688, 0.000, 0.000, 0.000,0.0,0.0,0.0,0.0,0.0, 15:27:53.468
68852.734375, 55024.496094, 123107.007813, 88312.882813, 122686.109375, 95532.671875, 88519.765625, 115906.460938, 0.000, 0.000, 0.000,0.0,0.0,0.0,0.0,0.0, 15:27:53.468
68808.656250, 54976.570313, 123101.265625, 88419.945313, 122642.093750, 95619.687500, 88553.898438, 115886.859375, 0.000, 0.000, 0.000,0.0,0.0,0.0,0.0,0.0, 15:27:53.468
68658.992188, 54830.726563, 123173.015625, 88648.554688, 122488.132813, 95574.421875, 88623.929688, 115748.773438, 0.000, 0.000, 0.000,0.0,0.0,0.0,0.0,0.0, 15:27:53.469
68690.375000, 54862.890625, 123180.773438, 88573.789063, 122517.101563, 95482.203125, 88598.335938, 115756.257813, 0.000, 0.000, 0.000,0.0,0.0,0.0,0.0,0.0, 15:27:53.469
68838.031250, 55007.484375, 123105.085938, 88333.687500, 122677.968750, 95510.296875, 88522.335938, 115895.132813, 0.000, 0.000, 0.000,0.0,0.0,0.0,0.0,0.0, 15:27:53.469
68809.820313, 54977.644531, 123106.968750, 88389.546875, 122657.695313, 95599.882813, 88548.062500, 115893.117188, 0.000, 0.000, 0.000,0.0,0.0,0.0,0.0,0.0, 15:27:53.469
68670.257813, 54845.343750, 123161.054688, 88619.992188, 122504.476563, 95583.234375, 88615.742188, 115766.273438, 0.072, 0.222, 0.968,0.0,0.0,0.0,0.0,0.0, 15:27:53.469
68658.789063, 54833.765625, 123188.796875, 88609.015625, 122492.406250, 95490.156250, 88611.679688, 115734.578125, 0.000, 0.000, 0.000,0.0,0.0,0.0,0.0,0.0, 15:27:53.469
68818.625000, 54986.027344, 123116.781250, 88360.757813, 122658.007813, 95496.125000, 88533.242188, 115872.359375, 0.000, 0.000, 0.000,0.0,0.0,0.0,0.0,0.0, 15:27:53.469
68842.875000, 55007.664063, 123092.101563, 88353.851563, 122686.687500, 95595.656250, 88539.992188, 115914.507813, 0.000, 0.000, 0.000,0.0,0.0,0.0,0.0,0.0, 15:27:53.470
68689.835938, 54859.472656, 123148.093750, 88589.328125, 122531.476563, 95590.046875, 88611.187500, 115783.015625, 0.000, 0.000, 0.000,0.0,0.0,0.0,0.0,0.0, 15:27:53.470
68649.179688, 54824.109375, 123174.265625, 88632.687500, 122485.054688, 95501.132813, 88618.648438, 115728.742188, 0.000, 0.000, 0.000,0.0,0.0,0.0,0.0,0.0, 15:27:53.470
68791.085938, 54964.992188, 123116.289063, 88400.656250, 122630.406250, 95487.070313, 88547.101563, 115848.414063, 0.000, 0.000, 0.000,0.0,0.0,0.0,0.0,0.0, 15:27:53.470
68844.398438, 55015.218750, 123085.445313, 88330.023438, 122690.109375, 95577.289063, 88528.398438, 115915.875000, 0.000, 0.000, 0.000,0.0,0.0,0.0,0.0,0.0, 15:27:53.471
68718.734375, 54893.714844, 123119.390625, 88547.078125, 122560.000000, 95608.781250, 88593.414063, 115815.093750, 0.000, 0.000, 0.000,0.0,0.0,0.0,0.0,0.0, 15:27:53.471
68646.429688, 54824.984375, 123159.585938, 88654.460938, 122481.117188, 95534.281250, 88624.039063, 115734.687500, 0.074, 0.232, 0.968,0.0,0.0,0.0,0.0,0.0, 15:27:53.472
68746.898438, 54926.660156, 123139.914063, 88458.500000, 122587.039063, 95485.914063, 88560.828125, 115817.171875, 0.000, 0.000, 0.000,0.0,0.0,0.0,0.0,0.0, 15:27:53.472
68835.234375, 55012.828125, 123102.828125, 88328.992188, 122684.203125, 95563.468750, 88520.234375, 115913.304688, 0.000, 0.000, 0.000,0.0,0.0,0.0,0.0,0.0, 15:27:53.472
68735.882813, 54911.148438, 123137.500000, 88518.601563, 122575.445313, 95610.320313, 88576.875000, 115830.554688, 0.000, 0.000, 0.000,0.0,0.0,0.0,0.0,0.0, 15:27:53.472
68633.531250, 54810.097656, 123186.023438, 88676.320313, 122467.703125, 95538.859375, 88622.851563, 115727.312500, 0.000, 0.000, 0.000,0.0,0.0,0.0,0.0,0.0, 15:27:53.473
68717.265625, 54891.679688, 123169.843750, 88514.781250, 122550.273438, 95470.734375, 88570.257813, 115786.078125, 0.000, 0.000, 0.000,0.0,0.0,0.0,0.0,0.0, 15:27:53.473
68834.320313, 55005.562500, 123118.476563, 88330.984375, 122677.007813, 95528.398438, 88511.875000, 115904.226563, 0.000, 0.000, 0.000,0.0,0.0,0.0,0.0,0.0, 15:27:53.473
68761.382813, 54934.839844, 123126.726563, 88472.804688, 122605.257813, 95604.421875, 88557.070313, 115855.726563, 0.000, 0.000, 0.000,0.0,0.0,0.0,0.0,0.0, 15:27:53.473
68640.062500, 54814.722656, 123186.023438, 88670.351563, 122474.031250, 95550.195313, 88619.210938, 115732.343750, 0.000, 0.000, 0.000,0.0,0.0,0.0,0.0,0.0, 15:27:53.473
68702.554688, 54877.128906, 123169.929688, 88547.257813, 122542.335938, 95478.000000, 88585.484375, 115772.640625, 0.000, 0.000, 0.000,0.0,0.0,0.0,0.0,0.0, 15:27:53.474
68832.398438, 55006.882813, 123115.195313, 88332.617188, 122679.179688, 95521.273438, 88517.445313, 115897.992188, 0.066, 0.232, 0.966,0.0,0.0,0.0,0.0,0.0, 15:27:53.474
68785.187500, 54958.734375, 123128.757813, 88427.765625, 122633.156250, 95602.679688, 88552.359375, 115875.218750, 0.000, 0.000, 0.000,0.0,0.0,0.0,0.0,0.0, 15:27:53.474
68645.648438, 54825.964844, 123187.031250, 88650.148438, 122482.703125, 95572.500000, 88613.085938, 115748.101563, 0.000, 0.000, 0.000,0.0,0.0,0.0,0.0,0.0, 15:27:53.474
68671.867188, 54856.207031, 123187.546875, 88589.328125, 122512.500000, 95490.804688, 88592.859375, 115755.609375, 0.000, 0.000, 0.000,0.0,0.0,0.0,0.0,0.0, 15:27:53.474
68822.609375, 55003.261719, 123126.125000, 88354.632813, 122671.625000, 95511.929688, 88523.679688, 115889.992188, 0.000, 0.000, 0.000,0.0,0.0,0.0,0.0,0.0, 15:27:53.474
68812.148438, 54990.296875, 123123.328125, 88396.921875, 122661.585938, 95607.859375, 88542.164063, 115900.921875, 0.000, 0.000, 0.000,0.0,0.0,0.0,0.0,0.0, 15:27:53.474
68667.796875, 54843.132813, 123190.156250, 88635.367188, 122505.593750, 95589.179688, 88612.101563, 115767.703125, 0.000, 0.000, 0.000,0.0,0.0,0.0,0.0,0.0, 15:27:53.475
68654.343750, 54829.074219, 123209.875000, 88634.070313, 122492.875000, 95500.257813, 88608.257813, 115738.156250, 0.000, 0.000, 0.000,0.0,0.0,0.0,0.0,0.0, 15:27:53.475
68800.093750, 54975.097656, 123146.664063, 88389.882813, 122653.984375, 95507.343750, 88538.429688, 115870.945313, 0.000, 0.000, 0.000,0.0,0.0,0.0,0.0,0.0, 15:27:53.475
68821.484375, 54997.070313, 123138.484375, 88372.335938, 122684.296875, 95596.531250, 88539.593750, 115909.460938, 0.066, 0.228, 0.966,0.0,0.0,0.0,0.0,0.0, 15:27:53.475
68684.625000, 54858.375000, 123190.382813, 88605.578125, 122537.445313, 95601.601563, 88606.265625, 115786.390625, 0.000, 0.000, 0.000,0.0,0.0,0.0,0.0,0.0, 15:27:53.475
68643.281250, 54814.343750, 123218.859375, 88664.070313, 122484.179688, 95510.382813, 88618.718750, 115727.312500, 0.000, 0.000, 0.000,0.0,0.0,0.0,0.0,0.0, 15:27:53.475
68772.093750, 54942.843750, 123177.640625, 88442.851563, 122620.125000, 95481.796875, 88554.570313, 115837.218750, 0.000, 0.000, 0.000,0.0,0.0,0.0,0.0,0.0, 15:27:53.475
68838.921875, 55013.921875, 123137.476563, 88351.320313, 122698.601563, 95574.265625, 88529.578125, 115923.656250, 0.000, 0.000, 0.000,0.0,0.0,0.0,0.0,0.0, 15:27:53.476
68711.429688, 54886.851563, 123177.867188, 88566.859375, 122566.929688, 95613.250000, 88592.476563, 115820.117188, 0.000, 0.000, 0.000,0.0,0.0,0.0,0.0,0.0, 15:27:53.476
68623.695313, 54801.937500, 123239.468750, 88690.242188, 122471.242188, 95527.328125, 88629.156250, 115721.125000, 0.000, 0.000, 0.000,0.0,0.0,0.0,0.0,0.0, 15:27:53.476
68742.992188, 54922.570313, 123189.710938, 88485.812500, 122596.226563, 95486.468750, 88566.882813, 115817.171875, 0.000, 0.000, 0.000,0.0,0.0,0.0,0.0,0.0, 15:27:53.476
68842.007813, 55016.851563, 123136.335938, 88341.179688, 122702.289063, 95564.007813, 88522.804688, 115919.765625, 0.000, 0.000, 0.000,0.0,0.0,0.0,0.0,0.0, 15:27:53.476
68735.679688, 54913.605469, 123161.843750, 88520.640625, 122596.406250, 95616.109375, 88580.476563, 115842.250000, 0.000, 0.000, 0.000,0.0,0.0,0.0,0.0,0.0, 15:27:53.476
68636.796875, 54812.824219, 123211.234375, 88689.218750, 122485.031250, 95550.734375, 88630.226563, 115733.867188, 0.068, 0.228, 0.968,0.0,0.0,0.0,0.0,0.0, 15:27:53.477
68719.562500, 54894.628906, 123190.156250, 88540.085938, 122569.742188, 95488.328125, 88583.000000, 115792.539063, 0.000, 0.000, 0.000,0.0,0.0,0.0,0.0,0.0, 15:27:53.477
68839.148438, 55017.074219, 123140.539063, 88352.328125, 122700.882813, 95539.195313, 88523.296875, 115913.546875, 0.000, 0.000, 0.000,0.0,0.0,0.0,0.0,0.0, 15:27:53.477
68768.625000, 54948.320313, 123154.773438, 88487.468750, 122625.109375, 95610.296875, 88565.273438, 115863.148438, 0.000, 0.000, 0.000,0.0,0.0,0.0,0.0,0.0, 15:27:53.477
68641.554688, 54823.730469, 123218.210938, 88696.835938, 122485.406250, 95561.507813, 88626.500000, 115735.179688, 0.000, 0.000, 0.000,0.0,0.0,0.0,0.0,0.0, 15:27:53.477
68697.210938, 54876.593750, 123212.492188, 88596.703125, 122542.140625, 95485.132813, 88595.093750, 115763.750000, 0.000, 0.000, 0.000,0.0,0.0,0.0,0.0,0.0, 15:27:53.478
68843.078125, 55022.593750, 123147.062500, 88368.398438, 122696.187500, 95519.437500, 88521.890625, 115899.085938, 0.000, 0.000, 0.000,0.0,0.0,0.0,0.0,0.0, 15:27:53.478
68808.570313, 54985.781250, 123142.867188, 88447.390625, 122656.062500, 95606.945313, 88546.078125, 115885.875000, 0.000, 0.000, 0.000,0.0,0.0,0.0,0.0,0.0, 15:27:53.478
68669.164063, 54841.769531, 123207.484375, 88679.937500, 122504.007813, 95574.601563, 88616.953125, 115752.328125, 0.000, 0.000, 0.000,0.0,0.0,0.0,0.0,0.0, 15:27:53.479
68680.226563, 54854.308594, 123224.203125, 88639.546875, 122518.421875, 95482.828125, 88605.976563, 115746.937500, 0.000, 0.000, 0.000,0.0,0.0,0.0,0.0,0.0, 15:27:53.479
68823.320313, 54996.554688, 123173.578125, 88401.460938, 122670.679688, 95493.710938, 88532.148438, 115877.851563, 0.070, 0.230, 0.964,0.0,0.0,0.0,0.0,0.0, 15:27:53.479
68817.171875, 54995.792969, 123155.625000, 88413.375000, 122673.093750, 95595.054688, 88536.398438, 115901.882813, 0.000, 0.000, 0.000,0.0,0.0,0.0,0.0,0.0, 15:27:53.479
68682.281250, 54858.824219, 123198.382813, 88644.710938, 122527.945313, 95595.859375, 88602.671875, 115778.101563, 0.000, 0.000, 0.000,0.0,0.0,0.0,0.0,0.0, 15:27:53.480
68657.585938, 54830.234375, 123233.632813, 88668.695313, 122496.093750, 95500.218750, 88611.992188, 115732.968750, 0.000, 0.000, 0.000,0.0,0.0,0.0,0.0,0.0, 15:27:53.480
68788.718750, 54965.597656, 123185.195313, 88431.453125, 122638.500000, 95483.875000, 88538.070313, 115850.250000, 0.000, 0.000, 0.000,0.0,0.0,0.0,0.0,0.0, 15:27:53.480
68838.210938, 55015.976563, 123141.320313, 88380.000000, 122696.273438, 95587.320313, 88527.429688, 115917.281250, 0.000, 0.000, 0.000,0.0,0.0,0.0,0.0,0.0, 15:27:53.480
68708.500000, 54885.062500, 123185.914063, 88609.554688, 122557.156250, 95608.289063, 88597.531250, 115800.273438, 0.000, 0.000, 0.000,0.0,0.0,0.0,0.0,0.0, 15:27:53.480
68648.617188, 54828.691406, 123218.414063, 88687.179688, 122491.937500, 95521.093750, 88620.125000, 115727.179688, 0.000, 0.000, 0.000,0.0,0.0,0.0,0.0,0.0, 15:27:53.481
68767.195313, 54949.906250, 123172.882813, 88467.757813, 122619.562500, 95487.632813, 88554.257813, 115829.796875, 0.000, 0.000, 0.000,0.0,0.0,0.0,0.0,0.0, 15:27:53.481
68838.140625, 55020.023438, 123135.242188, 88360.265625, 122701.125000, 95573.976563, 88522.765625, 115913.703125, 0.070, 0.234, 0.968,0.0,0.0,0.0,0.0,0.0, 15:27:53.481
68718.335938, 54899.011719, 123173.796875, 88563.781250, 122576.937500, 95610.414063, 88585.343750, 115811.851563, 0.000, 0.000, 0.000,0.0,0.0,0.0,0.0,0.0, 15:27:53.481
68626.265625, 54806.898438, 123221.500000, 88693.304688, 122472.218750, 95530.343750, 88617.820313, 115711.671875, 0.000, 0.000, 0.000,0.0,0.0,0.0,0.0,0.8708113, 15:27:53.482
68728.148438, 54908.644531, 123194.851563, 88509.328125, 122575.781250, 95473.820313, 88559.757813, 115793.343750, 0.000, 0.000, 0.000,0.0,0.0,0.0,0.0,0.8708113, 15:27:53.482
68839.593750, 55020.785156, 123135.468750, 88348.218750, 122702.039063, 95550.664063, 88511.250000, 115912.320313, 0.000, 0.000, 0.000,0.0,0.0,0.0,0.0,0.8708113, 15:27:53.482
68744.640625, 54924.625000, 123165.953125, 88523.585938, 122596.382813, 95611.015625, 88565.117188, 115840.101563, 0.000, 0.000, 0.000,0.0,0.0,0.0,0.0,0.8708113, 15:27:53.483
68630.671875, 54807.457031, 123233.367188, 88709.867188, 122468.710938, 95542.843750, 88619.453125, 115723.070313, 0.000, 0.000, 0.000,0.0,0.0,0.0,0.0,0.8708113, 15:27:53.483
68713.929688, 54892.664063, 123196.484375, 88559.148438, 122562.257813, 95482.226563, 88572.250000, 115787.640625, 0.000, 0.000, 0.000,0.0,0.0,0.0,0.0,0.8708113, 15:27:53.483
68839.437500, 55025.789063, 123125.609375, 88358.835938, 122709.929688, 95543.289063, 88512.929688, 115922.000000, 0.000, 0.000, 0.000,0.0,0.0,0.0,0.0,0.8708113, 15:27:53.483
68772.203125, 54959.046875, 123141.367188, 88489.343750, 122641.468750, 95616.203125, 88556.984375, 115875.015625, 0.000, 0.000, 0.000,0.0,0.0,0.0,0.0,0.8708113, 15:27:53.483
68634.023438, 54818.722656, 123211.867188, 88708.281250, 122489.812500, 95565.867188, 88622.250000, 115739.164063, 0.068, 0.238, 0.968,0.0,0.0,0.0,0.0,0.8708113, 15:27:53.484
68672.132813, 54854.710938, 123219.976563, 88621.195313, 122521.640625, 95476.343750, 88590.484375, 115752.953125, 0.000, 0.000, 0.000,0.0,0.0,0.0,0.0,0.8708113, 15:27:53.484
68825.804688, 55007.484375, 123149.054688, 88386.234375, 122679.398438, 95512.289063, 88514.023438, 115894.570313, 0.000, 0.000, 0.000,0.0,0.0,0.0,0.0,0.8708113, 15:27:53.484
68798.421875, 54978.136719, 123141.992188, 88452.039063, 122648.578125, 95603.367188, 88534.992188, 115888.562500, 0.000, 0.000, 0.000,0.0,0.0,0.0,0.0,0.8708113, 15:27:53.484
68660.468750, 54837.902344, 123196.773438, 88684.609375, 122497.703125, 95581.734375, 88604.031250, 115756.507813, 0.000, 0.000, 0.000,0.0,0.0,0.0,0.0,0.8708113, 15:27:53.485
68660.843750, 54840.718750, 123217.875000, 88658.390625, 122493.835938, 95487.742188, 88595.765625, 115735.984375, 0.000, 0.000, 0.000,0.0,0.0,0.0,0.0,0.8708113, 15:27:53.485
68803.335938, 54987.433594, 123156.117188, 88415.320313, 122646.859375, 95495.726563, 88517.132813, 115868.507813, 0.000, 0.000, 0.000,0.0,0.0,0.0,0.0,0.8708113, 15:27:53.486
68816.773438, 55000.199219, 123130.257813, 88417.750000, 122668.515625, 95595.882813, 88519.210938, 115905.101563, 0.000, 0.000, 0.000,0.0,0.0,0.0,0.0,0.8708113, 15:27:53.486
68674.148438, 54853.457031, 123189.937500, 88659.757813, 122512.742188, 95590.179688, 88593.976563, 115771.437500, 0.000, 0.000, 0.000,0.0,0.0,0.0,0.0,0.8708113, 15:27:53.486
68643.968750, 54822.816406, 123225.585938, 88689.460938, 122462.859375, 95488.703125, 88598.179688, 115712.203125, 0.062, 0.238, 0.964,0.0,0.0,0.0,0.0,0.8708113, 15:27:53.487
68787.960938, 54965.308594, 123163.765625, 88446.453125, 122613.101563, 95476.679688, 88524.617188, 115838.335938, 0.000, 0.000, 0.000,0.0,0.0,0.0,0.0,0.8708113, 15:27:53.487
68827.968750, 55005.292969, 123125.070313, 88382.414063, 122671.937500, 95576.148438, 88518.289063, 115908.164063, 0.000, 0.000, 0.000,0.0,0.0,0.0,0.0,0.8708113, 15:27:53.487
68699.179688, 54874.804688, 123177.796875, 88606.468750, 122525.375000, 95595.773438, 88585.234375, 115793.523438, 0.000, 0.000, 0.000,0.0,0.0,0.0,0.0,0.8708113, 15:27:53.487
68630.937500, 54807.457031, 123228.625000, 88704.796875, 122447.257813, 95508.640625, 88610.515625, 115713.703125, 0.000, 0.000, 0.000,0.0,0.0,0.0,0.0,0.8708113, 15:27:53.488
68753.562500, 54930.460938, 123179.875000, 88491.046875, 122580.445313, 95475.609375, 88545.203125, 115819.273438, 0.000, 0.000, 0.000,0.0,0.0,0.0,0.0,0.8708113, 15:27:53.488
68838.093750, 55016.000000, 123133.117188, 88370.617188, 122676.382813, 95560.500000, 88511.921875, 115918.242188, 0.000, 0.000, 0.000,0.0,0.0,0.0,0.0,0.8708113, 15:27:53.488
68734.117188, 54907.214844, 123151.625000, 88564.515625, 122567.890625, 95612.062500, 88570.843750, 115839.250000, 0.000, 0.000, 0.000,0.0,0.0,0.0,0.0,0.8708113, 15:27:53.488
68624.835938, 54797.246094, 123218.812500, 88721.421875, 122450.429688, 95525.023438, 88621.218750, 115720.898438, 0.000, 0.000, 0.000,0.0,0.0,0.0,0.0,0.8708113, 15:27:53.489
68711.429688, 54886.941406, 123203.281250, 88549.648438, 122538.429688, 95463.601563, 88569.609375, 115791.687500, 0.000, 0.000, 0.000,0.0,0.0,0.0,0.0,0.8708113, 15:27:53.489
68825.867188, 54998.074219, 123154.843750, 88374.773438, 122659.593750, 95532.382813, 88515.500000, 115908.562500, 0.066, 0.234, 0.968,0.0,0.0,0.0,0.0,0.8708113, 15:27:53.489
68756.335938, 54932.250000, 123160.656250, 88524.304688, 122586.687500, 95612.421875, 88561.945313, 115862.070313, 0.000, 0.000, 0.000,0.0,0.0,0.0,0.0,0.8708113, 15:27:53.489
68626.851563, 54807.593750, 123237.476563, 88725.335938, 122447.117188, 95554.507813, 88627.187500, 115733.460938, 0.000, 0.000, 0.000,0.0,0.0,0.0,0.0,0.8708113, 15:27:53.490
68693.414063, 54869.261719, 123220.203125, 88593.304688, 122514.531250, 95480.125000, 88586.195313, 115775.859375, 0.000, 0.000, 0.000,0.0,0.0,0.0,0.0,0.8708113, 15:27:53.490
68825.937500, 55003.953125, 123156.140625, 88380.335938, 122661.585938, 95526.929688, 88519.632813, 115904.429688, 0.000, 0.000, 0.000,0.0,0.0,0.0,0.0,0.8708113, 15:27:53.490
68771.914063, 54950.800781, 123160.320313, 88485.882813, 122605.617188, 95609.718750, 88554.859375, 115873.359375, 0.000, 0.000, 0.000,0.0,0.0,0.0,0.0,0.8708113, 15:27:53.490
68642.140625, 54819.664063, 123215.796875, 88708.257813, 122460.421875, 95573.843750, 88621.109375, 115745.085938, 0.000, 0.000, 0.000,0.0,0.0,0.0,0.0,0.8708113, 15:27:53.491
68672.203125, 54852.609375, 123216.132813, 88640.351563, 122496.320313, 95495.007813, 88600.945313, 115758.875000, 0.000, 0.000, 0.000,0.0,0.0,0.0,0.0,0.8708113, 15:27:53.491
68811.429688, 54991.792969, 123155.335938, 88405.640625, 122651.101563, 95518.632813, 88531.320313, 115895.421875, 0.000, 0.000, 0.000,0.0,0.0,0.0,0.0,0.8708113, 15:27:53.491
68789.187500, 54969.488281, 123151.578125, 88454.632813, 122628.906250, 95607.703125, 88552.601563, 115897.234375, 0.074, 0.236, 0.966,0.0,0.0,0.0,0.0,0.8708113, 15:27:53.492
68655.015625, 54834.460938, 123205.492188, 88689.617188, 122478.187500, 95589.960938, 88620.257813, 115767.015625, 0.000, 0.000, 0.000,0.0,0.0,0.0,0.0,0.8708113, 15:27:53.492
68650.835938, 54830.457031, 123227.398438, 88678.445313, 122466.523438, 95496.726563, 88615.742188, 115736.656250, 0.000, 0.000, 0.000,0.0,0.0,0.0,0.0,0.8708113, 15:27:53.493
68804.140625, 54983.433594, 123150.953125, 88429.312500, 122628.460938, 95502.046875, 88539.992188, 115874.812500, 0.000, 0.000, 0.000,0.0,0.0,0.0,0.0,0.8708113, 15:27:53.493
68812.304688, 54993.023438, 123136.562500, 88417.929688, 122642.695313, 95590.742188, 88540.351563, 115906.085938, 0.000, 0.000, 0.000,0.0,0.0,0.0,0.0,0.8708113, 15:27:53.493
68675.039063, 54859.113281, 123189.984375, 88650.546875, 122494.640625, 95592.796875, 88605.757813, 115783.085938, 0.000, 0.000, 0.000,0.0,0.0,0.0,0.0,0.8708113, 15:27:53.494
68640.414063, 54825.183594, 123212.843750, 88695.765625, 122450.984375, 95505.554688, 88611.226563, 115731.359375, 0.000, 0.000, 0.000,0.0,0.0,0.0,0.0,0.8708113, 15:27:53.494
68769.921875, 54949.816406, 123166.937500, 88470.257813, 122584.000000, 95483.500000, 88542.609375, 115840.507813, 0.000, 0.000, 0.000,0.0507765,0.08518631,0.057640314,0.07344513,0.03404927, 15:27:53.946
68826.203125, 55003.371094, 123139.375000, 88397.726563, 122647.460938, 95570.242188, 88523.609375, 115910.484375, 0.000, 0.000, 0.000,0.0507765,0.08518631,0.057640314,0.07344513,0.03404927, 15:27:53.947
68694.820313, 54873.730469, 123188.664063, 88616.843750, 122511.695313, 95592.726563, 88587.445313, 115799.179688, 0.000, 0.000, 0.000,0.0507765,0.08518631,0.057640314,0.07344513,0.03404927, 15:27:53.947
68619.453125, 54801.378906, 123228.937500, 88720.015625, 122433.890625, 95514.789063, 88614.828125, 115717.570313, 0.078, 0.236, 0.964,0.0507765,0.08518631,0.057640314,0.07344513,0.03404927, 15:27:53.947
68735.921875, 54919.328125, 123188.375000, 88517.820313, 122559.054688, 95480.281250, 88554.281250, 115816.250000, 0.000, 0.000, 0.000,0.0507765,0.08518631,0.057640314,0.07344513,0.03404927, 15:27:53.947
68833.109375, 55017.320313, 123133.320313, 88381.007813, 122664.804688, 95564.101563, 88513.796875, 115923.453125, 0.000, 0.000, 0.000,0.0507765,0.08518631,0.057640314,0.07344513,0.03404927, 15:27:53.948
68734.585938, 54914.300781, 123150.953125, 88566.054688, 122558.476563, 95616.781250, 88570.546875, 115848.218750, 0.000, 0.000, 0.000,0.0507765,0.08518631,0.057640314,0.07344513,0.03404927, 15:27:53.948
68621.640625, 54806.855469, 123212.398438, 88731.507813, 122440.210938, 95542.726563, 88624.125000, 115731.609375, 0.000, 0.000, 0.000,0.0507765,0.08518631,0.057640314,0.07344513,0.03404927, 15:27:53.948
68706.664063, 54894.789063, 123189.375000, 88566.234375, 122526.718750, 95478.539063, 88571.710938, 115791.507813, 0.000, 0.000, 0.000,0.0507765,0.08518631,0.057640314,0.07344513,0.03404927, 15:27:53.949
68835.750000, 55016.714844, 123135.914063, 88383.242188, 122655.460938, 95543.468750, 88517.507813, 115913.843750, 0.000, 0.000, 0.000,0.0507765,0.08518631,0.057640314,0.07344513,0.03404927, 15:27:53.949
68762.210938, 54944.585938, 123146.531250, 88523.992188, 122581.859375, 95614.500000, 88563.460938, 115863.304688, 0.000, 0.000, 0.000,0.0507765,0.08518631,0.057640314,0.07344513,0.03404927, 15:27:53.949
68635.812500, 54817.250000, 123204.710938, 88726.453125, 122448.375000, 95560.476563, 88624.843750, 115738.156250, 0.000, 0.000, 0.000,0.0507765,0.08518631,0.057640314,0.07344513,0.03404927, 15:27:53.950
68687.554688, 54869.707031, 123201.695313, 88615.476563, 122503.914063, 95484.148438, 88592.570313, 115767.796875, 0.000, 0.000, 0.000,0.0507765,0.08518631,0.057640314,0.07344513,0.03404927, 15:27:53.950
68829.531250, 55011.640625, 123140.625000, 88398.820313, 122654.210938, 95528.085938, 88521.531250, 115902.773438, 0.084, 0.232, 0.964,0.0507765,0.08518631,0.057640314,0.07344513,0.03404927, 15:27:53.950
68790.734375, 54971.253906, 123138.257813, 88491.718750, 122610.132813, 95611.039063, 88553.984375, 115884.070313, 0.000, 0.000, 0.000,0.0507765,0.08518631,0.057640314,0.07344513,0.03404927, 15:27:53.951
68654.679688, 54837.476563, 123197.382813, 88718.093750, 122464.062500, 95576.640625, 88621.265625, 115753.039063, 0.000, 0.000, 0.000,0.0507765,0.08518631,0.057640314,0.07344513,0.03404927, 15:27:53.951
68676.937500, 54858.800781, 123200.062500, 88660.046875, 122489.992188, 95491.007813, 88604.304688, 115756.640625, 0.000, 0.000, 0.000,0.0507765,0.08518631,0.057640314,0.07344513,0.03404927, 15:27:53.952
68808.078125, 54988.910156, 123157.414063, 88429.507813, 122632.593750, 95503.656250, 88533.710938, 115876.085938, 0.000, 0.000, 0.000,0.0507765,0.08518631,0.057640314,0.07344513,0.03404927, 15:27:53.952
68794.867188, 54974.804688, 123164.726563, 88461.984375, 122624.437500, 95589.890625, 88547.929688, 115884.046875, 0.000, 0.000, 0.000,0.0507765,0.08518631,0.057640314,0.07344513,0.03404927, 15:27:53.952
68667.664063, 54849.144531, 123203.796875, 88688.453125, 122489.859375, 95587.835938, 88616.593750, 115772.687500, 0.000, 0.000, 0.000,0.0507765,0.08518631,0.057640314,0.07344513,0.03404927, 15:27:53.952
68654.585938, 54838.304688, 123220.804688, 88692.437500, 122475.125000, 95502.179688, 88617.757813, 115743.046875, 0.000, 0.000, 0.000,0.0507765,0.08518631,0.057640314,0.07344513,0.03404927, 15:27:53.953
68788.812500, 54975.140625, 123168.187500, 88455.390625, 122620.546875, 95492.304688, 88544.820313, 115865.539063, 0.000, 0.000, 0.000,0.0507765,0.08518631,0.057640314,0.07344513,0.03404927, 15:27:53.953
68819.453125, 55005.539063, 123138.843750, 88424.593750, 122660.937500, 95589.312500, 88539.617188, 115919.585938, 0.082, 0.226, 0.970,0.0507765,0.08518631,0.057640314,0.07344513,0.03404927, 15:27:53.953
68676.562500, 54865.394531, 123192.328125, 88659.507813, 122508.406250, 95597.648438, 88608.640625, 115790.125000, 0.000, 0.000, 0.000,0.0507765,0.08518631,0.057640314,0.07344513,0.03404927, 15:27:53.954
68633.085938, 54821.539063, 123220.648438, 88720.265625, 122456.398438, 95511.882813, 88622.429688, 115728.921875, 0.000, 0.000, 0.000,0.0507765,0.08518631,0.057640314,0.07344513,0.03404927, 15:27:53.954
68756.687500, 54945.101563, 123168.570313, 88495.070313, 122592.765625, 95487.296875, 88555.578125, 115837.781250, 0.000, 0.000, 0.000,0.0507765,0.08518631,0.057640314,0.07344513,0.03404927, 15:27:53.954
68818.515625, 55006.164063, 123134.507813, 88400.429688, 122664.023438, 95573.953125, 88532.281250, 115916.992188, 0.000, 0.000, 0.000,0.0507765,0.08518631,0.057640314,0.07344513,0.03404927, 15:27:53.955
68702.976563, 54887.859375, 123172.367188, 88610.937500, 122534.289063, 95609.781250, 88590.820313, 115817.546875, 0.000, 0.000, 0.000,0.0507765,0.08518631,0.057640314,0.07344513,0.03404927, 15:27:53.955
68626.875000, 54813.761719, 123214.054688, 88732.109375, 122451.437500, 95532.132813, 88628.109375, 115730.781250, 0.000, 0.000, 0.000,0.0507765,0.08518631,0.057640314,0.07344513,0.03404927, 15:27:53.955
68734.382813, 54921.406250, 123177.929688, 88536.171875, 122565.429688, 95482.648438, 88571.507813, 115815.289063, 0.000, 0.000, 0.000,0.0507765,0.08518631,0.057640314,0.07344513,0.03404927, 15:27:53.956
68832.195313, 55020.246094, 123130.304688, 88386.148438, 122672.984375, 95556.296875, 88524.664063, 115920.593750, 0.000, 0.000, 0.000,0.0507765,0.08518631,0.057640314,0.07344513,0.03404927, 15:27:53.956
68740.929688, 54926.324219, 123154.039063, 88563.328125, 122567.843750, 95611.148438, 88576.898438, 115845.445313, 0.000, 0.000, 0.000,0.0507765,0.08518631,0.057640314,0.07344513,0.03404927, 15:27:53.956
68637.085938, 54819.976563, 123205.429688, 88739.867188, 122450.273438, 95549.570313, 88630.500000, 115736.453125, 0.076, 0.228, 0.968,0.0507765,0.08518631,0.057640314,0.07344513,0.03404927, 15:27:53.956
68710.289063, 54893.914063, 123193.867188, 88595.828125, 122528.257813, 95481.750000, 88587.406250, 115787.062500, 0.000, 0.000, 0.000,0.0507765,0.08518631,0.057640314,0.07344513,0.03404927, 15:27:53.957
68826.984375, 55009.472656, 123143.312500, 88399.289063, 122657.164063, 95532.515625, 88523.140625, 115905.703125, 0.000, 0.000, 0.000,0.0507765,0.08518631,0.057640314,0.07344513,0.03404927, 15:27:53.957
68763.148438, 54946.507813, 123146.687500, 88521.640625, 122593.031250, 95607.546875, 88561.562500, 115865.382813, 0.000, 0.000, 0.000,0.0507765,0.08518631,0.057640314,0.07344513,0.03404927, 15:27:53.957
68629.843750, 54814.632813, 123211.726563, 88733.718750, 122447.750000, 95556.429688, 88625.062500, 115732.320313, 0.000, 0.000, 0.000,0.0507765,0.08518631,0.057640314,0.07344513,0.03404927, 15:27:53.957
68680.671875, 54866.332031, 123207.125000, 88630.789063, 122501.343750, 95478.242188, 88594.062500, 115761.109375, 0.000, 0.000, 0.000,0.0507765,0.08518631,0.057640314,0.07344513,0.03404927, 15:27:53.957
68823.570313, 55009.808594, 123134.437500, 88402.953125, 122657.851563, 95519.593750, 88523.031250, 115901.031250, 0.000, 0.000, 0.000,0.0507765,0.08518631,0.057640314,0.07344513,0.03404927, 15:27:53.958
68782.554688, 54972.257813, 123137.234375, 88483.000000, 122618.695313, 95602.921875, 88549.179688, 115886.570313, 0.000, 0.000, 0.000,0.0507765,0.08518631,0.057640314,0.07344513,0.03404927, 15:27:53.958
68647.546875, 54834.550781, 123195.812500, 88715.140625, 122470.187500, 95579.187500, 88618.046875, 115756.796875, 0.000, 0.000, 0.000,0.0507765,0.08518631,0.057640314,0.07344513,0.03404927, 15:27:53.959
68663.531250, 54846.195313, 123205.070313, 88672.742188, 122479.062500, 95488.593750, 88604.929688, 115748.015625, 0.070, 0.230, 0.966,0.0507765,0.08518631,0.057640314,0.07344513,0.03404927, 15:27:53.959
68806.132813, 54994.542969, 123140.539063, 88430.359375, 122637.109375, 95502.429688, 88530.765625, 115883.820313, 0.000, 0.000, 0.000,0.0507765,0.08518631,0.057640314,0.07344513,0.03404927, 15:27:53.959
68799.984375, 54994.207031, 123126.281250, 88448.148438, 122642.093750, 95594.250000, 88540.085938, 115904.945313, 0.000, 0.000, 0.000,0.0507765,0.08518631,0.057640314,0.07344513,0.03404927, 15:27:53.959
68669.632813, 54860.699219, 123176.343750, 88686.554688, 122493.859375, 95585.578125, 88609.664063, 115778.882813, 0.000, 0.000, 0.000,0.0507765,0.08518631,0.057640314,0.07344513,0.03404927, 15:27:53.959
68651.859375, 54843.625000, 123190.875000, 88702.492188, 122472.578125, 95494.070313, 88608.773438, 115739.273438, 0.000, 0.000, 0.000,0.0507765,0.08518631,0.057640314,0.07344513,0.03404927, 15:27:53.960
68787.070313, 54979.074219, 123132.359375, 88465.500000, 122621.265625, 95489.015625, 88539.125000, 115860.085938, 0.000, 0.000, 0.000,0.0507765,0.08518631,0.057640314,0.07344513,0.03404927, 15:27:53.960
68814.023438, 55005.652344, 123118.765625, 88422.156250, 122655.773438, 95574.851563, 88532.281250, 115907.359375, 0.000, 0.000, 0.000,0.0507765,0.08518631,0.057640314,0.07344513,0.03404927, 15:27:53.960
68686.546875, 54879.410156, 123160.968750, 88647.867188, 122520.390625, 95594.789063, 88600.906250, 115797.921875, 0.000, 0.000, 0.000,0.0507765,0.08518631,0.057640314,0.07344513,0.03404927, 15:27:53.960
68634.023438, 54826.882813, 123189.531250, 88726.117188, 122461.445313, 95516.000000, 88625.156250, 115732.882813, 0.000, 0.000, 0.000,0.0507765,0.08518631,0.057640314,0.07344513,0.03404927, 15:27:53.960
68753.781250, 54944.898438, 123147.531250, 88509.929688, 122584.093750, 95484.500000, 88559.710938, 115831.585938, 0.000, 0.000, 0.000,0.0507765,0.08518631,0.057640314,0.07344513,0.03404927, 15:27:53.961
68836.757813, 55025.457031, 123105.359375, 88400.164063, 122669.562500, 95566.375000, 88528.304688, 115920.523438, 0.074, 0.230, 0.966,0.0507765,0.08518631,0.057640314,0.07344513,0.03404927, 15:27:53.961
68719.851563, 54915.039063, 123140.765625, 88605.148438, 122545.671875, 95606.546875, 88589.328125, 115825.710938, 0.000, 0.000, 0.000,0.0507765,0.08518631,0.057640314,0.07344513,0.03404927, 15:27:53.961
68640.687500, 54844.964844, 123178.804688, 88744.382813, 122456.484375, 95536.406250, 88628.421875, 115737.773438, 0.000, 0.000, 0.000,0.0507765,0.08518631,0.057640314,0.07344513,0.03404927, 15:27:53.962
68739.859375, 54932.851563, 123157.820313, 88568.539063, 122557.000000, 95484.328125, 88577.007813, 115810.796875, 0.000, 0.000, 0.000,0.0507765,0.08518631,0.057640314,0.07344513,0.03404927, 15:27:53.962
68838.875000, 55027.625000, 123133.273438, 88412.414063, 122664.070313, 95549.007813, 88527.523438, 115915.781250, 0.000, 0.000, 0.000,0.037668742,0.064594,0.049103554,0.06318635,0.02841867, 15:27:53.962
68749.359375, 54940.070313, 123153.617188, 88572.515625, 122565.046875, 95605.023438, 88568.203125, 115843.789063, 0.000, 0.000, 0.000,0.037668742,0.064594,0.049103554,0.06318635,0.02841867, 15:27:53.962
68640.882813, 54834.882813, 123193.695313, 88747.507813, 122443.656250, 95543.179688, 88612.281250, 115729.484375, 0.000, 0.000, 0.000,0.037668742,0.064594,0.049103554,0.06318635,0.02841867, 15:27:53.963
68709.101563, 54907.082031, 123180.171875, 88618.046875, 122519.492188, 95475.789063, 88575.734375, 115778.546875, 0.000, 0.000, 0.000,0.037668742,0.064594,0.049103554,0.06318635,0.02841867, 15:27:53.963
68839.257813, 55043.070313, 123114.742188, 88412.054688, 122668.468750, 95529.523438, 88513.890625, 115913.101563, 0.000, 0.000, 0.000,0.037668742,0.064594,0.049103554,0.06318635,0.02841867, 15:27:53.963
68783.289063, 54987.792969, 123111.976563, 88526.179688, 122614.265625, 95616.937500, 88553.968750, 115884.539063, 0.000, 0.000, 0.000,0.037668742,0.064594,0.049103554,0.06318635,0.02841867, 15:27:53.964
68643.835938, 54848.945313, 123178.578125, 88749.945313, 122467.593750, 95573.617188, 88620.351563, 115749.398438, 0.078, 0.234, 0.968,0.037668742,0.064594,0.049103554,0.06318635,0.02841867, 15:27:53.965
68677.406250, 54882.894531, 123183.234375, 88670.976563, 122505.523438, 95491.054688, 88598.421875, 115762.695313, 0.000, 0.000, 0.000,0.037668742,0.064594,0.049103554,0.06318635,0.02841867, 15:27:53.966
68814.023438, 55020.472656, 123125.828125, 88438.070313, 122651.039063, 95514.500000, 88521.375000, 115893.859375, 0.000, 0.000, 0.000,0.037668742,0.064594,0.049103554,0.06318635,0.02841867, 15:27:53.967
68788.406250, 54993.605469, 123126.523438, 88499.468750, 122627.117188, 95603.257813, 88542.656250, 115892.828125, 0.000, 0.000, 0.000,0.037668742,0.064594,0.049103554,0.06318635,0.02841867, 15:27:53.967
68642.875000, 54850.417969, 123191.078125, 88732.648438, 122472.218750, 95575.851563, 88608.617188, 115757.890625, 0.000, 0.000, 0.000,0.037668742,0.064594,0.049103554,0.06318635,0.02841867, 15:27:53.967
68651.500000, 54857.570313, 123197.468750, 88701.062500, 122481.117188, 95492.507813, 88600.945313, 115747.546875, 0.000, 0.000, 0.000,0.037668742,0.064594,0.049103554,0.06318635,0.02841867, 15:27:53.967
68802.085938, 55009.406250, 123126.859375, 88453.875000, 122633.781250, 95497.242188, 88522.851563, 115881.789063, 0.000, 0.000, 0.000,0.037668742,0.064594,0.049103554,0.06318635,0.02841867, 15:27:53.968
68808.945313, 55015.910156, 123109.132813, 88454.992188, 122649.070313, 95591.390625, 88530.492188, 115909.929688, 0.000, 0.000, 0.000,0.037668742,0.064594,0.049103554,0.06318635,0.02841867, 15:27:53.968
68669.406250, 54872.570313, 123165.460938, 88690.445313, 122496.984375, 95586.273438, 88598.914063, 115781.382813, 0.000, 0.000, 0.000,0.037668742,0.064594,0.049103554,0.06318635,0.02841867, 15:27:53.968
68639.726563, 54840.718750, 123190.671875, 88726.210938, 122464.468750, 95497.398438, 88610.156250, 115735.007813, 0.080, 0.240, 0.966,0.037668742,0.064594,0.049103554,0.06318635,0.02841867, 15:27:53.968
68774.750000, 54974.917969, 123135.796875, 88493.367188, 122614.132813, 95483.679688, 88546.367188, 115854.023438, 0.000, 0.000, 0.000,0.037668742,0.064594,0.049103554,0.06318635,0.02841867, 15:27:53.968
68815.742188, 55017.007813, 123113.671875, 88430.289063, 122662.726563, 95568.992188, 88531.007813, 115916.054688, 0.000, 0.000, 0.000,0.037668742,0.064594,0.049103554,0.06318635,0.02841867, 15:27:53.968
68693.812500, 54898.699219, 123152.562500, 88651.867188, 122533.890625, 95596.906250, 88593.617188, 115814.578125, 0.000, 0.000, 0.000,0.037668742,0.064594,0.049103554,0.06318635,0.02841867, 15:27:53.968
68628.031250, 54836.449219, 123195.593750, 88753.679688, 122459.859375, 95515.101563, 88623.750000, 115734.625000, 0.000, 0.000, 0.000,0.037668742,0.064594,0.049103554,0.06318635,0.02841867, 15:27:53.969
68744.664063, 54951.785156, 123157.906250, 88544.734375, 122579.937500, 95470.531250, 88561.093750, 115825.484375, 0.000, 0.000, 0.000,0.037668742,0.064594,0.049103554,0.06318635,0.02841867, 15:27:53.969
68838.476563, 55043.449219, 123107.617188, 88416.031250, 122674.304688, 95552.117188, 88521.554688, 115920.765625, 0.000, 0.000, 0.000,0.037668742,0.064594,0.049103554,0.06318635,0.02841867, 15:27:53.969
68725.640625, 54932.406250, 123142.843750, 88614.625000, 122554.054688, 95599.390625, 88582.554688, 115828.968750, 0.000, 0.000, 0.000,0.037668742,0.064594,0.049103554,0.06318635,0.02841867, 15:27:53.969
68636.101563, 54839.824219, 123181.867188, 88762.171875, 122456.421875, 95530.500000, 88624.953125, 115732.210938, 0.000, 0.000, 0.000,0.037668742,0.064594,0.049103554,0.06318635,0.02841867, 15:27:53.969
68724.929688, 54930.125000, 123151.554688, 88590.843750, 122552.914063, 95476.945313, 88575.648438, 115803.398438, 0.000, 0.000, 0.000,0.037668742,0.064594,0.049103554,0.06318635,0.02841867, 15:27:53.969
68829.710938, 55035.000000, 123110.992188, 88418.625000, 122673.945313, 95538.195313, 88526.851563, 115916.609375, 0.078, 0.242, 0.964,0.037668742,0.064594,0.049103554,0.06318635,0.02841867, 15:27:53.969
68737.695313, 54938.730469, 123144.945313, 88574.148438, 122579.242188, 95599.656250, 88575.515625, 115850.898438, 0.000, 0.000, 0.000,0.037668742,0.064594,0.049103554,0.06318635,0.02841867, 15:27:53.970
68622.398438, 54824.335938, 123204.531250, 88764.164063, 122451.632813, 95545.968750, 88628.773438, 115738.359375, 0.000, 0.000, 0.000,0.037668742,0.064594,0.049103554,0.06318635,0.02841867, 15:27:53.970
68695.734375, 54899.996094, 123176.703125, 88633.875000, 122529.664063, 95486.492188, 88585.460938, 115797.343750, 0.000, 0.000, 0.000,0.037668742,0.064594,0.049103554,0.06318635,0.02841867, 15:27:53.970
68827.789063, 55032.785156, 123112.218750, 88424.796875, 122678.078125, 95537.093750, 88522.625000, 115930.203125, 0.000, 0.000, 0.000,0.037668742,0.064594,0.049103554,0.06318635,0.02841867, 15:27:53.970
68776.875000, 54980.015625, 123118.992188, 88531.812500, 122621.914063, 95614.453125, 88558.320313, 115896.492188, 0.000, 0.000, 0.000,0.037668742,0.064594,0.049103554,0.06318635,0.02841867, 15:27:53.970
68642.023438, 54846.531250, 123174.242188, 88753.609375, 122476.359375, 95577.218750, 88622.789063, 115763.234375, 0.000, 0.000, 0.000,0.037668742,0.064594,0.049103554,0.06318635,0.02841867, 15:27:53.970
68660.171875, 54868.187500, 123190.140625, 88692.367188, 122496.140625, 95482.265625, 88600.570313, 115757.398438, 0.000, 0.000, 0.000,0.037668742,0.064594,0.049103554,0.06318635,0.02841867, 15:27:53.971
68809.593750, 55016.113281, 123116.664063, 88452.015625, 122658.320313, 95506.203125, 88524.726563, 115897.789063, 0.000, 0.000, 0.000,0.037668742,0.064594,0.049103554,0.06318635,0.02841867, 15:27:53.971
68791.179688, 54999.238281, 123106.070313, 88497.507813, 122643.882813, 95599.257813, 88545.539063, 115904.226563, 0.082, 0.242, 0.968,0.037668742,0.064594,0.049103554,0.06318635,0.02841867, 15:27:53.971
68648.953125, 54856.007813, 123170.851563, 88734.570313, 122486.078125, 95579.835938, 88615.585938, 115767.750000, 0.000, 0.000, 0.000,0.037668742,0.064594,0.049103554,0.06318635,0.02841867, 15:27:53.971
68650.679688, 54858.867188, 123177.796875, 88720.640625, 122488.492188, 95496.796875, 88612.859375, 115752.460938, 0.000, 0.000, 0.000,0.037668742,0.064594,0.049103554,0.06318635,0.02841867, 15:27:53.972
68801.820313, 55012.828125, 123103.750000, 88479.867188, 122652.265625, 95509.312500, 88542.031250, 115891.867188, 0.000, 0.000, 0.000,0.037668742,0.064594,0.049103554,0.06318635,0.02841867, 15:27:53.974
68819.054688, 55029.300781, 123089.156250, 88468.601563, 122673.789063, 95605.023438, 88545.070313, 115929.890625, 0.000, 0.000, 0.000,0.037668742,0.064594,0.049103554,0.06318635,0.02841867, 15:27:53.974
68685.101563, 54886.917969, 123155.781250, 88707.007813, 122517.687500, 95607.015625, 88613.375000, 115800.789063, 0.000, 0.000, 0.000,0.037668742,0.064594,0.049103554,0.06318635,0.02841867, 15:27:53.974
68643.257813, 54844.429688, 123192.593750, 88762.531250, 122464.625000, 95514.968750, 88622.828125, 115740.164063, 0.000, 0.000, 0.000,0.037668742,0.064594,0.049103554,0.06318635,0.02841867, 15:27:53.974
68775.781250, 54977.375000, 123136.851563, 88531.656250, 122612.476563, 95495.859375, 88551.281250, 115858.742188, 0.000, 0.000, 0.000,0.037668742,0.064594,0.049103554,0.06318635,0.02841867, 15:27:53.975
68841.109375, 55042.914063, 123093.109375, 88447.726563, 122691.179688, 95592.750000, 88529.179688, 115943.007813, 0.000, 0.000, 0.000,0.037668742,0.064594,0.049103554,0.06318635,0.02841867, 15:27:53.975
68718.382813, 54917.316406, 123141.632813, 88673.679688, 122556.062500, 95623.531250, 88594.109375, 115833.820313, 0.000, 0.000, 0.000,0.037668742,0.064594,0.049103554,0.06318635,0.02841867, 15:27:53.975
68645.132813, 54841.703125, 123191.390625, 88789.773438, 122473.226563, 95537.296875, 88627.835938, 115745.710938, 0.072, 0.238, 0.964,0.037668742,0.064594,0.049103554,0.06318635,0.02841867, 15:27:53.975
68751.125000, 54949.660156, 123157.031250, 88589.703125, 122588.320313, 95488.664063, 88569.585938, 115830.468750, 0.000, 0.000, 0.000,0.037668742,0.064594,0.049103554,0.06318635,0.02841867, 15:27:53.976
68844.468750, 55042.578125, 123106.164063, 88447.015625, 122689.882813, 95564.882813, 88525.085938, 115929.460938, 0.000, 0.000, 0.000,0.037668742,0.064594,0.049103554,0.06318635,0.02841867, 15:27:53.976
68740.265625, 54941.906250, 123125.695313, 88627.546875, 122582.570313, 95616.492188, 88577.906250, 115848.687500, 0.000, 0.000, 0.000,0.037668742,0.064594,0.049103554,0.06318635,0.02841867, 15:27:53.977
68632.054688, 54834.167969, 123190.117188, 88793.843750, 122460.484375, 95539.531250, 88626.562500, 115731.226563, 0.000, 0.000, 0.000,0.037668742,0.064594,0.049103554,0.06318635,0.02841867, 15:27:53.977
68727.054688, 54926.929688, 123153.796875, 88623.570313, 122562.031250, 95480.593750, 88574.726563, 115801.390625, 0.000, 0.000, 0.000,0.037668742,0.064594,0.049103554,0.06318635,0.02841867, 15:27:53.977
68845.851563, 55048.367188, 123100.101563, 88437.289063, 122690.109375, 95542.062500, 88519.070313, 115923.273438, 0.000, 0.000, 0.000,0.037668742,0.064594,0.049103554,0.06318635,0.02841867, 15:27:53.978
68766.125000, 54973.218750, 123121.250000, 88584.007813, 122607.851563, 95614.078125, 88562.460938, 115871.234375, 0.000, 0.000, 0.000,0.037668742,0.064594,0.049103554,0.06318635,0.02841867, 15:27:53.978
68632.750000, 54836.472656, 123197.578125, 88793.460938, 122461.406250, 95550.328125, 88618.671875, 115734.625000, 0.000, 0.000, 0.000,0.037668742,0.064594,0.049103554,0.06318635,0.02841867, 15:27:53.978
68691.867188, 54895.703125, 123186.851563, 88680.742188, 122524.078125, 95475.117188, 88581.125000, 115774.140625, 0.072, 0.234, 0.960,0.037668742,0.064594,0.049103554,0.06318635,0.02841867, 15:27:53.979
68835.570313, 55039.113281, 123115.617188, 88452.757813, 122676.921875, 95521.117188, 88510.804688, 115914.507813, 0.000, 0.000, 0.000,0.037668742,0.064594,0.049103554,0.06318635,0.02841867, 15:27:53.979
68802.781250, 55003.527344, 123100.281250, 88533.179688, 122641.718750, 95615.218750, 88538.210938, 115904.851563, 0.000, 0.000, 0.000,0.037668742,0.064594,0.049103554,0.06318635,0.02841867, 15:27:53.979
68653.359375, 54856.812500, 123163.335938, 88765.078125, 122482.570313, 95583.859375, 88605.125000, 115766.273438, 0.000, 0.000, 0.000,0.037668742,0.064594,0.049103554,0.06318635,0.02841867, 15:27:53.979
68667.867188, 54871.699219, 123176.125000, 88710.203125, 122498.039063, 95489.531250, 88587.132813, 115759.500000, 0.000, 0.000, 0.000,0.037668742,0.064594,0.049103554,0.06318635,0.02841867, 15:27:53.980
68825.132813, 55028.406250, 123103.703125, 88464.539063, 122664.382813, 95513.718750, 88514.625000, 115905.164063, 0.000, 0.000, 0.000,0.037668742,0.064594,0.049103554,0.06318635,0.02841867, 15:27:53.980
68818.203125, 55024.785156, 123095.656250, 88496.296875, 122667.242188, 95612.531250, 88534.585938, 115925.109375, 0.000, 0.000, 0.000,0.037668742,0.064594,0.049103554,0.06318635,0.02841867, 15:27:53.980
68673.093750, 54874.582031, 123162.398438, 88737.609375, 122509.546875, 95596.375000, 88606.648438, 115786.367188, 0.000, 0.000, 0.000,0.037668742,0.064594,0.049103554,0.06318635,0.02841867, 15:27:53.981
68655.859375, 54854.195313, 123188.593750, 88745.117188, 122483.687500, 95501.242188, 88605.351563, 115746.289063, 0.000, 0.000, 0.000,0.037668742,0.064594,0.049103554,0.06318635,0.02841867, 15:27:53.981
68793.617188, 54995.437500, 123135.796875, 88508.945313, 122632.554688, 95494.492188, 88532.398438, 115872.828125, 0.000, 0.000, 0.000,0.037668742,0.064594,0.049103554,0.06318635,0.02841867, 15:27:53.981
68820.390625, 55021.789063, 123118.031250, 88478.726563, 122667.757813, 95587.429688, 88529.132813, 115923.539063, 0.074, 0.234, 0.956,0.037668742,0.064594,0.049103554,0.06318635,0.02841867, 15:27:53.981
68684.539063, 54890.652344, 123157.304688, 88703.320313, 122526.601563, 95601.359375, 88590.734375, 115810.437500, 0.000, 0.000, 0.000,0.037668742,0.064594,0.049103554,0.06318635,0.02841867, 15:27:53.982
68629.445313, 54839.511719, 123185.265625, 88767.695313, 122471.882813, 95516.625000, 88608.125000, 115748.281250, 0.000, 0.000, 0.000,0.00720162,0.015108199,0.014272299,0.022584002,0.011098808, 15:27:54.427
68760.492188, 54968.636719, 123132.851563, 88543.593750, 122610.398438, 95492.617188, 88542.875000, 115855.164063, 0.000, 0.000, 0.000,0.00720162,0.015108199,0.014272299,0.022584002,0.011098808, 15:27:54.427
68835.593750, 55042.308594, 123092.546875, 88447.500000, 122688.539063, 95580.953125, 88517.640625, 115934.898438, 0.000, 0.000, 0.000,0.00720162,0.015108199,0.014272299,0.022584002,0.011098808, 15:27:54.428
68716.078125, 54924.066406, 123128.875000, 88651.953125, 122561.023438, 95612.445313, 88577.859375, 115833.554688, 0.000, 0.000, 0.000,0.00720162,0.015108199,0.014272299,0.022584002,0.011098808, 15:27:54.428
68636.328125, 54848.945313, 123170.695313, 88779.492188, 122470.593750, 95537.703125, 88614.156250, 115743.500000, 0.000, 0.000, 0.000,0.00720162,0.015108199,0.014272299,0.022584002,0.011098808, 15:27:54.428
68738.585938, 54950.062500, 123139.398438, 88593.125000, 122579.554688, 95486.601563, 88559.890625, 115823.921875, 0.000, 0.000, 0.000,0.00720162,0.015108199,0.014272299,0.022584002,0.011098808, 15:27:54.429
68837.289063, 55047.250000, 123094.046875, 88438.632813, 122688.742188, 95558.109375, 88515.718750, 115928.304688, 0.000, 0.000, 0.000,0.00720162,0.015108199,0.014272299,0.022584002,0.011098808, 15:27:54.429
68747.664063, 54962.871094, 123108.664063, 88608.773438, 122599.742188, 95620.890625, 88566.859375, 115862.031250, 0.000, 0.000, 0.000,0.00720162,0.015108199,0.014272299,0.022584002,0.011098808, 15:27:54.429
68636.703125, 54851.000000, 123161.390625, 88789.328125, 122482.210938, 95557.171875, 88623.007813, 115749.171875, 0.080, 0.230, 0.960,0.00720162,0.015108199,0.014272299,0.022584002,0.011098808, 15:27:54.429
68717.101563, 54922.457031, 123139.687500, 88641.742188, 122559.843750, 95490.898438, 88581.773438, 115802.593750, 0.000, 0.000, 0.000,0.00720162,0.015108199,0.014272299,0.022584002,0.011098808, 15:27:54.430
68835.953125, 55041.144531, 123096.882813, 88447.953125, 122685.726563, 95545.281250, 88519.992188, 115920.750000, 0.000, 0.000, 0.000,0.00720162,0.015108199,0.014272299,0.022584002,0.011098808, 15:27:54.430
68776.828125, 54980.707031, 123108.132813, 88571.937500, 122622.601563, 95622.796875, 88556.804688, 115879.015625, 0.000, 0.000, 0.000,0.00720162,0.015108199,0.014272299,0.022584002,0.011098808, 15:27:54.430
68651.656250, 54856.902344, 123169.570313, 88785.882813, 122485.343750, 95575.359375, 88623.125000, 115751.234375, 0.000, 0.000, 0.000,0.00720162,0.015108199,0.014272299,0.022584002,0.011098808, 15:27:54.430
68689.500000, 54892.441406, 123175.343750, 88692.523438, 122523.007813, 95489.796875, 88597.507813, 115766.632813, 0.000, 0.000, 0.000,0.00720162,0.015108199,0.014272299,0.022584002,0.011098808, 15:27:54.431
68834.585938, 55036.562500, 123104.867188, 88455.703125, 122679.757813, 95520.914063, 88521.960938, 115903.109375, 0.000, 0.000, 0.000,0.00720162,0.015108199,0.014272299,0.022584002,0.011098808, 15:27:54.431
68808.414063, 55011.148438, 123096.617188, 88526.335938, 122655.015625, 95610.007813, 88551.882813, 115899.648438, 0.000, 0.000, 0.000,0.00720162,0.015108199,0.014272299,0.022584002,0.011098808, 15:27:54.432
68667.554688, 54867.652344, 123155.562500, 88758.531250, 122496.984375, 95582.250000, 88618.765625, 115765.265625, 0.000, 0.000, 0.000,0.00720162,0.015108199,0.014272299,0.022584002,0.011098808, 15:27:54.432
68672.203125, 54875.898438, 123173.328125, 88726.382813, 122497.320313, 95495.945313, 88603.695313, 115754.828125, 0.084, 0.234, 0.966,0.00720162,0.015108199,0.014272299,0.022584002,0.011098808, 15:27:54.432
68803.789063, 55011.910156, 123119.640625, 88487.179688, 122642.718750, 95505.000000, 88526.898438, 115882.812500, 0.000, 0.000, 0.000,0.00720162,0.015108199,0.014272299,0.022584002,0.011098808, 15:27:54.432
68811.695313, 55018.863281, 123092.148438, 88494.953125, 122659.015625, 95605.671875, 88531.500000, 115918.289063, 0.000, 0.000, 0.000,0.00720162,0.015108199,0.014272299,0.022584002,0.011098808, 15:27:54.432
68681.812500, 54887.144531, 123130.414063, 88729.781250, 122514.757813, 95613.453125, 88601.750000, 115798.843750, 0.000, 0.000, 0.000,0.00720162,0.015108199,0.014272299,0.022584002,0.011098808, 15:27:54.433
68657.718750, 54859.269531, 123160.476563, 88756.625000, 122473.164063, 95516.085938, 88607.898438, 115745.484375, 0.000, 0.000, 0.000,0.00720162,0.015108199,0.014272299,0.022584002,0.011098808, 15:27:54.433
68800.835938, 54996.109375, 123100.085938, 88517.796875, 122622.468750, 95503.281250, 88536.507813, 115868.445313, 0.000, 0.000, 0.000,0.00720162,0.015108199,0.014272299,0.022584002,0.011098808, 15:27:54.433
68838.070313, 55033.210938, 123083.093750, 88469.921875, 122662.164063, 95589.781250, 88526.515625, 115920.992188, 0.000, 0.000, 0.000,0.00720162,0.015108199,0.014272299,0.022584002,0.011098808, 15:27:54.433
68703.695313, 54899.480469, 123128.960938, 88693.929688, 122515.718750, 95606.273438, 88587.250000, 115803.960938, 0.000, 0.000, 0.000,0.00720162,0.015108199,0.014272299,0.022584002,0.011098808, 15:27:54.433
68649.242188, 54841.746094, 123176.210938, 88783.179688, 122448.437500, 95519.531250, 88612.617188, 115729.882813, 0.000, 0.000, 0.000,0.00720162,0.015108199,0.014272299,0.022584002,0.011098808, 15:27:54.434
68769.296875, 54963.988281, 123131.445313, 88568.046875, 122580.226563, 95487.429688, 88553.968750, 115834.242188, 0.000, 0.000, 0.000,0.00720162,0.015108199,0.014272299,0.022584002,0.011098808, 15:27:54.434
68843.078125, 55039.292969, 123090.093750, 88457.562500, 122665.273438, 95571.945313, 88522.203125, 115922.734375, 0.082, 0.236, 0.962,0.00720162,0.015108199,0.014272299,0.022584002,0.011098808, 15:27:54.434
68730.023438, 54927.867188, 123120.914063, 88660.468750, 122550.273438, 95618.078125, 88582.218750, 115834.492188, 0.000, 0.000, 0.000,0.00720162,0.015108199,0.014272299,0.022584002,0.011098808, 15:27:54.434
68628.210938, 54828.625000, 123174.804688, 88802.382813, 122440.843750, 95542.257813, 88621.023438, 115729.976563, 0.000, 0.000, 0.000,0.00720162,0.015108199,0.014272299,0.022584002,0.011098808, 15:27:54.435
68726.445313, 54926.148438, 123142.390625, 88615.523438, 122546.765625, 95491.187500, 88568.132813, 115812.429688, 0.000, 0.000, 0.000,0.00720162,0.015108199,0.014272299,0.022584002,0.011098808, 15:27:54.435
68834.117188, 55032.382813, 123093.601563, 88448.171875, 122661.945313, 95560.679688, 88521.890625, 115927.679688, 0.000, 0.000, 0.000,0.00720162,0.015108199,0.014272299,0.022584002,0.011098808, 15:27:54.435
68745.179688, 54943.378906, 123113.070313, 88605.460938, 122568.695313, 95619.195313, 88571.781250, 115864.421875, 0.000, 0.000, 0.000,0.00720162,0.015108199,0.014272299,0.022584002,0.011098808, 15:27:54.436
68626.421875, 54825.207031, 123170.867188, 88791.007813, 122441.132813, 95560.390625, 88626.656250, 115744.570313, 0.000, 0.000, 0.000,0.00720162,0.015108199,0.014272299,0.022584002,0.011098808, 15:27:54.436
68693.570313, 54892.238281, 123156.093750, 88655.687500, 122511.851563, 95489.601563, 88584.765625, 115789.007813, 0.000, 0.000, 0.000,0.00720162,0.015108199,0.014272299,0.022584002,0.011098808, 15:27:54.436
68826.945313, 55025.007813, 123098.359375, 88451.796875, 122657.539063, 95538.882813, 88523.882813, 115920.546875, 0.000, 0.000, 0.000,0.00720162,0.015108199,0.014272299,0.022584002,0.011098808, 15:27:54.437
68767.148438, 54962.757813, 123109.742188, 88569.296875, 122594.375000, 95617.828125, 88562.328125, 115883.265625, 0.078, 0.232, 0.962,0.00720162,0.015108199,0.014272299,0.022584002,0.011098808, 15:27:54.437
68631.226563, 54827.375000, 123169.304688, 88787.476563, 122442.781250, 95573.460938, 88623.234375, 115751.500000, 0.000, 0.000, 0.000,0.00720162,0.015108199,0.014272299,0.022584002,0.011098808, 15:27:54.437
68673.164063, 54871.160156, 123165.906250, 88705.687500, 122482.343750, 95491.406250, 88597.195313, 115773.273438, 0.000, 0.000, 0.000,0.00720162,0.015108199,0.014272299,0.022584002,0.011098808, 15:27:54.437
68821.664063, 55024.761719, 123086.898438, 88465.164063, 122645.585938, 95531.710938, 88526.984375, 115921.414063, 0.000, 0.000, 0.000,0.00720162,0.015108199,0.014272299,0.022584002,0.011098808, 15:27:54.438
68793.820313, 54997.917969, 123088.460938, 88527.656250, 122619.921875, 95624.382813, 88554.679688, 115917.195313, 0.000, 0.000, 0.000,0.00720162,0.015108199,0.014272299,0.022584002,0.011098808, 15:27:54.439
68661.406250, 54862.488281, 123150.039063, 88768.070313, 122469.609375, 95604.242188, 88621.843750, 115787.484375, 0.000, 0.000, 0.000,0.00720162,0.015108199,0.014272299,0.022584002,0.011098808, 15:27:54.439
68661.406250, 54860.878906, 123170.156250, 88748.445313, 122462.117188, 95507.750000, 88610.898438, 115762.070313, 0.000, 0.000, 0.000,0.00720162,0.015108199,0.014272299,0.022584002,0.011098808, 15:27:54.439
68811.203125, 55007.531250, 123100.710938, 88500.273438, 122621.976563, 95514.789063, 88536.281250, 115896.492188, 0.000, 0.000, 0.000,0.00720162,0.015108199,0.014272299,0.022584002,0.011098808, 15:27:54.439
68830.492188, 55018.972656, 123081.976563, 88498.195313, 122647.835938, 95611.953125, 88544.398438, 115930.601563, 0.000, 0.000, 0.000,0.00720162,0.015108199,0.014272299,0.022584002,0.011098808, 15:27:54.440
68679.312500, 54868.812500, 123144.632813, 88738.078125, 122486.281250, 95606.210938, 88611.187500, 115794.351563, 0.000, 0.000, 0.000,0.00720162,0.015108199,0.014272299,0.022584002,0.011098808, 15:27:54.440
68637.578125, 54830.683594, 123175.187500, 88776.343750, 122442.609375, 95511.859375, 88614.898438, 115739.921875, 0.084, 0.230, 0.966,0.00720162,0.015108199,0.014272299,0.022584002,0.011098808, 15:27:54.440
