%OpenBCI Raw EEG Data
%
%Sample Rate = 250.0 Hz
%First Column = SampleIndex
%Last Column = Timestamp 
%Other Columns = EEG data in microvolts followed by Accel Data (in G) interleaved with Aux Data
0, -49910.62, -40803.49, -77389.27, -112788.82, -101740.80, -37448.63, -97697.84, -112442.84, 0.148, 0.142, 0.460, 14:06:21.992
1, -49895.73, -40793.14, -77478.01, -112779.68, -101730.30, -37403.43, -97676.13, -112421.27, 0.000, 0.000, 0.000, 14:06:21.994
2, -50027.89, -40932.46, -77286.77, -112919.02, -101868.81, -37293.08, -97793.59, -112549.70, 0.000, 0.000, 0.000, 14:06:21.994
3, -50051.81, -40954.18, -77189.22, -112936.41, -101891.59, -37326.38, -97829.80, -112576.59, 0.000, 0.000, 0.000, 14:06:21.995
4, -49917.68, -40813.03, -77378.20, -112796.42, -101756.47, -37436.98, -97716.88, -112452.00, 0.000, 0.000, 0.000, 14:06:21.995
5, -49880.38, -40780.40, -77499.30, -112764.86, -101726.97, -37420.64, -97678.51, -112414.52, 0.000, 0.000, 0.000, 14:06:21.996
6, -50016.05, -40919.32, -77327.22, -112900.29, -101856.36, -37308.88, -97785.44, -112535.66, 0.208, 0.210, 0.686, 14:06:21.997
7, -50068.13, -40967.86, -77191.21, -112949.46, -101902.70, -37310.00, -97834.68, -112589.33, 0.000, 0.000, 0.000, 14:06:21.997
8, -49946.56, -40843.95, -77339.88, -112824.45, -101778.80, -37424.71, -97733.55, -112480.45, 0.000, 0.000, 0.000, 14:06:21.997
9, -49880.49, -40781.45, -77503.62, -112762.58, -101717.55, -37442.23, -97671.27, -112415.44, 0.000, 0.000, 0.000, 14:06:21.998
10, -49985.63, -40889.05, -77377.40, -112871.55, -101823.01, -37330.70, -97755.15, -112509.94, 0.000, 0.000, 0.000, 14:06:21.998
11, -50068.18, -40970.68, -77210.32, -112954.36, -101908.84, -37297.53, -97840.73, -112594.83, 0.000, 0.000, 0.000, 14:06:21.998
12, -49982.90, -40879.53, -77301.41, -112867.23, -101824.71, -37417.40, -97782.82, -112522.95, 0.000, 0.000, 0.000, 14:06:21.999
13, -49890.48, -40786.01, -77485.65, -112773.06, -101731.81, -37465.23, -97695.38, -112430.14, 0.000, 0.000, 0.000, 14:06:21.999
14, -49965.67, -40866.72, -77412.16, -112853.48, -101809.22, -37360.54, -97747.28, -112497.76, 0.000, 0.000, 0.000, 14:06:22.000
15, -50077.92, -40979.26, -77218.55, -112960.44, -101917.16, -37296.81, -97844.40, -112601.65, 0.000, 0.000, 0.000, 14:06:22.000
16, -50012.32, -40909.70, -77261.69, -112889.07, -101848.60, -37396.66, -97801.84, -112541.84, 0.236, 0.240, 0.800, 14:06:22.001
17, -49893.99, -40788.29, -77474.27, -112771.84, -101730.74, -37465.59, -97690.91, -112422.16, 0.000, 0.000, 0.000, 14:06:22.001
18, -49942.76, -40843.99, -77458.78, -112829.95, -101785.62, -37378.55, -97723.99, -112465.26, 0.000, 0.000, 0.000, 14:06:22.002
19, -50080.38, -40984.40, -77235.58, -112967.37, -101918.05, -37292.30, -97841.80, -112590.74, 0.000, 0.000, 0.000, 14:06:22.003
20, -50038.18, -40940.62, -77223.28, -112924.18, -101872.05, -37378.55, -97812.28, -112566.33, 0.000, 0.000, 0.000, 14:06:22.004
21, -49902.48, -40806.17, -77429.73, -112786.83, -101733.45, -37462.89, -97694.98, -112435.57, 0.000, 0.000, 0.000, 14:06:22.004
22, -49921.37, -40834.33, -77462.60, -112807.82, -101757.52, -37398.42, -97699.31, -112446.86, 0.000, 0.000, 0.000, 14:06:22.005
23, -50045.73, -40966.86, -77249.82, -112939.54, -101882.31, -37288.36, -97798.69, -112562.30, 0.000, 0.000, 0.000, 14:06:22.005
24, -50028.59, -40947.43, -77210.45, -112920.09, -101863.58, -37345.20, -97806.52, -112559.34, 0.000, 0.000, 0.000, 14:06:22.006
25, -49900.98, -40813.05, -77411.62, -112785.85, -101733.18, -37451.84, -97698.55, -112437.85, 0.254, 0.262, 0.860, 14:06:22.006
26, -49888.67, -40799.44, -77491.13, -112779.05, -101721.76, -37415.81, -97675.40, -112424.48, 0.000, 0.000, 0.000, 14:06:22.006
27, -50016.39, -40933.35, -77300.40, -112912.65, -101854.91, -37303.25, -97782.59, -112546.17, 0.000, 0.000, 0.000, 14:06:22.007
28, -50046.40, -40959.04, -77181.91, -112940.66, -101887.34, -37330.77, -97822.80, -112584.21, 0.000, 0.000, 0.000, 14:06:22.007
29, -49941.82, -40850.49, -77354.71, -112830.51, -101774.89, -37457.90, -97735.39, -112482.60, 0.000, 0.000, 0.000, 14:06:22.007
30, -49890.48, -40800.18, -77505.48, -112777.33, -101727.97, -37450.86, -97682.35, -112430.79, 0.000, 0.000, 0.000, 14:06:22.008
31, -50014.69, -40927.74, -77327.18, -112904.38, -101858.30, -37330.52, -97782.87, -112543.17, 0.000, 0.000, 0.000, 14:06:22.008
32, -50081.61, -40993.72, -77161.51, -112972.46, -101926.63, -37326.56, -97854.39, -112612.89, 0.000, 0.000, 0.000, 14:06:22.008
33, -49981.81, -40891.75, -77290.85, -112870.92, -101816.64, -37453.50, -97771.45, -112518.32, 0.000, 0.000, 0.000, 14:06:22.008
34, -49889.29, -40795.89, -77489.23, -112777.94, -101725.78, -37464.00, -97680.59, -112419.03, 0.000, 0.000, 0.000, 14:06:22.009
35, -49984.85, -40894.35, -77381.54, -112879.52, -101826.56, -37343.21, -97754.77, -112506.36, 0.272, 0.278, 0.888, 14:06:22.009
36, -50089.74, -40998.21, -77199.26, -112985.07, -101928.84, -37310.22, -97851.35, -112608.09, 0.000, 0.000, 0.000, 14:06:22.010
37, -50005.12, -40912.18, -77283.79, -112897.52, -101835.80, -37419.68, -97786.11, -112528.31, 0.000, 0.000, 0.000, 14:06:22.011
38, -49884.00, -40787.55, -77485.36, -112775.86, -101717.91, -37452.43, -97671.95, -112404.10, 0.000, 0.000, 0.000, 14:06:22.012
39, -49966.25, -40879.75, -77431.83, -112863.01, -101801.33, -37356.36, -97735.66, -112476.45, 0.000, 0.000, 0.000, 14:06:22.013
40, -50086.37, -41003.29, -77229.90, -112980.40, -101919.95, -37293.17, -97846.48, -112592.75, 0.000, 0.000, 0.000, 14:06:22.013
41, -50022.73, -40933.11, -77266.83, -112908.34, -101853.43, -37392.32, -97804.79, -112540.29, 0.000, 0.000, 0.000, 14:06:22.013
42, -49894.16, -40800.23, -77470.43, -112779.91, -101729.38, -37463.82, -97690.27, -112422.07, 0.000, 0.000, 0.000, 14:06:22.014
43, -49935.76, -40848.37, -77473.89, -112826.70, -101780.81, -37386.55, -97712.19, -112459.02, 0.000, 0.000, 0.000, 14:06:22.014
44, -50067.28, -40979.91, -77257.41, -112957.95, -101909.60, -37300.81, -97830.59, -112592.15, 0.284, 0.284, 0.898, 14:06:22.014
45, -50036.37, -40946.81, -77226.77, -112924.07, -101877.95, -37382.93, -97823.68, -112576.63, 0.000, 0.000, 0.000, 14:06:22.014
46, -49895.75, -40806.04, -77431.31, -112780.30, -101733.56, -37475.92, -97689.34, -112443.27, 0.000, 0.000, 0.000, 14:06:22.015
47, -49907.62, -40819.27, -77500.11, -112795.73, -101752.54, -37425.54, -97690.77, -112454.17, 0.000, 0.000, 0.000, 14:06:22.015
48, -50031.67, -40948.08, -77287.44, -112930.42, -101887.77, -37314.05, -97809.76, -112578.91, 0.000, 0.000, 0.000, 14:06:22.016
49, -50030.98, -40947.59, -77204.69, -112926.06, -101880.77, -37356.65, -97817.02, -112580.88, 0.000, 0.000, 0.000, 14:06:22.016
50, -49916.18, -40830.42, -77398.84, -112803.08, -101762.73, -37473.57, -97717.55, -112462.69, 0.000, 0.000, 0.000, 14:06:22.017
51, -49893.72, -40810.15, -77491.84, -112780.08, -101731.66, -37436.51, -97677.34, -112434.57, 0.000, 0.000, 0.000, 14:06:22.017
52, -50026.55, -40944.35, -77298.52, -112920.31, -101872.63, -37321.02, -97793.66, -112561.52, 0.000, 0.000, 0.000, 14:06:22.018
53, -50058.63, -40972.45, -77179.81, -112949.75, -101897.35, -37336.84, -97835.51, -112595.92, 0.000, 0.000, 0.000, 14:06:22.019
54, -49938.60, -40849.11, -77349.48, -112823.20, -101767.84, -37449.70, -97725.94, -112470.20, 0.286, 0.284, 0.908, 14:06:22.019
55, -49876.48, -40787.26, -77486.25, -112766.47, -101712.88, -37433.79, -97659.82, -112400.59, 0.000, 0.000, 0.000, 14:06:22.020
56, -49979.62, -40895.96, -77333.81, -112874.27, -101823.32, -37309.20, -97746.61, -112498.56, 0.000, 0.000, 0.000, 14:06:22.020
57, -50069.14, -40982.23, -77179.68, -112958.02, -101904.59, -37308.21, -97827.05, -112586.65, 0.000, 0.000, 0.000, 14:06:22.021
58, -49957.06, -40866.39, -77308.27, -112840.09, -101792.75, -37417.67, -97734.59, -112475.72, 0.000, 0.000, 0.000, 14:06:22.021
59, -49880.87, -40793.74, -77482.01, -112765.75, -101720.46, -37446.55, -97662.70, -112402.41, 0.000, 0.000, 0.000, 14:06:22.022
60, -49961.38, -40871.30, -77384.66, -112849.04, -101797.89, -37332.08, -97725.18, -112481.84, 0.000, 0.000, 0.000, 14:06:22.022
61, -50057.85, -40972.54, -77195.91, -112948.26, -101900.98, -37291.00, -97825.18, -112585.51, 0.000, 0.000, 0.000, 14:06:22.022
62, -49983.28, -40895.11, -77262.60, -112869.96, -101824.59, -37407.79, -97770.13, -112524.31, 0.000, 0.000, 0.000, 14:06:22.023
63, -49880.09, -40794.52, -77451.70, -112768.59, -101725.83, -37470.93, -97679.84, -112429.47, 0.000, 0.000, 0.000, 14:06:22.023
64, -49941.64, -40862.03, -77395.51, -112840.48, -101799.09, -37373.61, -97735.59, -112487.59, 0.282, 0.280, 0.914, 14:06:22.030
65, -50054.76, -40975.71, -77192.35, -112958.38, -101916.98, -37301.11, -97835.86, -112599.50, 0.000, 0.000, 0.000, 14:06:22.031
66, -50000.83, -40919.49, -77212.49, -112896.84, -101849.68, -37391.43, -97786.35, -112543.71, 0.000, 0.000, 0.000, 14:06:22.031
67, -49879.01, -40793.50, -77421.32, -112769.15, -101724.55, -37467.67, -97674.75, -112421.23, 0.000, 0.000, 0.000, 14:06:22.032
68, -49910.10, -40824.66, -77446.04, -112804.42, -101756.60, -37384.03, -97693.82, -112441.16, 0.000, 0.000, 0.000, 14:06:22.032
69, -50045.49, -40961.22, -77241.19, -112941.93, -101891.02, -37285.26, -97809.27, -112567.27, 0.000, 0.000, 0.000, 14:06:22.032
70, -50023.96, -40936.97, -77200.55, -112918.35, -101868.97, -37355.13, -97807.63, -112552.98, 0.000, 0.000, 0.000, 14:06:22.033
71, -49884.29, -40798.28, -77408.65, -112779.59, -101733.29, -37447.73, -97687.31, -112420.22, 0.000, 0.000, 0.000, 14:06:22.033
72, -49892.60, -40812.25, -77470.16, -112790.23, -101741.78, -37393.06, -97678.41, -112421.31, 0.000, 0.000, 0.000, 14:06:22.034
73, -50018.55, -40943.84, -77273.87, -112921.95, -101872.90, -37284.79, -97796.26, -112546.73, 0.288, 0.276, 0.916, 14:06:22.035
74, -50021.75, -40950.50, -77173.13, -112931.07, -101883.05, -37325.33, -97820.30, -112568.09, 0.000, 0.000, 0.000, 14:06:22.035
75, -49894.41, -40820.77, -77355.80, -112799.77, -101752.00, -37443.62, -97711.23, -112451.16, 0.000, 0.000, 0.000, 14:06:22.035
76, -49868.57, -40798.01, -77466.13, -112773.98, -101731.37, -37426.00, -97679.51, -112431.38, 0.000, 0.000, 0.000, 14:06:22.036
77, -49990.82, -40922.96, -77280.64, -112902.10, -101857.61, -37307.23, -97781.77, -112542.75, 0.000, 0.000, 0.000, 14:06:22.036
78, -50035.59, -40963.41, -77165.69, -112945.08, -101898.54, -37324.30, -97830.99, -112590.85, 0.000, 0.000, 0.000, 14:06:22.036
79, -49919.58, -40840.26, -77315.24, -112825.09, -101779.76, -37442.43, -97735.62, -112481.62, 0.000, 0.000, 0.000, 14:06:22.036
80, -49844.48, -40767.84, -77471.28, -112756.32, -101714.02, -37437.63, -97663.46, -112413.94, 0.000, 0.000, 0.000, 14:06:22.037
81, -49966.29, -40895.40, -77326.53, -112881.78, -101835.20, -37324.86, -97763.94, -112523.73, 0.000, 0.000, 0.000, 14:06:22.037
82, -50043.41, -40969.27, -77160.30, -112955.41, -101910.05, -37309.06, -97841.49, -112603.21, 0.000, 0.000, 0.000, 14:06:22.037
83, -49934.06, -40855.12, -77276.08, -112841.57, -101802.67, -37422.72, -97756.87, -112506.74, 0.284, 0.276, 0.914, 14:06:22.038
84, -49844.32, -40772.96, -77464.23, -112754.06, -101711.25, -37455.13, -97665.27, -112416.64, 0.000, 0.000, 0.000, 14:06:22.038
85, -49940.64, -40875.13, -77369.35, -112858.85, -101805.51, -37353.70, -97739.66, -112503.30, 0.000, 0.000, 0.000, 14:06:22.038
86, -50039.03, -40970.23, -77187.74, -112955.68, -101903.77, -37297.15, -97836.78, -112594.09, 0.000, 0.000, 0.000, 14:06:22.039
87, -49972.42, -40902.26, -77241.91, -112883.99, -101825.24, -37402.96, -97782.24, -112534.15, 0.000, 0.000, 0.000, 14:06:22.039
88, -49857.60, -40786.77, -77448.50, -112768.73, -101717.17, -37468.21, -97672.59, -112422.90, 0.000, 0.000, 0.000, 14:06:22.039
89, -49916.23, -40847.05, -77401.27, -112836.45, -101789.39, -37372.68, -97719.68, -112478.98, 0.000, 0.000, 0.000, 14:06:22.040
90, -50038.20, -40969.34, -77190.41, -112961.06, -101903.12, -37293.01, -97827.13, -112596.51, 0.000, 0.000, 0.000, 14:06:22.040
91, -49989.03, -40918.20, -77209.12, -112909.14, -101850.57, -37386.15, -97795.59, -112556.25, 0.000, 0.000, 0.000, 14:06:22.040
92, -49856.01, -40782.48, -77424.77, -112776.33, -101721.58, -37465.68, -97677.48, -112424.29, 0.284, 0.280, 0.914, 14:06:22.041
93, -49878.72, -40810.44, -77446.04, -112802.92, -101750.59, -37385.53, -97686.62, -112443.15, 0.000, 0.000, 0.000, 14:06:22.041
94, -50022.22, -40961.85, -77230.10, -112948.81, -101895.92, -37293.26, -97813.51, -112581.69, 0.000, 0.000, 0.000, 14:06:22.041
95, -49992.38, -40931.88, -77182.13, -112921.97, -101869.41, -37355.95, -97804.99, -112566.16, 0.000, 0.000, 0.000, 14:06:22.042
96, -49855.00, -40792.45, -77386.01, -112785.06, -101733.96, -37454.23, -97690.40, -112438.93, 0.000, 0.000, 0.000, 14:06:22.042
97, -49851.96, -40792.36, -77452.34, -112785.16, -101731.86, -37406.34, -97677.55, -112433.43, 0.000, 0.000, 0.000, 14:06:22.042
98, -49989.92, -40931.68, -77269.28, -112925.75, -101873.46, -37300.07, -97794.60, -112562.04, 0.000, 0.000, 0.000, 14:06:22.043
99, -50002.75, -40941.15, -77180.17, -112936.41, -101879.67, -37334.48, -97816.08, -112579.16, 0.000, 0.000, 0.000, 14:06:22.043
100, -49879.14, -40817.35, -77356.37, -112810.63, -101753.09, -37451.53, -97710.89, -112463.60, 0.000, 0.000, 0.000, 14:06:22.043
101, -49846.27, -40783.59, -77474.98, -112778.05, -101721.42, -37434.03, -97665.09, -112427.26, 0.000, 0.000, 0.000, 14:06:22.043
102, -49978.52, -40917.57, -77307.82, -112910.30, -101856.05, -37323.52, -97778.95, -112549.77, 0.282, 0.278, 0.916, 14:06:22.044
103, -50027.92, -40965.14, -77160.32, -112960.15, -101904.37, -37329.96, -97833.58, -112604.82, 0.000, 0.000, 0.000, 14:06:22.044
104, -49903.87, -40837.57, -77302.37, -112839.83, -101778.98, -37441.09, -97726.70, -112491.56, 0.000, 0.000, 0.000, 14:06:22.044
105, -49833.39, -40770.72, -77452.41, -112770.27, -101705.66, -37446.28, -97657.88, -112418.01, 0.000, 0.000, 0.000, 14:06:22.044
106, -49937.30, -40877.34, -77333.44, -112876.59, -101815.97, -37334.23, -97751.87, -112515.91, 0.000, 0.000, 0.000, 14:06:22.045
107, -50031.23, -40968.54, -77155.13, -112967.97, -101906.77, -37310.67, -97842.45, -112606.66, 0.000, 0.000, 0.000, 14:06:22.045
108, -49934.64, -40864.11, -77256.88, -112862.38, -101804.21, -37422.50, -97759.73, -112512.04, 0.000, 0.000, 0.000, 14:06:22.045
109, -49832.21, -40761.54, -77450.06, -112762.40, -101700.34, -37456.70, -97652.00, -112411.08, 0.000, 0.000, 0.000, 14:06:22.046
110, -49910.80, -40845.29, -77380.82, -112849.75, -101790.42, -37352.18, -97711.81, -112486.02, 0.000, 0.000, 0.000, 14:06:22.046
111, -50017.08, -40945.46, -77187.95, -112954.67, -101893.15, -37290.24, -97809.53, -112581.91, 0.280, 0.286, 0.918, 14:06:22.046
112, -49941.57, -40870.01, -77248.05, -112877.49, -101819.23, -37388.90, -97761.72, -112514.84, 0.000, 0.000, 0.000, 14:06:22.047
113, -49836.03, -40768.82, -77437.23, -112774.07, -101717.60, -37458.24, -97665.92, -112413.63, 0.000, 0.000, 0.000, 14:06:22.047
114, -49892.40, -40830.20, -77413.19, -112833.23, -101778.33, -37371.51, -97704.70, -112463.00, 0.000, 0.000, 0.000, 14:06:22.048
115, -50014.86, -40954.41, -77204.80, -112958.72, -101901.02, -37291.74, -97816.26, -112587.79, 0.000, 0.000, 0.000, 14:06:22.048
116, -49969.76, -40904.25, -77196.59, -112905.50, -101850.37, -37373.32, -97793.15, -112548.56, 0.000, 0.000, 0.000, 14:06:22.048
117, -49838.98, -40768.93, -77399.95, -112769.71, -101712.88, -37456.54, -97669.30, -112417.02, 0.000, 0.000, 0.000, 14:06:22.049
118, -49862.07, -40791.71, -77446.16, -112793.90, -101734.88, -37384.99, -97672.11, -112428.45, 0.000, 0.000, 0.000, 14:06:22.049
119, -49998.08, -40928.37, -77245.10, -112932.56, -101876.81, -37284.50, -97797.98, -112562.35, 0.000, 0.000, 0.000, 14:06:22.049
120, -49988.69, -40916.03, -77186.96, -112924.18, -101866.48, -37345.20, -97804.01, -112561.50, 0.000, 0.000, 0.000, 14:06:22.472
121, -49853.57, -40783.91, -77388.09, -112786.32, -101729.91, -37452.16, -97684.98, -112434.97, 0.272, 0.286, 0.918, 14:06:22.472
122, -49843.45, -40780.38, -77472.40, -112782.67, -101727.86, -37409.71, -97665.52, -112421.80, 0.000, 0.000, 0.000, 14:06:22.473
123, -49981.45, -40919.43, -77272.05, -112924.92, -101865.37, -37298.46, -97781.34, -112552.23, 0.000, 0.000, 0.000, 14:06:22.473
124, -50006.53, -40943.01, -77172.86, -112948.14, -101887.32, -37335.26, -97822.16, -112583.43, 0.000, 0.000, 0.000, 14:06:22.473
125, -49879.70, -40811.02, -77340.27, -112818.17, -101754.99, -37442.97, -97711.05, -112460.14, 0.000, 0.000, 0.000, 14:06:22.473
126, -49836.70, -40767.39, -77472.93, -112773.71, -101710.73, -37427.19, -97659.82, -112410.61, 0.000, 0.000, 0.000, 14:06:22.473
127, -49956.24, -40888.96, -77320.96, -112898.32, -101834.86, -37311.41, -97760.18, -112521.07, 0.000, 0.000, 0.000, 14:06:22.474
128, -50026.71, -40958.88, -77169.40, -112968.10, -101906.94, -37317.51, -97838.52, -112595.05, 0.000, 0.000, 0.000, 14:06:22.474
129, -49909.10, -40834.67, -77297.34, -112841.68, -101778.64, -37430.07, -97731.41, -112480.05, 0.000, 0.000, 0.000, 14:06:22.474
130, -49833.10, -40758.76, -77486.55, -112764.41, -101701.88, -37444.73, -97653.47, -112395.34, 0.000, 0.000, 0.000, 14:06:22.475
131, -49937.93, -40866.72, -77365.80, -112873.83, -101810.60, -37328.13, -97739.10, -112493.91, 0.274, 0.282, 0.922, 14:06:22.475
132, -50032.81, -40957.58, -77173.06, -112965.35, -101907.08, -37296.99, -97829.91, -112593.29, 0.000, 0.000, 0.000, 14:06:22.475
133, -49936.59, -40858.41, -77249.03, -112864.70, -101813.82, -37410.23, -97761.45, -112510.66, 0.000, 0.000, 0.000, 14:06:22.475
134, -49833.14, -40749.73, -77442.66, -112757.26, -101703.20, -37451.38, -97661.81, -112403.97, 0.000, 0.000, 0.000, 14:06:22.476
135, -49919.76, -40837.04, -77375.75, -112844.39, -101790.71, -37352.22, -97719.61, -112476.74, 0.000, 0.000, 0.000, 14:06:22.476
136, -50030.71, -40947.63, -77172.59, -112956.44, -101899.99, -37292.32, -97817.13, -112587.34, 0.000, 0.000, 0.000, 14:06:22.476
137, -49951.36, -40863.97, -77201.42, -112882.16, -101825.67, -37390.96, -97770.08, -112528.69, 0.000, 0.000, 0.000, 14:06:22.477
138, -49824.88, -40739.38, -77426.57, -112759.67, -101703.98, -37462.02, -97660.96, -112409.53, 0.000, 0.000, 0.000, 14:06:22.477
139, -49883.91, -40802.71, -77402.73, -112820.18, -101763.73, -37375.89, -97700.73, -112457.03, 0.000, 0.000, 0.000, 14:06:22.477
140, -50016.99, -40935.70, -77186.36, -112946.58, -101887.34, -37289.77, -97816.02, -112574.65, 0.284, 0.288, 0.910, 14:06:22.478
141, -49971.01, -40889.32, -77187.09, -112894.79, -101836.00, -37363.02, -97780.83, -112533.34, 0.000, 0.000, 0.000, 14:06:22.478
142, -49835.94, -40755.16, -77417.37, -112761.10, -101699.18, -37452.94, -97657.95, -112400.15, 0.000, 0.000, 0.000, 14:06:22.478
143, -49849.35, -40775.44, -77466.41, -112783.50, -101721.02, -37387.47, -97660.98, -112413.67, 0.000, 0.000, 0.000, 14:06:22.479
144, -49989.81, -40918.82, -77237.03, -112932.81, -101869.37, -37285.37, -97789.35, -112553.21, 0.000, 0.000, 0.000, 14:06:22.479
145, -49989.79, -40914.33, -77163.49, -112925.30, -101861.70, -37339.06, -97798.42, -112553.52, 0.000, 0.000, 0.000, 14:06:22.479
146, -49857.06, -40777.20, -77351.30, -112790.20, -101720.28, -37443.80, -97677.55, -112425.05, 0.000, 0.000, 0.000, 14:06:22.479
147, -49833.17, -40749.96, -77458.96, -112768.03, -101700.92, -37407.27, -97644.58, -112401.66, 0.000, 0.000, 0.000, 14:06:22.480
148, -49964.39, -40877.56, -77270.89, -112902.45, -101841.34, -37286.75, -97760.09, -112522.84, 0.000, 0.000, 0.000, 14:06:22.480
149, -50007.67, -40922.00, -77138.59, -112943.02, -101875.25, -37318.63, -97807.70, -112573.08, 0.000, 0.000, 0.000, 14:06:22.480
150, -49870.99, -40779.04, -77315.73, -112801.02, -101737.13, -37434.52, -97696.07, -112446.86, 0.294, 0.284, 0.912, 14:06:22.480
151, -49828.05, -40740.14, -77470.23, -112762.49, -101703.36, -37431.14, -97655.02, -112403.32, 0.000, 0.000, 0.000, 14:06:22.481
152, -49943.94, -40852.26, -77308.40, -112881.27, -101822.48, -37308.35, -97747.21, -112510.54, 0.000, 0.000, 0.000, 14:06:22.481
153, -50016.09, -40924.37, -77145.12, -112951.38, -101893.46, -37309.38, -97829.96, -112591.61, 0.000, 0.000, 0.000, 14:06:22.481
154, -49892.71, -40799.04, -77284.40, -112824.41, -101768.18, -37424.73, -97728.46, -112480.41, 0.000, 0.000, 0.000, 14:06:22.482
155, -49796.67, -40703.26, -77463.55, -112733.74, -101680.63, -37439.21, -97634.49, -112390.06, 0.000, 0.000, 0.000, 14:06:22.482
156, -49892.78, -40798.66, -77365.94, -112834.42, -101781.57, -37327.57, -97715.43, -112480.27, 0.000, 0.000, 0.000, 14:06:22.482
157, -49999.87, -40905.01, -77173.80, -112939.25, -101885.02, -37291.58, -97817.76, -112584.37, 0.000, 0.000, 0.000, 14:06:22.483
158, -49907.67, -40809.86, -77243.40, -112848.61, -101798.80, -37400.30, -97758.52, -112505.73, 0.000, 0.000, 0.000, 14:06:22.483
159, -49806.46, -40705.92, -77427.83, -112745.16, -101695.63, -37447.53, -97660.11, -112396.52, 0.288, 0.288, 0.904, 14:06:22.483
160, -49871.21, -40774.68, -77374.78, -112814.66, -101756.98, -37344.22, -97693.15, -112451.42, 0.000, 0.000, 0.000, 14:06:22.483
161, -49989.23, -40899.29, -77169.33, -112936.34, -101883.47, -37276.59, -97807.59, -112567.16, 0.000, 0.000, 0.000, 14:06:22.484
162, -49927.49, -40839.47, -77204.51, -112872.75, -101819.05, -37370.75, -97763.64, -112510.07, 0.000, 0.000, 0.000, 14:06:22.484
163, -49802.97, -40710.44, -77426.41, -112748.72, -101694.76, -37446.01, -97651.57, -112392.95, 0.000, 0.000, 0.000, 14:06:22.484
164, -49849.86, -40760.39, -77410.10, -112803.20, -101749.23, -37365.63, -97685.70, -112437.23, 0.000, 0.000, 0.000, 14:06:22.485
165, -49979.71, -40890.08, -77207.91, -112930.55, -101876.79, -37272.14, -97796.63, -112557.84, 0.000, 0.000, 0.000, 14:06:22.485
166, -49954.16, -40858.52, -77186.77, -112901.77, -101844.00, -37350.84, -97784.07, -112539.87, 0.000, 0.000, 0.000, 14:06:22.485
167, -49825.88, -40726.44, -77387.75, -112775.19, -101713.69, -37447.89, -97674.93, -112418.88, 0.000, 0.000, 0.000, 14:06:22.485
168, -49823.71, -40731.00, -77434.66, -112779.03, -101720.98, -37381.41, -97662.93, -112413.67, 0.000, 0.000, 0.000, 14:06:22.486
169, -49968.15, -40874.39, -77245.15, -112919.13, -101869.08, -37285.10, -97791.00, -112551.40, 0.280, 0.284, 0.906, 14:06:22.486
170, -49973.80, -40879.20, -77172.41, -112920.49, -101872.23, -37336.06, -97803.74, -112561.68, 0.000, 0.000, 0.000, 14:06:22.486
171, -49838.69, -40740.79, -77363.50, -112783.97, -101735.62, -37444.47, -97686.77, -112433.83, 0.000, 0.000, 0.000, 14:06:22.487
172, -49813.18, -40711.29, -77471.77, -112762.67, -101716.44, -37411.86, -97657.95, -112405.33, 0.000, 0.000, 0.000, 14:06:22.487
173, -49954.18, -40853.13, -77286.88, -112908.54, -101856.47, -37301.95, -97770.48, -112537.23, 0.000, 0.000, 0.000, 14:06:22.487
174, -50008.50, -40904.25, -77150.69, -112962.45, -101911.21, -37333.80, -97829.36, -112597.89, 0.000, 0.000, 0.000, 14:06:22.487
175, -49878.07, -40772.11, -77303.82, -112830.75, -101776.36, -37448.76, -97723.14, -112475.90, 0.000, 0.000, 0.000, 14:06:22.488
176, -49822.53, -40719.16, -77450.09, -112779.55, -101716.05, -37446.32, -97660.05, -112414.20, 0.000, 0.000, 0.000, 14:06:22.488
177, -49940.03, -40838.31, -77311.06, -112899.57, -101835.84, -37327.48, -97753.43, -112518.41, 0.000, 0.000, 0.000, 14:06:22.488
178, -50007.13, -40902.24, -77154.84, -112959.27, -101900.73, -37309.51, -97825.02, -112586.60, 0.272, 0.282, 0.906, 14:06:22.488
179, -49910.01, -40803.55, -77273.89, -112860.57, -101803.90, -37431.71, -97753.63, -112499.19, 0.000, 0.000, 0.000, 14:06:22.489
180, -49816.83, -40708.34, -77456.55, -112768.93, -101711.41, -37457.10, -97663.13, -112406.31, 0.000, 0.000, 0.000, 14:06:22.489
181, -49904.80, -40798.57, -77362.60, -112862.89, -101805.98, -37345.50, -97726.95, -112488.97, 0.000, 0.000, 0.000, 14:06:22.489
182, -50004.41, -40899.46, -77167.07, -112961.89, -101911.81, -37300.05, -97820.53, -112586.70, 0.000, 0.000, 0.000, 14:06:22.490
183, -49918.29, -40810.24, -77231.76, -112873.34, -101814.23, -37407.01, -97757.34, -112510.34, 0.000, 0.000, 0.000, 14:06:22.490
184, -49810.68, -40705.57, -77421.32, -112769.45, -101700.19, -37465.61, -97652.33, -112407.73, 0.000, 0.000, 0.000, 14:06:22.490
185, -49869.64, -40776.24, -77379.26, -112838.84, -101769.63, -37370.08, -97702.58, -112468.37, 0.000, 0.000, 0.000, 14:06:22.490
186, -49985.83, -40892.20, -77169.09, -112957.33, -101887.61, -37294.20, -97811.84, -112580.52, 0.000, 0.000, 0.000, 14:06:22.491
187, -49928.30, -40830.06, -77182.13, -112897.00, -101826.63, -37384.92, -97772.49, -112532.06, 0.000, 0.000, 0.000, 14:06:22.491
188, -49800.78, -40698.86, -77397.25, -112772.98, -101703.83, -37464.00, -97661.32, -112410.36, 0.274, 0.284, 0.906, 14:06:22.491
189, -49818.30, -40718.06, -77414.62, -112796.84, -101727.14, -37376.86, -97669.09, -112424.84, 0.000, 0.000, 0.000, 14:06:22.492
190, -49963.61, -40863.26, -77202.66, -112941.62, -101872.72, -37289.44, -97795.23, -112565.28, 0.000, 0.000, 0.000, 14:06:22.492
191, -49940.05, -40834.82, -77171.14, -112909.85, -101846.97, -37361.45, -97785.70, -112548.14, 0.000, 0.000, 0.000, 14:06:22.492
192, -49801.72, -40697.36, -77379.59, -112772.02, -101710.80, -37455.40, -97668.36, -112416.98, 0.000, 0.000, 0.000, 14:06:22.493
193, -49809.23, -40705.18, -77437.21, -112784.09, -101721.31, -37403.23, -97665.85, -112418.52, 0.000, 0.000, 0.000, 14:06:22.493
194, -49947.61, -40850.88, -77229.90, -112923.11, -101854.82, -37294.27, -97776.61, -112545.32, 0.000, 0.000, 0.000, 14:06:22.493
195, -49965.80, -40861.20, -77152.88, -112932.95, -101868.34, -37341.29, -97804.79, -112567.27, 0.000, 0.000, 0.000, 14:06:22.494
196, -49841.73, -40733.01, -77322.37, -112808.18, -101747.98, -37457.72, -97700.32, -112452.05, 0.000, 0.000, 0.000, 14:06:22.494
197, -49809.61, -40703.33, -77435.98, -112781.13, -101723.23, -37435.68, -97666.39, -112421.72, 0.000, 0.000, 0.000, 14:06:22.494
198, -49929.88, -40823.94, -77269.66, -112907.45, -101850.50, -37319.41, -97775.13, -112540.85, 0.290, 0.282, 0.922, 14:06:22.495
199, -49977.87, -40868.64, -77137.90, -112953.80, -101891.61, -37330.34, -97824.73, -112590.70, 0.000, 0.000, 0.000, 14:06:22.495
200, -49855.59, -40741.24, -77282.18, -112828.70, -101771.09, -37448.11, -97729.96, -112479.27, 0.000, 0.000, 0.000, 14:06:22.495
201, -49785.07, -40672.91, -77442.11, -112760.61, -101708.08, -37447.64, -97661.90, -112404.59, 0.000, 0.000, 0.000, 14:06:22.496
202, -49905.72, -40800.40, -77301.80, -112887.13, -101831.84, -37334.50, -97759.33, -112514.19, 0.000, 0.000, 0.000, 14:06:22.496
203, -49984.69, -40881.14, -77129.34, -112968.26, -101906.27, -37316.28, -97832.27, -112598.25, 0.000, 0.000, 0.000, 14:06:22.496
204, -49867.34, -40762.47, -77252.97, -112849.51, -101785.28, -37426.48, -97737.52, -112490.98, 0.000, 0.000, 0.000, 14:06:22.496
205, -49761.62, -40659.03, -77466.43, -112744.32, -101679.78, -37453.34, -97630.23, -112385.55, 0.000, 0.000, 0.000, 14:06:22.497
206, -49858.43, -40759.95, -77372.04, -112851.12, -101786.09, -37346.12, -97710.96, -112476.86, 0.000, 0.000, 0.000, 14:06:22.497
207, -49966.21, -40871.88, -77157.21, -112961.82, -101896.28, -37295.32, -97819.37, -112588.39, 0.294, 0.282, 0.916, 14:06:22.498
208, -49881.29, -40785.92, -77204.98, -112875.19, -101806.63, -37397.71, -97753.49, -112514.45, 0.000, 0.000, 0.000, 14:06:22.498
209, -49756.52, -40660.97, -77431.23, -112754.73, -101686.46, -37457.66, -97643.41, -112396.57, 0.000, 0.000, 0.000, 14:06:22.498
210, -49816.05, -40730.53, -77397.00, -112822.41, -101758.86, -37366.46, -97691.13, -112456.72, 0.000, 0.000, 0.000, 14:06:22.499
211, -49930.64, -40850.36, -77198.48, -112942.13, -101878.95, -37287.56, -97799.07, -112572.48, 0.000, 0.000, 0.000, 14:06:22.499
212, -49890.30, -40804.70, -77199.57, -112899.30, -101836.38, -37371.04, -97774.38, -112533.99, 0.000, 0.000, 0.000, 14:06:22.499
213, -49773.89, -40688.98, -77371.16, -112787.05, -101727.23, -37466.35, -97675.82, -112428.78, 0.000, 0.000, 0.000, 14:06:22.499
214, -49782.65, -40703.11, -77391.59, -112805.38, -101739.86, -37391.05, -97678.70, -112437.92, 0.000, 0.000, 0.000, 14:06:22.500
215, -49922.33, -40846.34, -77197.58, -112949.15, -101885.39, -37302.18, -97810.18, -112575.20, 0.000, 0.000, 0.000, 14:06:22.500
216, -49896.58, -40820.34, -77155.70, -112926.69, -101863.02, -37366.73, -97804.21, -112565.21, 0.000, 0.000, 0.000, 14:06:22.500
217, -49748.84, -40677.07, -77355.41, -112784.55, -101717.63, -37462.10, -97675.22, -112430.73, 0.294, 0.280, 0.914, 14:06:22.500
218, -49735.74, -40675.19, -77432.79, -112784.53, -101716.95, -37412.93, -97663.30, -112419.91, 0.000, 0.000, 0.000, 14:06:22.501
219, -49870.63, -40818.69, -77243.40, -112930.98, -101862.66, -37305.89, -97789.48, -112553.79, 0.000, 0.000, 0.000, 14:06:22.501
220, -49874.36, -40830.60, -77156.03, -112945.13, -101878.64, -37344.15, -97811.56, -112577.02, 0.000, 0.000, 0.000, 14:06:22.502
221, -49730.17, -40700.04, -77315.69, -112816.47, -101752.22, -37455.69, -97703.02, -112458.46, 0.000, 0.000, 0.000, 14:06:22.502
222, -49672.86, -40663.90, -77444.21, -112778.61, -101713.64, -37434.45, -97657.36, -112410.02, 0.000, 0.000, 0.000, 14:06:22.502
223, -49777.71, -40790.66, -77285.20, -112909.66, -101839.77, -37315.14, -97761.59, -112526.88, 0.000, 0.000, 0.000, 14:06:22.503
224, -49818.37, -40847.88, -77140.83, -112970.95, -101904.91, -37326.20, -97830.77, -112590.59, 0.000, 0.000, 0.000, 14:06:22.503
225, -49675.86, -40728.36, -77287.77, -112849.59, -101791.96, -37444.73, -97739.13, -112484.28, 0.000, 0.000, 0.000, 14:06:22.503
226, -49586.14, -40657.20, -77446.76, -112781.02, -101715.23, -37454.41, -97671.45, -112413.09, 0.288, 0.284, 0.914, 14:06:22.503
227, -49677.58, -40758.05, -77323.76, -112888.51, -101819.48, -37338.14, -97748.66, -112509.13, 0.000, 0.000, 0.000, 14:06:22.504
228, -49746.13, -40837.24, -77143.02, -112967.21, -101903.77, -37308.84, -97828.87, -112597.36, 0.000, 0.000, 0.000, 14:06:22.504
229, -49628.25, -40738.58, -77244.27, -112865.63, -101808.33, -37420.62, -97759.76, -112507.32, 0.000, 0.000, 0.000, 14:06:22.505
230, -49515.01, -40640.95, -77445.38, -112767.32, -101705.24, -37458.21, -97658.32, -112405.84, 0.000, 0.000, 0.000, 14:06:22.505
231, -49578.67, -40714.57, -77371.16, -112843.49, -101785.23, -37347.28, -97712.16, -112476.48, 0.000, 0.000, 0.000, 14:06:22.505
232, -49673.38, -40816.50, -77180.84, -112948.57, -101893.98, -37287.16, -97810.00, -112579.59, 0.000, 0.000, 0.000, 14:06:22.506
233, -49600.40, -40748.70, -77235.47, -112882.27, -101828.66, -37395.81, -97768.92, -112526.30, 0.000, 0.000, 0.000, 14:06:22.506
234, -49474.96, -40633.39, -77427.06, -112771.34, -101715.90, -37463.76, -97667.02, -112415.79, 0.000, 0.000, 0.000, 14:06:22.506
235, -49518.32, -40689.14, -77409.37, -112824.70, -101770.20, -37375.94, -97703.25, -112457.86, 0.000, 0.000, 0.000, 14:06:22.506
236, -49640.18, -40819.52, -77185.89, -112959.95, -101903.73, -37296.07, -97821.42, -112586.65, 0.284, 0.278, 0.910, 14:06:22.507
237, -49586.09, -40770.86, -77181.06, -112913.41, -101851.22, -37380.63, -97792.66, -112550.20, 0.000, 0.000, 0.000, 14:06:22.507
238, -49446.73, -40641.32, -77392.40, -112780.91, -101713.11, -37465.39, -97666.16, -112419.81, 0.000, 0.000, 0.000, 14:06:22.507
239, -49463.36, -40670.85, -77419.11, -112812.96, -101742.55, -37398.73, -97675.13, -112439.38, 0.000, 0.000, 0.000, 14:06:22.508
240, -49580.39, -40799.13, -77209.67, -112946.06, -101876.70, -37294.51, -97799.32, -112566.55, 0.000, 0.000, 0.000, 14:06:22.950
241, -49553.08, -40779.28, -77163.25, -112934.30, -101864.48, -37352.71, -97804.88, -112561.98, 0.000, 0.000, 0.000, 14:06:22.951
242, -49403.99, -40645.89, -77363.32, -112800.29, -101729.80, -37455.29, -97683.53, -112434.97, 0.000, 0.000, 0.000, 14:06:22.951
243, -49363.69, -40631.47, -77460.59, -112789.40, -101715.79, -37415.95, -97656.80, -112418.88, 0.000, 0.000, 0.000, 14:06:22.951
244, -49466.91, -40770.27, -77284.95, -112927.13, -101858.82, -37305.15, -97776.61, -112548.72, 0.000, 0.000, 0.000, 14:06:22.952
245, -49452.88, -40803.53, -77166.49, -112962.78, -101894.88, -37343.26, -97819.99, -112594.85, 0.282, 0.284, 0.914, 14:06:22.952
246, -49279.94, -40666.05, -77329.57, -112832.66, -101763.11, -37458.08, -97711.90, -112474.06, 0.000, 0.000, 0.000, 14:06:22.952
247, -49203.12, -40620.05, -77451.41, -112786.56, -101719.70, -37445.79, -97662.52, -112422.61, 0.000, 0.000, 0.000, 14:06:22.953
248, -49300.75, -40742.51, -77298.27, -112908.00, -101839.26, -37326.88, -97759.22, -112530.48, 0.000, 0.000, 0.000, 14:06:22.953
249, -49354.80, -40809.34, -77149.63, -112974.56, -101911.14, -37328.91, -97837.59, -112602.81, 0.000, 0.000, 0.000, 14:06:22.953
250, -49224.06, -40687.37, -77277.00, -112849.02, -101791.23, -37439.68, -97740.94, -112491.32, 0.000, 0.000, 0.000, 14:06:22.954
251, -49140.58, -40607.33, -77455.30, -112769.40, -101711.30, -37450.88, -97657.88, -112407.61, 0.000, 0.000, 0.000, 14:06:22.955
252, -49245.05, -40720.12, -77334.55, -112886.52, -101825.18, -37342.50, -97748.91, -112512.15, 0.000, 0.000, 0.000, 14:06:22.955
253, -49327.71, -40802.93, -77159.88, -112967.81, -101905.66, -37303.18, -97824.87, -112591.34, 0.000, 0.000, 0.000, 14:06:22.956
254, -49242.50, -40705.68, -77249.68, -112875.41, -101807.19, -37414.96, -97753.27, -112508.30, 0.000, 0.000, 0.000, 14:06:22.956
255, -49136.96, -40599.80, -77436.03, -112774.80, -101702.89, -37458.97, -97657.59, -112407.26, 0.280, 0.286, 0.910, 14:06:22.956
0, -49227.43, -40691.13, -77371.90, -112871.34, -101796.37, -37366.64, -97730.59, -112489.46, 0.000, 0.000, 0.000, 14:06:22.956
1, -49339.64, -40800.56, -77184.57, -112982.72, -101910.23, -37301.77, -97831.95, -112597.52, 0.000, 0.000, 0.000, 14:06:22.956
2, -49286.62, -40738.29, -77216.49, -112917.19, -101854.30, -37404.01, -97797.13, -112549.81, 0.000, 0.000, 0.000, 14:06:22.956
3, -49166.55, -40614.71, -77424.02, -112795.48, -101738.41, -37478.93, -97697.51, -112433.92, 0.000, 0.000, 0.000, 14:06:22.957
4, -49212.08, -40660.06, -77404.47, -112841.52, -101773.95, -37386.15, -97698.87, -112461.66, 0.000, 0.000, 0.000, 14:06:22.957
5, -49336.82, -40780.64, -77202.68, -112965.29, -101902.41, -37296.28, -97809.48, -112582.65, 0.000, 0.000, 0.000, 14:06:22.957
6, -49308.84, -40744.23, -77185.45, -112932.85, -101872.30, -37386.02, -97804.62, -112570.63, 0.000, 0.000, 0.000, 14:06:22.957
7, -49178.75, -40606.75, -77385.85, -112802.88, -101747.04, -37485.33, -97700.52, -112454.87, 0.000, 0.000, 0.000, 14:06:22.957
8, -49191.02, -40617.34, -77432.85, -112817.09, -101758.75, -37417.85, -97698.09, -112456.59, 0.000, 0.000, 0.000, 14:06:22.957
9, -49324.71, -40749.20, -77233.05, -112953.35, -101890.40, -37312.14, -97805.44, -112580.46, 0.280, 0.290, 0.908, 14:06:22.957
10, -49323.04, -40741.30, -77162.89, -112949.59, -101888.81, -37368.11, -97816.05, -112585.27, 0.000, 0.000, 0.000, 14:06:22.958
11, -49199.70, -40615.73, -77350.00, -112820.45, -101757.23, -37478.71, -97706.49, -112465.73, 0.000, 0.000, 0.000, 14:06:22.958
12, -49183.63, -40596.04, -77455.43, -112802.68, -101735.95, -37437.96, -97674.66, -112437.92, 0.000, 0.000, 0.000, 14:06:22.958
13, -49322.07, -40734.87, -77265.87, -112941.33, -101873.15, -37325.42, -97789.37, -112564.09, 0.000, 0.000, 0.000, 14:06:22.959
14, -49354.46, -40759.07, -77154.66, -112967.30, -101902.43, -37345.45, -97827.08, -112595.30, 0.000, 0.000, 0.000, 14:06:22.959
15, -49242.19, -40629.82, -77309.30, -112838.17, -101783.38, -37459.96, -97731.48, -112481.84, 0.000, 0.000, 0.000, 14:06:22.959
16, -49193.37, -40571.19, -77451.41, -112785.29, -101729.20, -37451.66, -97675.04, -112421.80, 0.000, 0.000, 0.000, 14:06:22.960
17, -49321.67, -40699.98, -77306.92, -112916.23, -101853.52, -37339.01, -97771.38, -112533.63, 0.000, 0.000, 0.000, 14:06:22.960
18, -49387.32, -40757.02, -77153.62, -112979.28, -101918.23, -37329.02, -97841.49, -112601.87, 0.284, 0.286, 0.908, 14:06:22.960
19, -49269.30, -40627.98, -77287.48, -112854.63, -101791.59, -37441.76, -97743.23, -112491.37, 0.000, 0.000, 0.000, 14:06:22.960
20, -49201.53, -40559.56, -77462.25, -112781.22, -101716.55, -37464.85, -97660.60, -112414.16, 0.000, 0.000, 0.000, 14:06:22.960
21, -49327.86, -40677.18, -77351.27, -112898.26, -101837.65, -37361.25, -97752.36, -112517.60, 0.000, 0.000, 0.000, 14:06:22.961
22, -49426.70, -40766.92, -77167.65, -112990.63, -101933.70, -37322.58, -97853.52, -112613.98, 0.000, 0.000, 0.000, 14:06:22.961
23, -49346.88, -40674.18, -77227.38, -112902.08, -101843.09, -37429.71, -97791.23, -112537.81, 0.000, 0.000, 0.000, 14:06:22.961
24, -49246.55, -40563.59, -77439.05, -112792.98, -101723.05, -37479.88, -97670.39, -112424.45, 0.000, 0.000, 0.000, 14:06:22.962
25, -49323.61, -40632.50, -77402.95, -112869.00, -101791.83, -37380.25, -97716.05, -112485.51, 0.000, 0.000, 0.000, 14:06:22.962
26, -49455.18, -40747.21, -77201.45, -112981.67, -101919.03, -37313.66, -97836.29, -112606.99, 0.000, 0.000, 0.000, 14:06:22.962
27, -49402.65, -40676.06, -77227.60, -112910.99, -101856.80, -37406.47, -97794.45, -112551.11, 0.000, 0.000, 0.000, 14:06:22.962
28, -49280.50, -40542.13, -77432.38, -112780.13, -101721.80, -37472.52, -97667.04, -112418.48, 0.276, 0.286, 0.904, 14:06:22.963
29, -49336.13, -40588.29, -77443.92, -112829.59, -101762.68, -37391.67, -97690.87, -112451.20, 0.000, 0.000, 0.000, 14:06:22.963
30, -49479.63, -40724.27, -77241.62, -112963.55, -101895.52, -37302.58, -97808.08, -112580.63, 0.000, 0.000, 0.000, 14:06:22.963
31, -49465.26, -40696.07, -77209.43, -112932.05, -101871.72, -37379.87, -97803.30, -112566.73, 0.000, 0.000, 0.000, 14:06:22.963
32, -49343.98, -40558.60, -77415.35, -112794.92, -101741.80, -37475.20, -97693.17, -112439.62, 0.000, 0.000, 0.000, 14:06:22.964
33, -49360.16, -40565.20, -77468.22, -112804.83, -101746.86, -37414.18, -97684.30, -112437.95, 0.000, 0.000, 0.000, 14:06:22.964
34, -49512.40, -40701.32, -77259.27, -112945.84, -101891.52, -37307.16, -97801.87, -112570.60, 0.000, 0.000, 0.000, 14:06:22.964
35, -49534.93, -40710.84, -77176.81, -112954.80, -101900.21, -37364.25, -97826.30, -112592.26, 0.000, 0.000, 0.000, 14:06:22.964
36, -49405.55, -40566.34, -77367.52, -112810.23, -101752.73, -37466.80, -97703.98, -112453.45, 0.000, 0.000, 0.000, 14:06:22.964
37, -49396.50, -40543.87, -77476.87, -112790.14, -101732.20, -37432.22, -97666.10, -112418.72, 0.270, 0.284, 0.908, 14:06:22.965
38, -49541.14, -40680.15, -77291.39, -112928.81, -101866.02, -37317.33, -97780.43, -112544.49, 0.000, 0.000, 0.000, 14:06:22.965
39, -49596.08, -40723.51, -77159.56, -112970.27, -101901.13, -37336.84, -97826.63, -112592.33, 0.000, 0.000, 0.000, 14:06:22.965
40, -49487.36, -40596.15, -77319.09, -112840.52, -101778.60, -37453.41, -97725.65, -112475.83, 0.000, 0.000, 0.000, 14:06:22.966
41, -49438.97, -40533.30, -77479.95, -112782.80, -101720.93, -37450.55, -97663.69, -112412.71, 0.000, 0.000, 0.000, 14:06:22.966
42, -49561.53, -40648.10, -77345.17, -112898.41, -101836.06, -37332.44, -97754.10, -112517.25, 0.000, 0.000, 0.000, 14:06:22.966
43, -49650.24, -40725.84, -77188.04, -112964.98, -101907.95, -37319.41, -97828.48, -112593.13, 0.000, 0.000, 0.000, 14:06:22.966
44, -49564.79, -40627.76, -77283.21, -112863.59, -101801.71, -37433.27, -97743.93, -112497.87, 0.000, 0.000, 0.000, 14:06:22.967
45, -49492.91, -40536.83, -77460.98, -112778.54, -101719.43, -37457.95, -97661.32, -112409.09, 0.000, 0.000, 0.000, 14:06:22.967
46, -49601.87, -40639.79, -77361.30, -112884.38, -101824.42, -37354.95, -97747.70, -112502.90, 0.000, 0.000, 0.000, 14:06:22.967
47, -49708.73, -40738.09, -77163.16, -112984.53, -101922.59, -37309.87, -97842.92, -112605.02, 0.280, 0.278, 0.914, 14:06:22.968
48, -49621.23, -40641.19, -77245.10, -112885.09, -101822.34, -37416.95, -97764.94, -112521.25, 0.000, 0.000, 0.000, 14:06:22.968
49, -49513.67, -40518.91, -77465.02, -112770.47, -101711.30, -37470.17, -97661.18, -112406.30, 0.000, 0.000, 0.000, 14:06:22.968
50, -49595.37, -40592.73, -77417.73, -112847.13, -101786.96, -37374.11, -97713.60, -112468.97, 0.000, 0.000, 0.000, 14:06:22.968
51, -49733.57, -40723.16, -77206.59, -112975.44, -101916.22, -37305.11, -97827.57, -112594.83, 0.000, 0.000, 0.000, 14:06:22.969
52, -49682.88, -40662.07, -77216.42, -112910.88, -101854.95, -37392.97, -97788.52, -112545.59, 0.000, 0.000, 0.000, 14:06:22.969
53, -49562.76, -40528.79, -77430.84, -112776.93, -101718.63, -37471.40, -97669.99, -112418.25, 0.000, 0.000, 0.000, 14:06:22.969
54, -49604.73, -40563.77, -77458.00, -112815.93, -101760.34, -37399.72, -97694.55, -112452.77, 0.000, 0.000, 0.000, 14:06:22.969
55, -49752.68, -40706.57, -77245.99, -112958.91, -101899.99, -37300.72, -97815.09, -112576.57, 0.000, 0.000, 0.000, 14:06:22.969
56, -49747.11, -40686.52, -77193.78, -112936.88, -101880.01, -37369.41, -97810.94, -112564.70, 0.284, 0.282, 0.910, 14:06:22.970
57, -49610.52, -40546.55, -77399.46, -112793.76, -101738.72, -37468.72, -97688.90, -112433.90, 0.000, 0.000, 0.000, 14:06:22.970
58, -49621.99, -40553.13, -77484.27, -112802.59, -101747.40, -37419.16, -97680.77, -112430.26, 0.000, 0.000, 0.000, 14:06:22.970
59, -49763.81, -40692.40, -77301.72, -112942.84, -101880.34, -37310.11, -97796.81, -112559.96, 0.000, 0.000, 0.000, 14:06:22.970
60, -49794.30, -40717.86, -77207.10, -112961.80, -101895.61, -37355.15, -97822.34, -112586.02, 0.000, 0.000, 0.000, 14:06:22.971
61, -49674.63, -40585.04, -77389.45, -112826.44, -101760.94, -37466.98, -97704.86, -112460.45, 0.000, 0.000, 0.000, 14:06:22.971
62, -49653.21, -40561.51, -77506.55, -112797.72, -101729.06, -37441.68, -97665.09, -112421.89, 0.000, 0.000, 0.000, 14:06:22.971
63, -49783.14, -40691.04, -77341.66, -112932.48, -101868.14, -37327.17, -97784.68, -112545.14, 0.000, 0.000, 0.000, 14:06:22.972
64, -49840.75, -40742.89, -77212.89, -112979.03, -101909.69, -37342.19, -97834.52, -112598.56, 0.000, 0.000, 0.000, 14:06:22.972
65, -49733.43, -40631.58, -77358.96, -112853.17, -101785.02, -37458.26, -97733.13, -112486.63, 0.000, 0.000, 0.000, 14:06:22.972
66, -49683.90, -40581.29, -77503.42, -112798.95, -101729.55, -37463.40, -97672.85, -112423.93, 0.282, 0.282, 0.914, 14:06:22.973
67, -49799.37, -40695.57, -77381.49, -112904.80, -101831.21, -37341.63, -97749.96, -112512.89, 0.000, 0.000, 0.000, 14:06:22.973
68, -49897.86, -40790.50, -77214.01, -112990.86, -101919.80, -37323.52, -97840.53, -112603.10, 0.000, 0.000, 0.000, 14:06:22.973
69, -49811.78, -40697.68, -77309.41, -112891.39, -101823.30, -37439.59, -97765.97, -112516.66, 0.000, 0.000, 0.000, 14:06:22.973
70, -49729.46, -40611.04, -77502.88, -112792.73, -101719.19, -37471.00, -97660.52, -112413.45, 0.000, 0.000, 0.000, 14:06:22.974
71, -49825.84, -40707.60, -77423.18, -112880.28, -101808.02, -37358.39, -97724.55, -112487.01, 0.000, 0.000, 0.000, 14:06:22.974
72, -49954.38, -40832.25, -77232.78, -112998.19, -101924.78, -37313.18, -97839.57, -112604.89, 0.000, 0.000, 0.000, 14:06:22.974
73, -49884.55, -40754.25, -77291.52, -112915.69, -101843.44, -37417.69, -97781.30, -112535.02, 0.000, 0.000, 0.000, 14:06:22.975
74, -49770.14, -40635.47, -77503.46, -112794.86, -101724.93, -37477.75, -97668.27, -112419.34, 0.000, 0.000, 0.000, 14:06:22.975
75, -49838.71, -40702.73, -77482.90, -112860.37, -101789.95, -37389.71, -97715.32, -112474.91, 0.000, 0.000, 0.000, 14:06:22.975
76, -49974.30, -40832.86, -77279.34, -112991.10, -101913.83, -37309.29, -97823.95, -112595.39, 0.290, 0.286, 0.908, 14:06:22.975
77, -49934.89, -40788.78, -77269.62, -112945.84, -101869.52, -37395.29, -97804.32, -112561.95, 0.000, 0.000, 0.000, 14:06:22.976
78, -49802.10, -40655.00, -77473.65, -112807.33, -101734.99, -37479.63, -97687.80, -112432.63, 0.000, 0.000, 0.000, 14:06:22.976
79, -49830.62, -40687.30, -77500.13, -112840.37, -101763.87, -37406.58, -97692.90, -112449.74, 0.000, 0.000, 0.000, 14:06:22.976
80, -49971.52, -40830.73, -77277.82, -112987.66, -101906.25, -37312.46, -97814.54, -112588.39, 0.000, 0.000, 0.000, 14:06:22.976
81, -49956.39, -40806.71, -77238.40, -112968.48, -101886.40, -37380.39, -97816.51, -112584.13, 0.000, 0.000, 0.000, 14:06:22.977
82, -49822.53, -40664.41, -77429.88, -112829.86, -101751.38, -37478.98, -97700.09, -112454.06, 0.000, 0.000, 0.000, 14:06:22.977
83, -49812.63, -40650.63, -77510.62, -112819.40, -101745.27, -37427.82, -97678.26, -112435.46, 0.000, 0.000, 0.000, 14:06:22.977
84, -49944.21, -40785.00, -77325.48, -112955.85, -101882.09, -37314.16, -97791.54, -112561.21, 0.000, 0.000, 0.000, 14:06:22.978
85, -49961.76, -40800.54, -77225.43, -112970.12, -101896.15, -37344.85, -97819.08, -112584.05, 0.294, 0.284, 0.908, 14:06:22.978
86, -49838.64, -40668.64, -77392.94, -112844.16, -101773.68, -37459.38, -97722.54, -112470.38, 0.000, 0.000, 0.000, 14:06:22.978
87, -49793.80, -40618.30, -77511.60, -112807.89, -101733.94, -37439.15, -97672.49, -112425.90, 0.000, 0.000, 0.000, 14:06:22.978
88, -49912.38, -40732.81, -77359.09, -112932.66, -101859.89, -37323.93, -97777.39, -112541.09, 0.000, 0.000, 0.000, 14:06:22.979
89, -49958.81, -40779.10, -77225.99, -112983.91, -101910.56, -37328.48, -97832.38, -112597.94, 0.000, 0.000, 0.000, 14:06:22.979
90, -49832.05, -40651.09, -77359.74, -112861.13, -101781.30, -37437.07, -97724.46, -112482.16, 0.000, 0.000, 0.000, 14:06:22.979
91, -49755.70, -40572.71, -77523.80, -112787.73, -101717.51, -37451.13, -97656.76, -112411.01, 0.000, 0.000, 0.000, 14:06:22.979
92, -49866.79, -40682.05, -77391.91, -112904.38, -101839.77, -37339.57, -97749.90, -112515.13, 0.000, 0.000, 0.000, 14:06:22.979
93, -49951.32, -40764.26, -77219.89, -112992.18, -101924.02, -37316.71, -97840.71, -112604.59, 0.000, 0.000, 0.000, 14:06:22.980
94, -49842.45, -40650.65, -77325.61, -112886.45, -101815.97, -37427.35, -97759.42, -112511.16, 0.000, 0.000, 0.000, 14:06:22.980
95, -49742.17, -40545.17, -77514.64, -112789.34, -101721.11, -37467.40, -97664.76, -112414.79, 0.292, 0.280, 0.910, 14:06:22.980
96, -49808.36, -40615.33, -77441.35, -112866.63, -101798.22, -37355.82, -97721.24, -112479.02, 0.000, 0.000, 0.000, 14:06:22.981
97, -49927.58, -40733.66, -77242.58, -112988.65, -101918.85, -37302.73, -97834.52, -112598.80, 0.000, 0.000, 0.000, 14:06:22.981
98, -49861.67, -40661.09, -77288.66, -112912.83, -101849.77, -37404.91, -97786.55, -112537.21, 0.000, 0.000, 0.000, 14:06:22.982
99, -49737.26, -40533.75, -77488.71, -112791.95, -101727.70, -37470.06, -97671.40, -112421.25, 0.000, 0.000, 0.000, 14:06:22.982
100, -49779.37, -40578.07, -77463.37, -112840.79, -101773.16, -37376.50, -97695.88, -112459.69, 0.000, 0.000, 0.000, 14:06:22.982
101, -49907.06, -40709.28, -77248.03, -112968.66, -101901.33, -37294.51, -97812.55, -112583.85, 0.000, 0.000, 0.000, 14:06:22.982
102, -49862.54, -40652.14, -77237.84, -112920.31, -101859.34, -37376.92, -97786.58, -112548.72, 0.000, 0.000, 0.000, 14:06:22.983
103, -49739.49, -40522.32, -77442.29, -112795.91, -101737.38, -37470.20, -97678.20, -112432.45, 0.000, 0.000, 0.000, 14:06:22.983
104, -49759.09, -40545.10, -77480.80, -112822.02, -101759.87, -37406.34, -97684.95, -112444.83, 0.290, 0.282, 0.912, 14:06:23.432
105, -49884.13, -40670.70, -77288.80, -112953.35, -101891.23, -37301.64, -97799.77, -112565.73, 0.000, 0.000, 0.000, 14:06:23.432
106, -49872.04, -40654.38, -77229.50, -112941.13, -101882.65, -37358.23, -97812.88, -112569.46, 0.000, 0.000, 0.000, 14:06:23.432
107, -49733.93, -40512.00, -77428.27, -112802.41, -101741.16, -37460.56, -97695.83, -112440.45, 0.000, 0.000, 0.000, 14:06:23.433
108, -49724.85, -40501.34, -77510.75, -112792.95, -101734.61, -37418.32, -97675.94, -112427.30, 0.000, 0.000, 0.000, 14:06:23.433
109, -49861.89, -40644.41, -77315.51, -112932.84, -101872.34, -37311.03, -97792.21, -112562.51, 0.000, 0.000, 0.000, 14:06:23.433
110, -49886.95, -40667.52, -77205.09, -112954.18, -101893.48, -37342.10, -97830.37, -112595.61, 0.000, 0.000, 0.000, 14:06:23.433
111, -49754.91, -40535.49, -77376.30, -112821.30, -101759.04, -37448.98, -97714.16, -112468.74, 0.000, 0.000, 0.000, 14:06:23.434
112, -49702.05, -40481.85, -77515.45, -112770.96, -101717.00, -37433.14, -97661.05, -112413.02, 0.000, 0.000, 0.000, 14:06:23.434
113, -49824.70, -40606.39, -77369.24, -112895.05, -101842.86, -37316.53, -97768.83, -112526.08, 0.000, 0.000, 0.000, 14:06:23.434
114, -49906.10, -40682.57, -77201.25, -112976.91, -101920.30, -37321.15, -97845.63, -112604.89, 0.292, 0.290, 0.908, 14:06:23.434
115, -49791.01, -40559.68, -77330.91, -112858.91, -101804.17, -37439.26, -97748.40, -112497.29, 0.000, 0.000, 0.000, 14:06:23.435
116, -49711.21, -40481.96, -77508.83, -112781.76, -101730.14, -37454.46, -97674.02, -112414.98, 0.000, 0.000, 0.000, 14:06:23.435
117, -49814.08, -40589.54, -77395.44, -112889.83, -101841.18, -37339.57, -97762.88, -112510.12, 0.000, 0.000, 0.000, 14:06:23.436
118, -49893.68, -40668.91, -77216.36, -112973.40, -101924.38, -37306.16, -97843.57, -112599.88, 0.000, 0.000, 0.000, 14:06:23.436
119, -49801.27, -40578.79, -77292.73, -112878.85, -101824.80, -37416.73, -97763.58, -112514.77, 0.000, 0.000, 0.000, 14:06:23.436
120, -49706.41, -40481.85, -77478.09, -112781.65, -101726.45, -37465.28, -97672.52, -112417.09, 0.000, 0.000, 0.000, 14:06:23.436
121, -49775.37, -40557.15, -77410.73, -112855.61, -101801.22, -37363.49, -97724.98, -112482.83, 0.000, 0.000, 0.000, 14:06:23.437
122, -49884.87, -40668.82, -77217.59, -112965.65, -101906.78, -37298.82, -97825.76, -112594.88, 0.000, 0.000, 0.000, 14:06:23.437
123, -49819.18, -40602.68, -77253.95, -112896.78, -101842.30, -37399.41, -97785.50, -112541.74, 0.286, 0.290, 0.906, 14:06:23.437
124, -49692.73, -40476.82, -77453.58, -112770.91, -101719.01, -37471.38, -97675.04, -112421.91, 0.000, 0.000, 0.000, 14:06:23.438
125, -49733.43, -40518.82, -77449.82, -112813.32, -101764.56, -37384.34, -97696.52, -112457.19, 0.000, 0.000, 0.000, 14:06:23.438
126, -49870.25, -40659.32, -77245.70, -112955.01, -101908.30, -37297.73, -97824.57, -112590.83, 0.000, 0.000, 0.000, 14:06:23.438
127, -49836.79, -40623.18, -77211.17, -112923.22, -101880.01, -37375.85, -97814.41, -112572.32, 0.000, 0.000, 0.000, 14:06:23.438
128, -49706.90, -40490.74, -77403.17, -112790.41, -101755.20, -37474.62, -97702.42, -112452.27, 0.000, 0.000, 0.000, 14:06:23.438
129, -49714.66, -40503.98, -77439.83, -112806.45, -101766.53, -37411.28, -97696.14, -112455.78, 0.000, 0.000, 0.000, 14:06:23.439
130, -49848.50, -40642.45, -77242.33, -112945.06, -101901.20, -37306.54, -97816.91, -112585.04, 0.000, 0.000, 0.000, 14:06:23.439
131, -49848.32, -40641.04, -77178.94, -112942.35, -101894.65, -37360.36, -97821.87, -112588.77, 0.000, 0.000, 0.000, 14:06:23.439
132, -49718.82, -40507.08, -77352.37, -112810.62, -101762.21, -37461.63, -97700.86, -112459.55, 0.000, 0.000, 0.000, 14:06:23.439
133, -49701.02, -40485.20, -77461.15, -112790.97, -101746.16, -37429.00, -97673.21, -112432.58, 0.288, 0.288, 0.906, 14:06:23.440
134, -49825.97, -40613.21, -77296.82, -112914.39, -101870.28, -37316.50, -97777.05, -112552.59, 0.000, 0.000, 0.000, 14:06:23.440
135, -49859.07, -40647.50, -77186.88, -112949.64, -101902.88, -37337.09, -97821.76, -112590.23, 0.000, 0.000, 0.000, 14:06:23.440
136, -49732.70, -40518.59, -77335.29, -112820.52, -101764.85, -37445.34, -97709.53, -112469.33, 0.000, 0.000, 0.000, 14:06:23.440
137, -49679.32, -40470.49, -77482.95, -112770.88, -101716.73, -37443.57, -97655.86, -112414.20, 0.000, 0.000, 0.000, 14:06:23.441
138, -49799.59, -40593.89, -77334.09, -112897.14, -101841.38, -37328.75, -97755.62, -112525.79, 0.000, 0.000, 0.000, 14:06:23.441
139, -49868.13, -40663.43, -77176.68, -112967.63, -101909.00, -37316.95, -97828.20, -112596.98, 0.000, 0.000, 0.000, 14:06:23.441
140, -49759.14, -40555.29, -77295.82, -112858.67, -101804.98, -37430.39, -97751.71, -112498.54, 0.000, 0.000, 0.000, 14:06:23.441
141, -49680.35, -40471.83, -77465.60, -112780.51, -101727.68, -37456.58, -97671.45, -112416.80, 0.000, 0.000, 0.000, 14:06:23.441
142, -49773.98, -40570.02, -77364.93, -112878.48, -101815.81, -37342.86, -97731.16, -112496.88, 0.286, 0.288, 0.910, 14:06:23.442
143, -49869.80, -40667.93, -77170.65, -112973.45, -101914.59, -37300.90, -97828.15, -112596.15, 0.000, 0.000, 0.000, 14:06:23.442
144, -49770.61, -40565.51, -77263.09, -112870.41, -101815.03, -37406.54, -97752.20, -112510.56, 0.000, 0.000, 0.000, 14:06:23.442
145, -49671.09, -40465.64, -77460.55, -112770.05, -101715.16, -37460.45, -97657.02, -112410.31, 0.000, 0.000, 0.000, 14:06:23.442
146, -49745.71, -40541.13, -77404.89, -112850.78, -101795.25, -37361.81, -97719.68, -112474.06, 0.000, 0.000, 0.000, 14:06:23.443
147, -49869.11, -40656.86, -77209.98, -112967.30, -101911.86, -37296.03, -97827.21, -112590.25, 0.000, 0.000, 0.000, 14:06:23.443
148, -49816.20, -40599.68, -77232.07, -112906.64, -101853.79, -37395.25, -97785.46, -112545.50, 0.000, 0.000, 0.000, 14:06:23.443
149, -49684.77, -40471.57, -77444.14, -112777.84, -101725.18, -37469.14, -97669.99, -112421.65, 0.000, 0.000, 0.000, 14:06:23.443
150, -49716.18, -40509.36, -77446.60, -112818.66, -101765.57, -37385.35, -97691.02, -112452.02, 0.000, 0.000, 0.000, 14:06:23.443
151, -49857.38, -40649.60, -77223.95, -112956.15, -101909.13, -37297.04, -97816.91, -112586.05, 0.000, 0.000, 0.000, 14:06:23.444
152, -49838.44, -40623.67, -77191.44, -112927.83, -101883.16, -37374.06, -97807.81, -112569.59, 0.288, 0.286, 0.910, 14:06:23.444
153, -49701.09, -40484.24, -77398.73, -112787.62, -101744.80, -37464.92, -97686.38, -112438.37, 0.000, 0.000, 0.000, 14:06:23.444
154, -49693.87, -40483.75, -77471.26, -112786.14, -101744.18, -37404.46, -97672.72, -112429.88, 0.000, 0.000, 0.000, 14:06:23.444
155, -49829.57, -40620.65, -77279.09, -112926.46, -101883.02, -37293.48, -97791.98, -112558.24, 0.000, 0.000, 0.000, 14:06:23.444
156, -49845.04, -40629.68, -77190.54, -112939.02, -101896.10, -37343.48, -97825.24, -112581.91, 0.000, 0.000, 0.000, 14:06:23.445
157, -49718.04, -40498.81, -77370.49, -112808.38, -101760.74, -37455.62, -97709.69, -112460.36, 0.000, 0.000, 0.000, 14:06:23.445
158, -49691.26, -40476.48, -77478.54, -112789.49, -101739.75, -37430.25, -97675.53, -112433.34, 0.000, 0.000, 0.000, 14:06:23.445
159, -49810.08, -40603.33, -77308.84, -112916.70, -101867.09, -37312.66, -97779.73, -112545.59, 0.000, 0.000, 0.000, 14:06:23.445
160, -49853.64, -40646.69, -77178.36, -112958.59, -101909.78, -37325.02, -97827.26, -112591.08, 0.000, 0.000, 0.000, 14:06:23.445
161, -49741.08, -40529.43, -77337.26, -112841.37, -101789.59, -37445.07, -97728.84, -112484.23, 0.000, 0.000, 0.000, 14:06:23.446
162, -49684.95, -40471.88, -77486.01, -112781.58, -101726.43, -37453.79, -97665.84, -112428.69, 0.284, 0.284, 0.906, 14:06:23.446
163, -49794.43, -40581.98, -77354.49, -112893.27, -101840.38, -37344.29, -97758.13, -112534.10, 0.000, 0.000, 0.000, 14:06:23.446
164, -49876.15, -40659.54, -77184.73, -112971.63, -101922.41, -37325.11, -97838.77, -112610.37, 0.000, 0.000, 0.000, 14:06:23.446
165, -49770.32, -40549.33, -77288.02, -112860.44, -101810.05, -37432.04, -97748.78, -112509.16, 0.000, 0.000, 0.000, 14:06:23.447
166, -49684.51, -40466.20, -77461.24, -112777.00, -101723.92, -37462.57, -97657.88, -112422.27, 0.000, 0.000, 0.000, 14:06:23.447
167, -49764.32, -40553.98, -77378.32, -112864.82, -101808.86, -37350.01, -97728.08, -112498.09, 0.000, 0.000, 0.000, 14:06:23.447
168, -49863.10, -40655.21, -77196.80, -112965.40, -101907.12, -37301.04, -97821.69, -112595.52, 0.000, 0.000, 0.000, 14:06:23.447
169, -49789.36, -40581.25, -77258.34, -112889.23, -101835.70, -37413.11, -97772.83, -112535.87, 0.000, 0.000, 0.000, 14:06:23.447
170, -49683.81, -40472.35, -77451.85, -112779.95, -101728.55, -37472.95, -97673.34, -112430.90, 0.000, 0.000, 0.000, 14:06:23.447
171, -49750.00, -40544.52, -77412.76, -112852.21, -101796.19, -37378.84, -97720.66, -112485.98, 0.284, 0.284, 0.910, 14:06:23.448
172, -49879.41, -40677.02, -77194.27, -112983.03, -101921.02, -37304.88, -97836.17, -112607.66, 0.000, 0.000, 0.000, 14:06:23.448
173, -49829.34, -40619.73, -77204.24, -112923.60, -101864.32, -37391.83, -97800.75, -112555.38, 0.000, 0.000, 0.000, 14:06:23.448
174, -49709.52, -40496.80, -77424.25, -112798.97, -101738.79, -37477.14, -97680.67, -112437.67, 0.000, 0.000, 0.000, 14:06:23.448
175, -49734.17, -40523.55, -77446.94, -112829.08, -101762.39, -37394.33, -97681.86, -112452.36, 0.000, 0.000, 0.000, 14:06:23.449
176, -49860.95, -40656.88, -77242.15, -112961.84, -101895.84, -37296.54, -97807.50, -112579.66, 0.000, 0.000, 0.000, 14:06:23.449
177, -49834.26, -40628.61, -77203.93, -112933.75, -101873.57, -37363.22, -97803.85, -112568.84, 0.000, 0.000, 0.000, 14:06:23.449
178, -49707.13, -40495.14, -77402.84, -112799.21, -101745.31, -37462.93, -97690.73, -112445.56, 0.000, 0.000, 0.000, 14:06:23.449
179, -49712.65, -40508.36, -77464.88, -112809.63, -101750.55, -37412.89, -97678.77, -112441.45, 0.000, 0.000, 0.000, 14:06:23.449
180, -49851.86, -40648.10, -77254.58, -112954.63, -101894.47, -37309.84, -97807.90, -112580.62, 0.000, 0.000, 0.000, 14:06:23.450
181, -49863.66, -40652.37, -77171.88, -112959.95, -101906.65, -37353.83, -97830.90, -112598.52, 0.282, 0.284, 0.910, 14:06:23.450
182, -49723.49, -40514.01, -77364.05, -112818.10, -101759.80, -37456.88, -97702.76, -112463.76, 0.000, 0.000, 0.000, 14:06:23.450
183, -49688.46, -40484.68, -77480.48, -112789.65, -101731.34, -37433.07, -97664.91, -112425.11, 0.000, 0.000, 0.000, 14:06:23.450
184, -49813.74, -40614.84, -77320.09, -112920.38, -101866.82, -37316.44, -97779.80, -112542.73, 0.000, 0.000, 0.000, 14:06:23.451
185, -49880.75, -40677.29, -77177.22, -112981.38, -101924.94, -37334.32, -97841.77, -112613.43, 0.000, 0.000, 0.000, 14:06:23.451
186, -49757.08, -40554.07, -77308.89, -112857.91, -101795.85, -37446.64, -97732.24, -112498.80, 0.000, 0.000, 0.000, 14:06:23.451
187, -49668.50, -40467.92, -77480.58, -112773.89, -101715.68, -37444.29, -97654.50, -112409.84, 0.000, 0.000, 0.000, 14:06:23.451
188, -49775.68, -40581.31, -77354.53, -112886.12, -101828.20, -37325.69, -97744.60, -112507.97, 0.000, 0.000, 0.000, 14:06:23.451
189, -49857.04, -40658.65, -77200.71, -112965.69, -101916.48, -37306.67, -97832.29, -112595.43, 0.000, 0.000, 0.000, 14:06:23.452
190, -49759.38, -40557.51, -77326.73, -112865.48, -101819.30, -37423.88, -97754.77, -112512.06, 0.288, 0.288, 0.912, 14:06:23.452
191, -49664.66, -40471.57, -77495.93, -112782.14, -101731.19, -37461.66, -97669.70, -112425.83, 0.000, 0.000, 0.000, 14:06:23.453
192, -49752.28, -40565.44, -77421.57, -112874.05, -101819.26, -37358.97, -97739.17, -112504.06, 0.000, 0.000, 0.000, 14:06:23.453
193, -49863.70, -40684.82, -77217.48, -112990.01, -101931.80, -37307.43, -97845.65, -112616.16, 0.000, 0.000, 0.000, 14:06:23.453
194, -49773.38, -40604.82, -77273.87, -112907.11, -101846.59, -37409.64, -97783.34, -112543.24, 0.000, 0.000, 0.000, 14:06:23.453
195, -49651.36, -40490.45, -77481.63, -112789.60, -101723.68, -37467.87, -97667.46, -112422.14, 0.000, 0.000, 0.000, 14:06:23.454
196, -49713.05, -40559.86, -77444.74, -112860.57, -101795.72, -37378.64, -97714.49, -112479.02, 0.000, 0.000, 0.000, 14:06:23.454
197, -49835.36, -40681.00, -77235.63, -112981.70, -101926.45, -37300.05, -97837.47, -112603.01, 0.000, 0.000, 0.000, 14:06:23.455
198, -49776.82, -40624.83, -77236.92, -112923.40, -101861.97, -37381.37, -97793.66, -112560.79, 0.000, 0.000, 0.000, 14:06:23.455
199, -49650.80, -40505.52, -77443.30, -112798.63, -101739.02, -37472.79, -97683.42, -112440.85, 0.000, 0.000, 0.000, 14:06:23.455
200, -49669.00, -40530.80, -77476.06, -112824.27, -101768.95, -37399.61, -97695.85, -112450.35, 0.286, 0.286, 0.910, 14:06:23.455
201, -49786.14, -40657.46, -77270.29, -112953.20, -101890.34, -37294.42, -97792.88, -112570.29, 0.000, 0.000, 0.000, 14:06:23.456
202, -49766.36, -40649.62, -77197.80, -112941.53, -101885.35, -37360.29, -97808.23, -112573.71, 0.000, 0.000, 0.000, 14:06:23.456
203, -49620.18, -40509.29, -77399.08, -112800.94, -101748.29, -37461.72, -97691.47, -112442.73, 0.000, 0.000, 0.000, 14:06:23.456
204, -49606.45, -40504.78, -77485.76, -112796.53, -101743.13, -37412.91, -97670.02, -112428.29, 0.000, 0.000, 0.000, 14:06:23.456
205, -49735.04, -40644.50, -77286.02, -112931.54, -101880.77, -37303.18, -97789.02, -112558.22, 0.000, 0.000, 0.000, 14:06:23.457
206, -49760.73, -40673.71, -77177.87, -112958.36, -101908.10, -37342.16, -97830.16, -112594.43, 0.000, 0.000, 0.000, 14:06:23.457
207, -49637.05, -40544.10, -77339.98, -112828.90, -101778.06, -37454.68, -97723.32, -112471.76, 0.000, 0.000, 0.000, 14:06:23.457
208, -49586.61, -40500.96, -77473.36, -112785.65, -101732.60, -37433.71, -97667.93, -112420.35, 0.000, 0.000, 0.000, 14:06:23.457
209, -49699.01, -40621.03, -77318.01, -112908.24, -101857.97, -37314.94, -97767.02, -112532.76, 0.288, 0.286, 0.910, 14:06:23.458
210, -49767.01, -40684.00, -77177.27, -112967.57, -101921.02, -37324.19, -97844.06, -112601.73, 0.000, 0.000, 0.000, 14:06:23.458
211, -49656.41, -40571.75, -77304.71, -112853.17, -101799.38, -37441.90, -97747.20, -112500.66, 0.000, 0.000, 0.000, 14:06:23.458
212, -49577.17, -40494.59, -77472.40, -112771.81, -101720.44, -37444.36, -97661.18, -112411.03, 0.000, 0.000, 0.000, 14:06:23.458
213, -49681.87, -40606.66, -77356.77, -112883.81, -101834.61, -37332.20, -97754.28, -112508.30, 0.000, 0.000, 0.000, 14:06:23.458
214, -49773.73, -40701.65, -77163.29, -112977.27, -101936.13, -37305.98, -97854.16, -112608.22, 0.000, 0.000, 0.000, 14:06:23.459
215, -49677.96, -40602.01, -77258.51, -112872.95, -101832.98, -37416.44, -97768.54, -112516.82, 0.000, 0.000, 0.000, 14:06:23.459
216, -49578.27, -40507.26, -77446.94, -112770.52, -101728.15, -37454.75, -97668.54, -112414.79, 0.000, 0.000, 0.000, 14:06:23.459
217, -49655.89, -40590.86, -77381.80, -112857.24, -101810.70, -37356.09, -97731.23, -112490.38, 0.000, 0.000, 0.000, 14:06:23.459
218, -49765.24, -40701.83, -77192.77, -112967.52, -101923.08, -37306.49, -97835.68, -112605.40, 0.000, 0.000, 0.000, 14:06:23.459
219, -49692.69, -40625.48, -77234.59, -112889.13, -101839.55, -37402.98, -97775.83, -112537.90, 0.290, 0.280, 0.906, 14:06:23.460
220, -49576.75, -40508.45, -77435.96, -112773.53, -101726.20, -37472.50, -97672.49, -112427.86, 0.000, 0.000, 0.000, 14:06:23.460
221, -49623.13, -40562.98, -77418.05, -112826.15, -101780.72, -37386.67, -97710.13, -112471.38, 0.000, 0.000, 0.000, 14:06:23.460
222, -49750.76, -40695.35, -77202.95, -112956.34, -101905.51, -37304.97, -97820.08, -112598.30, 0.000, 0.000, 0.000, 14:06:23.460
223, -49716.11, -40654.98, -77196.35, -112918.13, -101867.98, -37386.13, -97795.67, -112566.48, 0.000, 0.000, 0.000, 14:06:23.460
224, -49584.19, -40517.90, -77395.95, -112784.24, -101735.52, -37470.73, -97676.09, -112435.22, 0.000, 0.000, 0.000, 14:06:23.912
225, -49593.96, -40533.52, -77435.65, -112799.88, -101748.02, -37396.52, -97675.09, -112436.05, 0.000, 0.000, 0.000, 14:06:23.912
226, -49727.29, -40671.59, -77232.34, -112940.37, -101889.87, -37291.96, -97798.53, -112566.24, 0.000, 0.000, 0.000, 14:06:23.912
227, -49736.00, -40681.00, -77161.21, -112946.96, -101897.06, -37356.63, -97820.91, -112580.10, 0.000, 0.000, 0.000, 14:06:23.912
228, -49603.55, -40542.11, -77357.28, -112808.83, -101761.79, -37460.38, -97704.48, -112450.30, 0.000, 0.000, 0.000, 14:06:23.913
229, -49583.10, -40527.29, -77445.46, -112792.02, -101746.99, -37416.98, -97673.52, -112423.44, 0.296, 0.284, 0.914, 14:06:23.913
230, -49714.66, -40666.74, -77266.71, -112927.94, -101876.92, -37303.96, -97787.59, -112546.57, 0.000, 0.000, 0.000, 14:06:23.913
231, -49742.11, -40690.93, -77163.94, -112951.01, -101896.84, -37326.90, -97822.12, -112576.37, 0.000, 0.000, 0.000, 14:06:23.913
232, -49611.68, -40558.78, -77313.48, -112821.66, -101770.46, -37435.44, -97714.76, -112459.16, 0.000, 0.000, 0.000, 14:06:23.913
233, -49560.43, -40515.13, -77437.62, -112779.27, -101724.95, -37428.87, -97661.14, -112411.63, 0.000, 0.000, 0.000, 14:06:23.914
234, -49676.77, -40636.16, -77308.04, -112898.55, -101842.10, -37315.66, -97755.93, -112518.39, 0.000, 0.000, 0.000, 14:06:23.914
235, -49742.82, -40702.10, -77165.41, -112963.79, -101915.93, -37312.91, -97834.50, -112594.79, 0.000, 0.000, 0.000, 14:06:23.914
236, -49629.88, -40587.68, -77291.95, -112843.85, -101799.09, -37427.55, -97741.90, -112489.93, 0.000, 0.000, 0.000, 14:06:23.914
237, -49555.80, -40519.38, -77448.91, -112772.37, -101716.20, -37446.46, -97656.69, -112410.43, 0.000, 0.000, 0.000, 14:06:23.915
238, -49669.42, -40634.84, -77325.90, -112890.63, -101837.41, -37345.00, -97756.89, -112515.34, 0.292, 0.286, 0.916, 14:06:23.915
239, -49756.73, -40720.68, -77151.76, -112977.49, -101922.21, -37303.74, -97838.77, -112602.72, 0.000, 0.000, 0.000, 14:06:23.915
240, -49652.03, -40613.95, -77257.44, -112868.41, -101808.55, -37405.31, -97744.38, -112504.41, 0.000, 0.000, 0.000, 14:06:23.915
241, -49545.01, -40511.69, -77452.41, -112767.16, -101709.30, -37455.02, -97646.07, -112405.94, 0.000, 0.000, 0.000, 14:06:23.916
242, -49625.54, -40595.66, -77385.98, -112855.38, -101798.02, -37359.00, -97717.63, -112481.98, 0.000, 0.000, 0.000, 14:06:23.916
243, -49743.14, -40719.11, -77172.23, -112973.83, -101920.64, -37298.27, -97832.22, -112602.07, 0.000, 0.000, 0.000, 14:06:23.916
244, -49664.19, -40645.24, -77215.02, -112895.75, -101844.31, -37388.79, -97778.58, -112535.46, 0.000, 0.000, 0.000, 14:06:23.916
245, -49554.31, -40535.63, -77415.09, -112784.75, -101734.50, -37466.11, -97675.38, -112427.86, 0.000, 0.000, 0.000, 14:06:23.917
246, -49599.79, -40587.53, -77407.46, -112839.47, -101783.45, -37386.44, -97705.51, -112467.88, 0.000, 0.000, 0.000, 14:06:23.917
247, -49719.64, -40715.18, -77195.32, -112970.25, -101911.19, -37295.09, -97818.83, -112588.64, 0.000, 0.000, 0.000, 14:06:23.917
248, -49686.85, -40682.74, -77183.32, -112935.36, -101879.23, -37374.20, -97801.22, -112565.75, 0.286, 0.288, 0.910, 14:06:23.917
249, -49539.64, -40539.00, -77394.01, -112788.62, -101737.27, -37456.40, -97669.01, -112428.98, 0.000, 0.000, 0.000, 14:06:23.917
250, -49554.96, -40559.54, -77430.11, -112810.19, -101755.24, -37399.74, -97677.77, -112442.10, 0.000, 0.000, 0.000, 14:06:23.918
251, -49686.00, -40693.45, -77233.86, -112945.84, -101890.06, -37297.04, -97794.63, -112568.73, 0.000, 0.000, 0.000, 14:06:23.918
252, -49694.30, -40704.00, -77158.17, -112951.14, -101893.13, -37353.90, -97815.79, -112584.48, 0.000, 0.000, 0.000, 14:06:23.918
253, -49559.18, -40570.74, -77331.91, -112819.80, -101756.07, -37462.30, -97700.61, -112460.16, 0.000, 0.000, 0.000, 14:06:23.918
254, -49534.28, -40541.91, -77426.24, -112798.41, -101740.09, -37432.96, -97673.34, -112432.31, 0.000, 0.000, 0.000, 14:06:23.918
255, -49652.03, -40661.75, -77274.07, -112916.56, -101860.41, -37313.42, -97774.06, -112541.50, 0.000, 0.000, 0.000, 14:06:23.919
0, -49699.06, -40711.60, -77152.19, -112964.73, -101906.88, -37336.62, -97827.57, -112595.81, 0.000, 0.000, 0.000, 14:06:23.919
1, -49579.09, -40596.38, -77294.05, -112842.94, -101784.56, -37449.81, -97725.22, -112481.71, 0.278, 0.284, 0.910, 14:06:23.919
2, -49518.48, -40540.81, -77437.19, -112785.73, -101730.66, -37442.34, -97666.08, -112418.38, 0.000, 0.000, 0.000, 14:06:23.920
3, -49630.10, -40656.05, -77307.46, -112903.77, -101848.24, -37328.11, -97761.37, -112523.51, 0.000, 0.000, 0.000, 14:06:23.920
4, -49709.03, -40731.71, -77144.38, -112982.07, -101925.27, -37321.91, -97838.86, -112605.88, 0.000, 0.000, 0.000, 14:06:23.920
5, -49592.44, -40616.72, -77252.56, -112871.01, -101812.35, -37441.56, -97750.21, -112510.54, 0.000, 0.000, 0.000, 14:06:23.920
6, -49502.61, -40535.58, -77425.10, -112781.00, -101718.70, -37461.21, -97658.14, -112415.63, 0.000, 0.000, 0.000, 14:06:23.920
7, -49605.52, -40648.93, -77332.25, -112882.88, -101817.49, -37352.38, -97731.48, -112498.70, 0.000, 0.000, 0.000, 14:06:23.921
8, -49704.89, -40754.58, -77153.57, -112985.23, -101915.93, -37307.52, -97827.79, -112596.80, 0.000, 0.000, 0.000, 14:06:23.921
9, -49617.14, -40666.61, -77223.30, -112891.20, -101831.30, -37413.89, -97766.84, -112520.71, 0.000, 0.000, 0.000, 14:06:23.921
10, -49511.06, -40561.08, -77425.59, -112782.59, -101726.72, -37467.22, -97667.33, -112415.13, 0.000, 0.000, 0.000, 14:06:23.921
11, -49584.41, -40636.07, -77377.73, -112860.23, -101806.25, -37371.78, -97719.12, -112478.87, 0.282, 0.284, 0.908, 14:06:23.921
12, -49699.23, -40757.78, -77165.69, -112978.09, -101924.76, -37298.82, -97822.95, -112597.13, 0.000, 0.000, 0.000, 14:06:23.922
13, -49644.96, -40701.77, -77187.59, -112918.30, -101864.43, -37391.94, -97788.14, -112549.43, 0.000, 0.000, 0.000, 14:06:23.922
14, -49532.56, -40587.44, -77392.27, -112801.70, -101748.34, -37472.52, -97685.55, -112431.13, 0.000, 0.000, 0.000, 14:06:23.922
15, -49560.68, -40622.21, -77401.00, -112833.93, -101778.15, -37392.05, -97694.69, -112453.99, 0.000, 0.000, 0.000, 14:06:23.922
16, -49686.96, -40758.38, -77196.30, -112964.55, -101911.70, -37298.11, -97816.55, -112582.63, 0.000, 0.000, 0.000, 14:06:23.923
17, -49658.04, -40736.25, -77164.12, -112935.83, -101874.77, -37369.25, -97797.57, -112560.90, 0.000, 0.000, 0.000, 14:06:23.923
18, -49531.13, -40605.41, -77360.93, -112805.27, -101745.45, -37467.80, -97681.79, -112437.23, 0.000, 0.000, 0.000, 14:06:23.923
19, -49534.91, -40614.39, -77429.62, -112811.77, -101752.60, -37415.19, -97676.63, -112436.20, 0.000, 0.000, 0.000, 14:06:23.923
20, -49665.44, -40750.05, -77240.97, -112947.18, -101890.73, -37307.16, -97794.89, -112564.66, 0.290, 0.286, 0.906, 14:06:23.923
21, -49677.69, -40757.33, -77154.38, -112958.27, -101901.89, -37353.83, -97819.37, -112585.27, 0.000, 0.000, 0.000, 14:06:23.924
22, -49536.74, -40617.95, -77340.56, -112817.48, -101765.95, -37463.36, -97707.92, -112461.32, 0.000, 0.000, 0.000, 14:06:23.924
23, -49518.81, -40608.22, -77429.28, -112802.19, -101746.61, -37438.61, -97673.12, -112435.46, 0.000, 0.000, 0.000, 14:06:23.924
24, -49641.46, -40735.58, -77265.58, -112926.73, -101871.13, -37322.98, -97777.88, -112547.83, 0.000, 0.000, 0.000, 14:06:23.924
25, -49684.89, -40774.68, -77154.35, -112966.54, -101914.36, -37337.27, -97831.88, -112597.06, 0.000, 0.000, 0.000, 14:06:23.924
26, -49564.50, -40647.68, -77292.98, -112843.85, -101789.93, -37447.42, -97731.75, -112480.08, 0.000, 0.000, 0.000, 14:06:23.925
27, -49501.45, -40589.83, -77441.39, -112785.73, -101733.27, -37449.18, -97672.76, -112415.52, 0.000, 0.000, 0.000, 14:06:23.925
28, -49619.11, -40716.85, -77308.69, -112910.80, -101853.37, -37341.38, -97761.52, -112524.35, 0.000, 0.000, 0.000, 14:06:23.925
29, -49697.00, -40792.04, -77148.81, -112984.42, -101932.34, -37326.16, -97844.45, -112606.01, 0.000, 0.000, 0.000, 14:06:23.925
30, -49595.70, -40687.75, -77246.48, -112879.95, -101824.98, -37436.36, -97758.81, -112512.58, 0.294, 0.286, 0.902, 14:06:23.925
31, -49504.20, -40600.11, -77431.40, -112788.53, -101727.13, -37469.10, -97667.60, -112420.30, 0.000, 0.000, 0.000, 14:06:23.926
32, -49585.20, -40686.30, -77364.08, -112873.55, -101809.11, -37356.98, -97725.24, -112489.89, 0.000, 0.000, 0.000, 14:06:23.926
33, -49694.00, -40796.00, -77181.76, -112980.02, -101917.94, -37307.05, -97827.15, -112598.72, 0.000, 0.000, 0.000, 14:06:23.926
34, -49622.91, -40716.99, -77228.72, -112903.53, -101849.52, -37416.64, -97776.41, -112537.66, 0.000, 0.000, 0.000, 14:06:23.926
35, -49515.62, -40606.55, -77425.03, -112795.98, -101747.88, -37480.88, -97680.09, -112432.29, 0.000, 0.000, 0.000, 14:06:23.926
36, -49581.02, -40679.19, -77388.48, -112868.93, -101816.17, -37393.95, -97729.53, -112492.19, 0.000, 0.000, 0.000, 14:06:23.927
37, -49694.74, -40794.30, -77185.02, -112983.91, -101924.31, -37311.68, -97830.14, -112602.54, 0.000, 0.000, 0.000, 14:06:23.927
38, -49639.58, -40740.01, -77199.70, -112927.80, -101868.05, -37400.48, -97794.51, -112558.40, 0.000, 0.000, 0.000, 14:06:23.927
39, -49520.20, -40622.08, -77397.83, -112809.97, -101750.30, -37487.38, -97686.40, -112443.84, 0.000, 0.000, 0.000, 14:06:23.927
40, -49556.54, -40657.57, -77400.40, -112850.04, -101791.36, -37415.50, -97710.60, -112471.49, 0.294, 0.290, 0.910, 14:06:23.927
41, -49680.89, -40782.68, -77204.71, -112975.05, -101914.14, -37313.69, -97819.81, -112587.32, 0.000, 0.000, 0.000, 14:06:23.928
42, -49673.49, -40774.48, -77155.52, -112960.93, -101906.88, -37385.50, -97828.89, -112586.83, 0.000, 0.000, 0.000, 14:06:23.928
43, -49539.09, -40639.07, -77359.27, -112825.68, -101771.24, -37485.04, -97712.95, -112457.77, 0.000, 0.000, 0.000, 14:06:23.928
44, -49534.73, -40640.59, -77430.84, -112828.00, -101765.57, -37432.38, -97690.35, -112447.20, 0.000, 0.000, 0.000, 14:06:23.928
45, -49664.61, -40771.19, -77248.27, -112961.02, -101895.72, -37317.93, -97802.47, -112566.38, 0.000, 0.000, 0.000, 14:06:23.929
46, -49688.44, -40790.79, -77155.34, -112978.99, -101908.30, -37354.26, -97827.88, -112593.51, 0.000, 0.000, 0.000, 14:06:23.929
47, -49566.20, -40666.25, -77314.21, -112854.40, -101788.12, -37471.00, -97725.45, -112481.10, 0.000, 0.000, 0.000, 14:06:23.929
48, -49521.61, -40628.07, -77435.27, -112813.48, -101753.01, -37448.43, -97682.10, -112430.92, 0.000, 0.000, 0.000, 14:06:23.929
49, -49646.91, -40760.37, -77274.80, -112942.31, -101874.80, -37334.09, -97779.67, -112548.14, 0.288, 0.294, 0.914, 14:06:23.929
50, -49702.21, -40814.93, -77148.88, -112992.47, -101933.27, -37347.28, -97845.67, -112611.46, 0.000, 0.000, 0.000, 14:06:23.930
51, -49578.71, -40692.60, -77284.62, -112872.35, -101809.82, -37459.91, -97747.66, -112503.73, 0.000, 0.000, 0.000, 14:06:23.930
52, -49508.11, -40623.49, -77438.15, -112808.49, -101739.08, -37464.68, -97674.91, -112431.23, 0.000, 0.000, 0.000, 14:06:23.930
53, -49618.95, -40736.99, -77307.06, -112923.04, -101854.62, -37351.08, -97763.82, -112531.06, 0.000, 0.000, 0.000, 14:06:23.930
54, -49695.01, -40814.57, -77147.76, -112997.36, -101927.41, -37329.11, -97840.60, -112611.91, 0.000, 0.000, 0.000, 14:06:23.930
55, -49599.88, -40712.76, -77249.19, -112896.71, -101826.77, -37441.70, -97763.80, -112524.91, 0.000, 0.000, 0.000, 14:06:23.931
56, -49513.92, -40621.41, -77437.57, -112804.24, -101736.63, -37479.70, -97675.22, -112432.78, 0.000, 0.000, 0.000, 14:06:23.931
57, -49604.20, -40718.11, -77353.71, -112900.02, -101832.04, -37382.73, -97749.63, -112519.17, 0.000, 0.000, 0.000, 14:06:23.931
58, -49694.32, -40813.82, -77173.66, -112991.26, -101927.59, -37315.63, -97838.09, -112604.77, 0.000, 0.000, 0.000, 14:06:23.931
59, -49622.93, -40740.64, -77234.41, -112915.80, -101852.56, -37412.93, -97782.09, -112537.30, 0.290, 0.294, 0.916, 14:06:23.931
60, -49514.72, -40632.65, -77420.65, -112808.73, -101746.26, -37476.34, -97679.73, -112431.53, 0.000, 0.000, 0.000, 14:06:23.932
61, -49562.67, -40687.64, -77400.89, -112865.80, -101798.34, -37389.01, -97713.84, -112476.05, 0.000, 0.000, 0.000, 14:06:23.932
62, -49682.70, -40811.63, -77209.90, -112988.22, -101918.95, -37305.60, -97822.98, -112594.09, 0.000, 0.000, 0.000, 14:06:23.932
63, -49642.35, -40769.94, -77208.20, -112943.02, -101879.63, -37395.83, -97805.66, -112565.39, 0.000, 0.000, 0.000, 14:06:23.932
64, -49523.75, -40649.15, -77401.25, -112827.91, -101763.04, -37491.07, -97708.32, -112459.71, 0.000, 0.000, 0.000, 14:06:23.932
65, -49546.46, -40674.74, -77418.55, -112848.61, -101777.01, -37416.75, -97702.65, -112467.18, 0.000, 0.000, 0.000, 14:06:23.932
66, -49691.37, -40820.09, -77217.36, -112983.57, -101909.13, -37314.87, -97815.68, -112588.41, 0.000, 0.000, 0.000, 14:06:23.933
67, -49694.14, -40819.96, -77164.43, -112977.94, -101910.80, -37384.05, -97834.68, -112597.27, 0.000, 0.000, 0.000, 14:06:23.933
68, -49562.33, -40684.29, -77366.25, -112838.62, -101775.70, -37484.28, -97713.15, -112464.70, 0.288, 0.294, 0.914, 14:06:23.933
69, -49553.28, -40680.06, -77439.49, -112834.15, -101763.47, -37437.74, -97688.92, -112448.25, 0.000, 0.000, 0.000, 14:06:23.933
70, -49669.89, -40802.35, -77257.88, -112959.95, -101889.75, -37322.92, -97799.02, -112566.45, 0.000, 0.000, 0.000, 14:06:23.934
71, -49692.02, -40821.19, -77168.55, -112981.98, -101915.66, -37355.02, -97835.51, -112598.09, 0.000, 0.000, 0.000, 14:06:23.934
72, -49560.01, -40686.79, -77352.16, -112848.19, -101779.23, -37464.92, -97719.07, -112472.95, 0.000, 0.000, 0.000, 14:06:23.934
73, -49523.48, -40654.71, -77473.09, -112812.63, -101748.89, -37450.61, -97675.24, -112432.16, 0.000, 0.000, 0.000, 14:06:23.934
74, -49639.47, -40770.61, -77322.10, -112935.90, -101865.44, -37333.80, -97773.08, -112542.02, 0.000, 0.000, 0.000, 14:06:23.934
75, -49698.90, -40829.91, -77183.59, -112996.47, -101922.97, -37336.64, -97838.48, -112606.48, 0.000, 0.000, 0.000, 14:06:23.935
76, -49588.19, -40717.10, -77302.66, -112880.33, -101810.45, -37450.08, -97752.58, -112506.70, 0.000, 0.000, 0.000, 14:06:23.935
77, -49522.77, -40649.46, -77456.48, -112812.88, -101746.41, -37466.04, -97683.24, -112437.59, 0.000, 0.000, 0.000, 14:06:23.935
78, -49625.45, -40754.63, -77350.47, -112920.83, -101851.33, -37354.77, -97762.34, -112531.13, 0.280, 0.296, 0.914, 14:06:23.935
79, -49713.96, -40846.79, -77166.18, -113008.12, -101939.40, -37320.97, -97853.34, -112618.86, 0.000, 0.000, 0.000, 14:06:23.935
80, -49618.73, -40748.46, -77254.20, -112906.19, -101841.41, -37436.06, -97782.06, -112531.98, 0.000, 0.000, 0.000, 14:06:23.935
81, -49518.66, -40646.45, -77445.30, -112807.33, -101740.53, -37479.96, -97681.27, -112432.24, 0.000, 0.000, 0.000, 14:06:23.935
82, -49601.04, -40730.71, -77377.29, -112894.57, -101823.37, -37378.73, -97742.27, -112508.51, 0.000, 0.000, 0.000, 14:06:23.936
83, -49714.95, -40845.91, -77177.27, -113009.73, -101941.43, -37322.65, -97853.95, -112623.75, 0.000, 0.000, 0.000, 14:06:23.936
84, -49648.03, -40777.14, -77232.59, -112932.59, -101865.97, -37418.36, -97798.53, -112557.88, 0.000, 0.000, 0.000, 14:06:23.936
85, -49534.19, -40665.42, -77430.33, -112816.18, -101750.93, -37485.89, -97692.19, -112444.73, 0.000, 0.000, 0.000, 14:06:23.936
86, -49587.88, -40729.10, -77404.91, -112879.03, -101806.63, -37402.16, -97727.86, -112488.21, 0.000, 0.000, 0.000, 14:06:23.936
87, -49715.87, -40852.93, -77203.64, -113004.38, -101933.25, -37315.54, -97844.20, -112605.94, 0.274, 0.292, 0.910, 14:06:23.937
88, -49668.73, -40802.17, -77203.99, -112951.90, -101887.00, -37388.07, -97816.30, -112567.90, 0.000, 0.000, 0.000, 14:06:23.937
89, -49547.00, -40683.50, -77395.69, -112831.40, -101768.09, -37483.16, -97707.81, -112451.94, 0.000, 0.000, 0.000, 14:06:24.391
90, -49561.73, -40704.78, -77425.08, -112855.79, -101792.34, -37420.98, -97711.43, -112464.84, 0.000, 0.000, 0.000, 14:06:24.391
91, -49699.62, -40844.97, -77233.37, -112994.41, -101929.09, -37322.20, -97829.58, -112594.47, 0.000, 0.000, 0.000, 14:06:24.391
92, -49701.58, -40841.08, -77169.04, -112990.81, -101933.09, -37385.46, -97852.23, -112606.27, 0.000, 0.000, 0.000, 14:06:24.391
93, -49560.39, -40696.54, -77360.13, -112848.50, -101791.98, -37489.15, -97726.27, -112477.75, 0.000, 0.000, 0.000, 14:06:24.392
94, -49542.10, -40684.27, -77463.97, -112837.57, -101781.10, -37452.83, -97700.90, -112459.42, 0.000, 0.000, 0.000, 14:06:24.392
95, -49666.29, -40812.85, -77299.82, -112967.41, -101900.62, -37339.04, -97803.90, -112580.62, 0.000, 0.000, 0.000, 14:06:24.392
96, -49703.50, -40847.21, -77188.82, -112998.39, -101929.34, -37368.36, -97841.61, -112623.75, 0.000, 0.000, 0.000, 14:06:24.392
97, -49591.28, -40730.55, -77338.89, -112876.04, -101813.84, -37487.05, -97745.02, -112512.69, 0.276, 0.290, 0.914, 14:06:24.392
98, -49549.37, -40689.85, -77458.47, -112833.86, -101769.73, -37479.96, -97696.12, -112463.27, 0.000, 0.000, 0.000, 14:06:24.392
99, -49660.46, -40803.11, -77313.83, -112947.02, -101882.51, -37358.53, -97789.46, -112563.36, 0.000, 0.000, 0.000, 14:06:24.392
100, -49719.80, -40862.77, -77175.85, -113008.56, -101945.88, -37351.89, -97856.36, -112628.29, 0.000, 0.000, 0.000, 14:06:24.392
101, -49609.94, -40753.09, -77296.04, -112895.53, -101828.91, -37460.72, -97760.54, -112522.86, 0.000, 0.000, 0.000, 14:06:24.393
102, -49527.78, -40677.18, -77464.46, -112818.55, -101746.59, -37475.61, -97678.84, -112436.38, 0.000, 0.000, 0.000, 14:06:24.393
103, -49633.32, -40784.73, -77359.12, -112926.46, -101850.99, -37367.54, -97756.89, -112526.68, 0.000, 0.000, 0.000, 14:06:24.393
104, -49728.02, -40878.70, -77188.20, -113020.20, -101942.68, -37329.22, -97847.41, -112619.57, 0.000, 0.000, 0.000, 14:06:24.393
105, -49646.73, -40797.63, -77247.56, -112933.62, -101861.12, -37445.30, -97787.34, -112553.08, 0.000, 0.000, 0.000, 14:06:24.393
106, -49533.70, -40685.74, -77442.11, -112820.74, -101754.16, -37490.82, -97679.98, -112438.34, 0.000, 0.000, 0.000, 14:06:24.393
107, -49600.17, -40756.97, -77393.00, -112889.91, -101822.79, -37385.57, -97731.81, -112497.58, 0.274, 0.288, 0.908, 14:06:24.393
108, -49724.11, -40878.75, -77178.80, -113014.82, -101945.95, -37323.16, -97851.93, -112623.15, 0.000, 0.000, 0.000, 14:06:24.393
109, -49659.79, -40810.62, -77205.98, -112945.35, -101880.14, -37418.41, -97809.66, -112567.80, 0.000, 0.000, 0.000, 14:06:24.394
110, -49532.31, -40681.58, -77425.14, -112815.45, -101751.53, -37491.45, -97690.55, -112444.11, 0.000, 0.000, 0.000, 14:06:24.394
111, -49567.70, -40721.19, -77433.01, -112857.93, -101795.27, -37411.01, -97716.28, -112479.83, 0.000, 0.000, 0.000, 14:06:24.395
112, -49697.89, -40856.68, -77224.54, -112987.15, -101924.66, -37318.29, -97830.77, -112600.28, 0.000, 0.000, 0.000, 14:06:24.395
113, -49669.69, -40822.22, -77210.21, -112951.79, -101892.57, -37392.23, -97817.73, -112575.23, 0.000, 0.000, 0.000, 14:06:24.396
114, -49540.43, -40691.42, -77407.80, -112822.30, -101764.98, -37483.70, -97707.34, -112451.66, 0.000, 0.000, 0.000, 14:06:24.396
115, -49557.30, -40713.28, -77444.10, -112839.09, -101778.98, -37426.65, -97698.48, -112459.80, 0.000, 0.000, 0.000, 14:06:24.396
116, -49691.75, -40845.80, -77250.24, -112972.44, -101914.67, -37322.18, -97814.67, -112584.66, 0.270, 0.278, 0.910, 14:06:24.396
117, -49692.13, -40844.01, -77190.27, -112968.93, -101914.95, -37370.91, -97836.29, -112590.74, 0.000, 0.000, 0.000, 14:06:24.396
118, -49563.63, -40714.57, -77361.11, -112838.87, -101780.05, -37473.95, -97720.91, -112468.79, 0.000, 0.000, 0.000, 14:06:24.397
119, -49543.73, -40696.25, -77442.35, -112821.34, -101764.96, -37446.52, -97694.33, -112449.01, 0.000, 0.000, 0.000, 14:06:24.397
120, -49668.30, -40822.75, -77277.38, -112946.73, -101890.76, -37334.14, -97796.01, -112566.73, 0.000, 0.000, 0.000, 14:06:24.397
121, -49694.43, -40847.79, -77179.38, -112971.73, -101914.23, -37344.33, -97829.60, -112594.92, 0.000, 0.000, 0.000, 14:06:24.397
122, -49579.27, -40732.99, -77317.90, -112854.85, -101805.35, -37457.36, -97738.52, -112489.28, 0.000, 0.000, 0.000, 14:06:24.397
123, -49516.09, -40683.32, -77438.63, -112795.44, -101738.84, -37450.48, -97667.71, -112426.27, 0.000, 0.000, 0.000, 14:06:24.397
124, -49643.49, -40810.60, -77314.30, -112924.01, -101864.80, -37347.35, -97772.07, -112540.18, 0.000, 0.000, 0.000, 14:06:24.397
125, -49720.54, -40882.17, -77173.02, -112997.72, -101942.88, -37336.33, -97856.25, -112617.41, 0.000, 0.000, 0.000, 14:06:24.397
126, -49610.90, -40772.91, -77284.66, -112886.41, -101832.66, -37448.87, -97772.70, -112519.26, 0.278, 0.276, 0.914, 14:06:24.398
127, -49519.21, -40685.80, -77463.48, -112796.27, -101741.61, -37474.06, -97680.09, -112427.64, 0.000, 0.000, 0.000, 14:06:24.398
128, -49611.80, -40785.29, -77361.04, -112897.31, -101836.84, -37365.95, -97751.02, -112514.88, 0.000, 0.000, 0.000, 14:06:24.398
129, -49709.56, -40882.81, -77173.44, -112993.97, -101929.80, -37317.96, -97843.87, -112609.23, 0.000, 0.000, 0.000, 14:06:24.398
130, -49626.66, -40802.77, -77237.66, -112904.55, -101845.56, -37422.86, -97778.44, -112532.65, 0.000, 0.000, 0.000, 14:06:24.398
131, -49515.97, -40696.96, -77436.16, -112799.69, -101745.12, -37481.39, -97681.21, -112429.56, 0.000, 0.000, 0.000, 14:06:24.398
132, -49585.60, -40769.78, -77391.62, -112875.39, -101813.40, -37389.39, -97731.70, -112494.45, 0.000, 0.000, 0.000, 14:06:24.398
133, -49706.72, -40887.53, -77187.95, -112988.65, -101923.82, -37313.60, -97832.73, -112605.45, 0.000, 0.000, 0.000, 14:06:24.398
134, -49648.74, -40824.59, -77213.83, -112922.26, -101863.36, -37400.75, -97790.94, -112552.92, 0.000, 0.000, 0.000, 14:06:24.399
135, -49525.56, -40702.46, -77422.33, -112799.91, -101745.18, -37479.76, -97683.80, -112437.41, 0.290, 0.278, 0.912, 14:06:24.399
136, -49561.46, -40743.68, -77440.39, -112841.28, -101782.45, -37408.59, -97706.24, -112471.65, 0.000, 0.000, 0.000, 14:06:24.399
137, -49697.67, -40879.15, -77231.22, -112979.37, -101918.95, -37317.29, -97833.07, -112599.23, 0.000, 0.000, 0.000, 14:06:24.399
138, -49675.54, -40851.93, -77191.41, -112949.89, -101890.29, -37383.05, -97812.77, -112576.28, 0.000, 0.000, 0.000, 14:06:24.399
139, -49554.53, -40733.01, -77384.15, -112828.20, -101767.98, -37486.13, -97707.59, -112461.08, 0.000, 0.000, 0.000, 14:06:24.399
140, -49560.70, -40742.54, -77428.98, -112840.23, -101777.93, -37435.15, -97698.87, -112459.89, 0.000, 0.000, 0.000, 14:06:24.399
141, -49701.70, -40881.47, -77241.95, -112978.07, -101910.56, -37330.43, -97817.80, -112589.60, 0.000, 0.000, 0.000, 14:06:24.399
142, -49716.34, -40893.10, -77158.09, -112991.46, -101923.91, -37377.10, -97847.64, -112611.55, 0.000, 0.000, 0.000, 14:06:24.399
143, -49574.54, -40755.32, -77320.49, -112852.97, -101780.25, -37478.15, -97723.25, -112478.58, 0.000, 0.000, 0.000, 14:06:24.399
144, -49537.70, -40721.55, -77447.88, -112814.88, -101740.71, -37450.77, -97674.75, -112433.34, 0.000, 0.000, 0.000, 14:06:24.400
145, -49667.32, -40854.63, -77289.18, -112944.05, -101874.98, -37335.05, -97783.16, -112551.40, 0.290, 0.278, 0.910, 14:06:24.400
146, -49726.33, -40910.57, -77155.47, -112998.81, -101932.55, -37355.60, -97848.76, -112615.70, 0.000, 0.000, 0.000, 14:06:24.400
147, -49605.31, -40787.24, -77287.14, -112875.99, -101807.25, -37470.98, -97746.34, -112506.18, 0.000, 0.000, 0.000, 14:06:24.400
148, -49546.04, -40730.71, -77426.89, -112815.38, -101747.95, -37471.00, -97683.02, -112437.85, 0.000, 0.000, 0.000, 14:06:24.400
149, -49651.56, -40838.69, -77314.34, -112920.85, -101850.05, -37352.04, -97765.39, -112528.55, 0.000, 0.000, 0.000, 14:06:24.400
150, -49724.85, -40910.93, -77159.16, -112995.69, -101924.53, -37330.32, -97842.34, -112607.46, 0.000, 0.000, 0.000, 14:06:24.400
151, -49628.54, -40810.51, -77260.37, -112896.22, -101831.66, -37446.93, -97772.96, -112525.43, 0.000, 0.000, 0.000, 14:06:24.400
152, -49538.37, -40719.22, -77441.55, -112804.69, -101741.80, -37478.20, -97683.91, -112433.25, 0.000, 0.000, 0.000, 14:06:24.400
153, -49620.36, -40810.71, -77360.95, -112891.37, -101830.05, -37367.78, -97744.63, -112509.78, 0.000, 0.000, 0.000, 14:06:24.400
154, -49735.45, -40922.96, -77175.84, -113001.56, -101942.75, -37324.93, -97853.84, -112623.93, 0.296, 0.284, 0.914, 14:06:24.400
155, -49669.73, -40851.41, -77208.76, -112931.20, -101873.26, -37432.44, -97804.57, -112563.85, 0.000, 0.000, 0.000, 14:06:24.401
156, -49558.24, -40739.72, -77407.55, -112819.78, -101762.30, -37496.59, -97699.96, -112450.93, 0.000, 0.000, 0.000, 14:06:24.401
157, -49616.76, -40799.89, -77376.02, -112883.88, -101826.66, -37401.22, -97737.73, -112497.40, 0.000, 0.000, 0.000, 14:06:24.401
158, -49729.34, -40915.94, -77186.29, -112997.66, -101932.02, -37320.06, -97837.77, -112607.33, 0.000, 0.000, 0.000, 14:06:24.401
159, -49685.89, -40868.13, -77193.13, -112947.20, -101881.30, -37406.58, -97808.48, -112569.05, 0.000, 0.000, 0.000, 14:06:24.401
160, -49562.98, -40744.57, -77390.14, -112821.70, -101759.15, -37490.67, -97695.91, -112449.97, 0.000, 0.000, 0.000, 14:06:24.401
161, -49592.02, -40781.09, -77419.58, -112854.65, -101789.93, -37418.63, -97713.20, -112472.27, 0.000, 0.000, 0.000, 14:06:24.401
162, -49726.17, -40916.07, -77213.12, -112989.30, -101923.99, -37324.64, -97830.52, -112600.89, 0.000, 0.000, 0.000, 14:06:24.401
163, -49704.55, -40892.71, -77172.01, -112962.52, -101894.31, -37385.26, -97814.16, -112587.55, 0.000, 0.000, 0.000, 14:06:24.402
164, -49570.60, -40758.81, -77368.98, -112827.67, -101761.12, -37488.43, -97700.50, -112467.29, 0.282, 0.280, 0.914, 14:06:24.402
165, -49568.68, -40757.53, -77436.27, -112828.74, -101761.01, -37442.25, -97684.90, -112459.96, 0.000, 0.000, 0.000, 14:06:24.402
166, -49721.90, -40910.73, -77235.34, -112982.30, -101913.60, -37337.78, -97814.72, -112593.98, 0.000, 0.000, 0.000, 14:06:24.402
167, -49742.60, -40929.82, -77146.77, -112995.38, -101926.01, -37376.03, -97841.95, -112615.28, 0.000, 0.000, 0.000, 14:06:24.402
168, -49607.50, -40795.11, -77319.04, -112858.24, -101791.61, -37483.63, -97729.11, -112488.57, 0.000, 0.000, 0.000, 14:06:24.402
169, -49565.24, -40757.49, -77435.16, -112821.08, -101754.52, -37458.80, -97685.77, -112443.95, 0.000, 0.000, 0.000, 14:06:24.402
170, -49695.75, -40891.84, -77271.34, -112956.64, -101890.34, -37347.42, -97797.62, -112565.03, 0.000, 0.000, 0.000, 14:06:24.403
171, -49756.93, -40948.80, -77147.02, -113013.23, -101944.83, -37357.90, -97858.59, -112625.07, 0.000, 0.000, 0.000, 14:06:24.403
172, -49629.75, -40819.98, -77291.57, -112880.66, -101813.47, -37465.23, -97745.77, -112507.08, 0.000, 0.000, 0.000, 14:06:24.403
173, -49560.39, -40754.63, -77446.91, -112813.85, -101751.09, -37471.25, -97682.48, -112436.55, 0.000, 0.000, 0.000, 14:06:24.403
174, -49668.73, -40866.61, -77331.36, -112927.65, -101857.81, -37360.45, -97768.12, -112537.09, 0.272, 0.278, 0.912, 14:06:24.403
175, -49757.46, -40953.40, -77169.48, -113015.71, -101944.78, -37336.40, -97856.13, -112622.23, 0.000, 0.000, 0.000, 14:06:24.403
176, -49665.30, -40855.81, -77261.35, -112916.23, -101855.89, -37450.93, -97788.14, -112537.56, 0.000, 0.000, 0.000, 14:06:24.403
177, -49563.70, -40758.61, -77450.29, -112814.44, -101754.88, -37488.32, -97686.02, -112438.97, 0.000, 0.000, 0.000, 14:06:24.403
178, -49641.52, -40845.06, -77375.03, -112900.49, -101837.65, -37380.56, -97747.35, -112511.84, 0.000, 0.000, 0.000, 14:06:24.403
179, -49758.49, -40958.86, -77174.47, -113017.84, -101956.85, -37327.55, -97861.05, -112625.45, 0.000, 0.000, 0.000, 14:06:24.403
180, -49682.25, -40877.27, -77217.98, -112932.77, -101874.62, -37426.90, -97804.88, -112558.98, 0.000, 0.000, 0.000, 14:06:24.404
181, -49567.72, -40762.00, -77414.19, -112815.22, -101757.25, -37492.64, -97693.28, -112447.17, 0.000, 0.000, 0.000, 14:06:24.404
182, -49615.39, -40819.18, -77394.52, -112869.69, -101809.64, -37404.73, -97726.09, -112490.70, 0.000, 0.000, 0.000, 14:06:24.404
183, -49739.65, -40944.30, -77196.58, -112993.79, -101931.75, -37320.37, -97835.51, -112608.66, 0.274, 0.286, 0.912, 14:06:24.404
184, -49712.49, -40909.10, -77182.27, -112962.70, -101905.98, -37412.68, -97827.91, -112589.13, 0.000, 0.000, 0.000, 14:06:24.404
185, -49590.96, -40788.78, -77379.70, -112837.08, -101775.34, -37504.93, -97722.38, -112470.22, 0.000, 0.000, 0.000, 14:06:24.404
186, -49605.52, -40805.93, -77413.27, -112851.70, -101783.27, -37428.46, -97707.52, -112470.30, 0.000, 0.000, 0.000, 14:06:24.404
187, -49739.69, -40939.86, -77208.16, -112987.82, -101917.94, -37327.99, -97817.35, -112597.91, 0.000, 0.000, 0.000, 14:06:24.404
188, -49739.18, -40935.16, -77151.70, -112982.63, -101909.45, -37388.19, -97829.63, -112598.79, 0.000, 0.000, 0.000, 14:06:24.404
189, -49605.71, -40799.66, -77348.70, -112845.26, -101777.19, -37492.64, -97715.63, -112472.32, 0.000, 0.000, 0.000, 14:06:24.404
190, -49584.53, -40783.73, -77437.70, -112837.16, -101768.09, -37446.43, -97692.45, -112453.45, 0.000, 0.000, 0.000, 14:06:24.404
191, -49708.36, -40908.07, -77257.84, -112968.33, -101895.77, -37328.13, -97803.66, -112570.58, 0.000, 0.000, 0.000, 14:06:24.405
192, -49732.27, -40935.68, -77167.92, -112988.02, -101912.53, -37363.51, -97837.98, -112605.89, 0.000, 0.000, 0.000, 14:06:24.405
193, -49614.19, -40818.04, -77322.37, -112865.71, -101795.27, -37480.14, -97737.36, -112496.80, 0.286, 0.284, 0.914, 14:06:24.405
194, -49575.47, -40777.38, -77435.58, -112828.70, -101760.67, -37468.43, -97693.13, -112451.53, 0.000, 0.000, 0.000, 14:06:24.405
195, -49692.80, -40895.53, -77299.52, -112946.09, -101876.81, -37350.12, -97784.50, -112553.30, 0.000, 0.000, 0.000, 14:06:24.405
196, -49761.02, -40964.40, -77155.85, -113013.63, -101945.72, -37353.16, -97860.12, -112626.32, 0.000, 0.000, 0.000, 14:06:24.405
197, -49645.19, -40848.35, -77281.98, -112897.74, -101834.97, -37468.05, -97772.63, -112523.86, 0.000, 0.000, 0.000, 14:06:24.405
198, -49562.69, -40766.50, -77457.11, -112814.30, -101752.00, -37479.43, -97683.49, -112436.09, 0.000, 0.000, 0.000, 14:06:24.405
199, -49671.52, -40877.50, -77351.72, -112924.98, -101856.27, -37366.26, -97766.68, -112532.70, 0.000, 0.000, 0.000, 14:06:24.405
200, -49769.60, -40978.01, -77166.13, -113024.20, -101947.78, -37332.22, -97858.75, -112628.45, 0.000, 0.000, 0.000, 14:06:24.405
201, -49680.13, -40886.73, -77240.72, -112931.42, -101862.06, -37445.86, -97794.24, -112547.55, 0.000, 0.000, 0.000, 14:06:24.405
202, -49570.07, -40770.79, -77446.87, -112814.86, -101749.67, -37491.70, -97685.66, -112438.68, 0.290, 0.284, 0.908, 14:06:24.406
203, -49648.03, -40853.15, -77387.41, -112898.48, -101831.33, -37392.81, -97743.39, -112511.32, 0.000, 0.000, 0.000, 14:06:24.406
204, -49766.63, -40972.96, -77187.77, -113020.79, -101952.12, -37335.28, -97860.45, -112630.15, 0.000, 0.000, 0.000, 14:06:24.406
205, -49694.83, -40896.20, -77228.72, -112944.91, -101880.23, -37431.21, -97810.05, -112567.41, 0.000, 0.000, 0.000, 14:06:24.406
206, -49570.47, -40775.59, -77437.52, -112823.27, -101760.38, -37496.37, -97699.74, -112447.09, 0.000, 0.000, 0.000, 14:06:24.406
207, -49632.36, -40840.26, -77411.66, -112887.39, -101823.10, -37411.99, -97737.94, -112495.59, 0.000, 0.000, 0.000, 14:06:24.406
208, -49763.61, -40971.24, -77199.57, -113019.40, -101948.52, -37330.34, -97849.54, -112622.97, 0.000, 0.000, 0.000, 14:06:24.406
209, -49720.49, -40926.64, -77196.80, -112973.70, -101901.29, -37409.42, -97829.60, -112586.80, 0.000, 0.000, 0.000, 14:06:24.872
210, -49598.27, -40802.64, -77389.72, -112846.89, -101775.09, -37498.43, -97717.63, -112466.20, 0.000, 0.000, 0.000, 14:06:24.872
211, -49617.34, -40826.71, -77424.56, -112868.13, -101794.36, -37438.19, -97717.73, -112478.60, 0.000, 0.000, 0.000, 14:06:24.873
212, -49749.50, -40963.93, -77215.41, -113002.23, -101916.64, -37332.31, -97822.43, -112601.83, 0.284, 0.280, 0.910, 14:06:24.873
213, -49748.54, -40960.93, -77155.89, -112995.17, -101913.52, -37388.07, -97834.55, -112607.70, 0.000, 0.000, 0.000, 14:06:24.873
214, -49609.94, -40819.40, -77352.39, -112853.62, -101776.95, -37488.84, -97716.91, -112476.68, 0.000, 0.000, 0.000, 14:06:24.873
215, -49599.44, -40806.62, -77444.26, -112845.70, -101770.48, -37454.17, -97697.33, -112461.62, 0.000, 0.000, 0.000, 14:06:24.873
216, -49729.99, -40940.10, -77255.49, -112982.55, -101907.68, -37341.65, -97811.30, -112583.77, 0.000, 0.000, 0.000, 14:06:24.873
217, -49769.00, -40981.77, -77140.47, -113014.53, -101941.90, -37367.29, -97855.35, -112623.51, 0.000, 0.000, 0.000, 14:06:24.873
218, -49644.59, -40854.50, -77301.85, -112885.49, -101811.08, -37481.80, -97755.28, -112504.13, 0.000, 0.000, 0.000, 14:06:24.874
219, -49590.07, -40797.77, -77440.77, -112830.22, -101755.80, -37467.54, -97691.41, -112442.50, 0.000, 0.000, 0.000, 14:06:24.874
220, -49702.12, -40916.81, -77286.25, -112949.84, -101870.28, -37350.01, -97780.92, -112549.19, 0.000, 0.000, 0.000, 14:06:24.874
221, -49778.27, -40991.85, -77145.10, -113022.06, -101942.08, -37350.66, -97855.35, -112624.89, 0.284, 0.280, 0.908, 14:06:24.874
222, -49670.83, -40875.10, -77281.16, -112907.02, -101829.42, -37462.77, -97763.06, -112519.10, 0.000, 0.000, 0.000, 14:06:24.874
223, -49581.40, -40791.08, -77450.02, -112825.86, -101743.59, -37480.36, -97673.95, -112436.34, 0.000, 0.000, 0.000, 14:06:24.874
224, -49682.76, -40897.68, -77327.76, -112933.91, -101848.76, -37371.40, -97756.63, -112531.82, 0.000, 0.000, 0.000, 14:06:24.874
225, -49786.41, -40996.81, -77156.56, -113032.14, -101949.68, -37337.70, -97853.09, -112628.73, 0.000, 0.000, 0.000, 14:06:24.874
226, -49693.16, -40899.11, -77234.93, -112935.36, -101854.59, -37444.94, -97783.76, -112547.49, 0.000, 0.000, 0.000, 14:06:24.874
227, -49586.05, -40792.13, -77433.23, -112828.14, -101748.55, -37494.04, -97686.40, -112444.41, 0.000, 0.000, 0.000, 14:06:24.875
228, -49662.40, -40871.66, -77373.84, -112905.95, -101824.09, -37394.82, -97735.70, -112508.10, 0.000, 0.000, 0.000, 14:06:24.875
229, -49775.37, -40984.74, -77180.23, -113019.00, -101936.70, -37324.44, -97837.09, -112616.27, 0.000, 0.000, 0.000, 14:06:24.875
230, -49719.75, -40929.77, -77200.22, -112961.63, -101879.85, -37418.96, -97802.94, -112570.35, 0.000, 0.000, 0.000, 14:06:24.875
231, -49603.05, -40811.13, -77407.13, -112841.77, -101763.09, -37496.97, -97700.68, -112456.79, 0.282, 0.280, 0.906, 14:06:24.875
232, -49630.97, -40841.33, -77427.22, -112877.13, -101794.91, -37412.30, -97719.41, -112480.23, 0.000, 0.000, 0.000, 14:06:24.875
233, -49765.40, -40979.87, -77224.96, -113015.20, -101927.93, -37325.45, -97829.27, -112610.30, 0.000, 0.000, 0.000, 14:06:24.875
234, -49738.71, -40952.15, -77193.24, -112983.70, -101902.83, -37399.86, -97824.44, -112592.02, 0.000, 0.000, 0.000, 14:06:24.875
235, -49607.17, -40817.14, -77391.77, -112846.42, -101768.67, -37494.31, -97711.41, -112464.97, 0.000, 0.000, 0.000, 14:06:24.876
236, -49625.14, -40836.99, -77445.87, -112866.23, -101788.59, -37442.97, -97712.19, -112474.27, 0.000, 0.000, 0.000, 14:06:24.876
237, -49757.53, -40969.88, -77257.33, -112996.71, -101923.10, -37335.10, -97825.06, -112597.84, 0.000, 0.000, 0.000, 14:06:24.876
238, -49770.05, -40976.54, -77180.34, -113006.05, -101930.26, -37383.83, -97848.98, -112619.57, 0.000, 0.000, 0.000, 14:06:24.876
239, -49640.92, -40845.15, -77350.09, -112872.88, -101796.57, -37494.18, -97739.30, -112498.59, 0.000, 0.000, 0.000, 14:06:24.876
240, -49613.63, -40820.23, -77450.60, -112848.81, -101768.54, -37461.99, -97699.88, -112463.83, 0.000, 0.000, 0.000, 14:06:24.876
241, -49740.16, -40951.05, -77278.88, -112983.13, -101896.15, -37348.33, -97803.32, -112581.89, 0.284, 0.282, 0.904, 14:06:24.876
242, -49776.19, -40985.90, -77167.23, -113016.52, -101928.66, -37362.79, -97846.16, -112620.24, 0.000, 0.000, 0.000, 14:06:24.877
243, -49660.81, -40866.14, -77313.72, -112897.95, -101811.66, -37479.02, -97749.34, -112511.80, 0.000, 0.000, 0.000, 14:06:24.877
244, -49598.50, -40805.39, -77468.38, -112837.50, -101752.49, -37473.19, -97685.44, -112445.79, 0.000, 0.000, 0.000, 14:06:24.877
245, -49717.54, -40930.45, -77328.85, -112958.85, -101876.61, -37356.96, -97787.63, -112556.27, 0.000, 0.000, 0.000, 14:06:24.877
246, -49798.97, -41013.75, -77161.41, -113040.86, -101959.36, -37353.90, -97869.84, -112643.38, 0.000, 0.000, 0.000, 14:06:24.877
247, -49684.13, -40903.71, -77276.62, -112922.88, -101841.27, -37468.12, -97775.02, -112543.13, 0.000, 0.000, 0.000, 14:06:24.877
248, -49598.07, -40818.02, -77443.34, -112834.98, -101756.47, -37495.81, -97691.31, -112458.04, 0.000, 0.000, 0.000, 14:06:24.877
249, -49686.05, -40906.11, -77351.59, -112924.16, -101844.89, -37378.06, -97755.62, -112523.05, 0.000, 0.000, 0.000, 14:06:24.877
250, -49790.66, -41011.00, -77159.94, -113030.20, -101951.09, -37334.72, -97857.92, -112631.06, 0.286, 0.290, 0.902, 14:06:24.877
251, -49710.59, -40929.48, -77220.96, -112947.92, -101864.07, -37441.54, -97796.91, -112560.23, 0.000, 0.000, 0.000, 14:06:24.877
252, -49597.78, -40819.25, -77432.72, -112833.59, -101748.06, -37498.67, -97687.42, -112448.45, 0.000, 0.000, 0.000, 14:06:24.878
253, -49659.92, -40888.45, -77384.17, -112909.61, -101821.67, -37403.27, -97736.02, -112506.65, 0.000, 0.000, 0.000, 14:06:24.878
254, -49781.91, -41007.43, -77178.94, -113029.21, -101941.25, -37327.68, -97845.23, -112622.41, 0.000, 0.000, 0.000, 14:06:24.878
255, -49732.77, -40956.64, -77194.90, -112971.26, -101885.53, -37420.30, -97809.38, -112578.96, 0.000, 0.000, 0.000, 14:06:24.878
0, -49608.02, -40832.05, -77403.51, -112843.65, -101760.91, -37497.87, -97698.69, -112456.72, 0.000, 0.000, 0.000, 14:06:24.878
1, -49648.32, -40874.77, -77405.27, -112888.35, -101803.54, -37426.48, -97725.66, -112491.07, 0.000, 0.000, 0.000, 14:06:24.878
2, -49775.57, -41005.23, -77201.89, -113021.93, -101937.38, -37333.69, -97849.92, -112616.22, 0.000, 0.000, 0.000, 14:06:24.878
3, -49749.55, -40979.35, -77175.30, -112994.30, -101912.89, -37401.82, -97841.31, -112600.46, 0.000, 0.000, 0.000, 14:06:24.878
4, -49622.30, -40846.80, -77366.38, -112860.23, -101778.15, -37496.64, -97716.84, -112473.66, 0.284, 0.290, 0.906, 14:06:24.878
5, -49632.79, -40859.34, -77408.13, -112872.59, -101787.96, -37445.09, -97712.84, -112475.20, 0.000, 0.000, 0.000, 14:06:24.879
6, -49761.73, -40990.84, -77223.89, -113001.99, -101917.27, -37337.61, -97823.77, -112594.88, 0.000, 0.000, 0.000, 14:06:24.879
7, -49767.18, -40993.86, -77162.69, -113000.18, -101915.39, -37373.84, -97834.05, -112605.16, 0.000, 0.000, 0.000, 14:06:24.879
8, -49644.99, -40864.26, -77344.81, -112867.30, -101789.93, -37487.36, -97727.50, -112488.13, 0.000, 0.000, 0.000, 14:06:24.879
9, -49612.02, -40832.93, -77455.88, -112838.11, -101758.41, -37458.44, -97684.20, -112450.15, 0.000, 0.000, 0.000, 14:06:24.879
10, -49741.86, -40965.32, -77283.32, -112974.67, -101892.81, -37346.21, -97797.13, -112574.55, 0.000, 0.000, 0.000, 14:06:24.879
11, -49792.80, -41013.68, -77161.62, -113024.23, -101945.19, -37362.55, -97863.40, -112633.16, 0.000, 0.000, 0.000, 14:06:24.879
12, -49680.10, -40903.71, -77281.89, -112908.58, -101830.84, -37479.94, -97768.25, -112531.59, 0.000, 0.000, 0.000, 14:06:24.879
13, -49608.22, -40832.25, -77426.93, -112837.66, -101765.84, -37486.64, -97699.45, -112460.18, 0.276, 0.288, 0.906, 14:06:24.879
14, -49716.09, -40940.88, -77312.73, -112951.25, -101880.41, -37376.36, -97791.31, -112562.30, 0.000, 0.000, 0.000, 14:06:24.880
15, -49795.50, -41022.98, -77134.05, -113031.77, -101960.05, -37355.15, -97872.16, -112646.62, 0.000, 0.000, 0.000, 14:06:24.880
16, -49690.77, -40919.54, -77233.01, -112918.53, -101847.44, -37461.66, -97782.20, -112542.62, 0.000, 0.000, 0.000, 14:06:24.880
17, -49585.31, -40813.73, -77429.79, -112814.46, -101748.98, -37488.84, -97686.06, -112439.33, 0.000, 0.000, 0.000, 14:06:24.880
18, -49666.54, -40902.28, -77355.97, -112906.88, -101840.00, -37381.21, -97753.38, -112517.16, 0.000, 0.000, 0.000, 14:06:24.880
19, -49778.56, -41012.43, -77164.08, -113014.46, -101942.88, -37327.73, -97853.72, -112622.95, 0.000, 0.000, 0.000, 14:06:24.880
20, -49704.76, -40930.49, -77217.01, -112933.10, -101866.93, -37430.14, -97797.59, -112556.61, 0.000, 0.000, 0.000, 14:06:24.880
21, -49592.86, -40822.64, -77414.39, -112824.09, -101756.45, -37496.08, -97694.02, -112448.76, 0.000, 0.000, 0.000, 14:06:24.880
22, -49648.63, -40884.74, -77382.79, -112883.28, -101812.91, -37401.53, -97731.44, -112494.13, 0.000, 0.000, 0.000, 14:06:24.880
23, -49779.32, -41010.18, -77180.37, -113006.26, -101937.34, -37321.96, -97843.57, -112613.36, 0.270, 0.284, 0.908, 14:06:24.880
24, -49741.39, -40972.09, -77184.23, -112962.00, -101893.35, -37410.79, -97821.45, -112579.38, 0.000, 0.000, 0.000, 14:06:24.880
25, -49605.36, -40838.67, -77391.70, -112828.41, -101760.36, -37493.78, -97702.73, -112452.09, 0.000, 0.000, 0.000, 14:06:24.881
26, -49650.84, -40880.69, -77420.49, -112861.51, -101794.13, -37424.66, -97716.52, -112475.20, 0.000, 0.000, 0.000, 14:06:24.881
27, -49784.08, -41023.41, -77221.07, -112991.71, -101925.05, -37328.46, -97833.16, -112602.05, 0.000, 0.000, 0.000, 14:06:24.881
28, -49774.02, -41018.42, -77175.05, -112977.83, -101908.28, -37392.37, -97831.03, -112596.91, 0.000, 0.000, 0.000, 14:06:24.881
29, -49666.80, -40901.46, -77358.20, -112856.99, -101789.91, -37495.70, -97726.77, -112478.66, 0.000, 0.000, 0.000, 14:06:24.881
30, -49694.72, -40919.96, -77438.60, -112859.97, -101783.72, -37450.17, -97708.32, -112466.76, 0.000, 0.000, 0.000, 14:06:24.881
31, -49846.45, -41080.85, -77261.40, -113004.05, -101921.63, -37341.92, -97829.98, -112595.92, 0.000, 0.000, 0.000, 14:06:24.881
32, -49908.49, -41144.40, -77163.67, -113033.77, -101949.32, -37385.57, -97870.06, -112631.58, 0.276, 0.282, 0.914, 14:06:24.881
33, -49802.30, -41027.00, -77340.97, -112894.21, -101808.66, -37492.28, -97752.49, -112499.37, 0.000, 0.000, 0.000, 14:06:24.881
34, -49777.78, -41000.34, -77466.47, -112853.48, -101763.06, -37461.48, -97696.59, -112444.96, 0.000, 0.000, 0.000, 14:06:24.881
35, -49946.80, -41164.18, -77300.58, -113000.78, -101905.87, -37359.57, -97819.14, -112579.27, 0.000, 0.000, 0.000, 14:06:24.881
36, -50027.34, -41237.65, -77169.62, -113058.20, -101960.98, -37371.09, -97876.32, -112640.61, 0.000, 0.000, 0.000, 14:06:24.882
37, -49916.00, -41119.09, -77302.25, -112934.40, -101838.55, -37480.99, -97778.06, -112530.48, 0.000, 0.000, 0.000, 14:06:24.882
38, -49861.75, -41067.15, -77452.63, -112870.18, -101769.19, -37487.72, -97707.07, -112455.31, 0.000, 0.000, 0.000, 14:06:24.882
39, -49969.25, -41171.93, -77349.17, -112975.84, -101872.23, -37376.95, -97781.77, -112547.45, 0.000, 0.000, 0.000, 14:06:24.882
40, -50062.70, -41261.95, -77179.32, -113063.45, -101969.86, -37353.72, -97873.75, -112642.73, 0.000, 0.000, 0.000, 14:06:24.882
41, -49964.13, -41166.70, -77263.07, -112961.20, -101869.48, -37462.89, -97800.55, -112554.82, 0.000, 0.000, 0.000, 14:06:24.882
42, -49858.70, -41056.29, -77465.98, -112862.65, -101766.86, -37503.01, -97709.55, -112456.52, 0.284, 0.288, 0.906, 14:06:24.882
43, -49945.46, -41144.33, -77393.90, -112953.95, -101857.16, -37404.17, -97775.45, -112534.48, 0.000, 0.000, 0.000, 14:06:24.882
44, -50054.47, -41260.80, -77200.66, -113069.91, -101970.73, -37350.95, -97884.52, -112646.66, 0.000, 0.000, 0.000, 14:06:24.882
45, -49972.26, -41177.81, -77255.09, -112987.93, -101889.95, -37451.04, -97825.40, -112580.62, 0.000, 0.000, 0.000, 14:06:24.883
46, -49840.30, -41049.98, -77448.37, -112868.73, -101776.01, -37517.11, -97717.17, -112467.36, 0.000, 0.000, 0.000, 14:06:24.883
47, -49871.05, -41090.44, -77441.28, -112917.14, -101825.73, -37427.21, -97749.00, -112505.00, 0.000, 0.000, 0.000, 14:06:24.883
48, -49988.65, -41211.39, -77240.32, -113045.02, -101955.89, -37341.94, -97863.16, -112630.48, 0.000, 0.000, 0.000, 14:06:24.883
49, -49949.04, -41168.54, -77222.84, -113009.79, -101920.84, -37429.49, -97848.40, -112606.90, 0.000, 0.000, 0.000, 14:06:24.883
50, -49809.27, -41028.17, -77417.77, -112877.73, -101786.04, -37511.05, -97725.20, -112474.06, 0.000, 0.000, 0.000, 14:06:24.883
51, -49819.69, -41041.40, -77445.64, -112904.36, -101814.47, -37445.90, -97736.98, -112490.42, 0.286, 0.290, 0.910, 14:06:24.883
52, -49939.52, -41164.69, -77248.27, -113040.84, -101950.15, -37348.51, -97855.51, -112617.95, 0.000, 0.000, 0.000, 14:06:24.883
53, -49919.09, -41145.13, -77194.02, -113027.18, -101937.72, -37407.12, -97854.80, -112615.82, 0.000, 0.000, 0.000, 14:06:24.884
54, -49773.80, -40999.11, -77385.02, -112886.54, -101797.28, -37505.93, -97730.01, -112486.20, 0.000, 0.000, 0.000, 14:06:24.884
55, -49743.20, -40968.13, -77481.36, -112867.52, -101781.01, -37460.81, -97709.69, -112461.39, 0.000, 0.000, 0.000, 14:06:24.884
56, -49869.38, -41095.20, -77294.38, -113001.66, -101915.75, -37344.85, -97820.08, -112585.53, 0.000, 0.000, 0.000, 14:06:24.884
57, -49892.71, -41114.54, -77175.63, -113030.13, -101947.63, -37372.09, -97860.23, -112623.38, 0.000, 0.000, 0.000, 14:06:24.884
58, -49750.91, -40972.24, -77346.69, -112896.47, -101812.59, -37487.94, -97752.36, -112501.71, 0.000, 0.000, 0.000, 14:06:24.884
59, -49700.04, -40925.98, -77477.96, -112855.43, -101769.99, -37479.09, -97702.09, -112457.37, 0.000, 0.000, 0.000, 14:06:24.885
60, -49811.91, -41040.62, -77321.19, -112978.21, -101891.67, -37364.40, -97800.55, -112569.04, 0.000, 0.000, 0.000, 14:06:24.885
61, -49857.06, -41080.85, -77190.79, -113029.75, -101940.91, -37359.02, -97855.06, -112623.55, 0.286, 0.290, 0.906, 14:06:24.885
62, -49740.74, -40957.83, -77335.11, -112907.80, -101823.46, -37467.36, -97762.77, -112515.08, 0.000, 0.000, 0.000, 14:06:24.885
63, -49670.47, -40886.32, -77497.32, -112841.37, -101758.37, -37487.38, -97693.41, -112445.81, 0.000, 0.000, 0.000, 14:06:24.885
64, -49764.32, -40986.32, -77384.87, -112946.09, -101864.98, -37374.75, -97770.64, -112536.63, 0.000, 0.000, 0.000, 14:06:24.885
65, -49864.97, -41085.50, -77194.23, -113045.93, -101964.95, -37345.00, -97869.79, -112634.03, 0.000, 0.000, 0.000, 14:06:24.886
66, -49763.95, -40978.77, -77265.53, -112944.48, -101864.41, -37451.29, -97791.02, -112544.59, 0.000, 0.000, 0.000, 14:06:24.886
67, -49652.57, -40871.21, -77460.46, -112844.66, -101761.81, -37496.61, -97691.13, -112442.55, 0.000, 0.000, 0.000, 14:06:24.886
68, -49737.37, -40961.52, -77385.89, -112938.78, -101852.47, -37404.55, -97761.88, -112524.71, 0.000, 0.000, 0.000, 14:06:24.886
69, -49842.51, -41066.48, -77187.32, -113043.90, -101956.96, -37338.63, -97860.92, -112625.95, 0.000, 0.000, 0.000, 14:06:24.886
70, -49767.07, -40986.59, -77221.72, -112966.49, -101878.11, -37433.29, -97801.89, -112565.08, 0.000, 0.000, 0.000, 14:06:24.886
71, -49648.57, -40863.61, -77409.99, -112848.50, -101764.23, -37508.44, -97702.65, -112458.57, 0.284, 0.288, 0.906, 14:06:24.886
72, -49685.18, -40903.45, -77402.21, -112889.76, -101810.74, -37422.92, -97734.50, -112493.15, 0.000, 0.000, 0.000, 14:06:24.886
73, -49807.82, -41027.48, -77197.02, -113012.95, -101940.55, -37332.39, -97851.59, -112616.51, 0.000, 0.000, 0.000, 14:06:25.353
74, -49769.98, -40986.86, -77178.88, -112971.45, -101903.23, -37406.47, -97831.62, -112587.16, 0.000, 0.000, 0.000, 14:06:25.353
75, -49640.90, -40858.96, -77373.82, -112842.20, -101772.88, -37495.52, -97717.73, -112462.04, 0.000, 0.000, 0.000, 14:06:25.353
76, -49650.31, -40874.77, -77418.64, -112859.63, -101789.46, -37432.55, -97718.96, -112468.19, 0.000, 0.000, 0.000, 14:06:25.353
77, -49787.08, -41013.46, -77226.98, -112997.83, -101922.21, -37327.32, -97830.72, -112591.37, 0.000, 0.000, 0.000, 14:06:25.353
78, -49796.18, -41021.44, -77153.70, -113001.97, -101922.97, -37379.69, -97839.48, -112601.40, 0.000, 0.000, 0.000, 14:06:25.353
79, -49655.96, -40878.75, -77344.90, -112859.48, -101779.36, -37477.88, -97721.58, -112467.72, 0.000, 0.000, 0.000, 14:06:25.353
80, -49629.72, -40858.47, -77437.57, -112839.45, -101748.69, -37433.89, -97681.55, -112436.87, 0.272, 0.286, 0.910, 14:06:25.353
81, -49769.27, -41001.03, -77246.22, -112986.23, -101892.50, -37327.14, -97802.65, -112570.63, 0.000, 0.000, 0.000, 14:06:25.354
82, -49817.66, -41044.71, -77129.05, -113028.16, -101940.72, -37360.00, -97861.23, -112622.52, 0.000, 0.000, 0.000, 14:06:25.354
83, -49682.59, -40906.35, -77287.63, -112893.78, -101810.65, -37470.73, -97753.16, -112501.06, 0.000, 0.000, 0.000, 14:06:25.354
84, -49625.39, -40850.76, -77422.88, -112843.23, -101758.19, -37465.97, -97694.91, -112445.38, 0.000, 0.000, 0.000, 14:06:25.354
85, -49730.28, -40963.23, -77302.14, -112952.52, -101866.57, -37351.80, -97779.58, -112541.27, 0.000, 0.000, 0.000, 14:06:25.354
86, -49800.67, -41035.54, -77157.82, -113021.68, -101933.54, -37341.58, -97845.85, -112611.68, 0.000, 0.000, 0.000, 14:06:25.354
87, -49696.24, -40927.47, -77269.62, -112906.86, -101830.09, -37457.88, -97766.95, -112518.81, 0.000, 0.000, 0.000, 14:06:25.354
88, -49619.51, -40849.15, -77429.66, -112827.47, -101754.39, -37484.61, -97688.77, -112441.32, 0.000, 0.000, 0.000, 14:06:25.354
89, -49703.86, -40938.45, -77333.84, -112919.65, -101847.09, -37376.03, -97753.61, -112521.94, 0.000, 0.000, 0.000, 14:06:25.354
90, -49796.13, -41027.25, -77155.63, -113010.86, -101941.25, -37331.66, -97845.25, -112618.08, 0.268, 0.288, 0.908, 14:06:25.354
91, -49709.27, -40938.85, -77210.23, -112923.04, -101858.46, -37438.23, -97791.20, -112550.26, 0.000, 0.000, 0.000, 14:06:25.355
92, -49601.92, -40835.34, -77404.11, -112817.34, -101748.80, -37489.11, -97689.88, -112443.84, 0.000, 0.000, 0.000, 14:06:25.355
93, -49680.30, -40917.01, -77348.03, -112901.98, -101829.05, -37395.94, -97742.59, -112513.16, 0.000, 0.000, 0.000, 14:06:25.355
94, -49795.08, -41032.41, -77147.78, -113017.30, -101945.45, -37325.76, -97851.62, -112626.48, 0.000, 0.000, 0.000, 14:06:25.355
95, -49734.95, -40967.93, -77174.24, -112951.52, -101877.99, -37412.44, -97807.14, -112569.53, 0.000, 0.000, 0.000, 14:06:25.355
96, -49614.48, -40848.91, -77379.37, -112828.45, -101756.47, -37484.50, -97698.29, -112446.23, 0.000, 0.000, 0.000, 14:06:25.355
97, -49661.24, -40897.19, -77378.20, -112879.01, -101803.34, -37404.46, -97723.61, -112479.02, 0.000, 0.000, 0.000, 14:06:25.355
98, -49793.72, -41027.45, -77182.07, -113009.92, -101930.32, -37311.12, -97837.31, -112599.73, 0.000, 0.000, 0.000, 14:06:25.355
99, -49771.28, -41002.87, -77142.17, -112988.04, -101903.37, -37384.57, -97820.33, -112582.73, 0.282, 0.284, 0.900, 14:06:25.356
100, -49641.59, -40874.19, -77338.42, -112858.89, -101780.07, -37489.02, -97705.38, -112462.82, 0.000, 0.000, 0.000, 14:06:25.356
101, -49638.21, -40872.69, -77404.36, -112859.54, -101778.13, -37438.25, -97701.30, -112461.66, 0.000, 0.000, 0.000, 14:06:25.356
102, -49767.18, -40997.73, -77219.59, -112989.83, -101910.70, -37336.66, -97808.91, -112585.76, 0.000, 0.000, 0.000, 14:06:25.356
103, -49765.98, -40998.42, -77152.01, -112986.30, -101915.19, -37383.22, -97825.45, -112600.02, 0.000, 0.000, 0.000, 14:06:25.356
104, -49632.74, -40869.14, -77333.05, -112847.85, -101784.52, -37492.08, -97718.27, -112481.06, 0.000, 0.000, 0.000, 14:06:25.356
105, -49612.24, -40850.49, -77433.03, -112827.71, -101764.59, -37465.84, -97688.72, -112456.07, 0.000, 0.000, 0.000, 14:06:25.356
106, -49742.78, -40982.50, -77255.88, -112963.74, -101900.98, -37354.50, -97803.27, -112581.89, 0.000, 0.000, 0.000, 14:06:25.356
107, -49787.75, -41024.55, -77125.85, -113004.60, -101950.17, -37371.54, -97858.64, -112632.47, 0.000, 0.000, 0.000, 14:06:25.356
108, -49663.16, -40897.97, -77279.92, -112876.57, -101818.98, -37480.28, -97752.69, -112513.94, 0.000, 0.000, 0.000, 14:06:25.356
109, -49604.33, -40838.45, -77439.96, -112820.20, -101762.59, -37477.73, -97692.43, -112448.47, 0.286, 0.282, 0.912, 14:06:25.357
110, -49727.87, -40960.57, -77309.56, -112946.80, -101883.85, -37364.56, -97790.69, -112556.25, 0.000, 0.000, 0.000, 14:06:25.357
111, -49796.04, -41029.87, -77166.29, -113020.32, -101951.04, -37342.54, -97860.49, -112624.27, 0.000, 0.000, 0.000, 14:06:25.357
112, -49697.56, -40933.75, -77272.68, -112922.06, -101851.62, -37455.84, -97783.78, -112532.96, 0.000, 0.000, 0.000, 14:06:25.357
113, -49619.91, -40852.10, -77438.55, -112844.09, -101769.37, -37485.98, -97704.10, -112450.48, 0.000, 0.000, 0.000, 14:06:25.357
114, -49714.73, -40950.56, -77352.50, -112946.16, -101864.98, -37380.21, -97778.98, -112534.46, 0.000, 0.000, 0.000, 14:06:25.357
115, -49819.54, -41057.27, -77158.27, -113049.95, -101969.44, -37334.36, -97877.41, -112638.95, 0.000, 0.000, 0.000, 14:06:25.357
116, -49737.14, -40971.77, -77223.71, -112959.70, -101879.43, -37439.28, -97807.63, -112560.01, 0.000, 0.000, 0.000, 14:06:25.357
117, -49620.27, -40854.99, -77430.17, -112842.98, -101759.58, -37490.73, -97694.71, -112442.41, 0.000, 0.000, 0.000, 14:06:25.358
118, -49685.69, -40925.11, -77381.24, -112913.81, -101830.37, -37400.75, -97747.28, -112507.01, 0.286, 0.288, 0.914, 14:06:25.358
119, -49802.61, -41043.59, -77176.99, -113034.80, -101958.64, -37332.87, -97867.71, -112631.51, 0.000, 0.000, 0.000, 14:06:25.358
120, -49744.77, -40984.43, -77186.61, -112972.10, -101897.42, -37424.44, -97825.22, -112585.11, 0.000, 0.000, 0.000, 14:06:25.358
121, -49615.39, -40855.63, -77392.60, -112837.01, -101763.00, -37499.12, -97699.83, -112453.32, 0.000, 0.000, 0.000, 14:06:25.358
122, -49650.87, -40895.24, -77410.15, -112876.46, -101799.36, -37423.57, -97718.13, -112481.84, 0.000, 0.000, 0.000, 14:06:25.358
123, -49788.60, -41036.10, -77189.76, -113016.02, -101943.71, -37334.81, -97850.16, -112621.09, 0.000, 0.000, 0.000, 14:06:25.359
124, -49770.74, -41014.20, -77149.32, -112990.99, -101921.96, -37407.30, -97846.34, -112608.13, 0.000, 0.000, 0.000, 14:06:25.359
125, -49641.57, -40878.79, -77346.24, -112855.59, -101782.95, -37499.68, -97720.91, -112476.68, 0.000, 0.000, 0.000, 14:06:25.359
126, -49637.23, -40874.39, -77422.48, -112857.06, -101782.11, -37450.04, -97698.45, -112466.35, 0.000, 0.000, 0.000, 14:06:25.359
127, -49772.01, -41008.79, -77230.33, -112997.54, -101918.34, -37340.13, -97815.12, -112594.36, 0.000, 0.000, 0.000, 14:06:25.359
128, -49794.14, -41028.61, -77149.55, -113011.84, -101933.45, -37380.18, -97847.71, -112615.88, 0.284, 0.286, 0.914, 14:06:25.359
129, -49666.51, -40899.94, -77327.45, -112876.87, -101798.96, -37488.79, -97731.34, -112492.02, 0.000, 0.000, 0.000, 14:06:25.360
130, -49642.84, -40873.54, -77430.82, -112851.65, -101771.53, -37464.18, -97692.03, -112455.96, 0.000, 0.000, 0.000, 14:06:25.360
131, -49772.30, -41007.22, -77277.42, -112984.53, -101900.95, -37349.25, -97802.87, -112569.69, 0.000, 0.000, 0.000, 14:06:25.360
132, -49828.61, -41060.27, -77148.02, -113035.83, -101956.52, -37363.71, -97865.03, -112630.93, 0.000, 0.000, 0.000, 14:06:25.360
133, -49714.19, -40941.06, -77266.70, -112922.51, -101845.90, -37480.32, -97777.57, -112531.15, 0.000, 0.000, 0.000, 14:06:25.360
134, -49639.07, -40863.57, -77440.05, -112850.13, -101768.92, -37482.67, -97698.84, -112450.10, 0.000, 0.000, 0.000, 14:06:25.360
135, -49748.88, -40978.21, -77318.73, -112963.01, -101882.76, -37365.52, -97785.68, -112549.84, 0.000, 0.000, 0.000, 14:06:25.360
136, -49824.92, -41055.75, -77145.23, -113039.88, -101962.82, -37340.60, -97868.43, -112633.55, 0.000, 0.000, 0.000, 14:06:25.360
137, -49732.05, -40955.75, -77240.61, -112937.13, -101861.66, -37453.45, -97789.48, -112542.13, 0.000, 0.000, 0.000, 14:06:25.360
138, -49630.13, -40854.11, -77428.14, -112835.07, -101760.27, -37488.81, -97691.29, -112442.86, 0.284, 0.284, 0.908, 14:06:25.360
139, -49711.48, -40942.29, -77352.59, -112922.73, -101850.39, -37382.87, -97761.68, -112518.74, 0.000, 0.000, 0.000, 14:06:25.361
140, -49826.55, -41054.59, -77170.09, -113036.55, -101963.27, -37335.08, -97863.42, -112630.01, 0.000, 0.000, 0.000, 14:06:25.361
141, -49747.00, -40967.55, -77218.68, -112950.09, -101880.30, -37431.64, -97802.38, -112557.39, 0.000, 0.000, 0.000, 14:06:25.361
142, -49633.57, -40857.31, -77404.73, -112838.33, -101771.34, -37491.27, -97696.66, -112446.46, 0.000, 0.000, 0.000, 14:06:25.361
143, -49694.92, -40921.04, -77378.85, -112901.77, -101827.80, -37406.20, -97734.61, -112499.55, 0.000, 0.000, 0.000, 14:06:25.361
144, -49817.99, -41043.14, -77174.24, -113026.66, -101943.77, -37326.20, -97844.91, -112618.97, 0.000, 0.000, 0.000, 14:06:25.361
145, -49768.86, -40992.36, -77186.38, -112973.22, -101894.76, -37409.78, -97819.79, -112577.13, 0.000, 0.000, 0.000, 14:06:25.361
146, -49643.38, -40868.91, -77391.70, -112846.63, -101767.13, -37492.70, -97703.52, -112455.34, 0.000, 0.000, 0.000, 14:06:25.361
147, -49668.97, -40898.77, -77406.37, -112877.73, -101801.82, -37420.71, -97721.13, -112476.59, 0.280, 0.284, 0.912, 14:06:25.361
148, -49807.89, -41037.71, -77202.86, -113013.50, -101944.91, -37328.73, -97847.41, -112612.69, 0.000, 0.000, 0.000, 14:06:25.361
149, -49802.41, -41023.79, -77153.08, -113003.02, -101935.55, -37397.13, -97854.93, -112615.15, 0.000, 0.000, 0.000, 14:06:25.361
150, -49664.99, -40886.10, -77338.40, -112866.41, -101799.43, -37497.98, -97738.72, -112488.52, 0.000, 0.000, 0.000, 14:06:25.362
151, -49649.64, -40871.82, -77420.12, -112854.02, -101787.63, -37447.64, -97711.90, -112469.37, 0.000, 0.000, 0.000, 14:06:25.362
152, -49787.26, -41007.63, -77231.55, -112987.80, -101919.28, -37333.65, -97817.13, -112589.78, 0.000, 0.000, 0.000, 14:06:25.362
153, -49805.90, -41020.99, -77141.37, -113000.91, -101934.84, -37363.67, -97842.84, -112612.09, 0.000, 0.000, 0.000, 14:06:25.362
154, -49680.71, -40893.21, -77303.82, -112873.84, -101811.12, -37474.66, -97739.33, -112497.65, 0.000, 0.000, 0.000, 14:06:25.362
155, -49636.61, -40854.38, -77423.71, -112835.45, -101774.51, -37461.95, -97696.74, -112457.86, 0.000, 0.000, 0.000, 14:06:25.362
