%OpenBCI Raw EEG Data
%
%Sample Rate = 250.0 Hz
%First Column = SampleIndex
%5 Columns before Timestamp are Frequency Power factors DELTA THETA ALPHA BETA GAMMA
%Last Column = Timestamp 
%Other Columns = EEG data in microvolts followed by Accel Data (in G) interleaved with Aux Data
0.000000, 0.000000, 0.000000, 0.000000, 0.000000, 0.000000, 0.000000, 0.000000, 0.280, 0.226, 0.914,0.0,0.0,0.0,0.0,0.0, 14:38:15.444
41587.898438, 31587.394531, 112782.140625, 64122.257813, 89064.234375, 72909.468750, 84571.937500, 100818.453125, 0.000, 0.000, 0.000,0.0,0.0,0.0,0.0,0.0, 14:38:15.929
41544.695313, 31539.853516, 112798.718750, 64322.863281, 89022.632813, 73030.234375, 84569.609375, 100805.445313, 0.000, 0.000, 0.000,0.0,0.0,0.0,0.0,0.0, 14:38:15.929
41517.066406, 31507.443359, 112785.710938, 64656.664063, 88989.867188, 73100.929688, 84559.218750, 100775.718750, 0.000, 0.000, 0.000,0.0,0.0,0.0,0.0,0.0, 14:38:15.930
41567.246094, 31560.595703, 112770.382813, 64503.308594, 89033.390625, 72995.945313, 84564.539063, 100791.609375, 0.000, 0.000, 0.000,0.0,0.0,0.0,0.0,0.0, 14:38:15.930
41604.753906, 31597.675781, 112780.507813, 64154.847656, 89069.218750, 72908.015625, 84570.570313, 100817.742188, 0.000, 0.000, 0.000,0.0,0.0,0.0,0.0,0.0, 14:38:15.932
41560.632813, 31548.279297, 112796.242188, 64268.148438, 89031.734375, 73001.843750, 84565.070313, 100802.117188, 0.000, 0.000, 0.000,0.0,0.0,0.0,0.0,0.0, 14:38:15.933
41511.414063, 31503.017578, 112791.054688, 64649.757813, 88988.125000, 73101.062500, 84558.281250, 100768.656250, 0.284, 0.228, 0.910,0.0,0.0,0.0,0.0,0.0, 14:38:15.933
41564.050781, 31559.433594, 112770.718750, 64579.351563, 89032.093750, 73017.242188, 84572.070313, 100787.078125, 0.000, 0.000, 0.000,0.0,0.0,0.0,0.0,0.0, 14:38:15.934
41627.820313, 31623.359375, 112787.773438, 64192.644531, 89091.007813, 72912.195313, 84592.585938, 100829.656250, 0.000, 0.000, 0.000,0.0,0.0,0.0,0.0,0.0, 14:38:15.934
41575.113281, 31561.376953, 112800.468750, 64208.109375, 89053.437500, 72979.921875, 84579.492188, 100812.289063, 0.000, 0.000, 0.000,0.0,0.0,0.0,0.0,0.0, 14:38:15.935
41529.964844, 31514.460938, 112803.484375, 64591.488281, 89006.789063, 73101.781250, 84571.328125, 100781.015625, 0.000, 0.000, 0.000,0.0,0.0,0.0,0.0,0.0, 14:38:15.935
41546.617188, 31536.343750, 112776.687500, 64629.687500, 89018.007813, 73045.632813, 84564.804688, 100776.992188, 0.000, 0.000, 0.000,0.0,0.0,0.0,0.0,0.0, 14:38:15.936
41606.632813, 31591.931641, 112765.351563, 64235.781250, 89065.867188, 72912.234375, 84572.335938, 100811.234375, 0.000, 0.000, 0.000,0.0,0.0,0.0,0.0,0.0, 14:38:15.936
41589.824219, 31576.240234, 112791.835938, 64154.578125, 89055.289063, 72956.695313, 84578.257813, 100818.054688, 0.000, 0.000, 0.000,0.0,0.0,0.0,0.0,0.0, 14:38:15.937
41520.753906, 31509.521484, 112794.070313, 64525.574219, 88994.296875, 73087.992188, 84560.937500, 100781.351563, 0.000, 0.000, 0.000,0.0,0.0,0.0,0.0,0.0, 14:38:15.937
41531.281250, 31522.574219, 112772.523438, 64669.988281, 88997.671875, 73066.304688, 84560.265625, 100770.507813, 0.000, 0.000, 0.000,0.0,0.0,0.0,0.0,0.0, 14:38:15.939
41594.785156, 31590.076172, 112764.679688, 64325.792969, 89046.484375, 72922.898438, 84561.429688, 100797.023438, 0.282, 0.234, 0.916,0.0,0.0,0.0,0.0,0.0, 14:38:15.940
41592.773438, 31578.341797, 112784.593750, 64146.644531, 89051.960938, 72927.328125, 84570.546875, 100815.125000, 0.000, 0.000, 0.000,0.0,0.0,0.0,0.0,0.0, 14:38:15.942
41535.886719, 31522.597656, 112803.820313, 64481.203125, 89002.203125, 73066.109375, 84565.835938, 100783.695313, 0.000, 0.000, 0.000,0.0,0.0,0.0,0.0,0.0, 14:38:15.943
41536.000000, 31524.787109, 112788.710938, 64721.867188, 88992.257813, 73080.726563, 84554.679688, 100760.742188, 0.000, 0.000, 0.000,0.0,0.0,0.0,0.0,0.0, 14:38:15.943
41606.117188, 31598.972656, 112770.851563, 64405.320313, 89054.507813, 72942.164063, 84568.421875, 100793.351563, 0.000, 0.000, 0.000,0.0,0.0,0.0,0.0,0.0, 14:38:15.944
41609.894531, 31603.509766, 112796.085938, 64146.554688, 89075.921875, 72917.914063, 84582.640625, 100818.835938, 0.000, 0.000, 0.000,0.0,0.0,0.0,0.0,0.0, 14:38:15.944
41555.468750, 31550.023438, 112817.945313, 64437.417969, 89025.789063, 73055.312500, 84577.140625, 100795.234375, 0.000, 0.000, 0.000,0.0,0.0,0.0,0.0,0.0, 14:38:15.944
41530.457031, 31509.677734, 112793.960938, 64730.023438, 89003.007813, 73102.539063, 84571.640625, 100773.687500, 0.000, 0.000, 0.000,0.0,0.0,0.0,0.0,0.0, 14:38:15.945
41582.445313, 31567.792969, 112772.640625, 64501.230469, 89054.820313, 72980.632813, 84582.578125, 100797.023438, 0.000, 0.000, 0.000,0.0,0.0,0.0,0.0,0.0, 14:38:15.945
41615.750000, 31601.050781, 112787.281250, 64165.082031, 89090.515625, 72915.906250, 84595.273438, 100831.171875, 0.280, 0.240, 0.918,0.0,0.0,0.0,0.0,0.0, 14:38:15.946
41564.117188, 31545.417969, 112809.851563, 64360.953125, 89048.359375, 73034.164063, 84594.312500, 100810.968750, 0.000, 0.000, 0.000,0.0,0.0,0.0,0.0,0.0, 14:38:15.947
41523.953125, 31503.888672, 112800.960938, 64740.796875, 89002.812500, 73110.609375, 84575.820313, 100769.664063, 0.000, 0.000, 0.000,0.0,0.0,0.0,0.0,0.0, 14:38:15.948
41578.648438, 31558.427734, 112774.601563, 64593.945313, 89043.335938, 72998.875000, 84578.039063, 100784.859375, 0.000, 0.000, 0.000,0.0,0.0,0.0,0.0,0.0, 14:38:15.948
41620.308594, 31602.572266, 112786.382813, 64221.878906, 89086.093750, 72900.882813, 84590.398438, 100817.117188, 0.000, 0.000, 0.000,0.0,0.0,0.0,0.0,0.0, 14:38:15.948
41573.015625, 31560.148438, 112812.937500, 64335.671875, 89050.195313, 73000.125000, 84587.601563, 100804.578125, 0.000, 0.000, 0.000,0.0,0.0,0.0,0.0,0.0, 14:38:15.948
41535.328125, 31516.986328, 112806.007813, 64715.917969, 89003.210938, 73103.523438, 84573.882813, 100771.828125, 0.000, 0.000, 0.000,0.0,0.0,0.0,0.0,0.0, 14:38:15.949
41567.738281, 31540.255859, 112775.765625, 64663.347656, 89026.546875, 73017.578125, 84572.070313, 100777.085938, 0.000, 0.000, 0.000,0.0,0.0,0.0,0.0,0.0, 14:38:15.949
41625.921875, 31603.220703, 112780.148438, 64267.296875, 89082.156250, 72897.148438, 84585.437500, 100816.804688, 0.000, 0.000, 0.000,0.0,0.0,0.0,0.0,0.0, 14:38:15.949
41598.250000, 31579.794922, 112814.164063, 64279.546875, 89056.546875, 72973.656250, 84585.304688, 100814.117188, 0.000, 0.000, 0.000,0.0,0.0,0.0,0.0,0.0, 14:38:15.950
41533.921875, 31511.734375, 112812.109375, 64678.011719, 88997.515625, 73096.414063, 84568.695313, 100776.343750, 0.280, 0.244, 0.918,0.0,0.0,0.0,0.0,0.0, 14:38:15.950
41557.457031, 31532.410156, 112785.601563, 64737.132813, 89015.867188, 73049.343750, 84570.390625, 100777.507813, 0.000, 0.000, 0.000,0.0,0.0,0.0,0.0,0.0, 14:38:15.950
41621.695313, 31605.119141, 112785.492188, 64365.242188, 89073.843750, 72918.609375, 84580.226563, 100812.890625, 0.000, 0.000, 0.000,0.0,0.0,0.0,0.0,0.0, 14:38:15.950
41609.089844, 31591.439453, 112808.132813, 64248.679688, 89069.085938, 72952.093750, 84579.757813, 100823.062500, 0.000, 0.000, 0.000,0.0,0.0,0.0,0.0,0.0, 14:38:15.951
41543.375000, 31526.351563, 112813.093750, 64615.804688, 89008.015625, 73085.484375, 84564.070313, 100783.789063, 0.000, 0.000, 0.000,0.0,0.0,0.0,0.0,0.0, 14:38:15.951
41562.843750, 31546.937500, 112791.390625, 64768.847656, 89018.257813, 73074.843750, 84567.687500, 100779.117188, 0.000, 0.000, 0.000,0.0,0.0,0.0,0.0,0.0, 14:38:15.951
41621.093750, 31608.136719, 112780.906250, 64424.453125, 89077.664063, 72941.023438, 84582.195313, 100814.726563, 0.000, 0.000, 0.000,0.0,0.0,0.0,0.0,0.0, 14:38:15.951
41621.113281, 31603.062500, 112802.523438, 64219.152344, 89088.976563, 72935.796875, 84591.757813, 100833.765625, 0.000, 0.000, 0.000,0.0,0.0,0.0,0.0,0.0, 14:38:15.951
41554.640625, 31530.710938, 112817.093750, 64535.250000, 89037.992188, 73071.937500, 84586.867188, 100800.750000, 0.000, 0.000, 0.000,0.0,0.0,0.0,0.0,0.0, 14:38:15.952
41545.050781, 31524.138672, 112801.179688, 64801.191406, 89023.109375, 73095.703125, 84579.531250, 100776.125000, 0.000, 0.000, 0.000,0.0,0.0,0.0,0.0,0.0, 14:38:15.952
41611.949219, 31598.615234, 112785.671875, 64517.054688, 89083.031250, 72963.960938, 84589.859375, 100809.429688, 0.280, 0.244, 0.920,0.0,0.0,0.0,0.0,0.0, 14:38:15.952
41616.464844, 31601.365234, 112800.085938, 64222.683594, 89105.296875, 72920.195313, 84602.578125, 100833.679688, 0.000, 0.000, 0.000,0.0,0.0,0.0,0.0,0.0, 14:38:15.953
41555.781250, 31533.302734, 112821.296875, 64492.042969, 89054.289063, 73053.054688, 84594.531250, 100806.500000, 0.000, 0.000, 0.000,0.0,0.0,0.0,0.0,0.0, 14:38:15.953
41538.191406, 31519.667969, 112806.054688, 64812.367188, 89030.351563, 73107.164063, 84590.531250, 100786.382813, 0.000, 0.000, 0.000,0.0,0.0,0.0,0.0,0.0, 14:38:15.962
41602.226563, 31604.404297, 112788.265625, 64598.953125, 89078.601563, 72985.437500, 84597.703125, 100813.203125, 0.000, 0.000, 0.000,0.0,0.0,0.0,0.0,0.0, 14:38:15.963
41620.578125, 31598.636719, 112795.523438, 64251.226563, 89103.976563, 72905.460938, 84597.593750, 100831.937500, 0.000, 0.000, 0.000,0.0,0.0,0.0,0.0,0.0, 14:38:15.963
41567.136719, 31543.808594, 112807.953125, 64405.097656, 89058.820313, 73016.195313, 84587.335938, 100806.945313, 0.000, 0.000, 0.000,0.0,0.0,0.0,0.0,0.0, 14:38:15.963
41533.652344, 31531.314453, 112807.328125, 64772.023438, 89019.414063, 73103.656250, 84580.718750, 100777.265625, 0.000, 0.000, 0.000,0.0,0.0,0.0,0.0,0.0, 14:38:15.964
41580.613281, 31568.685547, 112789.000000, 64673.562500, 89057.171875, 73013.312500, 84591.539063, 100796.507813, 0.000, 0.000, 0.000,0.0,0.0,0.0,0.0,0.0, 14:38:15.964
41605.601563, 31573.089844, 112777.132813, 64273.085938, 89086.429688, 72899.609375, 84588.898438, 100819.351563, 0.278, 0.246, 0.918,0.0,0.0,0.0,0.0,0.0, 14:38:15.964
41575.875000, 31550.849609, 112805.945313, 64347.652344, 89060.343750, 72993.304688, 84585.031250, 100814.656250, 0.000, 0.000, 0.000,0.0,0.0,0.0,0.0,0.0, 14:38:15.965
41532.355469, 31519.712891, 112814.414063, 64741.535156, 89017.921875, 73108.953125, 84579.218750, 100787.367188, 0.000, 0.000, 0.000,0.0,0.0,0.0,0.0,0.0, 14:38:15.965
41573.460938, 31557.779297, 112793.312500, 64718.222656, 89049.835938, 73038.945313, 84583.289063, 100793.671875, 0.000, 0.000, 0.000,0.0,0.0,0.0,0.0,0.0, 14:38:15.966
41619.417969, 31603.533203, 112784.554688, 64313.050781, 89097.539063, 72910.093750, 84588.007813, 100822.460938, 0.000, 0.000, 0.000,0.0,0.0,0.0,0.0,0.0, 14:38:15.966
41599.523438, 31571.414063, 112809.429688, 64277.714844, 89090.828125, 72979.828125, 84599.945313, 100832.914063, 0.000, 0.000, 0.000,0.0,0.0,0.0,0.0,0.0, 14:38:15.966
41559.625000, 31540.121094, 112833.570313, 64676.269531, 89056.765625, 73129.671875, 84608.859375, 100814.921875, 0.000, 0.000, 0.000,0.0,0.0,0.0,0.0,0.0, 14:38:15.971
41558.128906, 31532.365234, 112790.585938, 64738.292969, 89055.648438, 73063.851563, 84593.773438, 100789.890625, 0.000, 0.000, 0.000,0.0,0.0,0.0,0.0,0.0, 14:38:15.971
41600.753906, 31570.630859, 112772.796875, 64345.929688, 89108.289063, 72915.343750, 84598.492188, 100812.890625, 0.000, 0.000, 0.000,0.0,0.0,0.0,0.0,0.0, 14:38:15.971
41610.742188, 31597.699219, 112818.234375, 64246.218750, 89121.007813, 72955.960938, 84618.468750, 100834.953125, 0.000, 0.000, 0.000,0.0,0.0,0.0,0.0,0.0, 14:38:15.972
41552.761719, 31534.890625, 112833.257813, 64599.132813, 89067.718750, 73100.390625, 84608.257813, 100808.796875, 0.282, 0.250, 0.920,0.0,0.0,0.0,0.0,0.0, 14:38:15.972
41535.039063, 31503.867188, 112797.226563, 64777.878906, 89044.851563, 73081.976563, 84588.187500, 100776.164063, 0.000, 0.000, 0.000,0.0,0.0,0.0,0.0,0.0, 14:38:15.973
41605.937500, 31582.902344, 112774.539063, 64422.777344, 89100.062500, 72928.242188, 84598.976563, 100806.406250, 0.000, 0.000, 0.000,0.0,0.0,0.0,0.0,0.0, 14:38:15.973
41615.148438, 31601.476563, 112801.851563, 64195.257813, 89110.945313, 72920.125000, 84608.367188, 100828.179688, 0.000, 0.000, 0.000,0.0,0.0,0.0,0.0,0.0, 14:38:15.973
41558.171875, 31527.960938, 112818.664063, 64486.433594, 89057.882813, 73064.476563, 84602.062500, 100806.609375, 0.000, 0.000, 0.000,0.0,0.0,0.0,0.0,0.0, 14:38:15.974
41528.332031, 31505.117188, 112793.695313, 64755.238281, 89018.812500, 73080.726563, 84576.492188, 100764.476563, 0.000, 0.000, 0.000,0.0,0.0,0.0,0.0,0.0, 14:38:15.974
41592.550781, 31569.826172, 112773.484375, 64471.300781, 89068.859375, 72950.304688, 84582.593750, 100792.929688, 0.000, 0.000, 0.000,0.0,0.0,0.0,0.0,0.0, 14:38:15.974
41628.937500, 31618.195313, 112802.882813, 64150.710938, 89098.523438, 72904.500000, 84598.195313, 100824.226563, 0.000, 0.000, 0.000,0.0,0.0,0.0,0.0,0.0, 14:38:15.975
41567.292969, 31543.048828, 112833.296875, 64385.226563, 89048.835938, 73034.750000, 84591.648438, 100798.476563, 0.000, 0.000, 0.000,0.0,0.0,0.0,0.0,0.0, 14:38:15.975
41537.742188, 31507.599609, 112811.421875, 64706.824219, 89013.453125, 73099.140625, 84580.609375, 100768.117188, 0.282, 0.252, 0.916,0.0,0.0,0.0,0.0,0.0, 14:38:15.975
41606.453125, 31593.408203, 112802.765625, 64521.347656, 89067.359375, 72994.515625, 84591.937500, 100792.507813, 0.000, 0.000, 0.000,0.0,0.0,0.0,0.0,0.0, 14:38:15.976
41631.886719, 31615.490234, 112810.164063, 64148.542969, 89105.453125, 72907.992188, 84597.039063, 100824.203125, 0.000, 0.000, 0.000,0.0,0.0,0.0,0.0,0.0, 14:38:15.976
41571.335938, 31540.679688, 112818.437500, 64274.539063, 89054.132813, 73008.773438, 84584.250000, 100801.539063, 0.000, 0.000, 0.000,0.0,0.0,0.0,0.0,0.0, 14:38:15.977
41538.972656, 31518.060547, 112814.812500, 64648.886719, 89016.289063, 73104.125000, 84580.203125, 100770.312500, 0.000, 0.000, 0.000,0.0,0.0,0.0,0.0,0.0, 14:38:15.977
41589.867188, 31569.201172, 112801.023438, 64562.722656, 89057.054688, 73008.101563, 84585.414063, 100782.109375, 0.000, 0.000, 0.000,0.0,0.0,0.0,0.0,0.0, 14:38:15.978
41630.121094, 31618.083984, 112794.765625, 64154.937500, 89104.015625, 72896.320313, 84591.289063, 100815.234375, 0.000, 0.000, 0.000,0.0,0.0,0.0,0.0,0.0, 14:38:15.978
41588.546875, 31567.748047, 112818.148438, 64187.636719, 89078.093750, 72985.710938, 84594.468750, 100814.609375, 0.000, 0.000, 0.000,0.0,0.0,0.0,0.0,0.0, 14:38:15.978
41527.015625, 31502.972656, 112817.320313, 64590.527344, 89026.187500, 73095.835938, 84583.218750, 100774.734375, 0.000, 0.000, 0.000,0.0,0.0,0.0,0.0,0.0, 14:38:15.979
41557.882813, 31531.828125, 112787.812500, 64595.621094, 89041.992188, 73023.171875, 84578.484375, 100771.000000, 0.000, 0.000, 0.000,0.0,0.0,0.0,0.0,0.0, 14:38:15.979
41628.421875, 31605.455078, 112796.109375, 64205.070313, 89099.460938, 72902.804688, 84593.437500, 100814.476563, 0.284, 0.244, 0.918,0.0,0.0,0.0,0.0,0.0, 14:38:15.979
41603.992188, 31583.683594, 112820.109375, 64132.472656, 89091.703125, 72959.039063, 84598.015625, 100825.515625, 0.000, 0.000, 0.000,0.0,0.0,0.0,0.0,0.0, 14:38:15.980
41545.164063, 31533.080078, 112827.375000, 64515.828125, 89039.421875, 73096.328125, 84591.335938, 100794.492188, 0.000, 0.000, 0.000,0.0,0.0,0.0,0.0,0.0, 14:38:15.980
41551.085938, 31540.769531, 112803.484375, 64633.417969, 89042.015625, 73064.585938, 84585.812500, 100780.906250, 0.000, 0.000, 0.000,0.0,0.0,0.0,0.0,0.0, 14:38:15.980
41603.992188, 31583.527344, 112791.414063, 64267.097656, 89090.296875, 72921.421875, 84589.906250, 100804.289063, 0.000, 0.000, 0.000,0.0,0.0,0.0,0.0,0.0, 14:38:15.981
41604.105469, 31589.406250, 112813.515625, 64108.847656, 89083.968750, 72936.867188, 84596.703125, 100818.007813, 0.000, 0.000, 0.000,0.0,0.0,0.0,0.0,0.0, 14:38:15.981
41551.132813, 31526.351563, 112829.945313, 64456.839844, 89031.914063, 73071.000000, 84583.890625, 100785.468750, 0.000, 0.000, 0.000,0.0,0.0,0.0,0.0,0.0, 14:38:15.981
41551.644531, 31540.947266, 112799.234375, 64646.851563, 89029.406250, 73067.539063, 84575.062500, 100768.742188, 0.000, 0.000, 0.000,0.0,0.0,0.0,0.0,0.0, 14:38:15.982
41623.753906, 31618.843750, 112795.500000, 64322.886719, 89094.992188, 72937.898438, 84594.445313, 100808.039063, 0.000, 0.000, 0.000,0.0,0.0,0.0,0.0,0.0, 14:38:15.982
41633.855469, 31624.341797, 112824.492188, 64083.140625, 89107.882813, 72921.984375, 84606.156250, 100832.156250, 0.282, 0.250, 0.920,0.0,0.0,0.0,0.0,0.0, 14:38:15.982
41565.347656, 31553.107422, 112837.101563, 64376.308594, 89054.312500, 73056.476563, 84594.484375, 100799.773438, 0.000, 0.000, 0.000,0.0,0.0,0.0,0.0,0.0, 14:38:15.983
41540.179688, 31521.478516, 112814.031250, 64661.292969, 89023.421875, 73091.343750, 84581.054688, 100774.023438, 0.000, 0.000, 0.000,5.3140852E-6,7.039223E-6,8.65252E-6,2.7220281E-5,3.4571436E-5, 14:38:15.983
41606.921875, 31594.414063, 112797.359375, 64412.382813, 89075.210938, 72961.140625, 84593.031250, 100800.195313, 0.000, 0.000, 0.000,5.3140852E-6,7.039223E-6,8.65252E-6,2.7220281E-5,3.4571436E-5, 14:38:15.984
41628.648438, 31621.705078, 112825.093750, 64104.441406, 89110.101563, 72911.187500, 84609.554688, 100830.148438, 0.000, 0.000, 0.000,5.3140852E-6,7.039223E-6,8.65252E-6,2.7220281E-5,3.4571436E-5, 14:38:15.985
41566.507813, 31545.976563, 112848.789063, 64317.074219, 89071.164063, 73037.429688, 84609.351563, 100813.937500, 0.000, 0.000, 0.000,5.3140852E-6,7.039223E-6,8.65252E-6,2.7220281E-5,3.4571436E-5, 14:38:15.985
41546.394531, 31525.726563, 112833.281250, 64653.937500, 89040.320313, 73103.476563, 84599.046875, 100785.328125, 0.000, 0.000, 0.000,5.3140852E-6,7.039223E-6,8.65252E-6,2.7220281E-5,3.4571436E-5, 14:38:15.986
41599.859375, 31578.632813, 112802.632813, 64474.542969, 89077.625000, 72984.968750, 84599.539063, 100795.570313, 0.000, 0.000, 0.000,5.3140852E-6,7.039223E-6,8.65252E-6,2.7220281E-5,3.4571436E-5, 14:38:15.986
41634.703125, 31607.689453, 112812.695313, 64104.218750, 89110.343750, 72895.695313, 84606.179688, 100823.062500, 0.000, 0.000, 0.000,5.3140852E-6,7.039223E-6,8.65252E-6,2.7220281E-5,3.4571436E-5, 14:38:15.987
41575.628906, 31546.267578, 112831.781250, 64235.468750, 89070.671875, 72997.218750, 84590.664063, 100801.875000, 0.000, 0.000, 0.000,5.3140852E-6,7.039223E-6,8.65252E-6,2.7220281E-5,3.4571436E-5, 14:38:15.987
41540.804688, 31508.626953, 112828.945313, 64623.496094, 89029.875000, 73100.171875, 84583.335938, 100773.062500, 0.286, 0.246, 0.918,5.3140852E-6,7.039223E-6,8.65252E-6,2.7220281E-5,3.4571436E-5, 14:38:15.988
41592.148438, 31558.404297, 112803.257813, 64553.937500, 89063.632813, 73013.851563, 84588.203125, 100787.585938, 0.000, 0.000, 0.000,5.3140852E-6,7.039223E-6,8.65252E-6,2.7220281E-5,3.4571436E-5, 14:38:15.988
41641.679688, 31603.421875, 112807.890625, 64151.695313, 89115.281250, 72896.054688, 84599.695313, 100819.726563, 0.000, 0.000, 0.000,5.3140852E-6,7.039223E-6,8.65252E-6,2.7220281E-5,3.4571436E-5, 14:38:15.988
41606.003906, 31560.416016, 112837.835938, 64178.382813, 89092.421875, 72977.304688, 84603.226563, 100816.914063, 0.000, 0.000, 0.000,5.3140852E-6,7.039223E-6,8.65252E-6,2.7220281E-5,3.4571436E-5, 14:38:15.989
41555.445313, 31507.867188, 112842.890625, 64569.449219, 89039.218750, 73096.437500, 84590.375000, 100782.937500, 0.000, 0.000, 0.000,5.3140852E-6,7.039223E-6,8.65252E-6,2.7220281E-5,3.4571436E-5, 14:38:15.989
41569.863281, 31525.591797, 112813.679688, 64600.808594, 89056.632813, 73036.578125, 84589.257813, 100782.179688, 0.000, 0.000, 0.000,5.3140852E-6,7.039223E-6,8.65252E-6,2.7220281E-5,3.4571436E-5, 14:38:15.990
41632.492188, 31576.599609, 112807.953125, 64206.031250, 89115.062500, 72906.203125, 84603.179688, 100823.218750, 0.000, 0.000, 0.000,5.3140852E-6,7.039223E-6,8.65252E-6,2.7220281E-5,3.4571436E-5, 14:38:15.990
41604.039063, 31546.490234, 112831.851563, 64130.437500, 89100.328125, 72952.445313, 84603.179688, 100826.835938, 0.000, 0.000, 0.000,5.3140852E-6,7.039223E-6,8.65252E-6,2.7220281E-5,3.4571436E-5, 14:38:15.991
41532.757813, 31475.994141, 112823.375000, 64493.988281, 89043.648438, 73078.109375, 84587.578125, 100786.937500, 0.000, 0.000, 0.000,5.3140852E-6,7.039223E-6,8.65252E-6,2.7220281E-5,3.4571436E-5, 14:38:15.991
41551.644531, 31486.542969, 112809.117188, 64641.375000, 89048.046875, 73060.382813, 84588.007813, 100778.625000, 0.000, 0.000, 0.000,5.3140852E-6,7.039223E-6,8.65252E-6,2.7220281E-5,3.4571436E-5, 14:38:15.992
41611.906250, 31542.087891, 112799.281250, 64282.027344, 89096.460938, 72916.062500, 84593.078125, 100805.000000, 0.292, 0.232, 0.918,5.3140852E-6,7.039223E-6,8.65252E-6,2.7220281E-5,3.4571436E-5, 14:38:15.992
41581.082031, 31517.121094, 112801.875000, 64087.859375, 89098.718750, 72916.218750, 84594.484375, 100815.328125, 0.000, 0.000, 0.000,5.3140852E-6,7.039223E-6,8.65252E-6,2.7220281E-5,3.4571436E-5, 14:38:15.993
41521.761719, 31454.603516, 112812.132813, 64427.828125, 89042.375000, 73057.257813, 84587.000000, 100790.851563, 0.000, 0.000, 0.000,5.3140852E-6,7.039223E-6,8.65252E-6,2.7220281E-5,3.4571436E-5, 14:38:15.993
41523.972656, 31457.777344, 112794.992188, 64651.679688, 89031.468750, 73065.640625, 84579.312500, 100766.664063, 0.000, 0.000, 0.000,5.3140852E-6,7.039223E-6,8.65252E-6,2.7220281E-5,3.4571436E-5, 14:38:15.994
41589.375000, 31523.000000, 112780.015625, 64344.320313, 89081.015625, 72925.914063, 84583.781250, 100786.804688, 0.000, 0.000, 0.000,5.3140852E-6,7.039223E-6,8.65252E-6,2.7220281E-5,3.4571436E-5, 14:38:15.994
41597.757813, 31537.773438, 112791.703125, 64066.960938, 89110.078125, 72899.515625, 84596.187500, 100815.351563, 0.000, 0.000, 0.000,5.3140852E-6,7.039223E-6,8.65252E-6,2.7220281E-5,3.4571436E-5, 14:38:15.994
41527.906250, 31467.388672, 112794.453125, 64327.781250, 89042.843750, 73032.335938, 84581.437500, 100788.460938, 0.000, 0.000, 0.000,5.3140852E-6,7.039223E-6,8.65252E-6,2.7220281E-5,3.4571436E-5, 14:38:15.995
41513.156250, 31450.914063, 112780.015625, 64617.371094, 89019.062500, 73079.789063, 84574.015625, 100768.164063, 0.000, 0.000, 0.000,5.3140852E-6,7.039223E-6,8.65252E-6,2.7220281E-5,3.4571436E-5, 14:38:15.995
41573.257813, 31514.482422, 112771.921875, 64392.265625, 89070.335938, 72958.257813, 84584.968750, 100790.960938, 0.000, 0.000, 0.000,0.0,0.0,0.0,0.0,0.0, 14:38:16.407
41597.980469, 31540.031250, 112786.250000, 64072.480469, 89103.437500, 72894.468750, 84594.062500, 100816.781250, 0.302, 0.226, 0.916,0.0,0.0,0.0,0.0,0.0, 14:38:16.408
41542.144531, 31482.363281, 112806.882813, 64266.515625, 89059.781250, 73013.890625, 84588.453125, 100796.015625, 0.000, 0.000, 0.000,0.0,0.0,0.0,0.0,0.0, 14:38:16.408
41496.390625, 31441.773438, 112790.851563, 64624.882813, 89023.867188, 73090.898438, 84573.187500, 100762.085938, 0.000, 0.000, 0.000,0.0,0.0,0.0,0.0,0.0, 14:38:16.408
41549.253906, 31498.144531, 112775.406250, 64488.222656, 89058.085938, 72985.171875, 84577.835938, 100774.671875, 0.000, 0.000, 0.000,0.0,0.0,0.0,0.0,0.0, 14:38:16.410
41592.726563, 31544.435547, 112783.078125, 64108.710938, 89114.078125, 72887.289063, 84590.375000, 100812.484375, 0.000, 0.000, 0.000,0.0,0.0,0.0,0.0,0.0, 14:38:16.410
41554.820313, 31496.535156, 112806.593750, 64194.410156, 89076.367188, 72987.804688, 84588.007813, 100806.523438, 0.000, 0.000, 0.000,0.0,0.0,0.0,0.0,0.0, 14:38:16.411
41509.960938, 31451.250000, 112817.140625, 64594.796875, 89040.273438, 73097.132813, 84578.171875, 100767.585938, 0.000, 0.000, 0.000,0.0,0.0,0.0,0.0,0.0, 14:38:16.411
41531.527344, 31483.683594, 112772.414063, 64554.363281, 89051.851563, 73009.421875, 84580.875000, 100767.921875, 0.000, 0.000, 0.000,0.0,0.0,0.0,0.0,0.0, 14:38:16.412
41588.281250, 31538.623047, 112768.992188, 64156.367188, 89100.781250, 72883.515625, 84587.937500, 100799.945313, 0.000, 0.000, 0.000,0.0,0.0,0.0,0.0,0.0, 14:38:16.412
41559.425781, 31510.572266, 112806.187500, 64153.484375, 89073.531250, 72956.539063, 84590.890625, 100804.843750, 0.000, 0.000, 0.000,0.0,0.0,0.0,0.0,0.0, 14:38:16.412
41503.121094, 31455.541016, 112820.984375, 64546.160156, 89030.015625, 73084.523438, 84584.695313, 100775.585938, 0.298, 0.232, 0.912,0.0,0.0,0.0,0.0,0.0, 14:38:16.413
41541.253906, 31487.974609, 112803.125000, 64599.042969, 89068.148438, 73029.515625, 84586.015625, 100771.585938, 0.000, 0.000, 0.000,0.0,0.0,0.0,0.0,0.0, 14:38:16.413
41591.140625, 31543.250000, 112797.109375, 64223.914063, 89131.984375, 72893.750000, 84594.507813, 100801.914063, 0.000, 0.000, 0.000,0.0,0.0,0.0,0.0,0.0, 14:38:16.413
41567.312500, 31521.166016, 112811.750000, 64120.089844, 89101.445313, 72931.015625, 84593.523438, 100810.921875, 0.000, 0.000, 0.000,0.0,0.0,0.0,0.0,0.0, 14:38:16.414
41520.308594, 31461.710938, 112825.164063, 64488.601563, 89039.109375, 73072.789063, 84580.984375, 100778.515625, 0.000, 0.000, 0.000,0.0,0.0,0.0,0.0,0.0, 14:38:16.414
41516.218750, 31469.064453, 112800.156250, 64638.539063, 89035.132813, 73060.296875, 84578.328125, 100764.921875, 0.000, 0.000, 0.000,0.0,0.0,0.0,0.0,0.0, 14:38:16.414
41574.734375, 31537.349609, 112786.921875, 64289.136719, 89104.914063, 72923.437500, 84590.039063, 100799.414063, 0.000, 0.000, 0.000,0.0,0.0,0.0,0.0,0.0, 14:38:16.415
41573.437500, 31529.302734, 112813.585938, 64110.546875, 89115.062500, 72928.796875, 84596.343750, 100818.703125, 0.000, 0.000, 0.000,0.0,0.0,0.0,0.0,0.0, 14:38:16.415
41515.949219, 31471.277344, 112814.546875, 64423.156250, 89054.937500, 73066.484375, 84586.437500, 100793.445313, 0.000, 0.000, 0.000,0.0,0.0,0.0,0.0,0.0, 14:38:16.419
41514.742188, 31469.199219, 112785.695313, 64642.335938, 89026.460938, 73087.117188, 84570.031250, 100777.218750, 0.284, 0.244, 0.920,0.0,0.0,0.0,0.0,0.0, 14:38:16.420
41559.312500, 31519.781250, 112777.289063, 64366.027344, 89068.750000, 72949.765625, 84572.585938, 100796.398438, 0.000, 0.000, 0.000,0.0,0.0,0.0,0.0,0.0, 14:38:16.420
41568.187500, 31529.458984, 112795.484375, 64090.429688, 89098.835938, 72911.343750, 84583.062500, 100821.609375, 0.000, 0.000, 0.000,0.0,0.0,0.0,0.0,0.0, 14:38:16.421
41540.335938, 31476.328125, 112824.093750, 64361.554688, 89036.429688, 73042.812500, 84569.765625, 100793.445313, 0.000, 0.000, 0.000,0.0,0.0,0.0,0.0,0.0, 14:38:16.421
41506.250000, 31465.689453, 112812.539063, 64671.125000, 89032.046875, 73100.507813, 84569.656250, 100778.335938, 0.000, 0.000, 0.000,0.0,0.0,0.0,0.0,0.0, 14:38:16.421
41549.992188, 31519.042969, 112782.921875, 64448.527344, 89081.000000, 72976.453125, 84583.781250, 100799.031250, 0.000, 0.000, 0.000,0.0,0.0,0.0,0.0,0.0, 14:38:16.422
41581.777344, 31544.837891, 112785.828125, 64090.765625, 89105.828125, 72899.718750, 84589.500000, 100831.710938, 0.000, 0.000, 0.000,0.0,0.0,0.0,0.0,0.0, 14:38:16.422
41539.484375, 31493.763672, 112819.351563, 64267.007813, 89052.789063, 73021.226563, 84583.179688, 100813.023438, 0.000, 0.000, 0.000,0.0,0.0,0.0,0.0,0.0, 14:38:16.422
41516.285156, 31469.175781, 112821.523438, 64632.480469, 89023.890625, 73109.515625, 84580.140625, 100781.125000, 0.000, 0.000, 0.000,0.0,0.0,0.0,0.0,0.0, 14:38:16.425
41546.953125, 31508.851563, 112785.468750, 64509.054688, 89049.304688, 73004.234375, 84579.156250, 100791.429688, 0.000, 0.000, 0.000,0.0,0.0,0.0,0.0,0.0, 14:38:16.425
41590.382813, 31554.537109, 112791.257813, 64122.882813, 89108.601563, 72900.906250, 84590.265625, 100829.835938, 0.272, 0.256, 0.918,0.0,0.0,0.0,0.0,0.0, 14:38:16.425
41551.781250, 31512.515625, 112813.273438, 64181.378906, 89075.296875, 73000.257813, 84593.835938, 100832.273438, 0.000, 0.000, 0.000,0.0,0.0,0.0,0.0,0.0, 14:38:16.426
41498.894531, 31466.427734, 112812.070313, 64559.187500, 89004.242188, 73111.906250, 84575.507813, 100787.320313, 0.000, 0.000, 0.000,0.0,0.0,0.0,0.0,0.0, 14:38:16.426
41538.347656, 31509.611328, 112796.218750, 64544.390625, 89048.789063, 73041.718750, 84580.164063, 100789.531250, 0.000, 0.000, 0.000,0.0,0.0,0.0,0.0,0.0, 14:38:16.427
41578.355469, 31547.765625, 112784.953125, 64149.707031, 89116.312500, 72911.007813, 84591.000000, 100824.226563, 0.000, 0.000, 0.000,0.0,0.0,0.0,0.0,0.0, 14:38:16.427
41550.640625, 31512.203125, 112816.734375, 64119.417969, 89099.171875, 72977.234375, 84597.234375, 100828.265625, 0.000, 0.000, 0.000,0.0,0.0,0.0,0.0,0.0, 14:38:16.427
41499.902344, 31471.589844, 112818.234375, 64500.562500, 89020.203125, 73111.882813, 84584.656250, 100792.617188, 0.000, 0.000, 0.000,0.0,0.0,0.0,0.0,0.0, 14:38:16.428
41544.515625, 31501.921875, 112792.351563, 64560.597656, 89042.929688, 73065.523438, 84583.937500, 100791.992188, 0.000, 0.000, 0.000,0.0,0.0,0.0,0.0,0.0, 14:38:16.428
41587.789063, 31552.593750, 112774.289063, 64168.949219, 89089.781250, 72920.750000, 84587.828125, 100821.429688, 0.000, 0.000, 0.000,0.0,0.0,0.0,0.0,0.0, 14:38:16.428
41559.265625, 31529.681641, 112796.015625, 64052.027344, 89081.648438, 72942.257813, 84583.382813, 100817.515625, 0.266, 0.268, 0.922,0.0,0.0,0.0,0.0,0.0, 14:38:16.429
41510.988281, 31477.535156, 112818.414063, 64411.914063, 89022.320313, 73084.187500, 84582.257813, 100791.835938, 0.000, 0.000, 0.000,0.0,0.0,0.0,0.0,0.0, 14:38:16.429
41515.234375, 31483.257813, 112795.593750, 64572.445313, 89031.171875, 73075.093750, 84578.328125, 100780.859375, 0.000, 0.000, 0.000,0.0,0.0,0.0,0.0,0.0, 14:38:16.430
41580.925781, 31548.167969, 112786.320313, 64238.261719, 89087.726563, 72928.062500, 84581.164063, 100802.921875, 0.000, 0.000, 0.000,0.0,0.0,0.0,0.0,0.0, 14:38:16.430
41584.035156, 31549.576172, 112806.656250, 64018.031250, 89086.648438, 72915.812500, 84584.023438, 100820.625000, 0.000, 0.000, 0.000,0.0,0.0,0.0,0.0,0.0, 14:38:16.431
41545.207031, 31503.552734, 112836.273438, 64320.851563, 89051.718750, 73067.562500, 84593.882813, 100807.750000, 0.000, 0.000, 0.000,0.0,0.0,0.0,0.0,0.0, 14:38:16.431
41527.617188, 31505.720703, 112825.585938, 64555.121094, 89045.968750, 73096.843750, 84598.421875, 100790.429688, 0.000, 0.000, 0.000,0.0,0.0,0.0,0.0,0.0, 14:38:16.432
41586.625000, 31553.041016, 112790.296875, 64265.578125, 89074.492188, 72948.984375, 84588.968750, 100804.507813, 0.000, 0.000, 0.000,0.0,0.0,0.0,0.0,0.0, 14:38:16.432
41591.140625, 31559.791016, 112805.273438, 63976.925781, 89115.015625, 72908.304688, 84601.773438, 100832.382813, 0.000, 0.000, 0.000,0.0,0.0,0.0,0.0,0.0, 14:38:16.433
41534.703125, 31487.839844, 112817.093750, 64215.015625, 89041.054688, 73040.734375, 84586.125000, 100806.117188, 0.000, 0.000, 0.000,0.0,0.0,0.0,0.0,0.0, 14:38:16.433
41500.257813, 31466.271484, 112800.218750, 64528.433594, 89018.765625, 73102.960938, 84585.234375, 100780.796875, 0.268, 0.266, 0.920,0.0,0.0,0.0,0.0,0.0, 14:38:16.433
41548.941406, 31523.849609, 112778.273438, 64321.722656, 89073.937500, 72981.281250, 84593.679688, 100800.304688, 0.000, 0.000, 0.000,0.0,0.0,0.0,0.0,0.0, 14:38:16.434
41592.929688, 31560.728516, 112792.953125, 63969.773438, 89110.859375, 72904.210938, 84602.421875, 100834.773438, 0.000, 0.000, 0.000,0.0,0.0,0.0,0.0,0.0, 14:38:16.434
41552.496094, 31517.166016, 112814.570313, 64096.820313, 89074.578125, 73026.406250, 84606.937500, 100833.632813, 0.000, 0.000, 0.000,0.0,0.0,0.0,0.0,0.0, 14:38:16.434
41503.878906, 31475.255859, 112808.671875, 64468.062500, 89030.210938, 73123.328125, 84595.671875, 100796.257813, 0.000, 0.000, 0.000,0.0,0.0,0.0,0.0,0.0, 14:38:16.435
41558.910156, 31534.242188, 112784.085938, 64365.242188, 89052.273438, 73017.578125, 84588.968750, 100798.812500, 0.000, 0.000, 0.000,0.0,0.0,0.0,0.0,0.0, 14:38:16.435
41585.597656, 31566.787109, 112776.437500, 63964.519531, 89096.375000, 72896.210938, 84591.046875, 100826.367188, 0.000, 0.000, 0.000,0.0,0.0,0.0,0.0,0.0, 14:38:16.435
41544.828125, 31520.742188, 112791.906250, 64009.402344, 89066.648438, 72984.750000, 84591.382813, 100819.242188, 0.000, 0.000, 0.000,0.0,0.0,0.0,0.0,0.0, 14:38:16.436
41494.984375, 31474.630859, 112799.593750, 64390.589844, 89028.000000, 73114.945313, 84596.406250, 100799.570313, 0.000, 0.000, 0.000,0.0,0.0,0.0,0.0,0.0, 14:38:16.436
41536.894531, 31507.398438, 112788.218750, 64392.757813, 89050.843750, 73046.570313, 84597.078125, 100800.734375, 0.000, 0.000, 0.000,0.0,0.0,0.0,0.0,0.0, 14:38:16.436
41598.785156, 31570.564453, 112778.562500, 63997.847656, 89099.210938, 72913.218750, 84595.289063, 100830.882813, 0.264, 0.268, 0.914,0.0,0.0,0.0,0.0,0.0, 14:38:16.436
41581.441406, 31547.384766, 112804.984375, 63956.027344, 89078.781250, 72971.937500, 84597.976563, 100829.859375, 0.000, 0.000, 0.000,0.0,0.0,0.0,0.0,0.0, 14:38:16.437
41524.578125, 31491.998047, 112816.984375, 64323.000000, 89034.976563, 73103.921875, 84595.226563, 100798.046875, 0.000, 0.000, 0.000,0.0,0.0,0.0,0.0,0.0, 14:38:16.437
41525.628906, 31493.718750, 112796.421875, 64419.246094, 89047.851563, 73068.703125, 84595.132813, 100794.476563, 0.000, 0.000, 0.000,0.0,0.0,0.0,0.0,0.0, 14:38:16.437
41593.511719, 31558.671875, 112785.804688, 64061.347656, 89105.781250, 72923.164063, 84602.445313, 100822.390625, 0.000, 0.000, 0.000,0.0,0.0,0.0,0.0,0.0, 14:38:16.438
41574.847656, 31537.728516, 112806.992188, 63915.011719, 89118.054688, 72944.179688, 84611.718750, 100837.429688, 0.000, 0.000, 0.000,0.0,0.0,0.0,0.0,0.0, 14:38:16.438
41519.750000, 31478.564453, 112816.890625, 64261.171875, 89041.125000, 73090.914063, 84602.960938, 100807.125000, 0.000, 0.000, 0.000,0.0,0.0,0.0,0.0,0.0, 14:38:16.438
41522.609375, 31492.199219, 112793.023438, 64442.757813, 89042.328125, 73092.523438, 84601.554688, 100798.632813, 0.000, 0.000, 0.000,0.0,0.0,0.0,0.0,0.0, 14:38:16.439
41597.914063, 31562.091797, 112781.843750, 64109.449219, 89102.390625, 72947.820313, 84607.250000, 100829.164063, 0.000, 0.000, 0.000,0.0,0.0,0.0,0.0,0.0, 14:38:16.439
41587.632813, 31553.083984, 112802.007813, 63877.617188, 89111.531250, 72923.953125, 84609.640625, 100838.101563, 0.260, 0.266, 0.920,0.0,0.0,0.0,0.0,0.0, 14:38:16.439
41512.417969, 31481.000000, 112808.000000, 64167.320313, 89054.953125, 73061.906250, 84601.484375, 100802.656250, 0.000, 0.000, 0.000,0.0,0.0,0.0,0.0,0.0, 14:38:16.440
41516.710938, 31490.365234, 112800.843750, 64438.066406, 89041.992188, 73107.320313, 84602.218750, 100790.000000, 0.000, 0.000, 0.000,0.0,0.0,0.0,0.0,0.0, 14:38:16.440
41558.171875, 31529.279297, 112772.929688, 64189.425781, 89078.898438, 72968.203125, 84594.328125, 100805.515625, 0.000, 0.000, 0.000,0.0,0.0,0.0,0.0,0.0, 14:38:16.440
41576.679688, 31546.781250, 112784.148438, 63905.332031, 89099.484375, 72912.687500, 84600.992188, 100832.828125, 0.000, 0.000, 0.000,0.0,0.0,0.0,0.0,0.0, 14:38:16.441
41518.832031, 31483.593750, 112797.000000, 64117.296875, 89060.765625, 73036.398438, 84597.976563, 100807.390625, 0.000, 0.000, 0.000,0.0,0.0,0.0,0.0,0.0, 14:38:16.441
41502.136719, 31467.968750, 112789.421875, 64454.023438, 89035.398438, 73109.734375, 84593.390625, 100775.007813, 0.000, 0.000, 0.000,0.0,0.0,0.0,0.0,0.0, 14:38:16.441
41562.285156, 31532.923828, 112777.445313, 64286.878906, 89074.468750, 72997.015625, 84601.906250, 100801.421875, 0.000, 0.000, 0.000,0.0,0.0,0.0,0.0,0.0, 14:38:16.442
41583.003906, 31557.197266, 112780.882813, 63928.648438, 89109.070313, 72902.289063, 84605.507813, 100832.406250, 0.000, 0.000, 0.000,0.0,0.0,0.0,0.0,0.0, 14:38:16.442
41545.363281, 31513.589844, 112799.039063, 64045.679688, 89075.093750, 73013.867188, 84609.554688, 100825.226563, 0.000, 0.000, 0.000,0.0,0.0,0.0,0.0,0.0, 14:38:16.442
41512.039063, 31471.701172, 112807.726563, 64419.757813, 89036.429688, 73120.578125, 84607.921875, 100793.039063, 0.254, 0.282, 0.924,0.0,0.0,0.0,0.0,0.0, 14:38:16.442
41546.796875, 31515.332031, 112780.304688, 64338.757813, 89076.593750, 73025.984375, 84612.570313, 100807.437500, 0.000, 0.000, 0.000,0.0,0.0,0.0,0.0,0.0, 14:38:16.443
41594.894531, 31563.121094, 112795.343750, 63980.546875, 89120.250000, 72908.640625, 84622.742188, 100838.062500, 0.000, 0.000, 0.000,0.0,0.0,0.0,0.0,0.0, 14:38:16.443
41548.472656, 31516.337891, 112814.640625, 64026.660156, 89092.085938, 72989.375000, 84619.523438, 100828.828125, 0.000, 0.000, 0.000,0.0,0.0,0.0,0.0,0.0, 14:38:16.443
41506.160156, 31469.332031, 112810.500000, 64388.667969, 89046.914063, 73116.171875, 84611.898438, 100801.382813, 0.000, 0.000, 0.000,0.0,0.0,0.0,0.0,0.0, 14:38:16.443
41547.175781, 31509.542969, 112797.718750, 64422.910156, 89065.039063, 73062.531250, 84616.101563, 100806.921875, 0.000, 0.000, 0.000,0.0,0.0,0.0,0.0,0.0, 14:38:16.444
41588.929688, 31554.894531, 112782.023438, 64043.132813, 89110.632813, 72916.664063, 84612.812500, 100831.015625, 0.000, 0.000, 0.000,0.0,0.0,0.0,0.0,0.0, 14:38:16.444
41565.617188, 31533.326172, 112809.695313, 63989.308594, 89102.898438, 72970.773438, 84624.171875, 100840.226563, 0.000, 0.000, 0.000,0.0,0.0,0.0,0.0,0.0, 14:38:16.445
41499.230469, 31469.691406, 112812.132813, 64351.808594, 89050.617188, 73110.046875, 84620.054688, 100810.250000, 0.000, 0.000, 0.000,0.0,0.0,0.0,0.0,0.0, 14:38:16.445
41518.117188, 31486.164063, 112791.679688, 64474.117188, 89064.234375, 73085.085938, 84618.851563, 100803.031250, 0.252, 0.284, 0.920,0.0,0.0,0.0,0.0,0.0, 14:38:16.445
41578.156250, 31548.792969, 112776.460938, 64129.968750, 89107.460938, 72937.851563, 84619.140625, 100833.703125, 0.000, 0.000, 0.000,0.0,0.0,0.0,0.0,0.0, 14:38:16.446
41575.562500, 31549.419922, 112802.117188, 63984.257813, 89107.039063, 72952.562500, 84621.820313, 100847.601563, 0.000, 0.000, 0.000,0.0,0.0,0.0,0.0,0.0, 14:38:16.446
41525.449219, 31499.730469, 112822.281250, 64315.199219, 89066.960938, 73098.226563, 84623.726563, 100819.531250, 0.000, 0.000, 0.000,0.0,0.0,0.0,0.0,0.0, 14:38:16.446
41513.781250, 31493.695313, 112798.679688, 64521.148438, 89049.929688, 73103.523438, 84615.367188, 100794.671875, 0.000, 0.000, 0.000,0.0,0.0,0.0,0.0,0.0, 14:38:16.447
41578.246094, 31546.402344, 112777.625000, 64219.285156, 89093.757813, 72952.382813, 84607.984375, 100818.453125, 0.000, 0.000, 0.000,0.0,0.0,0.0,0.0,0.0, 14:38:16.447
41584.457031, 31555.767578, 112798.898438, 63979.472656, 89109.945313, 72922.500000, 84614.445313, 100838.375000, 0.000, 0.000, 0.000,0.0,0.0,0.0,0.0,0.0, 14:38:16.448
41528.890625, 31503.375000, 112820.804688, 64252.031250, 89067.046875, 73069.820313, 84615.585938, 100820.203125, 0.000, 0.000, 0.000,0.0,0.0,0.0,0.0,0.0, 14:38:16.448
41521.851563, 31484.242188, 112818.390625, 64535.117188, 89050.039063, 73122.921875, 84617.578125, 100804.109375, 0.000, 0.000, 0.000,0.0,0.0,0.0,0.0,0.0, 14:38:16.448
41569.972656, 31535.695313, 112790.898438, 64306.191406, 89091.593750, 72983.781250, 84614.046875, 100817.070313, 0.000, 0.000, 0.000,0.0,0.0,0.0,0.0,0.0, 14:38:16.449
41589.375000, 31559.701172, 112810.234375, 64012.644531, 89120.984375, 72920.734375, 84623.632813, 100845.859375, 0.246, 0.290, 0.920,0.0,0.0,0.0,0.0,0.0, 14:38:16.449
41532.156250, 31500.333984, 112832.273438, 64234.664063, 89076.750000, 73051.289063, 84624.195313, 100825.164063, 0.000, 0.000, 0.000,0.0,0.0,0.0,0.0,0.0, 14:38:16.450
41528.667969, 31494.814453, 112825.140625, 64556.039063, 89055.382813, 73136.070313, 84629.539063, 100811.523438, 0.000, 0.000, 0.000,0.0,0.0,0.0,0.0,0.0, 14:38:16.450
41571.964844, 31534.152344, 112807.242188, 64404.179688, 89100.953125, 73017.468750, 84629.539063, 100821.539063, 0.000, 0.000, 0.000,0.0,0.0,0.0,0.0,0.0, 14:38:16.451
41604.550781, 31566.406250, 112810.320313, 64046.843750, 89136.335938, 72919.140625, 84634.320313, 100852.320313, 0.000, 0.000, 0.000,0.0,0.0,0.0,0.0,0.0, 14:38:16.451
41558.105469, 31517.121094, 112827.351563, 64155.250000, 89099.234375, 73025.445313, 84635.929688, 100837.367188, 0.000, 0.000, 0.000,0.0,0.0,0.0,0.0,0.0, 14:38:16.451
41511.097656, 31479.660156, 112819.218750, 64520.273438, 89050.554688, 73134.101563, 84629.265625, 100807.640625, 0.000, 0.000, 0.000,0.0,0.0,0.0,0.0,0.0, 14:38:16.452
41565.546875, 31525.994141, 112796.664063, 64473.292969, 89074.515625, 73047.109375, 84625.445313, 100808.328125, 0.000, 0.000, 0.000,0.0,0.0,0.0,0.0,0.0, 14:38:16.452
41614.921875, 31566.832031, 112807.710938, 64104.441406, 89131.242188, 72912.101563, 84623.882813, 100825.851563, 0.000, 0.000, 0.000,0.0,0.0,0.0,0.0,0.0, 14:38:16.452
41567.000000, 31535.404297, 112833.257813, 64117.675781, 89110.187500, 72997.664063, 84634.093750, 100836.671875, 0.000, 0.000, 0.000,0.0,0.0,0.0,0.0,0.0, 14:38:16.453
41516.957031, 31487.794922, 112833.390625, 64498.257813, 89064.320313, 73137.500000, 84637.515625, 100814.390625, 0.250, 0.294, 0.918,0.0,0.0,0.0,0.0,0.0, 14:38:16.453
41540.425781, 31511.197266, 112805.492188, 64531.406250, 89075.164063, 73072.859375, 84631.078125, 100806.070313, 0.000, 0.000, 0.000,0.0,0.0,0.0,0.0,0.0, 14:38:16.454
41599.769531, 31572.507813, 112798.164063, 64158.019531, 89123.351563, 72929.109375, 84631.007813, 100836.921875, 0.000, 0.000, 0.000,0.0,0.0,0.0,0.0,0.0, 14:38:16.455
41567.203125, 31538.310547, 112816.265625, 64075.652344, 89115.750000, 72967.468750, 84629.515625, 100836.046875, 0.000, 0.000, 0.000,0.0,0.0,0.0,0.0,0.0, 14:38:16.455
41519.035156, 31491.214844, 112822.687500, 64430.285156, 89060.500000, 73109.710938, 84626.515625, 100810.296875, 0.000, 0.000, 0.000,0.0,0.0,0.0,0.0,0.0, 14:38:16.455
41532.601563, 31504.603516, 112808.398438, 64573.539063, 89054.601563, 73089.039063, 84617.867188, 100793.625000, 0.000, 0.000, 0.000,0.0,0.0,0.0,0.0,0.0, 14:38:16.456
41589.421875, 31557.554688, 112789.671875, 64244.453125, 89097.898438, 72939.867188, 84615.703125, 100817.070313, 0.000, 0.000, 0.000,0.0,0.0,0.0,0.0,0.0, 14:38:16.456
41597.937500, 31570.675781, 112814.882813, 64081.621094, 89113.718750, 72950.414063, 84628.750000, 100840.718750, 0.000, 0.000, 0.000,0.0,0.0,0.0,0.0,0.0, 14:38:16.456
41517.203125, 31491.416016, 112822.976563, 64397.699219, 89064.007813, 73094.804688, 84626.359375, 100815.281250, 0.000, 0.000, 0.000,0.0,0.0,0.0,0.0,0.0, 14:38:16.457
41520.195313, 31485.828125, 112798.117188, 64600.203125, 89035.265625, 73104.726563, 84609.507813, 100792.640625, 0.240, 0.298, 0.918,0.0,0.0,0.0,0.0,0.0, 14:38:16.457
41586.246094, 31553.062500, 112791.125000, 64314.101563, 89108.195313, 72964.273438, 84623.414063, 100821.382813, 0.000, 0.000, 0.000,0.0,0.0,0.0,0.0,0.0, 14:38:16.458
41589.867188, 31566.451172, 112809.476563, 64073.417969, 89118.343750, 72933.156250, 84623.390625, 100846.062500, 0.000, 0.000, 0.000,0.0,0.0,0.0,0.0,0.0, 14:38:16.458
41529.851563, 31500.960938, 112829.140625, 64329.925781, 89065.664063, 73072.250000, 84620.039063, 100822.101563, 0.000, 0.000, 0.000,0.0,0.0,0.0,0.0,0.0, 14:38:16.458
41499.878906, 31469.087891, 112809.093750, 64615.628906, 89043.804688, 73126.906250, 84615.031250, 100795.992188, 0.000, 0.000, 0.000,0.0,0.0,0.0,0.0,0.0, 14:38:16.888
41572.367188, 31540.970703, 112791.968750, 64412.515625, 89093.132813, 72999.921875, 84618.828125, 100819.867188, 0.000, 0.000, 0.000,0.0,0.0,0.0,0.0,0.0, 14:38:16.888
41595.140625, 31566.496094, 112808.960938, 64104.710938, 89133.632813, 72922.562500, 84625.289063, 100842.820313, 0.000, 0.000, 0.000,0.0,0.0,0.0,0.0,0.0, 14:38:16.889
41540.714844, 31505.431641, 112819.109375, 64280.753906, 89084.148438, 73046.101563, 84623.609375, 100826.007813, 0.000, 0.000, 0.000,0.0,0.0,0.0,0.0,0.0, 14:38:16.889
41493.218750, 31454.291016, 112804.937500, 64621.640625, 89040.945313, 73132.109375, 84619.140625, 100795.835938, 0.000, 0.000, 0.000,0.0,0.0,0.0,0.0,0.0, 14:38:16.890
41553.703125, 31521.033203, 112789.937500, 64504.742188, 89080.437500, 73021.179688, 84622.156250, 100809.539063, 0.000, 0.000, 0.000,0.0,0.0,0.0,0.0,0.0, 14:38:16.890
41594.808594, 31568.843750, 112793.203125, 64146.531250, 89123.171875, 72909.289063, 84625.195313, 100837.007813, 0.238, 0.296, 0.920,0.0,0.0,0.0,0.0,0.0, 14:38:16.890
41547.777344, 31516.941406, 112812.085938, 64229.234375, 89091.968750, 73005.976563, 84623.390625, 100824.914063, 0.000, 0.000, 0.000,0.0,0.0,0.0,0.0,0.0, 14:38:16.891
41509.914063, 31488.935547, 112814.773438, 64583.328125, 89051.492188, 73130.593750, 84629.851563, 100811.015625, 0.000, 0.000, 0.000,0.0,0.0,0.0,0.0,0.0, 14:38:16.891
41548.449219, 31513.476563, 112800.820313, 64559.726563, 89067.539063, 73047.914063, 84619.054688, 100805.914063, 0.000, 0.000, 0.000,0.0,0.0,0.0,0.0,0.0, 14:38:16.892
41605.582031, 31565.042969, 112804.757813, 64203.281250, 89116.601563, 72915.476563, 84619.742188, 100833.562500, 0.000, 0.000, 0.000,0.0,0.0,0.0,0.0,0.0, 14:38:16.892
41563.000000, 31536.634766, 112821.187500, 64195.480469, 89106.164063, 72987.984375, 84628.796875, 100836.179688, 0.000, 0.000, 0.000,0.0,0.0,0.0,0.0,0.0, 14:38:16.892
41516.441406, 31488.064453, 112822.726563, 64562.363281, 89059.562500, 73129.851563, 84630.164063, 100810.898438, 0.000, 0.000, 0.000,0.0,0.0,0.0,0.0,0.0, 14:38:16.893
41546.078125, 31516.785156, 112805.828125, 64632.839844, 89071.117188, 73082.468750, 84624.328125, 100805.289063, 0.000, 0.000, 0.000,0.0,0.0,0.0,0.0,0.0, 14:38:16.893
41590.605469, 31557.085938, 112787.789063, 64267.164063, 89106.992188, 72925.671875, 84611.203125, 100823.687500, 0.000, 0.000, 0.000,0.0,0.0,0.0,0.0,0.0, 14:38:16.893
41564.410156, 31527.402344, 112804.757813, 64171.007813, 89099.078125, 72959.351563, 84614.109375, 100831.601563, 0.240, 0.300, 0.916,0.0,0.0,0.0,0.0,0.0, 14:38:16.894
41504.191406, 31473.310547, 112814.281250, 64521.796875, 89039.710938, 73105.554688, 84614.757813, 100802.656250, 0.000, 0.000, 0.000,0.0,0.0,0.0,0.0,0.0, 14:38:16.895
41525.203125, 31492.332031, 112794.476563, 64666.253906, 89058.109375, 73089.914063, 84615.898438, 100793.039063, 0.000, 0.000, 0.000,0.0,0.0,0.0,0.0,0.0, 14:38:16.895
41578.421875, 31545.396484, 112772.187500, 64331.937500, 89102.742188, 72937.000000, 84606.734375, 100815.664063, 0.000, 0.000, 0.000,0.0,0.0,0.0,0.0,0.0, 14:38:16.895
41577.328125, 31540.568359, 112792.820313, 64141.769531, 89090.007813, 72925.625000, 84605.867188, 100824.046875, 0.000, 0.000, 0.000,0.0,0.0,0.0,0.0,0.0, 14:38:16.896
41504.820313, 31479.681641, 112804.375000, 64442.914063, 89054.796875, 73072.234375, 84613.398438, 100802.632813, 0.000, 0.000, 0.000,0.0,0.0,0.0,0.0,0.0, 14:38:16.896
41501.355469, 31483.482422, 112789.960938, 64687.601563, 89038.218750, 73099.500000, 84608.750000, 100780.546875, 0.000, 0.000, 0.000,0.0,0.0,0.0,0.0,0.0, 14:38:16.896
41561.078125, 31537.349609, 112773.554688, 64423.246094, 89076.796875, 72951.484375, 84602.179688, 100802.093750, 0.000, 0.000, 0.000,0.0,0.0,0.0,0.0,0.0, 14:38:16.897
41584.996094, 31557.623047, 112793.539063, 64139.089844, 89106.656250, 72910.609375, 84613.578125, 100836.132813, 0.000, 0.000, 0.000,0.0,0.0,0.0,0.0,0.0, 14:38:16.897
41533.519531, 31502.078125, 112823.976563, 64390.636719, 89072.257813, 73058.867188, 84620.726563, 100817.804688, 0.000, 0.000, 0.000,0.0,0.0,0.0,0.0,0.0, 14:38:16.897
41512.015625, 31480.396484, 112818.500000, 64703.132813, 89046.328125, 73118.406250, 84620.148438, 100786.742188, 0.240, 0.302, 0.920,0.0,0.0,0.0,0.0,0.0, 14:38:16.897
41563.691406, 31536.544922, 112788.375000, 64491.867188, 89088.460938, 72980.679688, 84615.718750, 100800.281250, 0.000, 0.000, 0.000,0.0,0.0,0.0,0.0,0.0, 14:38:16.898
41600.730469, 31566.070313, 112804.132813, 64175.812500, 89116.421875, 72904.640625, 84611.429688, 100829.742188, 0.000, 0.000, 0.000,0.0,0.0,0.0,0.0,0.0, 14:38:16.898
41551.199219, 31519.535156, 112824.093750, 64334.152344, 89075.742188, 73028.351563, 84617.710938, 100820.156250, 0.000, 0.000, 0.000,0.0,0.0,0.0,0.0,0.0, 14:38:16.898
41523.257813, 31493.406250, 112819.554688, 64667.417969, 89045.812500, 73130.187500, 84617.664063, 100797.828125, 0.000, 0.000, 0.000,0.0,0.0,0.0,0.0,0.0, 14:38:16.898
41563.781250, 31537.841797, 112801.359375, 64576.265625, 89074.468750, 73024.195313, 84612.750000, 100799.187500, 0.000, 0.000, 0.000,0.0,0.0,0.0,0.0,0.0, 14:38:16.899
41602.785156, 31573.648438, 112799.882813, 64218.707031, 89113.828125, 72903.656250, 84615.093750, 100822.031250, 0.000, 0.000, 0.000,0.0,0.0,0.0,0.0,0.0, 14:38:16.899
41559.738281, 31536.320313, 112818.343750, 64282.093750, 89089.109375, 73000.703125, 84621.156250, 100824.937500, 0.000, 0.000, 0.000,0.0,0.0,0.0,0.0,0.0, 14:38:16.899
41536.781250, 31505.005859, 112828.429688, 64651.613281, 89045.546875, 73129.023438, 84621.062500, 100801.109375, 0.000, 0.000, 0.000,0.0,0.0,0.0,0.0,0.0, 14:38:16.900
41555.468750, 31531.806641, 112801.765625, 64636.101563, 89071.226563, 73049.031250, 84619.546875, 100798.476563, 0.236, 0.310, 0.918,0.0,0.0,0.0,0.0,0.0, 14:38:16.900
41595.277344, 31566.898438, 112784.398438, 64257.753906, 89109.609375, 72901.710938, 84615.429688, 100819.929688, 0.000, 0.000, 0.000,0.0,0.0,0.0,0.0,0.0, 14:38:16.900
41564.742188, 31540.814453, 112810.906250, 64236.273438, 89096.304688, 72969.007813, 84623.101563, 100827.421875, 0.000, 0.000, 0.000,0.0,0.0,0.0,0.0,0.0, 14:38:16.901
41521.070313, 31491.595703, 112823.531250, 64595.332031, 89051.046875, 73113.578125, 84626.984375, 100807.953125, 0.000, 0.000, 0.000,0.0,0.0,0.0,0.0,0.0, 14:38:16.901
41540.289063, 31509.455078, 112805.804688, 64676.468750, 89060.429688, 73071.429688, 84621.398438, 100794.070313, 0.000, 0.000, 0.000,0.0,0.0,0.0,0.0,0.0, 14:38:16.901
41592.035156, 31561.533203, 112794.921875, 64340.140625, 89100.289063, 72920.929688, 84613.398438, 100812.375000, 0.000, 0.000, 0.000,0.0,0.0,0.0,0.0,0.0, 14:38:16.902
41582.199219, 31554.269531, 112813.007813, 64220.515625, 89098.382813, 72949.656250, 84619.210938, 100831.976563, 0.000, 0.000, 0.000,0.0,0.0,0.0,0.0,0.0, 14:38:16.902
41530.476563, 31498.234375, 112828.492188, 64554.562500, 89057.664063, 73102.476563, 84624.906250, 100813.000000, 0.000, 0.000, 0.000,0.0,0.0,0.0,0.0,0.0, 14:38:16.902
41543.375000, 31510.460938, 112813.250000, 64734.179688, 89055.960938, 73106.273438, 84626.406250, 100806.718750, 0.000, 0.000, 0.000,0.0,0.0,0.0,0.0,0.0, 14:38:16.903
41602.652344, 31564.373047, 112798.117188, 64424.230469, 89105.468750, 72951.218750, 84622.453125, 100817.093750, 0.000, 0.000, 0.000,0.0,0.0,0.0,0.0,0.0, 14:38:16.903
41595.074219, 31553.867188, 112810.367188, 64205.585938, 89116.109375, 72933.804688, 84624.437500, 100830.031250, 0.244, 0.304, 0.914,0.0,0.0,0.0,0.0,0.0, 14:38:16.903
41534.324219, 31500.871094, 112828.492188, 64496.468750, 89063.453125, 73080.632813, 84619.250000, 100803.929688, 0.000, 0.000, 0.000,0.0,0.0,0.0,0.0,0.0, 14:38:16.904
41525.046875, 31482.677734, 112819.195313, 64766.902344, 89046.773438, 73117.492188, 84617.601563, 100778.625000, 0.000, 0.000, 0.000,0.0,0.0,0.0,0.0,0.0, 14:38:16.904
41586.023438, 31545.529297, 112792.304688, 64512.339844, 89096.195313, 72976.250000, 84618.875000, 100805.156250, 0.000, 0.000, 0.000,0.0,0.0,0.0,0.0,0.0, 14:38:16.904
41608.261719, 31569.513672, 112812.468750, 64229.054688, 89123.351563, 72923.656250, 84623.726563, 100835.085938, 0.000, 0.000, 0.000,0.0,0.0,0.0,0.0,0.0, 14:38:16.904
41541.183594, 31506.794922, 112826.867188, 64434.781250, 89080.195313, 73057.320313, 84625.398438, 100822.437500, 0.000, 0.000, 0.000,0.0,0.0,0.0,0.0,0.0, 14:38:16.905
41532.445313, 31497.294922, 112823.015625, 64742.207031, 89062.687500, 73138.484375, 84633.492188, 100807.125000, 0.000, 0.000, 0.000,0.0,0.0,0.0,0.0,0.0, 14:38:16.905
41594.136719, 31557.308594, 112809.164063, 64572.890625, 89106.968750, 73017.984375, 84636.867188, 100823.437500, 0.000, 0.000, 0.000,0.0,0.0,0.0,0.0,0.0, 14:38:16.905
41608.375000, 31566.160156, 112809.117188, 64246.757813, 89127.492188, 72917.375000, 84625.960938, 100833.562500, 0.000, 0.000, 0.000,0.0,0.0,0.0,0.0,0.0, 14:38:16.906
41562.507813, 31519.757813, 112825.031250, 64372.082031, 89094.320313, 73030.031250, 84629.398438, 100824.421875, 0.000, 0.000, 0.000,0.0,0.0,0.0,0.0,0.0, 14:38:16.906
41531.886719, 31491.908203, 112831.335938, 64726.828125, 89062.687500, 73138.773438, 84635.367188, 100797.671875, 0.236, 0.304, 0.920,0.0,0.0,0.0,0.0,0.0, 14:38:16.906
41571.984375, 31533.191406, 112807.710938, 64641.488281, 89091.570313, 73036.804688, 84630.812500, 100798.359375, 0.000, 0.000, 0.000,0.0,0.0,0.0,0.0,0.0, 14:38:16.907
41601.757813, 31559.119141, 112803.570313, 64271.789063, 89123.796875, 72909.398438, 84619.859375, 100821.117188, 0.000, 0.000, 0.000,0.0,0.0,0.0,0.0,0.0, 14:38:16.907
41568.789063, 31523.201172, 112830.906250, 64329.703125, 89101.179688, 73004.015625, 84624.843750, 100821.851563, 0.000, 0.000, 0.000,0.0,0.0,0.0,0.0,0.0, 14:38:16.907
41533.652344, 31493.205078, 112833.656250, 64676.156250, 89066.085938, 73133.476563, 84630.140625, 100799.593750, 0.000, 0.000, 0.000,0.0,0.0,0.0,0.0,0.0, 14:38:16.908
41560.808594, 31526.306641, 112815.820313, 64692.562500, 89077.710938, 73065.640625, 84621.664063, 100793.156250, 0.000, 0.000, 0.000,0.0,0.0,0.0,0.0,0.0, 14:38:16.908
41613.449219, 31585.427734, 112814.656250, 64337.281250, 89121.187500, 72924.687500, 84617.351563, 100820.242188, 0.000, 0.000, 0.000,0.0,0.0,0.0,0.0,0.0, 14:38:16.908
41587.230469, 31553.710938, 112833.593750, 64284.417969, 89109.273438, 72975.562500, 84624.726563, 100828.289063, 0.000, 0.000, 0.000,0.0,0.0,0.0,0.0,0.0, 14:38:16.909
41523.882813, 31489.875000, 112831.242188, 64637.578125, 89055.804688, 73113.359375, 84620.570313, 100793.890625, 0.000, 0.000, 0.000,0.0,0.0,0.0,0.0,0.0, 14:38:16.909
41553.164063, 31516.986328, 112809.515625, 64731.230469, 89070.734375, 73082.625000, 84621.218750, 100789.000000, 0.246, 0.304, 0.918,0.0,0.0,0.0,0.0,0.0, 14:38:16.909
41613.515625, 31581.359375, 112804.843750, 64395.910156, 89123.265625, 72941.203125, 84623.882813, 100820.156250, 0.000, 0.000, 0.000,0.0,0.0,0.0,0.0,0.0, 14:38:16.910
41607.726563, 31576.263672, 112830.242188, 64260.750000, 89123.265625, 72958.414063, 84628.039063, 100834.773438, 0.000, 0.000, 0.000,0.0,0.0,0.0,0.0,0.0, 14:38:16.911
41535.730469, 31496.736328, 112836.382813, 64586.929688, 89063.789063, 73103.789063, 84620.039063, 100803.320313, 0.000, 0.000, 0.000,0.0,0.0,0.0,0.0,0.0, 14:38:16.912
41541.164063, 31503.263672, 112815.664063, 64765.339844, 89064.007813, 73112.421875, 84619.812500, 100793.492188, 0.000, 0.000, 0.000,0.0,0.0,0.0,0.0,0.0, 14:38:16.912
41605.960938, 31573.738281, 112806.992188, 64461.535156, 89120.382813, 72970.734375, 84625.984375, 100824.289063, 0.000, 0.000, 0.000,0.0,0.0,0.0,0.0,0.0, 14:38:16.912
41605.468750, 31573.939453, 112824.875000, 64242.464844, 89125.117188, 72938.343750, 84620.953125, 100828.421875, 0.000, 0.000, 0.000,0.0,0.0,0.0,0.0,0.0, 14:38:16.913
41549.277344, 31517.724609, 112844.054688, 64521.570313, 89083.296875, 73085.437500, 84630.695313, 100811.820313, 0.000, 0.000, 0.000,0.0,0.0,0.0,0.0,0.0, 14:38:16.913
41534.367188, 31495.439453, 112822.929688, 64782.593750, 89060.320313, 73125.312500, 84618.046875, 100784.523438, 0.000, 0.000, 0.000,0.0,0.0,0.0,0.0,0.0, 14:38:16.913
41599.476563, 31566.898438, 112804.804688, 64538.023438, 89111.953125, 72986.710938, 84619.117188, 100808.351563, 0.000, 0.000, 0.000,0.0,0.0,0.0,0.0,0.0, 14:38:16.914
41611.703125, 31581.359375, 112816.984375, 64241.839844, 89134.398438, 72923.164063, 84619.859375, 100833.500000, 0.260, 0.302, 0.914,0.0,0.0,0.0,0.0,0.0, 14:38:16.914
41556.273438, 31527.492188, 112841.750000, 64452.078125, 89096.773438, 73060.093750, 84630.320313, 100822.546875, 0.000, 0.000, 0.000,0.0,0.0,0.0,0.0,0.0, 14:38:16.915
41531.148438, 31502.636719, 112834.554688, 64771.015625, 89069.687500, 73140.601563, 84630.429688, 100796.687500, 0.000, 0.000, 0.000,0.0,0.0,0.0,0.0,0.0, 14:38:16.915
41588.593750, 31560.214844, 112816.359375, 64618.242188, 89105.875000, 73017.539063, 84624.882813, 100803.500000, 0.000, 0.000, 0.000,0.0,0.0,0.0,0.0,0.0, 14:38:16.915
41635.800781, 31601.587891, 112825.570313, 64262.222656, 89149.125000, 72918.117188, 84630.671875, 100836.804688, 0.000, 0.000, 0.000,0.0,0.0,0.0,0.0,0.0, 14:38:16.915
41590.382813, 31554.515625, 112851.203125, 64370.429688, 89118.320313, 73034.187500, 84639.101563, 100833.992188, 0.000, 0.000, 0.000,0.0,0.0,0.0,0.0,0.0, 14:38:16.916
41551.488281, 31510.125000, 112852.320313, 64728.035156, 89077.507813, 73149.835938, 84637.718750, 100807.460938, 0.000, 0.000, 0.000,0.0,0.0,0.0,0.0,0.0, 14:38:16.916
41588.996094, 31553.666016, 112831.867188, 64675.082031, 89102.406250, 73050.570313, 84630.695313, 100805.046875, 0.000, 0.000, 0.000,0.0,0.0,0.0,0.0,0.0, 14:38:16.916
41636.000000, 31603.935547, 112828.898438, 64300.175781, 89150.242188, 72917.203125, 84634.187500, 100834.234375, 0.000, 0.000, 0.000,0.0,0.0,0.0,0.0,0.0, 14:38:16.916
41602.046875, 31570.541016, 112851.226563, 64321.007813, 89130.929688, 73006.296875, 84643.414063, 100844.453125, 0.258, 0.304, 0.914,0.0,0.0,0.0,0.0,0.0, 14:38:16.916
41552.136719, 31526.955078, 112857.195313, 64691.468750, 89084.906250, 73143.937500, 84642.968750, 100817.789063, 0.000, 0.000, 0.000,0.0,0.0,0.0,0.0,0.0, 14:38:16.917
41566.890625, 31536.388672, 112822.750000, 64719.519531, 89092.304688, 73076.164063, 84632.867188, 100803.617188, 0.000, 0.000, 0.000,0.0,0.0,0.0,0.0,0.0, 14:38:16.917
41622.277344, 31593.408203, 112810.125000, 64335.828125, 89141.054688, 72930.656250, 84632.195313, 100834.859375, 0.000, 0.000, 0.000,0.0,0.0,0.0,0.0,0.0, 14:38:16.917
41603.500000, 31572.552734, 112841.750000, 64265.308594, 89133.882813, 72982.289063, 84641.179688, 100841.257813, 0.000, 0.000, 0.000,0.0,0.0,0.0,0.0,0.0, 14:38:16.917
41551.554688, 31524.810547, 112848.703125, 64598.753906, 89086.875000, 73122.726563, 84642.093750, 100812.757813, 0.000, 0.000, 0.000,0.0,0.0,0.0,0.0,0.0, 14:38:16.918
41563.312500, 31547.921875, 112825.390625, 64715.203125, 89087.281250, 73094.914063, 84632.953125, 100800.148438, 0.000, 0.000, 0.000,0.0,0.0,0.0,0.0,0.0, 14:38:16.918
41621.496094, 31592.892578, 112816.851563, 64385.964844, 89135.398438, 72943.507813, 84631.476563, 100821.632813, 0.000, 0.000, 0.000,0.0,0.0,0.0,0.0,0.0, 14:38:16.918
41623.437500, 31595.173828, 112844.968750, 64239.648438, 89146.484375, 72954.078125, 84643.687500, 100838.484375, 0.000, 0.000, 0.000,0.0,0.0,0.0,0.0,0.0, 14:38:16.918
41563.000000, 31537.103516, 112851.312500, 64552.105469, 89095.882813, 73103.835938, 84642.703125, 100818.296875, 0.000, 0.000, 0.000,0.0,0.0,0.0,0.0,0.0, 14:38:16.918
41562.441406, 31534.779297, 112824.539063, 64736.886719, 89084.687500, 73114.429688, 84632.328125, 100795.007813, 0.260, 0.308, 0.908,0.0,0.0,0.0,0.0,0.0, 14:38:16.919
41630.144531, 31614.775391, 112817.765625, 64449.375000, 89141.437500, 72969.257813, 84636.484375, 100819.867188, 0.000, 0.000, 0.000,0.0,0.0,0.0,0.0,0.0, 14:38:16.919
41614.992188, 31581.583984, 112820.804688, 64196.109375, 89143.757813, 72930.523438, 84629.109375, 100831.640625, 0.000, 0.000, 0.000,0.0,0.0,0.0,0.0,0.0, 14:38:16.919
41549.476563, 31511.689453, 112825.343750, 64438.109375, 89090.453125, 73070.015625, 84625.375000, 100808.796875, 0.000, 0.000, 0.000,0.0,0.0,0.0,0.0,0.0, 14:38:16.919
41547.757813, 31530.017578, 112820.742188, 64714.757813, 89076.546875, 73129.382813, 84630.453125, 100794.789063, 0.000, 0.000, 0.000,0.0,0.0,0.0,0.0,0.0, 14:38:16.920
41611.324219, 31584.287109, 112820.468750, 64521.953125, 89122.390625, 73016.265625, 84636.710938, 100824.601563, 0.000, 0.000, 0.000,0.0,0.0,0.0,0.0,0.0, 14:38:16.920
41635.664063, 31604.158203, 112830.125000, 64215.910156, 89151.046875, 72935.773438, 84636.710938, 100844.093750, 0.000, 0.000, 0.000,0.0,0.0,0.0,0.0,0.0, 14:38:16.921
41583.316406, 31562.718750, 112846.421875, 64378.566406, 89114.210938, 73050.351563, 84638.250000, 100824.828125, 0.000, 0.000, 0.000,0.0,0.0,0.0,0.0,0.0, 14:38:16.921
41553.007813, 31523.490234, 112842.085938, 64694.574219, 89081.062500, 73146.726563, 84639.148438, 100802.585938, 0.000, 0.000, 0.000,0.0,0.0,0.0,0.0,0.0, 14:38:16.921
41596.281250, 31566.943359, 112820.179688, 64557.980469, 89111.976563, 73034.031250, 84634.164063, 100809.648438, 0.262, 0.302, 0.910,0.0,0.0,0.0,0.0,0.0, 14:38:16.922
41636.804688, 31607.265625, 112825.632813, 64208.222656, 89152.992188, 72921.648438, 84633.179688, 100839.531250, 0.000, 0.000, 0.000,0.0,0.0,0.0,0.0,0.0, 14:38:16.922
41579.675781, 31549.375000, 112829.367188, 64268.394531, 89111.843750, 73007.859375, 84627.390625, 100824.492188, 0.000, 0.000, 0.000,0.0,0.0,0.0,0.0,0.0, 14:38:16.922
41550.437500, 31525.681641, 112844.703125, 64646.359375, 89080.859375, 73139.398438, 84636.820313, 100805.625000, 0.000, 0.000, 0.000,0.0,0.0,0.0,0.0,0.0, 14:38:16.922
41569.125000, 31534.464844, 112808.671875, 64590.882813, 89090.898438, 73048.562500, 84621.421875, 100799.476563, 0.000, 0.000, 0.000,0.0,0.0,0.0,0.0,0.0, 14:38:16.923
41613.984375, 31581.404297, 112801.382813, 64210.433594, 89129.523438, 72912.078125, 84619.882813, 100827.820313, 0.000, 0.000, 0.000,0.0,0.0,0.0,0.0,0.0, 14:38:16.923
41607.234375, 31586.031250, 112840.523438, 64202.230469, 89130.796875, 72995.164063, 84641.179688, 100843.109375, 0.000, 0.000, 0.000,0.0,0.0,0.0,0.0,0.0, 14:38:16.923
41552.875000, 31531.314453, 112845.882813, 64555.167969, 89081.468750, 73129.117188, 84637.492188, 100811.171875, 0.000, 0.000, 0.000,0.0,0.0,0.0,0.0,0.0, 14:38:16.923
41572.722656, 31543.562500, 112818.125000, 64578.078125, 89087.632813, 73069.101563, 84625.937500, 100794.648438, 0.000, 0.000, 0.000,0.0,0.0,0.0,0.0,0.0, 14:38:16.924
41614.746094, 31584.199219, 112806.882813, 64216.714844, 89130.953125, 72919.992188, 84612.414063, 100813.000000, 0.000, 0.000, 0.000,0.0,0.0,0.0,0.0,0.0, 14:38:16.924
41607.234375, 31571.748047, 112824.359375, 64106.566406, 89124.828125, 72957.500000, 84619.835938, 100826.859375, 0.254, 0.304, 0.910,0.0,0.0,0.0,0.0,0.0, 14:38:16.925
41564.007813, 31544.523438, 112853.843750, 64461.421875, 89085.687500, 73129.140625, 84633.335938, 100813.625000, 0.000, 0.000, 0.000,0.0,0.0,0.0,0.0,0.0, 14:38:16.925
41565.347656, 31542.222656, 112832.335938, 64611.179688, 89081.687500, 73109.960938, 84626.828125, 100796.953125, 0.000, 0.000, 0.000,0.0,0.0,0.0,0.0,0.0, 14:38:16.925
41627.820313, 31595.732422, 112818.328125, 64267.656250, 89136.273438, 72949.695313, 84624.640625, 100821.765625, 0.000, 0.000, 0.000,0.0,0.0,0.0,0.0,0.0, 14:38:16.926
41620.289063, 31593.048828, 112835.554688, 64078.335938, 89137.390625, 72946.320313, 84625.531250, 100836.132813, 0.000, 0.000, 0.000,0.0,0.0,0.0,0.0,0.0, 14:38:16.926
41560.519531, 31528.005859, 112841.367188, 64359.992188, 89088.015625, 73088.773438, 84626.804688, 100810.882813, 0.000, 0.000, 0.000,0.0,0.0,0.0,0.0,0.0, 14:38:16.926
41544.468750, 31506.816406, 112817.875000, 64584.445313, 89069.773438, 73113.718750, 84619.585938, 100789.625000, 0.000, 0.000, 0.000,0.0,0.0,0.0,0.0,0.0, 14:38:16.926
41609.132813, 31577.203125, 112805.765625, 64322.640625, 89113.250000, 72967.085938, 84620.546875, 100811.148438, 0.000, 0.000, 0.000,0.0,0.0,0.0,0.0,0.0, 14:38:16.926
41629.429688, 31594.726563, 112831.312500, 64058.062500, 89145.460938, 72929.203125, 84633.000000, 100842.953125, 0.000, 0.000, 0.000,0.0,0.0,0.0,0.0,0.0, 14:38:16.927
41567.628906, 31540.009766, 112844.898438, 64289.539063, 89097.359375, 73069.125000, 84632.218750, 100821.429688, 0.000, 0.000, 0.000,0.0,0.0,0.0,0.0,0.0, 14:38:17.368
41541.632813, 31518.595703, 112825.476563, 64573.828125, 89072.859375, 73126.882813, 84623.812500, 100787.390625, 0.254, 0.302, 0.916,0.0,0.0,0.0,0.0,0.0, 14:38:17.368
41610.765625, 31589.271484, 112807.148438, 64358.894531, 89117.500000, 72999.367188, 84624.929688, 100812.710938, 0.000, 0.000, 0.000,0.0,0.0,0.0,0.0,0.0, 14:38:17.369
41619.773438, 31588.445313, 112813.695313, 64036.605469, 89135.554688, 72918.828125, 84621.335938, 100834.015625, 0.000, 0.000, 0.000,0.0,0.0,0.0,0.0,0.0, 14:38:17.369
41569.167969, 31537.058594, 112832.320313, 64196.421875, 89100.914063, 73037.585938, 84624.101563, 100817.515625, 0.000, 0.000, 0.000,0.0,0.0,0.0,0.0,0.0, 14:38:17.369
41543.597656, 31511.376953, 112831.804688, 64539.074219, 89069.617188, 73137.007813, 84624.750000, 100796.125000, 0.000, 0.000, 0.000,0.0,0.0,0.0,0.0,0.0, 14:38:17.369
41601.019531, 31577.626953, 112820.000000, 64431.406250, 89100.445313, 73031.507813, 84620.929688, 100803.812500, 0.000, 0.000, 0.000,0.0,0.0,0.0,0.0,0.0, 14:38:17.370
41644.515625, 31604.851563, 112830.484375, 64065.371094, 89152.078125, 72919.726563, 84627.296875, 100837.367188, 0.000, 0.000, 0.000,0.0,0.0,0.0,0.0,0.0, 14:38:17.370
41595.476563, 31571.435547, 112848.632813, 64135.468750, 89133.992188, 73018.320313, 84632.304688, 100835.734375, 0.000, 0.000, 0.000,0.0,0.0,0.0,0.0,0.0, 14:38:17.370
41536.269531, 31516.808594, 112837.882813, 64496.695313, 89075.562500, 73133.164063, 84623.726563, 100795.835938, 0.000, 0.000, 0.000,0.0,0.0,0.0,0.0,0.0, 14:38:17.371
41568.589844, 31551.833984, 112817.210938, 64466.050781, 89095.054688, 73052.203125, 84619.835938, 100795.703125, 0.256, 0.310, 0.916,0.0,0.0,0.0,0.0,0.0, 14:38:17.371
41635.332031, 31614.798828, 112825.585938, 64101.246094, 89148.609375, 72925.734375, 84627.187500, 100831.757813, 0.000, 0.000, 0.000,0.0,0.0,0.0,0.0,0.0, 14:38:17.371
41611.214844, 31578.587891, 112851.585938, 64075.093750, 89136.335938, 72996.593750, 84639.992188, 100843.851563, 0.000, 0.000, 0.000,0.0,0.0,0.0,0.0,0.0, 14:38:17.371
41550.839844, 31524.093750, 112855.539063, 64447.921875, 89084.976563, 73135.039063, 84634.789063, 100810.789063, 0.000, 0.000, 0.000,0.0,0.0,0.0,0.0,0.0, 14:38:17.371
41579.695313, 31554.046875, 112831.265625, 64515.917969, 89097.250000, 73089.664063, 84627.546875, 100806.945313, 0.000, 0.000, 0.000,0.0,0.0,0.0,0.0,0.0, 14:38:17.372
41643.085938, 31617.078125, 112821.992188, 64147.292969, 89144.609375, 72943.890625, 84627.992188, 100835.843750, 0.000, 0.000, 0.000,0.0,0.0,0.0,0.0,0.0, 14:38:17.372
41610.652344, 31587.685547, 112836.500000, 64034.148438, 89136.718750, 72983.046875, 84630.585938, 100846.460938, 0.000, 0.000, 0.000,0.0,0.0,0.0,0.0,0.0, 14:38:17.372
41554.195313, 31532.410156, 112846.531250, 64375.570313, 89093.203125, 73123.218750, 84633.445313, 100817.093750, 0.000, 0.000, 0.000,0.0,0.0,0.0,0.0,0.0, 14:38:17.372
41576.589844, 31554.449219, 112836.539063, 64539.003906, 89094.765625, 73117.312500, 84636.796875, 100810.835938, 0.000, 0.000, 0.000,0.0,0.0,0.0,0.0,0.0, 14:38:17.373
41632.359375, 31607.019531, 112824.023438, 64226.105469, 89131.710938, 72961.210938, 84622.492188, 100820.851563, 0.000, 0.000, 0.000,0.0,0.0,0.0,0.0,0.0, 14:38:17.373
41631.062500, 31602.951172, 112840.789063, 64028.269531, 89144.367188, 72948.671875, 84628.015625, 100840.382813, 0.256, 0.310, 0.914,0.0,0.0,0.0,0.0,0.0, 14:38:17.373
41572.722656, 31546.490234, 112850.000000, 64310.882813, 89086.742188, 73085.593750, 84623.390625, 100809.757813, 0.000, 0.000, 0.000,0.0,0.0,0.0,0.0,0.0, 14:38:17.373
41563.312500, 31537.103516, 112835.960938, 64555.410156, 89067.203125, 73119.640625, 84615.968750, 100790.023438, 0.000, 0.000, 0.000,0.0,0.0,0.0,0.0,0.0, 14:38:17.374
41617.472656, 31601.365234, 112815.460938, 64298.589844, 89123.507813, 72981.390625, 84616.351563, 100815.351563, 0.000, 0.000, 0.000,0.0,0.0,0.0,0.0,0.0, 14:38:17.374
41635.351563, 31616.853516, 112827.890625, 64017.449219, 89143.000000, 72928.914063, 84618.851563, 100838.015625, 0.000, 0.000, 0.000,0.0,0.0,0.0,0.0,0.0, 14:38:17.375
41580.925781, 31560.058594, 112855.046875, 64254.378906, 89102.476563, 73076.296875, 84625.312500, 100821.828125, 0.000, 0.000, 0.000,0.0,0.0,0.0,0.0,0.0, 14:38:17.375
41557.054688, 31536.298828, 112840.992188, 64558.117188, 89077.484375, 73137.406250, 84623.968750, 100795.054688, 0.000, 0.000, 0.000,0.0,0.0,0.0,0.0,0.0, 14:38:17.376
41614.164063, 31592.066406, 112823.531250, 64377.738281, 89120.000000, 73016.953125, 84629.203125, 100819.195313, 0.000, 0.000, 0.000,0.0,0.0,0.0,0.0,0.0, 14:38:17.376
41644.742188, 31625.996094, 112835.554688, 64050.285156, 89143.625000, 72931.773438, 84628.257813, 100847.625000, 0.000, 0.000, 0.000,0.0,0.0,0.0,0.0,0.0, 14:38:17.376
41598.093750, 31578.119141, 112860.835938, 64189.492188, 89120.070313, 73054.796875, 84636.914063, 100841.656250, 0.260, 0.312, 0.910,0.0,0.0,0.0,0.0,0.0, 14:38:17.377
41555.332031, 31532.208984, 112858.671875, 64549.175781, 89080.906250, 73155.734375, 84634.031250, 100807.187500, 0.000, 0.000, 0.000,0.0,0.0,0.0,0.0,0.0, 14:38:17.377
41593.332031, 31575.414063, 112833.570313, 64452.707031, 89104.687500, 73050.328125, 84625.062500, 100811.570313, 0.000, 0.000, 0.000,0.0,0.0,0.0,0.0,0.0, 14:38:17.377
41634.257813, 31619.312500, 112831.085938, 64085.867188, 89154.671875, 72927.546875, 84626.476563, 100838.375000, 0.000, 0.000, 0.000,0.0,0.0,0.0,0.0,0.0, 14:38:17.377
41607.636719, 31588.667969, 112857.304688, 64137.324219, 89119.062500, 73016.265625, 84630.320313, 100837.273438, 0.000, 0.000, 0.000,0.0,0.0,0.0,0.0,0.0, 14:38:17.377
41559.445313, 31542.757813, 112869.843750, 64525.082031, 89075.164063, 73148.898438, 84630.093750, 100812.554688, 0.000, 0.000, 0.000,0.0,0.0,0.0,0.0,0.0, 14:38:17.378
41601.265625, 31580.644531, 112847.671875, 64540.906250, 89088.531250, 73079.898438, 84626.671875, 100815.039063, 0.000, 0.000, 0.000,0.0,0.0,0.0,0.0,0.0, 14:38:17.378
41648.316406, 31632.812500, 112838.062500, 64157.707031, 89156.210938, 72936.867188, 84635.773438, 100847.468750, 0.000, 0.000, 0.000,0.0,0.0,0.0,0.0,0.0, 14:38:17.378
41605.558594, 31596.089844, 112847.492188, 64102.410156, 89151.429688, 72989.148438, 84640.242188, 100849.187500, 0.000, 0.000, 0.000,0.0,0.0,0.0,0.0,0.0, 14:38:17.378
41559.179688, 31542.132813, 112862.890625, 64471.457031, 89092.218750, 73136.875000, 84642.898438, 100821.945313, 0.000, 0.000, 0.000,0.0,0.0,0.0,0.0,0.0, 14:38:17.379
41585.800781, 31566.339844, 112850.242188, 64568.195313, 89085.734375, 73106.789063, 84630.968750, 100814.726563, 0.260, 0.306, 0.912,0.0,0.0,0.0,0.0,0.0, 14:38:17.379
41651.937500, 31632.791016, 112843.203125, 64219.265625, 89158.046875, 72956.804688, 84628.640625, 100837.390625, 0.000, 0.000, 0.000,0.0,0.0,0.0,0.0,0.0, 14:38:17.379
41641.050781, 31616.519531, 112857.820313, 64078.382813, 89152.812500, 72976.164063, 84635.929688, 100851.179688, 0.000, 0.000, 0.000,0.0,0.0,0.0,0.0,0.0, 14:38:17.379
41588.281250, 31557.353516, 112858.156250, 64393.921875, 89092.398438, 73117.718750, 84632.421875, 100822.437500, 0.000, 0.000, 0.000,0.0,0.0,0.0,0.0,0.0, 14:38:17.379
41572.769531, 31557.689453, 112849.015625, 64581.875000, 89079.343750, 73122.476563, 84628.015625, 100806.523438, 0.000, 0.000, 0.000,0.0,0.0,0.0,0.0,0.0, 14:38:17.380
41630.144531, 31616.787109, 112833.906250, 64289.515625, 89142.039063, 72975.718750, 84631.570313, 100828.828125, 0.000, 0.000, 0.000,0.0,0.0,0.0,0.0,0.0, 14:38:17.380
41634.503906, 31620.228516, 112849.906250, 64068.523438, 89170.742188, 72951.531250, 84640.171875, 100849.476563, 0.000, 0.000, 0.000,0.0,0.0,0.0,0.0,0.0, 14:38:17.380
41581.664063, 31559.476563, 112860.593750, 64345.015625, 89095.101563, 73093.531250, 84635.187500, 100823.687500, 0.000, 0.000, 0.000,0.0,0.0,0.0,0.0,0.0, 14:38:17.380
41573.503906, 31545.730469, 112856.281250, 64616.031250, 89077.265625, 73134.390625, 84629.492188, 100801.757813, 0.000, 0.000, 0.000,0.0,0.0,0.0,0.0,0.0, 14:38:17.381
41637.117188, 31603.398438, 112832.765625, 64378.765625, 89121.164063, 72996.257813, 84630.875000, 100823.750000, 0.260, 0.308, 0.910,0.0,0.0,0.0,0.0,0.0, 14:38:17.381
41662.152344, 31626.062500, 112851.984375, 64102.746094, 89150.648438, 72938.632813, 84638.812500, 100851.671875, 0.000, 0.000, 0.000,0.0,0.0,0.0,0.0,0.0, 14:38:17.381
41587.742188, 31568.843750, 112872.703125, 64302.703125, 89128.000000, 73069.570313, 84641.828125, 100837.210938, 0.000, 0.000, 0.000,0.0,0.0,0.0,0.0,0.0, 14:38:17.381
41548.335938, 31536.232422, 112847.695313, 64612.007813, 89084.195313, 73139.976563, 84636.484375, 100804.929688, 0.000, 0.000, 0.000,0.0,0.0,0.0,0.0,0.0, 14:38:17.382
41603.679688, 31592.826172, 112829.656250, 64440.992188, 89137.320313, 73021.851563, 84630.812500, 100820.445313, 0.000, 0.000, 0.000,0.0,0.0,0.0,0.0,0.0, 14:38:17.382
41622.097656, 31615.201172, 112829.523438, 64102.476563, 89127.664063, 72928.734375, 84623.500000, 100846.218750, 0.000, 0.000, 0.000,0.0,0.0,0.0,0.0,0.0, 14:38:17.383
41590.695313, 31574.945313, 112852.078125, 64216.468750, 89101.226563, 73040.335938, 84626.226563, 100837.234375, 0.000, 0.000, 0.000,0.0,0.0,0.0,0.0,0.0, 14:38:17.383
41568.566406, 31542.691406, 112860.812500, 64573.671875, 89080.351563, 73153.632813, 84630.476563, 100812.085938, 0.000, 0.000, 0.000,0.0,0.0,0.0,0.0,0.0, 14:38:17.383
41601.222656, 31590.412109, 112837.460938, 64500.875000, 89096.351563, 73059.578125, 84623.500000, 100814.742188, 0.000, 0.000, 0.000,0.0,0.0,0.0,0.0,0.0, 14:38:17.384
41621.964844, 31615.781250, 112828.226563, 64149.078125, 89138.664063, 72928.445313, 84611.046875, 100828.960938, 0.000, 0.000, 0.000,0.0,0.0,0.0,0.0,0.0, 14:38:17.384
41603.367188, 31583.595703, 112851.250000, 64179.210938, 89127.734375, 73014.789063, 84623.765625, 100838.257813, 0.260, 0.302, 0.916,0.0,0.0,0.0,0.0,0.0, 14:38:17.384
41555.781250, 31534.197266, 112863.656250, 64543.878906, 89075.859375, 73150.929688, 84627.523438, 100819.867188, 0.000, 0.000, 0.000,0.0,0.0,0.0,0.0,0.0, 14:38:17.384
41593.957031, 31568.283203, 112837.390625, 64583.062500, 89079.742188, 73092.750000, 84619.164063, 100813.984375, 0.000, 0.000, 0.000,0.0,0.0,0.0,0.0,0.0, 14:38:17.385
41634.011719, 31620.363281, 112827.507813, 64217.363281, 89111.304688, 72948.398438, 84620.148438, 100841.593750, 0.000, 0.000, 0.000,0.0,0.0,0.0,0.0,0.0, 14:38:17.385
41596.347656, 31592.021484, 112848.859375, 64161.886719, 89119.710938, 73001.843750, 84631.703125, 100854.304688, 0.000, 0.000, 0.000,0.0,0.0,0.0,0.0,0.0, 14:38:17.385
41535.976563, 31526.531250, 112848.210938, 64519.335938, 89061.750000, 73142.640625, 84621.664063, 100820.531250, 0.000, 0.000, 0.000,0.0,0.0,0.0,0.0,0.0, 14:38:17.385
41569.371094, 31549.128906, 112821.078125, 64637.218750, 89075.945313, 73112.125000, 84619.656250, 100806.562500, 0.000, 0.000, 0.000,0.0,0.0,0.0,0.0,0.0, 14:38:17.386
41623.125000, 31610.931641, 112814.210938, 64277.667969, 89130.390625, 72956.289063, 84620.687500, 100830.703125, 0.000, 0.000, 0.000,0.0,0.0,0.0,0.0,0.0, 14:38:17.386
41617.695313, 31605.230469, 112845.367188, 64121.093750, 89136.453125, 72974.640625, 84632.484375, 100851.265625, 0.000, 0.000, 0.000,0.0,0.0,0.0,0.0,0.0, 14:38:17.386
41547.445313, 31541.796875, 112850.421875, 64444.816406, 89086.742188, 73122.945313, 84632.890625, 100823.929688, 0.000, 0.000, 0.000,0.0,0.0,0.0,0.0,0.0, 14:38:17.386
41559.804688, 31553.083984, 112839.578125, 64642.984375, 89103.304688, 73138.976563, 84642.945313, 100815.726563, 0.260, 0.302, 0.912,0.0,0.0,0.0,0.0,0.0, 14:38:17.387
41612.085938, 31601.431641, 112823.937500, 64344.320313, 89113.539063, 72987.515625, 84633.960938, 100831.375000, 0.000, 0.000, 0.000,0.0,0.0,0.0,0.0,0.0, 14:38:17.387
41597.757813, 31599.599609, 112830.953125, 64092.910156, 89125.117188, 72953.343750, 84632.304688, 100850.554688, 0.000, 0.000, 0.000,0.0,0.0,0.0,0.0,0.0, 14:38:17.387
41552.875000, 31545.105469, 112835.828125, 64345.484375, 89067.140625, 73095.992188, 84630.140625, 100829.859375, 0.000, 0.000, 0.000,0.0,0.0,0.0,0.0,0.0, 14:38:17.387
41556.941406, 31549.017578, 112844.765625, 64618.667969, 89077.375000, 73156.007813, 84638.742188, 100818.968750, 0.000, 0.000, 0.000,0.0,0.0,0.0,0.0,0.0, 14:38:17.388
41606.070313, 31596.066406, 112826.484375, 64402.750000, 89107.390625, 73021.851563, 84635.078125, 100833.429688, 0.000, 0.000, 0.000,0.0,0.0,0.0,0.0,0.0, 14:38:17.388
41625.742188, 31609.523438, 112838.171875, 64095.996094, 89133.101563, 72949.406250, 84637.578125, 100855.757813, 0.000, 0.000, 0.000,0.0,0.0,0.0,0.0,0.0, 14:38:17.388
41584.679688, 31563.814453, 112867.250000, 64282.250000, 89109.898438, 73082.757813, 84648.578125, 100851.757813, 0.000, 0.000, 0.000,0.0,0.0,0.0,0.0,0.0, 14:38:17.388
41558.621094, 31544.925781, 112863.835938, 64602.843750, 89083.164063, 73168.812500, 84651.460938, 100828.601563, 0.000, 0.000, 0.000,0.0,0.0,0.0,0.0,0.0, 14:38:17.389
41600.082031, 31592.646484, 112839.132813, 64461.511719, 89118.726563, 73052.140625, 84645.742188, 100832.109375, 0.254, 0.304, 0.912,0.0,0.0,0.0,0.0,0.0, 14:38:17.389
41629.140625, 31620.228516, 112829.859375, 64110.007813, 89128.093750, 72945.187500, 84636.867188, 100852.273438, 0.000, 0.000, 0.000,0.0,0.0,0.0,0.0,0.0, 14:38:17.390
41587.765625, 31572.708984, 112861.351563, 64221.746094, 89115.421875, 73061.679688, 84649.335938, 100856.070313, 0.000, 0.000, 0.000,0.0,0.0,0.0,0.0,0.0, 14:38:17.391
41543.753906, 31532.677734, 112856.414063, 64594.011719, 89070.960938, 73176.835938, 84647.554688, 100828.914063, 0.000, 0.000, 0.000,0.0,0.0,0.0,0.0,0.0, 14:38:17.392
41589.734375, 31585.046875, 112823.398438, 64526.175781, 89093.804688, 73082.671875, 84644.156250, 100830.148438, 0.000, 0.000, 0.000,0.0,0.0,0.0,0.0,0.0, 14:38:17.392
41628.355469, 31620.228516, 112823.687500, 64149.480469, 89138.109375, 72951.578125, 84645.781250, 100859.695313, 0.000, 0.000, 0.000,0.0,0.0,0.0,0.0,0.0, 14:38:17.392
41621.113281, 31600.158203, 112855.671875, 64159.941406, 89127.000000, 73037.539063, 84658.882813, 100870.578125, 0.000, 0.000, 0.000,0.0,0.0,0.0,0.0,0.0, 14:38:17.392
41560.003906, 31542.982422, 112862.156250, 64531.003906, 89087.609375, 73176.414063, 84656.046875, 100842.570313, 0.000, 0.000, 0.000,0.0,0.0,0.0,0.0,0.0, 14:38:17.393
41561.925781, 31552.056641, 112827.734375, 64564.800781, 89095.054688, 73108.218750, 84642.546875, 100825.851563, 0.000, 0.000, 0.000,0.0,0.0,0.0,0.0,0.0, 14:38:17.393
41622.902344, 31614.216797, 112819.171875, 64194.812500, 89130.976563, 72960.156250, 84640.890625, 100854.796875, 0.000, 0.000, 0.000,0.0,0.0,0.0,0.0,0.0, 14:38:17.393
41620.867188, 31603.779297, 112853.664063, 64108.601563, 89140.562500, 73007.523438, 84654.859375, 100870.109375, 0.252, 0.306, 0.906,0.0,0.0,0.0,0.0,0.0, 14:38:17.393
41552.964844, 31533.416016, 112861.890625, 64469.515625, 89077.148438, 73151.531250, 84646.523438, 100831.664063, 0.000, 0.000, 0.000,0.0,0.0,0.0,0.0,0.0, 14:38:17.394
41569.972656, 31556.773438, 112847.273438, 64623.183594, 89083.140625, 73135.976563, 84647.484375, 100823.890625, 0.000, 0.000, 0.000,0.0,0.0,0.0,0.0,0.0, 14:38:17.394
41631.062500, 31615.558594, 112830.351563, 64301.585938, 89135.625000, 72983.250000, 84646.570313, 100845.632813, 0.000, 0.000, 0.000,0.0,0.0,0.0,0.0,0.0, 14:38:17.394
41623.394531, 31611.535156, 112853.484375, 64125.746094, 89140.945313, 72985.414063, 84655.242188, 100869.617188, 0.000, 0.000, 0.000,0.0,0.0,0.0,0.0,0.0, 14:38:17.394
41571.718750, 31555.320313, 112869.015625, 64436.566406, 89099.617188, 73139.421875, 84659.554688, 100850.914063, 0.000, 0.000, 0.000,0.0,0.0,0.0,0.0,0.0, 14:38:17.394
41565.929688, 31543.919922, 112847.406250, 64659.503906, 89094.523438, 73156.203125, 84649.117188, 100826.617188, 0.000, 0.000, 0.000,0.0,0.0,0.0,0.0,0.0, 14:38:17.395
41616.757813, 31590.859375, 112824.875000, 64386.968750, 89117.968750, 73006.250000, 84643.171875, 100843.335938, 0.000, 0.000, 0.000,0.0,0.0,0.0,0.0,0.0, 14:38:17.395
41621.652344, 31604.560547, 112842.085938, 64144.117188, 89135.335938, 72970.484375, 84651.593750, 100873.328125, 0.000, 0.000, 0.000,0.0,0.0,0.0,0.0,0.0, 14:38:17.395
41564.921875, 31539.517578, 112850.242188, 64381.000000, 89088.640625, 73108.125000, 84650.789063, 100853.234375, 0.252, 0.302, 0.910,0.0,0.0,0.0,0.0,0.0, 14:38:17.395
41565.371094, 31539.181641, 112842.953125, 64656.507813, 89078.093750, 73171.648438, 84657.562500, 100840.765625, 0.000, 0.000, 0.000,0.0,0.0,0.0,0.0,0.0, 14:38:17.395
41614.363281, 31598.167969, 112834.906250, 64454.425781, 89118.367188, 73044.960938, 84656.875000, 100858.218750, 0.000, 0.000, 0.000,0.0,0.0,0.0,0.0,0.0, 14:38:17.395
41628.066406, 31616.072266, 112841.031250, 64146.175781, 89151.695313, 72964.718750, 84664.695313, 100879.921875, 0.000, 0.000, 0.000,0.0,0.0,0.0,0.0,0.0, 14:38:17.396
41595.140625, 31575.236328, 112868.304688, 64325.457031, 89124.289063, 73092.703125, 84668.203125, 100870.382813, 0.000, 0.000, 0.000,0.0,0.0,0.0,0.0,0.0, 14:38:17.396
41566.777344, 31543.541016, 112863.609375, 64665.046875, 89076.976563, 73183.835938, 84659.820313, 100841.367188, 0.000, 0.000, 0.000,0.0,0.0,0.0,0.0,0.0, 14:38:17.396
41603.390625, 31584.220703, 112843.335938, 64556.910156, 89113.093750, 73070.375000, 84658.835938, 100841.726563, 0.000, 0.000, 0.000,0.0,0.0,0.0,0.0,0.0, 14:38:17.396
41639.644531, 31621.593750, 112839.781250, 64192.507813, 89156.992188, 72951.710938, 84654.101563, 100866.179688, 0.000, 0.000, 0.000,0.0,0.0,0.0,0.0,0.0, 14:38:17.396
41599.566406, 31583.259766, 112866.406250, 64275.925781, 89127.820313, 73059.265625, 84660.625000, 100865.867188, 0.000, 0.000, 0.000,0.0,0.0,0.0,0.0,0.0, 14:38:17.397
41561.593750, 31534.041016, 112860.460938, 64637.914063, 89090.609375, 73180.031250, 84661.164063, 100838.148438, 0.000, 0.000, 0.000,0.0,0.0,0.0,0.0,0.0, 14:38:17.398
41594.425781, 31573.335938, 112839.625000, 64612.386719, 89108.625000, 73098.585938, 84655.953125, 100837.921875, 0.254, 0.306, 0.916,0.0,0.0,0.0,0.0,0.0, 14:38:17.399
41648.921875, 31625.236328, 112845.664063, 64255.718750, 89141.812500, 72964.789063, 84653.453125, 100865.414063, 0.000, 0.000, 0.000,0.0,0.0,0.0,0.0,0.0, 14:38:17.399
41604.441406, 31586.142578, 112862.781250, 64255.472656, 89128.296875, 73035.750000, 84660.359375, 100867.695313, 0.000, 0.000, 0.000,0.0,0.0,0.0,0.0,0.0, 14:38:17.400
41557.949219, 31538.154297, 112862.578125, 64614.152344, 89097.000000, 73176.656250, 84665.656250, 100846.351563, 0.000, 0.000, 0.000,0.0,0.0,0.0,0.0,0.0, 14:38:17.400
41585.777344, 31566.898438, 112846.039063, 64674.187500, 89114.125000, 73132.828125, 84667.734375, 100848.921875, 0.000, 0.000, 0.000,0.0,0.0,0.0,0.0,0.0, 14:38:17.400
41629.027344, 31610.863281, 112829.320313, 64322.597656, 89142.531250, 72982.445313, 84655.796875, 100866.914063, 0.000, 0.000, 0.000,0.0,0.0,0.0,0.0,0.0, 14:38:17.400
41618.812500, 31594.457031, 112843.914063, 64211.441406, 89143.578125, 73015.187500, 84660.046875, 100879.210938, 0.000, 0.000, 0.000,0.0,0.0,0.0,0.0,0.0, 14:38:17.400
41557.277344, 31536.343750, 112858.046875, 64558.429688, 89081.890625, 73165.773438, 84656.804688, 100848.671875, 0.000, 0.000, 0.000,0.0,0.0,0.0,0.0,0.0, 14:38:17.401
41563.203125, 31540.121094, 112832.765625, 64715.652344, 89081.242188, 73156.968750, 84656.132813, 100834.773438, 0.000, 0.000, 0.000,0.0,0.0,0.0,0.0,0.0, 14:38:17.401
41633.609375, 31601.453125, 112824.070313, 64401.496094, 89132.476563, 73009.023438, 84655.617188, 100861.015625, 0.258, 0.310, 0.912,0.0,0.0,0.0,0.0,0.0, 14:38:17.401
41627.597656, 31595.083984, 112843.984375, 64217.789063, 89145.820313, 72995.140625, 84658.484375, 100873.328125, 0.000, 0.000, 0.000,0.0,0.0,0.0,0.0,0.0, 14:38:17.401
41576.164063, 31546.513672, 112856.968750, 64509.007813, 89101.921875, 73139.132813, 84664.406250, 100855.046875, 0.000, 0.000, 0.000,0.0,0.0,0.0,0.0,0.0, 14:38:17.401
41555.601563, 31534.152344, 112839.515625, 64745.894531, 89081.937500, 73168.117188, 84655.640625, 100831.937500, 0.000, 0.000, 0.000,0.0,0.0,0.0,0.0,0.0, 14:38:17.401
41624.691406, 31592.759766, 112828.851563, 64486.679688, 89130.351563, 73021.023438, 84650.703125, 100844.984375, 0.000, 0.000, 0.000,0.0,0.0,0.0,0.0,0.0, 14:38:17.402
41636.203125, 31604.828125, 112847.273438, 64226.035156, 89140.812500, 72970.507813, 84652.984375, 100863.851563, 0.000, 0.000, 0.000,0.06015656,0.053140465,0.04805354,0.077868946,0.05687397, 14:38:17.848
41565.011719, 31535.761719, 112853.570313, 64454.089844, 89110.992188, 73109.578125, 84661.453125, 100853.570313, 0.000, 0.000, 0.000,0.06015656,0.053140465,0.04805354,0.077868946,0.05687397, 14:38:17.848
41557.570313, 31510.728516, 112847.273438, 64755.214844, 89081.468750, 73180.679688, 84661.054688, 100835.687500, 0.000, 0.000, 0.000,0.06015656,0.053140465,0.04805354,0.077868946,0.05687397, 14:38:17.848
41607.390625, 31571.994141, 112822.570313, 64570.925781, 89117.875000, 73053.789063, 84656.515625, 100848.921875, 0.000, 0.000, 0.000,0.06015656,0.053140465,0.04805354,0.077868946,0.05687397, 14:38:17.849
41617.695313, 31599.978516, 112827.132813, 64234.910156, 89148.562500, 72961.140625, 84654.031250, 100869.351563, 0.000, 0.000, 0.000,0.06015656,0.053140465,0.04805354,0.077868946,0.05687397, 14:38:17.849
41576.566406, 31548.771484, 112846.484375, 64376.843750, 89116.515625, 73081.843750, 84658.125000, 100860.945313, 0.258, 0.306, 0.916,0.06015656,0.053140465,0.04805354,0.077868946,0.05687397, 14:38:17.850
41540.246094, 31502.414063, 112845.281250, 64736.976563, 89073.148438, 73186.781250, 84655.640625, 100833.562500, 0.000, 0.000, 0.000,0.06015656,0.053140465,0.04805354,0.077868946,0.05687397, 14:38:17.850
41590.804688, 31554.873047, 112830.242188, 64641.691406, 89110.453125, 73087.250000, 84662.078125, 100847.468750, 0.000, 0.000, 0.000,0.053751983,0.043597102,0.039854676,0.066420175,0.051334396, 14:38:17.850
41634.503906, 31597.408203, 112832.921875, 64273.199219, 89147.648438, 72968.921875, 84662.773438, 100873.976563, 0.000, 0.000, 0.000,0.053751983,0.043597102,0.039854676,0.066420175,0.051334396, 14:38:17.851
41596.101563, 31563.076172, 112862.382813, 64335.000000, 89118.812500, 73064.835938, 84663.062500, 100870.156250, 0.000, 0.000, 0.000,0.053751983,0.043597102,0.039854676,0.066420175,0.051334396, 14:38:17.852
41543.464844, 31514.884766, 112857.554688, 64707.605469, 89086.695313, 73181.601563, 84657.140625, 100834.679688, 0.000, 0.000, 0.000,0.053751983,0.043597102,0.039854676,0.066420175,0.051334396, 14:38:17.852
41587.652344, 31558.001953, 112837.500000, 64696.472656, 89107.039063, 73103.281250, 84653.742188, 100835.687500, 0.000, 0.000, 0.000,0.053751983,0.043597102,0.039854676,0.066420175,0.051334396, 14:38:17.852
41634.281250, 31607.242188, 112844.343750, 64340.859375, 89145.523438, 72970.578125, 84651.773438, 100864.859375, 0.000, 0.000, 0.000,0.053751983,0.043597102,0.039854676,0.066420175,0.051334396, 14:38:17.853
41590.648438, 31561.154297, 112851.945313, 64319.937500, 89121.523438, 73028.507813, 84648.039063, 100857.460938, 0.000, 0.000, 0.000,0.053751983,0.043597102,0.039854676,0.066420175,0.051334396, 14:38:17.853
41548.203125, 31525.212891, 112862.851563, 64686.371094, 89083.632813, 73175.718750, 84657.835938, 100838.039063, 0.000, 0.000, 0.000,0.053751983,0.043597102,0.039854676,0.066420175,0.051334396, 14:38:17.854
41576.007813, 31549.955078, 112847.781250, 64762.679688, 89095.906250, 73139.867188, 84649.562500, 100836.226563, 0.258, 0.302, 0.912,0.053751983,0.043597102,0.039854676,0.066420175,0.051334396, 14:38:17.854
41617.605469, 31586.052734, 112824.875000, 64404.515625, 89128.093750, 72983.765625, 84636.531250, 100854.781250, 0.000, 0.000, 0.000,0.053751983,0.043597102,0.039854676,0.066420175,0.051334396, 14:38:17.855
41612.332031, 31575.615234, 112855.492188, 64286.855469, 89139.023438, 73009.265625, 84651.617188, 100868.773438, 0.000, 0.000, 0.000,0.053751983,0.043597102,0.039854676,0.066420175,0.051334396, 14:38:17.855
41565.929688, 31528.498047, 112869.218750, 64618.109375, 89107.414063, 73160.164063, 84659.601563, 100848.812500, 0.000, 0.000, 0.000,0.053751983,0.043597102,0.039854676,0.066420175,0.051334396, 14:38:17.855
41569.683594, 31540.769531, 112851.093750, 64783.710938, 89111.484375, 73161.460938, 84666.171875, 100841.140625, 0.000, 0.000, 0.000,0.053751983,0.043597102,0.039854676,0.066420175,0.051334396, 14:38:17.856
41614.074219, 31595.910156, 112835.804688, 64475.414063, 89128.781250, 73011.164063, 84658.500000, 100861.484375, 0.000, 0.000, 0.000,0.053751983,0.043597102,0.039854676,0.066420175,0.051334396, 14:38:17.856
41614.699219, 31580.689453, 112850.109375, 64271.253906, 89140.742188, 72988.773438, 84655.976563, 100871.539063, 0.000, 0.000, 0.000,0.053751983,0.043597102,0.039854676,0.066420175,0.051334396, 14:38:17.856
41550.148438, 31523.423828, 112855.875000, 64548.886719, 89102.898438, 73132.671875, 84658.929688, 100849.546875, 0.000, 0.000, 0.000,0.053751983,0.043597102,0.039854676,0.066420175,0.051334396, 14:38:17.857
41535.394531, 31502.189453, 112837.210938, 64816.906250, 89068.656250, 73168.968750, 84651.242188, 100819.617188, 0.000, 0.000, 0.000,0.053751983,0.043597102,0.039854676,0.066420175,0.051334396, 14:38:17.857
41593.710938, 31562.427734, 112818.546875, 64579.707031, 89114.812500, 73030.789063, 84651.171875, 100842.398438, 0.262, 0.306, 0.910,0.053751983,0.043597102,0.039854676,0.066420175,0.051334396, 14:38:17.857
41613.269531, 31587.730469, 112833.882813, 64296.511719, 89138.125000, 72969.859375, 84653.656250, 100868.414063, 0.000, 0.000, 0.000,0.053751983,0.043597102,0.039854676,0.066420175,0.051334396, 14:38:17.857
41579.316406, 31548.570313, 112863.812500, 64504.515625, 89115.734375, 73106.007813, 84667.468750, 100861.617188, 0.000, 0.000, 0.000,0.053751983,0.043597102,0.039854676,0.066420175,0.051334396, 14:38:17.858
41540.984375, 31513.052734, 112849.773438, 64817.398438, 89080.726563, 73180.929688, 84663.578125, 100835.781250, 0.000, 0.000, 0.000,0.053751983,0.043597102,0.039854676,0.066420175,0.051334396, 14:38:17.858
41600.437500, 31568.753906, 112828.140625, 64646.449219, 89120.000000, 73062.976563, 84665.546875, 100852.117188, 0.000, 0.000, 0.000,0.053751983,0.043597102,0.039854676,0.066420175,0.051334396, 14:38:17.859
41612.597656, 31585.851563, 112825.585938, 64298.164063, 89151.296875, 72964.070313, 84661.945313, 100871.320313, 0.000, 0.000, 0.000,0.053751983,0.043597102,0.039854676,0.066420175,0.051334396, 14:38:17.860
41579.496094, 31542.132813, 112860.882813, 64449.128906, 89114.007813, 73086.625000, 84664.359375, 100864.500000, 0.000, 0.000, 0.000,0.053751983,0.043597102,0.039854676,0.066420175,0.051334396, 14:38:17.861
41534.480469, 31504.380859, 112846.484375, 64794.484375, 89072.835938, 73189.445313, 84658.031250, 100836.023438, 0.000, 0.000, 0.000,0.053751983,0.043597102,0.039854676,0.066420175,0.051334396, 14:38:17.861
41584.347656, 31555.990234, 112824.468750, 64710.890625, 89104.242188, 73093.796875, 84653.117188, 100842.687500, 0.000, 0.000, 0.000,0.053751983,0.043597102,0.039854676,0.066420175,0.051334396, 14:38:17.862
41642.414063, 31607.734375, 112829.523438, 64351.988281, 89147.984375, 72971.828125, 84653.140625, 100867.585938, 0.000, 0.000, 0.000,0.053751983,0.043597102,0.039854676,0.066420175,0.051334396, 14:38:17.862
41609.582031, 31576.486328, 112854.648438, 64386.566406, 89137.234375, 73059.625000, 84663.710938, 100872.320313, 0.260, 0.302, 0.906,0.053751983,0.043597102,0.039854676,0.066420175,0.051334396, 14:38:17.862
41546.394531, 31542.310547, 112858.179688, 64744.886719, 89100.781250, 73194.335938, 84674.531250, 100858.757813, 0.000, 0.000, 0.000,0.053751983,0.043597102,0.039854676,0.066420175,0.051334396, 14:38:17.862
41559.601563, 31541.595703, 112822.929688, 64757.335938, 89102.078125, 73116.085938, 84652.601563, 100831.578125, 0.000, 0.000, 0.000,0.053751983,0.043597102,0.039854676,0.066420175,0.051334396, 14:38:17.863
41623.015625, 31587.574219, 112818.796875, 64395.621094, 89141.812500, 72969.773438, 84647.796875, 100855.960938, 0.000, 0.000, 0.000,0.053751983,0.043597102,0.039854676,0.066420175,0.051334396, 14:38:17.863
41614.832031, 31581.650391, 112852.679688, 64333.437500, 89134.570313, 73030.164063, 84663.468750, 100878.718750, 0.000, 0.000, 0.000,0.053751983,0.043597102,0.039854676,0.066420175,0.051334396, 14:38:17.864
41549.164063, 31522.417969, 112860.257813, 64685.746094, 89093.851563, 73179.835938, 84672.960938, 100856.898438, 0.000, 0.000, 0.000,0.053751983,0.043597102,0.039854676,0.066420175,0.051334396, 14:38:17.864
41564.410156, 31540.769531, 112839.406250, 64802.980469, 89099.953125, 73155.070313, 84671.445313, 100844.695313, 0.000, 0.000, 0.000,0.053751983,0.043597102,0.039854676,0.066420175,0.051334396, 14:38:17.864
41619.886719, 31594.279297, 112826.820313, 64455.296875, 89145.257813, 73001.289063, 84660.671875, 100867.695313, 0.000, 0.000, 0.000,0.053751983,0.043597102,0.039854676,0.066420175,0.051334396, 14:38:17.864
41606.406250, 31583.259766, 112852.320313, 64322.304688, 89143.265625, 73019.484375, 84665.234375, 100882.117188, 0.000, 0.000, 0.000,0.053751983,0.043597102,0.039854676,0.066420175,0.051334396, 14:38:17.865
41562.710938, 31532.542969, 112869.648438, 64652.574219, 89102.429688, 73170.179688, 84672.921875, 100863.898438, 0.262, 0.302, 0.906,0.053751983,0.043597102,0.039854676,0.066420175,0.051334396, 14:38:17.865
41560.765625, 31529.638672, 112840.656250, 64832.507813, 89095.773438, 73173.726563, 84667.312500, 100845.546875, 0.000, 0.000, 0.000,0.053751983,0.043597102,0.039854676,0.066420175,0.051334396, 14:38:17.866
41597.980469, 31576.957031, 112820.914063, 64540.750000, 89130.195313, 73021.406250, 84656.695313, 100858.085938, 0.000, 0.000, 0.000,0.053751983,0.043597102,0.039854676,0.066420175,0.051334396, 14:38:17.867
41605.847656, 31583.125000, 112836.539063, 64312.089844, 89148.093750, 72990.265625, 84657.992188, 100875.117188, 0.000, 0.000, 0.000,0.053751983,0.043597102,0.039854676,0.066420175,0.051334396, 14:38:17.868
41559.402344, 31538.533203, 112858.671875, 64575.261719, 89109.742188, 73138.679688, 84668.898438, 100863.000000, 0.000, 0.000, 0.000,0.053751983,0.043597102,0.039854676,0.066420175,0.051334396, 14:38:17.868
41561.191406, 31532.968750, 112848.789063, 64831.968750, 89088.101563, 73186.109375, 84668.539063, 100842.593750, 0.000, 0.000, 0.000,0.053751983,0.043597102,0.039854676,0.066420175,0.051334396, 14:38:17.869
41606.316406, 31580.308594, 112827.000000, 64600.273438, 89131.757813, 73050.843750, 84665.859375, 100858.664063, 0.000, 0.000, 0.000,0.053751983,0.043597102,0.039854676,0.066420175,0.051334396, 14:38:17.869
41625.628906, 31599.017578, 112839.578125, 64320.808594, 89149.687500, 72979.695313, 84663.062500, 100868.500000, 0.000, 0.000, 0.000,0.053751983,0.043597102,0.039854676,0.066420175,0.051334396, 14:38:17.869
41560.363281, 31532.476563, 112848.632813, 64515.199219, 89098.093750, 73099.906250, 84656.757813, 100846.640625, 0.000, 0.000, 0.000,0.053751983,0.043597102,0.039854676,0.066420175,0.051334396, 14:38:17.870
41545.902344, 31510.236328, 112847.765625, 64845.960938, 89072.343750, 73185.132813, 84656.890625, 100826.414063, 0.000, 0.000, 0.000,0.053751983,0.043597102,0.039854676,0.066420175,0.051334396, 14:38:17.870
41598.292969, 31570.027344, 112828.921875, 64695.378906, 89117.164063, 73070.398438, 84660.226563, 100846.085938, 0.260, 0.300, 0.914,0.053751983,0.043597102,0.039854676,0.066420175,0.051334396, 14:38:17.871
41644.070313, 31620.005859, 112842.242188, 64356.480469, 89157.867188, 72972.429688, 84664.757813, 100875.812500, 0.000, 0.000, 0.000,0.053751983,0.043597102,0.039854676,0.066420175,0.051334396, 14:38:17.871
41587.519531, 31548.324219, 112848.585938, 64454.003906, 89115.304688, 73073.039063, 84659.039063, 100857.523438, 0.000, 0.000, 0.000,0.053751983,0.043597102,0.039854676,0.066420175,0.051334396, 14:38:17.872
41543.441406, 31505.720703, 112844.921875, 64809.527344, 89080.304688, 73183.343750, 84662.390625, 100830.328125, 0.000, 0.000, 0.000,0.053751983,0.043597102,0.039854676,0.066420175,0.051334396, 14:38:17.872
41588.144531, 31547.005859, 112829.593750, 64760.710938, 89111.890625, 73099.453125, 84668.382813, 100841.234375, 0.000, 0.000, 0.000,0.053751983,0.043597102,0.039854676,0.066420175,0.051334396, 14:38:17.873
41633.968750, 31605.007813, 112831.828125, 64400.535156, 89158.914063, 72971.937500, 84668.000000, 100865.843750, 0.000, 0.000, 0.000,0.053751983,0.043597102,0.039854676,0.066420175,0.051334396, 14:38:17.873
41595.050781, 31562.896484, 112845.617188, 64413.746094, 89128.781250, 73045.429688, 84662.906250, 100860.523438, 0.000, 0.000, 0.000,0.053751983,0.043597102,0.039854676,0.066420175,0.051334396, 14:38:17.873
41546.281250, 31519.087891, 112844.585938, 64767.218750, 89086.984375, 73185.218750, 84669.968750, 100844.695313, 0.000, 0.000, 0.000,0.053751983,0.043597102,0.039854676,0.066420175,0.051334396, 14:38:17.874
41578.871094, 31546.156250, 112835.265625, 64806.445313, 89109.070313, 73133.476563, 84671.578125, 100845.500000, 0.000, 0.000, 0.000,0.053751983,0.043597102,0.039854676,0.066420175,0.051334396, 14:38:17.874
41624.960938, 31592.736328, 112825.609375, 64450.335938, 89148.054688, 72984.007813, 84663.843750, 100862.179688, 0.000, 0.000, 0.000,0.053751983,0.043597102,0.039854676,0.066420175,0.051334396, 14:38:17.874
41609.535156, 31574.609375, 112847.562500, 64372.261719, 89144.406250, 73030.031250, 84673.187500, 100876.882813, 0.260, 0.306, 0.914,0.053751983,0.043597102,0.039854676,0.066420175,0.051334396, 14:38:17.874
41546.863281, 31511.957031, 112854.335938, 64727.542969, 89089.648438, 73173.820313, 84668.648438, 100844.226563, 0.000, 0.000, 0.000,0.053751983,0.043597102,0.039854676,0.066420175,0.051334396, 14:38:17.875
41571.136719, 31540.210938, 112838.914063, 64859.820313, 89096.773438, 73156.343750, 84668.156250, 100837.742188, 0.000, 0.000, 0.000,0.053751983,0.043597102,0.039854676,0.066420175,0.051334396, 14:38:17.875
41629.652344, 31600.515625, 112834.820313, 64536.210938, 89148.632813, 73013.890625, 84669.656250, 100870.671875, 0.000, 0.000, 0.000,0.053751983,0.043597102,0.039854676,0.066420175,0.051334396, 14:38:17.875
41615.371094, 31582.208984, 112840.812500, 64353.261719, 89149.101563, 73005.937500, 84668.093750, 100880.015625, 0.000, 0.000, 0.000,0.053751983,0.043597102,0.039854676,0.066420175,0.051334396, 14:38:17.876
41566.175781, 31528.632813, 112851.945313, 64639.765625, 89105.921875, 73152.789063, 84671.062500, 100859.046875, 0.000, 0.000, 0.000,0.053751983,0.043597102,0.039854676,0.066420175,0.051334396, 14:38:17.876
41562.015625, 31529.638672, 112843.250000, 64858.054688, 89093.000000, 73171.742188, 84668.226563, 100836.453125, 0.000, 0.000, 0.000,0.053751983,0.043597102,0.039854676,0.066420175,0.051334396, 14:38:17.876
41620.867188, 31587.976563, 112824.468750, 64572.601563, 89143.109375, 73023.281250, 84671.960938, 100860.656250, 0.000, 0.000, 0.000,0.053751983,0.043597102,0.039854676,0.066420175,0.051334396, 14:38:17.877
41633.609375, 31605.566406, 112845.570313, 64316.828125, 89165.757813, 72992.125000, 84679.890625, 100889.757813, 0.000, 0.000, 0.000,0.053751983,0.043597102,0.039854676,0.066420175,0.051334396, 14:38:17.877
41563.648438, 31525.324219, 112862.578125, 64576.132813, 89114.476563, 73135.421875, 84674.570313, 100868.617188, 0.262, 0.304, 0.914,0.053751983,0.043597102,0.039854676,0.066420175,0.051334396, 14:38:17.877
41547.355469, 31510.080078, 112849.125000, 64867.531250, 89089.828125, 73186.335938, 84669.585938, 100841.390625, 0.000, 0.000, 0.000,0.053751983,0.043597102,0.039854676,0.066420175,0.051334396, 14:38:17.878
41614.589844, 31579.660156, 112831.468750, 64655.144531, 89138.906250, 73054.257813, 84670.437500, 100860.054688, 0.000, 0.000, 0.000,0.053751983,0.043597102,0.039854676,0.066420175,0.051334396, 14:38:17.878
41635.417969, 31594.480469, 112838.460938, 64349.953125, 89164.281250, 72977.257813, 84667.625000, 100879.390625, 0.000, 0.000, 0.000,0.053751983,0.043597102,0.039854676,0.066420175,0.051334396, 14:38:17.878
41581.753906, 31542.580078, 112857.328125, 64530.691406, 89126.281250, 73104.820313, 84672.945313, 100866.687500, 0.000, 0.000, 0.000,0.053751983,0.043597102,0.039854676,0.066420175,0.051334396, 14:38:17.878
41548.894531, 31512.404297, 112845.210938, 64861.316406, 89089.625000, 73190.921875, 84668.359375, 100838.687500, 0.000, 0.000, 0.000,0.053751983,0.043597102,0.039854676,0.066420175,0.051334396, 14:38:17.878
41604.976563, 31572.039063, 112827.218750, 64718.132813, 89137.367188, 73085.265625, 84678.890625, 100860.765625, 0.000, 0.000, 0.000,0.053751983,0.043597102,0.039854676,0.066420175,0.051334396, 14:38:17.879
41638.304688, 31600.246094, 112834.375000, 64361.644531, 89176.328125, 72977.234375, 84679.828125, 100886.898438, 0.000, 0.000, 0.000,0.053751983,0.043597102,0.039854676,0.066420175,0.051334396, 14:38:17.880
41589.843750, 31549.150391, 112847.781250, 64449.332031, 89139.445313, 73069.859375, 84674.531250, 100870.132813, 0.000, 0.000, 0.000,0.053751983,0.043597102,0.039854676,0.066420175,0.051334396, 14:38:17.880
41554.417969, 31520.875000, 112850.671875, 64812.925781, 89101.468750, 73189.421875, 84677.476563, 100842.257813, 0.000, 0.000, 0.000,0.053751983,0.043597102,0.039854676,0.066420175,0.051334396, 14:38:17.881
41584.972656, 31549.462891, 112829.320313, 64782.328125, 89121.609375, 73103.031250, 84670.078125, 100836.921875, 0.266, 0.304, 0.910,0.053751983,0.043597102,0.039854676,0.066420175,0.051334396, 14:38:17.881
41632.492188, 31596.693359, 112820.585938, 64407.980469, 89159.921875, 72970.531250, 84664.046875, 100869.195313, 0.000, 0.000, 0.000,0.053751983,0.043597102,0.039854676,0.066420175,0.051334396, 14:38:17.881
41609.917969, 31568.843750, 112846.507813, 64402.457031, 89146.039063, 73046.679688, 84672.742188, 100875.765625, 0.000, 0.000, 0.000,0.053751983,0.043597102,0.039854676,0.066420175,0.051334396, 14:38:17.881
41567.960938, 31528.341797, 112849.867188, 64752.039063, 89105.468750, 73179.320313, 84674.710938, 100849.703125, 0.000, 0.000, 0.000,0.053751983,0.043597102,0.039854676,0.066420175,0.051334396, 14:38:17.881
41580.253906, 31540.791016, 112827.734375, 64813.820313, 89108.289063, 73130.906250, 84663.710938, 100843.515625, 0.000, 0.000, 0.000,0.053751983,0.043597102,0.039854676,0.066420175,0.051334396, 14:38:17.882
41631.933594, 31599.398438, 112807.640625, 64439.765625, 89147.718750, 72981.328125, 84655.640625, 100867.429688, 0.000, 0.000, 0.000,0.053751983,0.043597102,0.039854676,0.066420175,0.051334396, 14:38:17.882
41617.808594, 31575.191406, 112831.804688, 64340.812500, 89150.351563, 73027.484375, 84669.453125, 100885.734375, 0.000, 0.000, 0.000,0.053751983,0.043597102,0.039854676,0.066420175,0.051334396, 14:38:17.882
41557.523438, 31507.599609, 112843.093750, 64692.628906, 89104.492188, 73177.171875, 84673.570313, 100861.843750, 0.000, 0.000, 0.000,0.053751983,0.043597102,0.039854676,0.066420175,0.051334396, 14:38:17.882
41576.968750, 31547.183594, 112833.679688, 64860.335938, 89110.945313, 73166.265625, 84675.984375, 100849.679688, 0.000, 0.000, 0.000,0.053751983,0.043597102,0.039854676,0.066420175,0.051334396, 14:38:17.883
41637.855469, 31606.148438, 112823.195313, 64536.054688, 89163.203125, 73010.273438, 84672.562500, 100871.320313, 0.268, 0.304, 0.908,0.053751983,0.043597102,0.039854676,0.066420175,0.051334396, 14:38:17.883
41641.343750, 31612.673828, 112845.234375, 64336.855469, 89177.671875, 73003.500000, 84678.953125, 100892.351563, 0.000, 0.000, 0.000,0.053751983,0.043597102,0.039854676,0.066420175,0.051334396, 14:38:17.883
41568.812500, 31527.960938, 112849.351563, 64610.039063, 89124.023438, 73142.351563, 84674.304688, 100863.984375, 0.000, 0.000, 0.000,0.053751983,0.043597102,0.039854676,0.066420175,0.051334396, 14:38:17.883
41564.609375, 31532.320313, 112836.500000, 64837.089844, 89113.539063, 73168.187500, 84674.773438, 100843.710938, 0.000, 0.000, 0.000,0.053751983,0.043597102,0.039854676,0.066420175,0.051334396, 14:38:17.883
41630.167969, 31608.607422, 112822.750000, 64580.804688, 89159.789063, 73024.843750, 84675.156250, 100862.781250, 0.000, 0.000, 0.000,0.053751983,0.043597102,0.039854676,0.066420175,0.051334396, 14:38:17.884
41637.097656, 31595.933594, 112829.476563, 64307.843750, 89173.492188, 72979.046875, 84672.632813, 100881.171875, 0.000, 0.000, 0.000,0.053751983,0.043597102,0.039854676,0.066420175,0.051334396, 14:38:17.884
41587.164063, 31551.318359, 112845.929688, 64531.964844, 89131.843750, 73119.414063, 84676.742188, 100868.945313, 0.000, 0.000, 0.000,0.053751983,0.043597102,0.039854676,0.066420175,0.051334396, 14:38:17.884
41559.355469, 31521.345703, 112832.007813, 64819.050781, 89104.937500, 73181.554688, 84673.632813, 100843.445313, 0.000, 0.000, 0.000,0.053751983,0.043597102,0.039854676,0.066420175,0.051334396, 14:38:17.884
41616.621094, 31598.861328, 112819.687500, 64629.238281, 89152.585938, 73055.156250, 84680.679688, 100864.343750, 0.000, 0.000, 0.000,0.053751983,0.043597102,0.039854676,0.066420175,0.051334396, 14:38:17.884
41649.859375, 31637.462891, 112842.421875, 64309.945313, 89194.992188, 72982.960938, 84690.578125, 100902.921875, 0.000, 0.000, 0.000,0.053751983,0.043597102,0.039854676,0.066420175,0.051334396, 14:38:17.885
41587.699219, 31561.488281, 112851.406250, 64460.437500, 89137.500000, 73100.062500, 84671.843750, 100875.945313, 0.266, 0.300, 0.910,0.053751983,0.043597102,0.039854676,0.066420175,0.051334396, 14:38:17.885
41545.765625, 31497.205078, 112836.562500, 64790.910156, 89096.507813, 73192.281250, 84664.671875, 100847.312500, 0.000, 0.000, 0.000,0.053751983,0.043597102,0.039854676,0.066420175,0.051334396, 14:38:17.885
41595.746094, 31558.068359, 112820.960938, 64686.148438, 89131.804688, 73084.968750, 84664.921875, 100856.632813, 0.000, 0.000, 0.000,0.053751983,0.043597102,0.039854676,0.066420175,0.051334396, 14:38:17.885
41655.222656, 31621.257813, 112840.054688, 64334.218750, 89190.296875, 72985.773438, 84683.734375, 100907.859375, 0.000, 0.000, 0.000,0.053751983,0.043597102,0.039854676,0.066420175,0.051334396, 14:38:17.886
41599.410156, 31552.972656, 112856.414063, 64390.164063, 89161.421875, 73086.109375, 84682.351563, 100898.851563, 0.000, 0.000, 0.000,0.053751983,0.043597102,0.039854676,0.066420175,0.051334396, 14:38:17.886
41558.148438, 31523.603516, 112861.507813, 64762.925781, 89123.351563, 73196.687500, 84681.617188, 100859.203125, 0.000, 0.000, 0.000,0.053751983,0.043597102,0.039854676,0.066420175,0.051334396, 14:38:17.886
41604.218750, 31564.863281, 112852.031250, 64756.957031, 89156.523438, 73135.687500, 84691.023438, 100872.125000, 0.000, 0.000, 0.000,0.053751983,0.043597102,0.039854676,0.066420175,0.051334396, 14:38:17.887
41639.464844, 31590.925781, 112831.578125, 64368.597656, 89187.570313, 72982.351563, 84680.500000, 100885.179688, 0.000, 0.000, 0.000,0.053751983,0.043597102,0.039854676,0.066420175,0.051334396, 14:38:17.887
41622.410156, 31587.193359, 112856.460938, 64333.281250, 89178.789063, 73034.437500, 84688.007813, 100885.179688, 0.000, 0.000, 0.000,0.053751983,0.043597102,0.039854676,0.066420175,0.051334396, 14:38:17.887
41561.191406, 31521.054688, 112852.234375, 64668.957031, 89125.273438, 73161.593750, 84679.359375, 100844.382813, 0.262, 0.300, 0.918,0.053751983,0.043597102,0.039854676,0.066420175,0.051334396, 14:38:17.888
41596.238281, 31560.349609, 112845.750000, 64747.660156, 89145.953125, 73123.234375, 84684.070313, 100836.203125, 0.000, 0.000, 0.000,0.053751983,0.043597102,0.039854676,0.066420175,0.051334396, 14:38:17.888
41658.820313, 31619.044922, 112849.304688, 64392.378906, 89196.398438, 72988.164063, 84687.648438, 100872.210938, 0.000, 0.000, 0.000,0.053751983,0.043597102,0.039854676,0.066420175,0.051334396, 14:38:17.888
41620.757813, 31572.218750, 112854.265625, 64256.570313, 89177.132813, 73001.734375, 84679.984375, 100874.203125, 0.000, 0.000, 0.000,0.053751983,0.043597102,0.039854676,0.066420175,0.051334396, 14:38:17.889
41570.421875, 31528.408203, 112871.296875, 64589.812500, 89137.523438, 73151.710938, 84689.460938, 100850.109375, 0.000, 0.000, 0.000,0.053751983,0.043597102,0.039854676,0.066420175,0.051334396, 14:38:17.889
41581.261719, 31536.500000, 112857.421875, 64760.578125, 89127.625000, 73148.960938, 84680.164063, 100828.046875, 0.000, 0.000, 0.000,0.053751983,0.043597102,0.039854676,0.066420175,0.051334396, 14:38:17.889
41645.769531, 31608.986328, 112839.804688, 64425.703125, 89175.500000, 72990.851563, 84675.648438, 100852.859375, 0.000, 0.000, 0.000,0.053751983,0.043597102,0.039854676,0.066420175,0.051334396, 14:38:17.889
41659.046875, 31616.630859, 112868.750000, 64204.175781, 89188.976563, 72987.070313, 84686.820313, 100883.500000, 0.000, 0.000, 0.000,0.053751983,0.043597102,0.039854676,0.066420175,0.051334396, 14:38:17.890
41607.593750, 31562.875000, 112892.328125, 64485.785156, 89138.906250, 73138.484375, 84688.273438, 100865.304688, 0.000, 0.000, 0.000,0.053751983,0.043597102,0.039854676,0.066420175,0.051334396, 14:38:17.890
41573.101563, 31520.697266, 112863.695313, 64716.031250, 89110.476563, 73173.257813, 84676.203125, 100839.312500, 0.000, 0.000, 0.000,0.049155034,0.036442645,0.033661187,0.057592254,0.04694912, 14:38:17.891
41638.148438, 31601.990234, 112854.445313, 64473.941406, 89153.195313, 73036.578125, 84674.437500, 100858.000000, 0.254, 0.302, 0.918,0.049155034,0.036442645,0.033661187,0.057592254,0.04694912, 14:38:17.891
41663.023438, 31636.904297, 112873.867188, 64189.535156, 89184.125000, 72978.351563, 84681.523438, 100887.593750, 0.000, 0.000, 0.000,0.025816962,0.016490921,0.012323683,0.027103525,0.025221758, 14:38:18.330
41580.703125, 31551.363281, 112865.734375, 64380.933594, 89134.257813, 73102.140625, 84669.632813, 100858.960938, 0.000, 0.000, 0.000,0.025816962,0.016490921,0.012323683,0.027103525,0.025221758, 14:38:18.331
41548.492188, 31515.712891, 112845.796875, 64675.796875, 89099.125000, 73166.421875, 84658.500000, 100830.281250, 0.000, 0.000, 0.000,0.025816962,0.016490921,0.012323683,0.027103525,0.025221758, 14:38:18.332
41610.988281, 31574.341797, 112834.976563, 64492.515625, 89142.531250, 73051.804688, 84662.859375, 100849.750000, 0.000, 0.000, 0.000,0.025816962,0.016490921,0.012323683,0.027103525,0.025221758, 14:38:18.332
41649.882813, 31613.210938, 112848.234375, 64162.781250, 89185.109375, 72972.382813, 84673.906250, 100887.187500, 0.000, 0.000, 0.000,0.025816962,0.016490921,0.012323683,0.027103525,0.025221758, 14:38:18.333
41589.687500, 31545.843750, 112857.375000, 64290.476563, 89146.375000, 73088.343750, 84673.101563, 100874.179688, 0.000, 0.000, 0.000,0.025816962,0.016490921,0.012323683,0.027103525,0.025221758, 14:38:18.333
41544.558594, 31510.146484, 112845.523438, 64634.246094, 89093.937500, 73179.093750, 84661.273438, 100834.460938, 0.000, 0.000, 0.000,0.025816962,0.016490921,0.012323683,0.027103525,0.025221758, 14:38:18.333
41601.222656, 31568.417969, 112824.273438, 64534.199219, 89126.054688, 73074.468750, 84655.867188, 100838.460938, 0.000, 0.000, 0.000,0.025816962,0.016490921,0.012323683,0.027103525,0.025221758, 14:38:18.334
41653.191406, 31615.177734, 112839.718750, 64172.972656, 89175.765625, 72965.726563, 84662.796875, 100871.718750, 0.000, 0.000, 0.000,0.025816962,0.016490921,0.012323683,0.027103525,0.025221758, 14:38:18.334
41606.921875, 31572.306641, 112862.132813, 64227.601563, 89152.164063, 73056.046875, 84668.539063, 100868.320313, 0.262, 0.306, 0.918,0.025816962,0.016490921,0.012323683,0.027103525,0.025221758, 14:38:18.334
41560.027344, 31524.943359, 112860.546875, 64595.355469, 89111.015625, 73178.203125, 84669.679688, 100839.023438, 0.000, 0.000, 0.000,0.025816962,0.016490921,0.012323683,0.027103525,0.025221758, 14:38:18.335
41602.519531, 31577.470703, 112842.601563, 64591.710938, 89130.078125, 73102.406250, 84662.906250, 100831.218750, 0.000, 0.000, 0.000,0.025816962,0.016490921,0.012323683,0.027103525,0.025221758, 14:38:18.335
41672.992188, 31646.158203, 112855.164063, 64222.394531, 89190.296875, 72975.742188, 84673.992188, 100872.640625, 0.000, 0.000, 0.000,0.025816962,0.016490921,0.012323683,0.027103525,0.025221758, 14:38:18.335
41632.960938, 31589.115234, 112867.968750, 64145.859375, 89170.093750, 73033.695313, 84677.320313, 100879.921875, 0.000, 0.000, 0.000,0.025816962,0.016490921,0.012323683,0.027103525,0.025221758, 14:38:18.336
41560.808594, 31530.353516, 112860.640625, 64509.546875, 89114.078125, 73161.437500, 84666.507813, 100836.718750, 0.000, 0.000, 0.000,0.025816962,0.016490921,0.012323683,0.027103525,0.025221758, 14:38:18.336
41585.753906, 31556.482422, 112841.328125, 64610.417969, 89120.046875, 73129.273438, 84662.906250, 100828.804688, 0.000, 0.000, 0.000,0.025816962,0.016490921,0.012323683,0.027103525,0.025221758, 14:38:18.337
41644.023438, 31613.835938, 112832.203125, 64253.351563, 89161.195313, 72980.945313, 84657.203125, 100851.601563, 0.000, 0.000, 0.000,0.025816962,0.016490921,0.012323683,0.027103525,0.025221758, 14:38:18.337
41625.921875, 31593.183594, 112855.984375, 64122.906250, 89154.109375, 72996.257813, 84657.679688, 100857.171875, 0.000, 0.000, 0.000,0.025816962,0.016490921,0.012323683,0.027103525,0.025221758, 14:38:18.338
41566.843750, 31531.851563, 112863.343750, 64451.273438, 89113.812500, 73137.968750, 84662.703125, 100836.742188, 0.260, 0.310, 0.916,0.025816962,0.016490921,0.012323683,0.027103525,0.025221758, 14:38:18.338
41585.242188, 31546.177734, 112848.257813, 64633.285156, 89118.210938, 73146.375000, 84664.851563, 100826.523438, 0.000, 0.000, 0.000,0.025816962,0.016490921,0.012323683,0.027103525,0.025221758, 14:38:18.338
41652.789063, 31618.105469, 112839.875000, 64327.312500, 89167.453125, 73004.328125, 84664.179688, 100856.632813, 0.000, 0.000, 0.000,0.025816962,0.016490921,0.012323683,0.027103525,0.025221758, 14:38:18.339
41645.054688, 31611.222656, 112851.765625, 64101.246094, 89166.734375, 72984.726563, 84664.406250, 100882.382813, 0.000, 0.000, 0.000,0.025816962,0.016490921,0.012323683,0.027103525,0.025221758, 14:38:18.339
41593.914063, 31555.498047, 112871.859375, 64374.183594, 89125.812500, 73137.320313, 84670.617188, 100867.921875, 0.000, 0.000, 0.000,0.025816962,0.016490921,0.012323683,0.027103525,0.025221758, 14:38:18.339
41598.898438, 31562.494141, 112875.789063, 64658.656250, 89114.414063, 73194.296875, 84680.562500, 100852.562500, 0.000, 0.000, 0.000,0.025816962,0.016490921,0.012323683,0.027103525,0.025221758, 14:38:18.340
41632.828125, 31591.150391, 112852.210938, 64422.820313, 89148.742188, 73046.234375, 84667.601563, 100858.843750, 0.000, 0.000, 0.000,0.025816962,0.016490921,0.012323683,0.027103525,0.025221758, 14:38:18.340
41645.859375, 31616.294922, 112853.710938, 64102.968750, 89179.007813, 72973.546875, 84668.023438, 100879.765625, 0.000, 0.000, 0.000,0.025816962,0.016490921,0.012323683,0.027103525,0.025221758, 14:38:18.340
41593.734375, 31563.880859, 112869.351563, 64296.535156, 89140.992188, 73106.656250, 84675.242188, 100869.843750, 0.000, 0.000, 0.000,0.025816962,0.016490921,0.012323683,0.027103525,0.025221758, 14:38:18.341
41572.050781, 31537.037109, 112860.367188, 64615.582031, 89112.203125, 73186.335938, 84673.789063, 100843.515625, 0.000, 0.000, 0.000,0.025816962,0.016490921,0.012323683,0.027103525,0.025221758, 14:38:18.341
41627.953125, 31595.664063, 112842.062500, 64457.445313, 89146.578125, 73068.921875, 84670.546875, 100855.359375, 0.264, 0.306, 0.912,0.025816962,0.016490921,0.012323683,0.027103525,0.025221758, 14:38:18.341
41661.839844, 31626.062500, 112858.421875, 64125.519531, 89189.515625, 72979.851563, 84677.343750, 100884.171875, 0.000, 0.000, 0.000,0.025816962,0.016490921,0.012323683,0.027103525,0.025221758, 14:38:18.342
41611.617188, 31579.080078, 112875.546875, 64245.414063, 89153.773438, 73085.421875, 84683.875000, 100873.445313, 0.000, 0.000, 0.000,0.025816962,0.016490921,0.012323683,0.027103525,0.025221758, 14:38:18.342
41569.996094, 31535.515625, 112865.953125, 64594.640625, 89120.156250, 73187.921875, 84681.390625, 100842.882813, 0.000, 0.000, 0.000,0.025816962,0.016490921,0.012323683,0.027103525,0.025221758, 14:38:18.343
41613.714844, 31582.923828, 112843.468750, 64522.980469, 89147.492188, 73095.703125, 84672.789063, 100848.515625, 0.000, 0.000, 0.000,0.025816962,0.016490921,0.012323683,0.027103525,0.025221758, 14:38:18.343
41655.445313, 31624.900391, 112840.093750, 64138.441406, 89181.867188, 72965.789063, 84668.585938, 100874.445313, 0.000, 0.000, 0.000,0.025816962,0.016490921,0.012323683,0.027103525,0.025221758, 14:38:18.344
41621.941406, 31582.544922, 112866.914063, 64167.765625, 89160.296875, 73051.398438, 84670.710938, 100869.375000, 0.000, 0.000, 0.000,0.025816962,0.016490921,0.012323683,0.027103525,0.025221758, 14:38:18.345
41570.218750, 31532.767578, 112870.250000, 64541.800781, 89112.203125, 73177.125000, 84668.429688, 100836.898438, 0.000, 0.000, 0.000,0.025816962,0.016490921,0.012323683,0.027103525,0.025221758, 14:38:18.345
41605.781250, 31570.027344, 112853.796875, 64569.804688, 89122.125000, 73116.375000, 84666.414063, 100837.679688, 0.000, 0.000, 0.000,0.02372066,0.015833275,0.011701921,0.026494032,0.024134174, 14:38:18.345
41660.902344, 31629.103516, 112856.460938, 64207.394531, 89178.296875, 72982.625000, 84672.671875, 100875.539063, 0.264, 0.308, 0.912,0.02372066,0.015833275,0.011701921,0.026494032,0.024134174, 14:38:18.346
41642.503906, 31614.753906, 112877.828125, 64132.226563, 89173.132813, 73030.523438, 84677.656250, 100884.328125, 0.000, 0.000, 0.000,0.02372066,0.015833275,0.011701921,0.026494032,0.024134174, 14:38:18.346
41580.390625, 31546.603516, 112877.828125, 64481.339844, 89119.796875, 73171.023438, 84674.953125, 100849.859375, 0.000, 0.000, 0.000,0.02372066,0.015833275,0.011701921,0.026494032,0.024134174, 14:38:18.346
41599.992188, 31559.589844, 112855.898438, 64601.324219, 89118.640625, 73142.414063, 84668.492188, 100837.656250, 0.000, 0.000, 0.000,0.02372066,0.015833275,0.011701921,0.026494032,0.024134174, 14:38:18.346
41655.714844, 31619.492188, 112845.148438, 64257.171875, 89172.687500, 72996.523438, 84667.757813, 100867.921875, 0.000, 0.000, 0.000,0.02372066,0.015833275,0.011701921,0.026494032,0.024134174, 14:38:18.347
41649.679688, 31617.546875, 112861.398438, 64081.421875, 89179.343750, 73007.968750, 84675.375000, 100887.078125, 0.000, 0.000, 0.000,0.02372066,0.015833275,0.011701921,0.026494032,0.024134174, 14:38:18.347
41599.523438, 31565.757813, 112890.390625, 64406.304688, 89138.531250, 73165.210938, 84683.828125, 100867.070313, 0.000, 0.000, 0.000,0.02372066,0.015833275,0.011701921,0.026494032,0.024134174, 14:38:18.347
41598.472656, 31566.652344, 112867.679688, 64613.035156, 89125.320313, 73177.617188, 84679.398438, 100847.695313, 0.000, 0.000, 0.000,0.02372066,0.015833275,0.011701921,0.026494032,0.024134174, 14:38:18.348
41665.906250, 31628.656250, 112851.648438, 64316.828125, 89170.445313, 73032.062500, 84674.554688, 100870.890625, 0.000, 0.000, 0.000,0.02372066,0.015833275,0.011701921,0.026494032,0.024134174, 14:38:18.348
41671.160156, 31631.650391, 112876.015625, 64084.328125, 89186.968750, 73000.773438, 84680.789063, 100892.039063, 0.000, 0.000, 0.000,0.02372066,0.015833275,0.011701921,0.026494032,0.024134174, 14:38:18.348
41601.757813, 31564.775391, 112892.554688, 64359.566406, 89154.312500, 73141.765625, 84684.406250, 100866.890625, 0.260, 0.304, 0.908,0.02372066,0.015833275,0.011701921,0.026494032,0.024134174, 14:38:18.349
41585.910156, 31548.501953, 112882.656250, 64637.753906, 89137.054688, 73190.312500, 84683.875000, 100846.062500, 0.000, 0.000, 0.000,0.02372066,0.015833275,0.011701921,0.026494032,0.024134174, 14:38:18.349
41641.968750, 31597.900391, 112854.531250, 64415.648438, 89160.437500, 73054.390625, 84679.578125, 100863.023438, 0.000, 0.000, 0.000,0.02372066,0.015833275,0.011701921,0.026494032,0.024134174, 14:38:18.349
41684.394531, 31645.576172, 112878.335938, 64107.527344, 89198.609375, 72987.742188, 84684.742188, 100893.804688, 0.000, 0.000, 0.000,0.02372066,0.015833275,0.011701921,0.026494032,0.024134174, 14:38:18.350
41620.757813, 31590.546875, 112896.132813, 64286.476563, 89166.851563, 73117.070313, 84687.539063, 100885.335938, 0.000, 0.000, 0.000,0.02372066,0.015833275,0.011701921,0.026494032,0.024134174, 14:38:18.350
41582.265625, 31556.191406, 112871.414063, 64605.101563, 89120.578125, 73193.664063, 84677.343750, 100848.031250, 0.000, 0.000, 0.000,0.02372066,0.015833275,0.011701921,0.026494032,0.024134174, 14:38:18.350
41630.503906, 31603.220703, 112846.687500, 64473.648438, 89141.906250, 73075.828125, 84674.750000, 100852.562500, 0.000, 0.000, 0.000,0.02372066,0.015833275,0.011701921,0.026494032,0.024134174, 14:38:18.350
41660.410156, 31640.972656, 112860.906250, 64132.496094, 89206.460938, 72976.117188, 84683.851563, 100888.820313, 0.000, 0.000, 0.000,0.02372066,0.015833275,0.011701921,0.026494032,0.024134174, 14:38:18.351
41616.914063, 31595.507813, 112880.015625, 64218.972656, 89164.835938, 73077.546875, 84677.031250, 100876.820313, 0.000, 0.000, 0.000,0.02372066,0.015833275,0.011701921,0.026494032,0.024134174, 14:38:18.351
41571.203125, 31549.351563, 112871.257813, 64575.953125, 89120.578125, 73187.296875, 84672.898438, 100843.734375, 0.258, 0.304, 0.908,0.02372066,0.015833275,0.011701921,0.026494032,0.024134174, 14:38:18.351
41620.800781, 31592.111328, 112849.125000, 64526.710938, 89131.515625, 73100.281250, 84666.859375, 100847.398438, 0.000, 0.000, 0.000,0.02372066,0.015833275,0.011701921,0.026494032,0.024134174, 14:38:18.352
41673.640625, 31641.619141, 112861.148438, 64162.402344, 89174.132813, 72977.210938, 84669.500000, 100877.820313, 0.000, 0.000, 0.000,0.02372066,0.015833275,0.011701921,0.026494032,0.024134174, 14:38:18.352
41650.617188, 31611.646484, 112883.101563, 64166.828125, 89175.992188, 73056.273438, 84677.523438, 100882.289063, 0.000, 0.000, 0.000,0.02372066,0.015833275,0.011701921,0.026494032,0.024134174, 14:38:18.353
41602.898438, 31567.859375, 112887.304688, 64521.257813, 89134.640625, 73191.992188, 84681.750000, 100858.914063, 0.000, 0.000, 0.000,0.02372066,0.015833275,0.011701921,0.026494032,0.024134174, 14:38:18.354
